 EXG Channel 0, EXG Channel 1, EXG Channel 2, EXG Channel 3
-5912.572850295645,-19277.28435722403,-29928.02470064458,-11448.764675708377
-5911.969353195353,-19263.426275661743,-29924.314311065,-11450.999850153908
-5898.64771349999,-19255.223185446644,-29936.384253070864,-11463.36036483769
-5882.3979952809805,-19252.988011001115,-29937.792412971547,-11464.79087648283
-5912.058760173173,-19275.85384557889,-29936.786584471058,-11464.924986949562
-5940.289013420226,-19284.571025916463,-29935.19961061473,-11457.41480081258
-5941.8536355320975,-19276.457342679187,-29935.08785189245,-11453.637355999632
-5930.320135393159,-19267.449589663694,-29942.4192240738,-11455.917233934071
-5913.779844496232,-19258.75476107058,-29952.365750356406,-11459.672327002563
-5934.812836028676,-19271.69642111021,-29949.03534043257,-11455.626661256154
-5976.320025482181,-19294.606959176894,-29948.096567165445,-11461.952204937006
-5981.37151972908,-19286.470924195164,-29946.911924709315,-11454.151446122103
-5959.89149330753,-19266.555519885485,-29948.1189189099,-11455.872530445164
-5948.290937935226,-19260.0958657379,-29950.33174161097,-11458.152408379605
-5977.169391771483,-19281.1512090148,-29941.59220952895,-11461.102838647705
-6004.349113029136,-19290.91892134177,-29936.20543911522,-11459.22529211346
-6009.445310764946,-19284.928653827745,-29939.58055252797,-11454.084390888738
-5996.034264091762,-19273.90924381128,-29943.44740431874,-11454.352611822202
-5982.153830785016,-19268.47776990864,-29941.3686920844,-11454.196149611014
-6009.691179953955,-19286.649738150805,-29932.31623558,-11455.64901300061
-6036.267404111315,-19296.417450477773,-29940.38521532836,-11464.36619333818
-6038.077895412194,-19288.05789805149,-29932.182125113264,-11451.625698998654
-6026.946726673452,-19277.507874668583,-29936.49601179314,-11450.239890842426
-6005.779624674276,-19265.057953006977,-29932.763270469102,-11443.422608783558
-6031.774703475798,-19283.29697648251,-29939.692311250248,-11454.374963566655
-6070.711442316943,-19298.764383645583,-29945.07908166398,-11458.018297912871
-6079.652140099066,-19296.43980222223,-29942.575686284985,-11459.895844447115
-6062.217779423926,-19282.02292704856,-29932.718566980195,-11452.720934476964
-6049.298471128759,-19277.70904036868,-29935.534886781563,-11444.719009961964
-6071.784326050798,-19290.941273086224,-29927.532962266563,-11441.88033841614
-6103.613210155155,-19300.28430226854,-29922.593226741938,-11440.6509924711
-6107.0330270568165,-19288.68374689624,-29926.057747132512,-11439.55575699279
-6091.96795129394,-19276.166770001262,-29931.422165801785,-11435.73360869093
-6077.349910420169,-19272.255214721587,-29938.462965305207,-11438.415818025567
-6101.243925242892,-19288.661395151783,-29928.20351460022,-11435.577146479744
-6132.73753318042,-19302.363014502887,-29928.15881111131,-11435.130111590635
-6151.758867711887,-19310.700215184715,-29937.74770948264,-11439.443998270512
-6136.872605904652,-19293.1540957873,-29936.49601179314,-11434.526614490343
-6112.464500959457,-19281.128857270345,-29943.69327350775,-11442.796759938808
-6129.496530234401,-19299.54669470152,-29941.07811940648,-11450.5528152648
-6161.750097483408,-19312.15307857431,-29936.943046682245,-11448.16117860808
-6164.074678906761,-19299.85961912389,-29927.465907033195,-11445.635431484632
-6153.390545057124,-19285.040412550024,-29929.00817740061,-11452.139789121127
-6132.581070969233,-19277.127895012844,-29931.623331501884,-11452.296251332316
-6151.557702011789,-19300.28430226854,-29934.19378211424,-11456.565434523278
-6181.620798304177,-19317.91982864378,-29924.761345954103,-11451.133960620638
-6190.807365275307,-19317.495145499128,-29925.566008754497,-11454.084390888738
-6178.111574424694,-19311.75074717412,-29930.48339253466,-11461.348707836712
-6150.238949088925,-19300.59722669092,-29933.120898380388,-11464.07562066026
-6163.895864951118,-19312.734223930147,-29928.561142511506,-11462.17572238156
-6191.74613854243,-19321.29494205653,-29928.69525297824,-11455.425495556055
-6198.98810374595,-19317.718662943684,-29929.857543689915,-11450.888091431629
-6184.75004252792,-19307.68272968325,-29931.221000101687,-11448.719972219464
-6165.482838807445,-19303.413546492284,-29934.238485603157,-11452.78798971033
-6181.956074471006,-19316.176392576264,-29928.18116285577,-11452.296251332316
-6222.010400534917,-19335.4659480412,-29922.839095930947,-11451.156312365094
-6238.126008287193,-19331.420282294785,-29923.174372097776,-11447.73649546343
-6237.678973398087,-19323.10543335741,-29929.030529145068,-11448.831730941742
-6224.871423825196,-19319.08211935545,-29937.412433315807,-11455.067867644771
-6243.71394440102,-19333.27547708457,-29932.852677446925,-11454.352611822202
-6280.6613779856425,-19340.45038705473,-29938.17239262729,-11457.370097323668
-6299.4368433281,-19330.660322983305,-29939.9158286948,-11454.062039144284
-6290.250276356969,-19310.096718084424,-29945.839040975457,-11451.826864698753
-6276.034566883393,-19306.185162804744,-29949.97411369969,-11457.995946168418
-6292.686616502598,-19323.820689179985,-29941.748671740137,-11459.761733980386
-6324.58255584032,-19338.148157375832,-29948.856526476924,-11471.228178885958
-6327.197709941592,-19325.00533163611,-29937.45713680472,-11457.481856045944
-6314.568974324343,-19310.63315995135,-29936.585418770963,-11457.481856045944
-6291.323160090824,-19301.983034847144,-29938.574724027483,-11463.516827048878
-6301.895535218184,-19315.57289547597,-29937.50184029363,-11464.187379382538
-6329.9693262540495,-19327.464023526198,-29939.692311250248,-11468.389507340136
-6325.007238984971,-19316.243447809637,-29935.668997248293,-11458.89001594663
-6291.077290901815,-19296.43980222223,-29934.99844491464,-11457.638318257132
-6239.668278654609,-19277.19495024621,-29933.232657102664,-11460.544045036322
-6228.917089571606,-19286.11329628388,-29935.87016294839,-11463.740344493432
-6248.631328181187,-19304.68759592624,-29940.04993916153,-11462.443943315024
-6248.363107247724,-19302.16184880279,-29948.40949158782,-11467.160161395092
-6230.1240837721925,-19293.48937195413,-29951.9187154673,-11469.88707421864
-6194.94243799954,-19284.90630208329,-29954.60092480194,-11470.98230969695
-6192.975484487472,-19297.132706300345,-29943.335645596464,-11462.801571226308
-6212.197984719037,-19301.759517402592,-29924.716642465195,-11443.73553320593
-6215.304877198324,-19290.158962030288,-29922.772040697582,-11446.998887896409
-6194.830679277263,-19274.62449963385,-29928.18116285577,-11454.956108922495
-6167.203923130503,-19268.14249374181,-29939.11116589441,-11465.975518938962
-6164.320548095769,-19277.932557813238,-29936.54071528205,-11461.616928770176
-6191.433214120057,-19294.450496965703,-29934.529058281078,-11462.086315403738
-6201.156222958115,-19293.265854509576,-29932.02566290208,-11456.498379289911
-6184.213600660993,-19283.319328226964,-29936.40660481532,-11457.034821156838
-6159.671385249065,-19279.63129039184,-29944.22971537468,-11464.36619333818
-6156.877417192151,-19288.594339918414,-29934.663168747804,-11458.755905479897
-6180.503211081411,-19304.86640988188,-29935.69134899275,-11454.576129266756
-6184.4594698500005,-19306.54279071603,-29939.245276361144,-11451.133960620638
-6167.181571386048,-19295.09869755491,-29942.083947906965,-11451.201015854003
-6137.029068115839,-19280.23478749213,-29951.24816313364,-11457.437152557037
-6132.40225701359,-19290.49423819712,-29951.9187154673,-11463.6062340267
-6155.491609035923,-19310.63315995135,-29950.68936952226,-11464.165027638082
-6155.715126480476,-19307.86154363889,-29942.97801768518,-11459.582920024744
-6135.531501237333,-19291.321252741964,-29936.943046682245,-11460.097010147216
-6104.954314822473,-19279.318365969462,-29941.07811940648,-11466.199036383514
-6097.578239152222,-19290.8518661084,-29950.622314288896,-11470.98230969695
-6114.92319284954,-19304.553485459503,-29952.365750356406,-11463.628585771154
-6122.098102819694,-19302.452421480702,-29952.83513698997,-11461.683984003545
-6107.748282879386,-19294.71871789917,-29963.988657473168,-11466.713126505989
-6070.554980105756,-19276.41263919028,-29960.54648882705,-11462.667460759576
-6061.636634068088,-19279.81010434748,-29950.354093355432,-11457.303042090303
-6084.189544223493,-19295.38927023283,-29948.677712521283,-11456.252510100903
-6093.644332128088,-19295.18810453273,-29943.425052574286,-11455.537254278332
-6075.5841226082,-19282.648775893304,-29943.760328741115,-11457.45950430149
-6041.430657080491,-19264.923842540247,-29941.88278220687,-11458.21946361297
-6032.087627898172,-19266.555519885485,-29934.372596069887,-11455.246681600414
-6055.244035153871,-19280.480656681146,-29934.68552049226,-11454.531425777845
-6065.39172713658,-19281.19591250371,-29941.63691301786,-11456.878358945653
-6045.901005971552,-19263.64979310629,-29943.536811296563,-11456.207806611992
-6011.971057888396,-19246.41659813125,-29933.858505947414,-11442.483835516434
-6007.098377597139,-19257.74893257009,-29942.530982796077,-11447.580033252245
-6028.198424362949,-19278.13372351333,-29934.4172995588,-11448.138826863627
-6033.160511632027,-19275.71973511216,-29939.08881414996,-11453.615004255176
-6012.082816610672,-19256.40782790277,-29949.41532008831,-11458.599443268711
-5977.728185382865,-19238.168804427245,-29954.891497479857,-11459.31469909128
-5964.920635809975,-19243.220298674143,-29950.0188171886,-11459.068829902271
-5982.980845329863,-19262.66631635026,-29951.628142789385,-11465.12615264966
-5981.505630195812,-19263.225109961644,-29956.299657380543,-11469.618853285176
-5956.069345005673,-19255.37964765783,-29955.29382888005,-11466.333146850247
-5908.974219438341,-19240.2922201505,-29958.959514970724,-11465.908463705597
-5883.225009825827,-19246.10367370888,-29963.765140028616,-11473.172780653573
-5897.373664066036,-19270.66824086526,-29969.46483486472,-11482.64992030262
-5889.59525699559,-19269.81887457596,-29969.040151720063,-11482.64992030262
-5867.198809051372,-19264.879139051336,-29958.959514970724,-11480.504152834912
-5843.215387250828,-19267.136665241323,-29960.814709760514,-11483.298120891825
-5839.147369759961,-19279.54188341402,-29962.82636676149,-11480.54885632382
-5872.339710276093,-19301.312482513487,-29963.58632607297,-11474.93856846554
-5890.086995373606,-19307.883895383347,-29956.366712613908,-11468.948300951515
-5889.148222106483,-19304.68759592624,-29957.46194809222,-11471.339937608236
-5865.276559028216,-19289.309595740982,-29958.288962637063,-11469.395335840623
-5856.984061835296,-19295.38927023283,-29957.663113792318,-11473.03867018684
-5886.823640683132,-19326.569953747985,-29956.053788191533,-11477.531370822357
-5903.45333855788,-19339.377503320877,-29947.35895959842,-11475.139734165636
-5893.909143675464,-19329.22981133817,-29937.323026337985,-11466.26609161688
-5872.295006787183,-19312.28718904104,-29944.69910200824,-11466.958995694997
-5865.2542072837605,-19320.53498274505,-29954.60092480194,-11469.529446307355
-5895.518469276246,-19351.581555793477,-29951.42697708929,-11469.372984096168
-5912.125815406539,-19359.717590775203,-29950.935238711267,-11466.064925916782
-5900.726425734333,-19346.954744691226,-29948.297732865543,-11460.007603169395
-5875.245437055282,-19333.811918951506,-29950.59996254444,-11460.499341547413
-5859.040422325185,-19333.20842185121,-29947.761290998616,-11458.5547397798
-5892.411576796959,-19362.444503598752,-29949.147099154845,-11465.349670094212
-5916.104425919584,-19374.78266653808,-29948.14127065436,-11469.75296375191
-5917.892565476009,-19373.75448629313,-29954.064482935013,-11474.491533576434
-5890.645788984989,-19355.090779672955,-29947.694235765248,-11471.384641097146
-5881.906256902964,-19355.291945373054,-29947.33660785397,-11471.4069928416
-5905.4649955588575,-19370.334669391475,-29936.563067026505,-11469.88707421864
-5930.074266204151,-19380.772934052104,-29927.48825877765,-11467.942472451028
-5937.897376763508,-19381.68935557477,-29937.814764716004,-11471.4069928416
-5924.285164390227,-19386.137352721376,-29954.131538168374,-11475.475010332468
-5921.714713777866,-19418.2344577592,-29953.59509630145,-11475.229141143458
-5951.4201821589695,-19453.90784190987,-29943.89443920785,-11469.618853285176
-5972.207304502404,-19474.583205531027,-29936.67482574878,-11466.579016039255
-5974.621292903578,-19480.461714322773,-29942.039244418054,-11471.161123652591
-5958.885664807041,-19466.84950194949,-29935.73605248166,-11466.064925916782
-5949.967318769374,-19453.90784190987,-29936.473660048683,-11463.673289260065
-5981.28211275126,-19462.46856003625,-29937.412433315807,-11461.013431669884
-6009.020627620295,-19463.7426094702,-29933.813802458502,-11455.380792067146
-6014.47445326739,-19464.36845831495,-29940.072290905988,-11460.78991422533
-6000.303447282726,-19483.926234713344,-29953.10335792343,-11474.64799578762
-5991.89919136753,-19507.999063491712,-29956.1208434249,-11483.365176125191
-6019.257726580826,-19537.68218012836,-29949.19180264376,-11477.151391166615
-6040.67069776901,-19546.57817442157,-29939.513497294607,-11467.383678839646
-6043.107037914639,-19539.80559585161,-29941.43574731776,-11466.064925916782
-6029.248956352349,-19534.01649403769,-29953.63979979036,-11473.5080568204
-6015.569688745701,-19532.1612992479,-29952.388102100864,-11472.613987042188
-6041.497712313857,-19545.170014520885,-29946.35313109793,-11465.439077072037
-6071.829029539708,-19545.52764243217,-29947.31425610951,-11463.472123559968
-6072.454878384457,-19519.01847350818,-29954.377407357384,-11471.854027730707
-6054.394668864568,-19484.32856611354,-29960.30061963804,-11478.648958045122
-6036.200348877949,-19463.58614725901,-29960.30061963804,-11478.023109200372
-6066.308148659247,-19477.95831894378,-29956.21025040272,-11474.357423109705
-6095.477175173423,-19484.9991184472,-29955.383235857877,-11474.849161487718
-6096.371244951635,-19476.72897299873,-29954.444462590756,-11474.960920209996
-6077.036985997795,-19460.747475713197,-29954.53386956857,-11473.575112053766
-6060.921378245518,-19458.579356501028,-29950.354093355432,-11464.656766016098
-6087.207029724959,-19475.90195845389,-29932.651511746823,-11455.939585678529
-6115.012599827362,-19485.89318822541,-29930.371633812385,-11459.404106069102
-6127.015486599861,-19495.660900552382,-29942.4192240738,-11465.908463705597
-6119.5947074407,-19496.219694163763,-29951.87401197839,-11469.954129452006
-6101.06511128725,-19486.98842370372,-29953.393930601356,-11467.428382328557
-6122.701599919988,-19499.818325021068,-29948.63300903237,-11462.779219481852
-6150.238949088925,-19504.82511577906,-29953.19276490125,-11464.634414271644
-6153.614062501677,-19495.102106941,-29951.158756155823,-11464.097972404716
-6135.151521581593,-19480.1487899004,-29955.96438121371,-11465.193207883029
-6116.35370449468,-19472.839769463517,-29960.524137082597,-11468.74713525142
-6146.483856020433,-19500.13124944344,-29956.16554691381,-11466.690774761531
-6175.205847645503,-19516.62683685146,-29950.935238711267,-11460.208768869492
-6179.855010492207,-19512.983502505245,-29948.36478809891,-11456.453675801002
-6165.214617873981,-19498.633682564938,-29951.158756155823,-11455.35844032269
-6143.511074007878,-19483.255682379688,-29951.09170092245,-11458.420629313068
-6165.594597529722,-19502.277016911157,-29951.69519802275,-11466.020222427873
-6193.89190601014,-19516.492726384728,-29955.74086376916,-11466.5566642948
-6196.104728711215,-19511.038900737636,-29963.65338130634,-11471.6081585417
-6173.8870947226405,-19501.15942968839,-29967.766102286118,-11474.64799578762
-6150.261300833381,-19499.9524354878,-29966.4249976188,-11476.74905976642
-6164.275844606858,-19515.3080839286,-29960.993523716155,-11475.631472543657
-6187.789879773842,-19524.807575322106,-29960.47943359369,-11472.569283553275
-6183.431289605056,-19519.756081075204,-29961.887593494368,-11475.743231265931
-6157.950300926006,-19505.540371601623,-29956.63493354737,-11474.17860915406
-6126.389637755113,-19490.0506126941,-29949.08004392148,-11465.103800905204
-6140.270071061858,-19510.77067980417,-29948.297732865543,-11468.009527684397
-6162.59946377271,-19528.540316646136,-29947.671884020798,-11473.262187631391
-6154.038745646328,-19521.81244156509,-29950.4211485888,-11472.010489941897
-6122.835710386719,-19504.66865356787,-29950.108224166423,-11464.902635205108
-6085.754166335365,-19487.9495487153,-29942.19570662924,-11453.480893788445
-6093.130242005616,-19503.43930762283,-29941.54750604004,-11452.050382143305
-6111.5927829257,-19520.71720608678,-29940.698139750737,-11454.17379786656
-6107.211841012459,-19515.129269972957,-29940.22875311717,-11455.760771722886
-6082.624922111621,-19500.935912243836,-29940.809898473013,-11460.946376436515
-6054.394668864568,-19497.09141219752,-29941.703968251222,-11466.26609161688
-6075.405308652557,-19524.606409622003,-29940.22875311717,-11465.997870683415
-6093.286704216803,-19527.735653845742,-29934.953741425725,-11455.760771722886
-6084.68128260151,-19513.0058542497,-29933.25500884712,-11449.41287629758
-6058.172113677516,-19500.1536011879,-29932.942084424747,-11447.73649546343
-6030.008915663829,-19495.347976130008,-29933.09854663593,-11450.329297820246
-6038.077895412194,-19513.832868794547,-29936.786584471058,-11459.426457813555
-6062.955386990951,-19535.9610958053,-29933.34441582494,-11462.22042587047
-6064.967043991929,-19534.66469462689,-29927.93529366676,-11458.64414675762
-6047.108000172138,-19519.86783979748,-29931.645683246337,-11457.101876390205
-6020.867052181608,-19508.468450125278,-29939.08881414996,-11461.862797959186
-6028.421941807502,-19519.644322352928,-29939.200572872232,-11462.399239826113
-6049.477285084401,-19528.87559281297,-29937.032453660067,-11459.64997525811
-6046.057468182739,-19522.52769738766,-29937.30067459353,-11461.907501448097
-6025.896194684052,-19515.375139161963,-29940.854601961924,-11464.723821249465
-5992.636798934555,-19500.310063399087,-29939.82642171698,-11456.610138012187
-5997.7329966703655,-19510.56951410407,-29938.97705542768,-11456.811303712286
-6023.392799305057,-19530.7084358583,-29943.760328741115,-11462.332184592746
-6018.09543586915,-19526.461604411797,-29943.536811296563,-11459.068829902271
-5990.915714611497,-19508.736671058738,-29946.464889820207,-11462.689812504032
-5966.708775366399,-19504.020452978668,-29947.78364274307,-11467.4060305841
-5980.790374373242,-19526.19338347833,-29941.323988595486,-11462.913329948584
-6009.467662509402,-19544.611220909504,-29936.384253070864,-11458.97942292445
-6014.228584078382,-19540.051465040626,-29933.992616414147,-11459.404106069102
-5997.464775736902,-19522.77356657667,-29937.993578671645,-11462.242777614923
-5960.271472963271,-19500.53358084364,-29938.842944960947,-11462.153370637105
-5967.08875502214,-19513.51994437217,-29932.20447685772,-11465.662594516589
-6001.890421139053,-19534.128252759965,-29925.25308433212,-11460.186417125036
-6017.804863191231,-19539.090340029044,-29933.813802458502,-11465.79670498332
-6003.410339762014,-19530.931953302857,-29933.120898380388,-11462.958033437497
-5976.677653393466,-19515.129269972957,-29929.768136712093,-11459.046478157816
-5986.4677174648905,-19520.694854342324,-29922.88379941986,-11454.665536244576
-6017.670752724499,-19537.03397953916,-29918.748726695627,-11446.93183266304
-6027.751389473843,-19531.7589678477,-29920.69332846324,-11446.395390796111
-6018.855395180631,-19518.683197341343,-29925.09662212093,-11447.35651580769
-6000.638723449555,-19506.23327567974,-29922.369709297385,-11447.26710882987
-6005.824328163187,-19508.06611872508,-29919.48633426265,-11447.714143718977
-6034.76983723281,-19516.358615917998,-29917.38527028385,-11444.517844261867
-6055.244035153871,-19523.19824972132,-29919.77690694057,-11443.959050650485
-6058.552093333256,-19524.114671243988,-29926.482430277163,-11455.26903334487
-6035.976831433396,-19505.51801985717,-29925.29778782103,-11451.73745772093
-6041.654174525043,-19513.72111007227,-29919.531037751563,-11447.088294874227
-6075.070032485728,-19529.09911025752,-29917.34056679494,-11445.993059395918
-6088.861058814652,-19528.42855792386,-29918.569912739986,-11446.574204751756
-6083.96602677894,-19520.42663340886,-29918.055822617516,-11446.104818118194
-6063.91651200253,-19508.647264080915,-29919.285168562557,-11450.418704798069
-6080.657968599555,-19526.93099104536,-29924.1131453649,-11454.978460666953
-6121.181681297026,-19551.562613435104,-29931.31040707951,-11460.633452014144
-6137.386696027123,-19550.10975004551,-29928.20351460022,-11454.419667055568
-6135.956184381984,-19541.504328430216,-29927.734127966654,-11450.485760031434
-6115.839614372208,-19524.82992706656,-29931.243351846144,-11446.753018707395
-6123.483910975923,-19531.066063769587,-29931.53392452406,-11446.328335562746
-6158.93377768204,-19553.842491369545,-29930.818668701493,-11451.379829809646
-6174.98233020095,-19555.027133825675,-29930.25987509011,-11451.446885043011
-6169.8414289762295,-19546.46641569929,-29934.84198270345,-11453.41383855508
-6144.583957741733,-19536.85516558351,-29935.847811203937,-11453.972632166462
-6149.434286288534,-19552.65784891341,-29931.08688963496,-11454.777294966852
-6177.642187791132,-19559.7657036502,-29912.69140394824,-11445.993059395918
-6186.381719873157,-19547.78516862216,-29906.29880503402,-11440.002791881894
-6171.294292365825,-19536.072854527574,-29913.94310163773,-11441.254489571393
-6141.745286195909,-19524.472299155277,-29922.190895341744,-11437.07471335825
-6136.5596814822775,-19531.71426435879,-29925.275436076576,-11434.101931345696
-6160.74426898292,-19548.96981107829,-29925.76717445459,-11428.759864420876
-6168.008585930895,-19552.65784891341,-29930.93042742377,-11430.100969088197
-6154.351670068702,-19545.52764243217,-29924.426069787278,-11428.581050465233
-6128.02131510035,-19538.129215017463,-29930.282226834566,-11437.253527313893
-6121.069922574749,-19546.73463663276,-29926.39302329934,-11439.55575699279
-6145.366268797668,-19568.8181601546,-29921.11801160789,-11440.583937237732
-6154.4634287909785,-19574.0708201016,-29925.20838084321,-11442.863815172172
-6139.957146639485,-19563.185520551862,-29924.448421531728,-11439.801626181796
-6108.083559046217,-19549.170976778387,-29923.44259303124,-11441.992097138418
-6105.669570645043,-19556.703514659825,-29919.531037751563,-11437.633506969632
-6127.194300555504,-19571.567424722605,-29914.591302226934,-11433.36432377867
-6132.715181435965,-19570.338078777564,-29913.87604640437,-11430.615059210666
-6117.471291717446,-19556.88232861547,-29911.104430091917,-11429.87745164364
-6086.670587858032,-19540.20792725181,-29912.44553475923,-11432.380847022636
-6081.507334888856,-19542.040770297142,-29910.992671369637,-11430.056265599284
-6109.424663713535,-19560.97269785079,-29916.60295922792,-11426.614096953166
-6116.979553339428,-19566.35946826452,-29919.44163077374,-11425.898841130596
-6097.578239152222,-19550.53443319016,-29911.462058003195,-11425.161233563573
-6070.979663250407,-19542.30899123061,-29916.33473829445,-11432.336143533725
-6069.482096371901,-19558.55870944961,-29919.799258685027,-11434.236041812426
-6093.621980383633,-19574.048468357145,-29914.05486036001,-11430.92798363304
-6097.712349618954,-19563.7666659077,-29910.500932991617,-11427.485814986923
-6086.759994835854,-19553.2166425248,-29908.645738201827,-11429.430416754534
-6059.177942178005,-19540.00676155171,-29907.68461319025,-11425.809434152776
-6050.371354862614,-19549.48390120076,-29915.10539234941,-11428.849271398696
-6075.114735974638,-19574.7190206908,-29920.425107529773,-11432.760826678375
-6085.798869824275,-19581.73746844977,-29918.614616228893,-11430.860928399674
-6063.849456769163,-19566.7170961758,-29915.463020260697,-11427.374056264647
-6029.360715074625,-19551.31674424609,-29920.98390114116,-11429.922155132552
-6019.972982403396,-19559.005744338723,-29924.001386642623,-11434.683076701533
-6039.463703568424,-19577.58004398108,-29919.2628168181,-11430.771521421852
-6047.19740714996,-19581.89393066096,-29923.666110475795,-11432.693771445009
-6038.524930301301,-19580.35166029354,-29929.34345356744,-11440.427475026543
-6016.396703290547,-19573.80259916813,-29937.97122692719,-11451.893919932118
-6004.036188606762,-19580.55282599364,-29938.664131005306,-11454.397315311113
-6024.33157257218,-19599.70827099184,-29928.40468030032,-11441.12037910466
-6037.250880867348,-19600.244712858763,-29929.00817740061,-11440.06984711526
-6023.593965005156,-19590.633462742982,-29929.92459892328,-11438.751094192396
-5989.798127388732,-19577.0212503697,-29928.82936344497,-11435.532442990834
-5978.912827838997,-19584.799657440148,-29931.53392452406,-11445.143693106616
-5998.3811972595695,-19600.714099492325,-29933.21030535821,-11445.45661752899
-6010.227621820882,-19606.749070495254,-29940.45227056173,-11451.089257131727
-5995.609580947111,-19596.243750601265,-29932.472697791185,-11446.283632073835
-5966.664071877489,-19587.43716328587,-29936.89834319333,-11447.73649546343
-5949.7214495803655,-19591.438125543373,-29934.99844491464,-11447.445922785511
-5968.742784111832,-19610.48181181929,-29927.13063086637,-11445.478969273445
-5978.711662138899,-19616.27091363322,-29930.572799512483,-11448.116475119172
-5968.653377134011,-19608.26898911822,-29931.600979757422,-11443.891995417118
-5941.406600642991,-19592.511009277227,-29932.942084424747,-11445.300155317802
-5925.98389696883,-19598.031890157687,-29941.25693336212,-11455.78312346734
-5947.419219901469,-19622.060015447143,-29935.378424570376,-11450.84338794272
-5956.695193850422,-19622.55175382516,-29927.465907033195,-11442.17091109406
-5942.41242914348,-19610.16888739692,-29933.83615420296,-11445.970707651462
-5915.433873585925,-19599.484753547284,-29927.600017499928,-11441.12037910466
-5898.938286177908,-19598.322462835607,-29928.87406693388,-11440.092198859717
-5916.864385231064,-19611.80056474216,-29918.97224414018,-11436.270050557858
-5926.989725469319,-19612.15819265344,-29915.217151071687,-11429.922155132552
-5924.12870217904,-19614.750995010258,-29929.835191945454,-11440.405123282091
-5894.289123331204,-19599.64121575847,-29933.41147105831,-11442.975573894451
-5870.059832341652,-19594.567369767115,-29926.72829946617,-11443.355553550193
-5879.78284117971,-19604.93857919438,-29918.72637495117,-11442.327373305248
-5891.763376207755,-19616.36032061104,-29920.313348807496,-11439.73457094843
-5882.710919703355,-19610.01242518573,-29923.35318605342,-11438.259355814382
-5852.156085032951,-19594.00857615573,-29917.49702900613,-11436.828844169242
-5832.240680723272,-19594.29914883365,-29916.91588365029,-11438.684038959032
-5850.591462921079,-19615.39919559946,-29917.608787728404,-11440.114550604172
-5865.231855539305,-19624.09402419257,-29920.1121831074,-11447.714143718977
-5860.090954314584,-19615.130974666,-29920.045127874037,-11452.340954821224
-5828.574994632601,-19591.70634647684,-29913.45136325972,-11450.374001309156
-5804.904497254432,-19584.240863828763,-29908.77984866856,-11449.21171059748
-5818.203785205339,-19600.043547158664,-29907.215226556687,-11447.31181231878
-5838.700334870856,-19615.04156768817,-29906.43291550075,-11445.344858806711
-5838.096837770562,-19612.98520719829,-29909.450401002217,-11446.373039051658
-5815.34276191506,-19600.64704425896,-29914.05486036001,-11445.009582639885
-5793.840383749054,-19599.26123610273,-29918.569912739986,-11438.102893603194
-5813.487567125269,-19611.286474619686,-29909.696270191227,-11428.134015576126
-5832.665363867923,-19619.10958517904,-29905.94117712273,-11424.155405063082
-5828.82086382161,-19612.806393242645,-29908.06459284599,-11422.859003884674
-5803.630447820478,-19598.0765936466,-29912.266720803585,-11420.601477694689
-5777.747127741233,-19591.505180776738,-29915.10539234941,-11423.171928307049
-5791.024063947686,-19609.54303855217,-29915.127744093865,-11425.183585308028
-5818.136729971973,-19624.13872768149,-29914.47954350466,-11428.31282953177
-5817.443825893859,-19621.36711136903,-29914.568950482484,-11435.197166824004
-5789.973531958286,-19601.25054135925,-29909.78567716905,-11434.347800534702
-5767.062993891596,-19591.102849376544,-29911.97614812567,-11431.062094099772
-5786.62077028999,-19608.8277827296,-29916.178276083265,-11435.353629035191
-5813.15229095844,-19630.28545740669,-29918.279340062065,-11443.869643672662
-5810.738302557266,-19627.11150969404,-29919.21811332919,-11443.489664016925
-5792.096947681541,-19615.734471766293,-29927.801183200027,-11444.339030306224
-5771.9803776717645,-19609.677149018906,-29932.98678791366,-11444.808416939786
-5787.112508668007,-19624.45165210386,-29930.93042742377,-11439.98044013744
-5806.24560192175,-19626.820937016124,-29924.82840118747,-11430.816224910765
-5807.38554088897,-19620.204820657356,-29929.05288088952,-11437.745265691909
-5788.498316824236,-19612.69463452037,-29931.0645378905,-11438.192300581017
-5764.626653745968,-19609.78890774118,-29931.511572779607,-11437.320582547258
-5782.306883610116,-19629.905477750955,-29928.427032044776,-11441.947393649509
-5801.887011752965,-19634.576992342118,-29914.25602606011,-11436.515919746867
-5801.2164594193055,-19626.664474804937,-29915.172447582776,-11436.158291835582
-5780.80931673161,-19614.818050243623,-29918.569912739986,-11434.280745301336
-5758.792848443133,-19609.721852507813,-29911.238540558643,-11432.045570855806
-5780.406985331415,-19629.14551843948,-29902.92369162127,-11427.575221964744
-5796.254372150228,-19632.31946615213,-29892.574833938463,-11416.73462590392
-5793.52745932668,-19626.17273642692,-29900.15207530881,-11418.5451172048
-5769.924017181876,-19612.627579287004,-29905.382383511354,-11423.149576562591
-5743.951290124809,-19604.580951283093,-29909.025717857567,-11427.731684175931
-5755.350679797016,-19621.16594566893,-29911.88674114785,-11427.97755336494
-5773.969682928287,-19631.33598939609,-29904.421258499773,-11416.26523927036
-5775.958988184809,-19627.759710283248,-29906.902302134316,-11415.058245069771
-5759.217531587784,-19618.528439823203,-29914.658357460303,-11425.585916708222
-5722.89594684791,-19599.59651226956,-29905.784714911548,-11419.997980594397
-5744.398325013915,-19620.29422763517,-29906.79054341204,-11421.808471895274
-5771.868618949487,-19635.24754467577,-29904.64477594433,-11420.02033233885
-5773.790868972644,-19635.94044875389,-29909.49510449113,-11426.301172530792
-5754.143685596429,-19627.3350271386,-29914.99363362713,-11438.482873258934
-5728.461531217281,-19623.803451514657,-29914.166619082287,-11438.50522500339
-5740.889101134432,-19639.40496914446,-29913.20549407071,-11435.800663924298
-5759.485752521247,-19641.17075695643,-29902.29784277652,-11429.095140587706
-5755.149514096918,-19628.78789052819,-29901.448476487218,-11431.062094099772
-5743.034868602142,-19622.46234684734,-29907.125819578865,-11440.002791881894
-5722.203042769796,-19618.95312296785,-29917.29586330603,-11450.17283560906
-5734.317688264571,-19632.40887312995,-29919.240465073643,-11450.955146664995
-5763.777287456666,-19645.685809336403,-29917.027642372566,-11451.379829809646
-5766.414793302392,-19637.14744295448,-29911.35029928092,-11446.50714951839
-5746.857016903999,-19616.606189800048,-29909.33864227994,-11438.21465232547
-5723.097112548007,-19604.84917221656,-29916.33473829445,-11437.03000986934
-5739.413886000381,-19623.289361392184,-29916.89353190584,-11435.68890520202
-5767.018290402686,-19634.800509786663,-29911.73027893666,-11432.537309233823
-5768.672319492379,-19627.9832277278,-29908.399869012817,-11433.610192967675
-5752.7578774402,-19615.01921594372,-29915.73124119416,-11442.573242494254
-5735.32351676506,-19608.93954145188,-29926.0130436436,-11458.599443268711
-5739.369182511471,-19611.912323464432,-29912.44553475923,-11453.279728088348
-5768.672319492379,-19623.40112011446,-29906.45526724521,-11448.518806519369
-5778.507087052713,-19616.40502409995,-29904.22009279968,-11446.484797773934
-5761.8103339446,-19596.31080583463,-29904.264796288586,-11440.092198859717
-5729.489711462225,-19578.228244570284,-29902.96839511018,-11433.721951689951
-5738.072781333063,-19593.673299988903,-29905.427087000266,-11436.091236602217
-5769.4546305483145,-19616.047396188664,-29904.71183117769,-11439.891033159618
-5787.894819723942,-19619.93659972389,-29916.73706969465,-11448.116475119172
-5776.674244007379,-19607.374919340007,-29926.795354699538,-11448.429399541546
-5740.665583689879,-19587.906549919437,-29916.759421439103,-11435.30892554628
-5745.672374447868,-19594.142686622465,-29914.837171415948,-11431.263259799867
-5770.57221777108,-19606.59260828407,-29915.708889449703,-11431.352666777691
-5777.322444596583,-19610.83943973058,-29922.146191852837,-11434.50426274589
-5771.287473593649,-19612.73933800928,-29928.471735533683,-11434.794835423809
-5743.750124424711,-19598.41186981343,-29925.25308433212,-11428.536346976322
-5751.036793117141,-19609.94536995237,-29920.313348807496,-11430.5480039773
-5783.178601643873,-19632.230059174308,-29920.24629357413,-11439.511053503878
-5795.159136671918,-19636.11926270953,-29922.50381976412,-11444.339030306224
-5776.003691673719,-19618.997826456765,-29926.325968065976,-11442.953222149996
-5752.4896565067365,-19613.09696592057,-29924.671938976284,-11439.26518431487
-5764.671357234879,-19633.19118418589,-29921.408584285808,-11435.21951856846
-5794.510936082714,-19650.17850997192,-29924.560180254008,-11432.939640634018
-5798.064863451107,-19647.116320981542,-29927.108279121912,-11436.202995324493
-5780.697558009334,-19633.481756863806,-29922.190895341744,-11438.482873258934
-5754.166037340884,-19620.629503802003,-29929.58932275645,-11441.232137826935
-5750.366240783482,-19629.05611146165,-29928.963473911703,-11434.727780190442
-5778.104755652518,-19645.93167852541,-29925.29778782103,-11434.683076701533
-5787.112508668007,-19645.954030269862,-29924.09079362045,-11435.21951856846
-5771.153363126918,-19632.140652196485,-29926.2142093437,-11433.230213311936
-5745.024173858664,-19616.717948522324,-29930.326930323477,-11434.191338323517
-5744.9794703697535,-19619.55662006815,-29930.662206490302,-11433.45373075649
-5770.95219742682,-19636.074559220626,-29929.18699135625,-11428.782216165331
-5779.1999911308285,-19636.812166787644,-29930.081061134468,-11422.568431206755
-5769.007595659208,-19626.19508817137,-29932.58445651346,-11424.93771611902
-5742.587833713035,-19615.376843855007,-29934.64081700335,-11429.095140587706
-5744.532435480647,-19627.40208237196,-29932.807973958013,-11429.720989432451
-5776.897761451932,-19646.110492481053,-29932.249180346636,-11424.982419607928
-5788.721834268789,-19648.32331518213,-29935.64664550384,-11431.710294688975
-5774.372014328482,-19637.84034703259,-29940.04993916153,-11433.07375110075
-5742.610185457491,-19620.74126252428,-29939.02175891659,-11426.234117297428
-5741.246729045717,-19627.26797190523,-29933.09854663593,-11425.474157985946
-5768.113525880996,-19647.004562259262,-29933.03149140257,-11427.441111498012
-5780.876371964976,-19650.46908264984,-29930.63985474585,-11421.003809094884
-5773.254427105717,-19642.17658545692,-29930.52809602357,-11422.523727717844
-5749.740391938733,-19627.871469005524,-29929.74578496764,-11428.603402209688
-5757.339985053538,-19642.98124825731,-29936.22779085968,-11438.438169770025
-5789.1241656689845,-19665.55651015717,-29934.707872236715,-11440.941565149018
-5804.233944920772,-19660.862643821554,-29924.53782850955,-11428.581050465233
-5793.728625026778,-19646.28930643669,-29923.621406986884,-11425.205937052482
-5765.252502590716,-19628.56437308364,-29919.75455519612,-11422.322562017747
-5767.353566569515,-19637.102739465565,-29919.307520307008,-11426.435282997523
-5799.428319862881,-19658.895690309488,-29917.698194706227,-11425.07182658575
-5814.269878181205,-19659.40978043196,-29915.507723749608,-11419.64035268311
-5806.737340299766,-19649.70912333836,-29919.82161042948,-11422.121396317649
-5779.892895208943,-19635.04637897568,-29925.677767476773,-11419.30507651628
-5775.780174229166,-19635.761634798248,-29922.839095930947,-11414.074768313738
-5809.3748461454925,-19655.87820480802,-29914.09956384892,-11414.097120058192
-5828.530291143691,-19659.52153915424,-29911.73027893666,-11413.963009591462
-5821.489491640269,-19651.40785591696,-29912.758459181605,-11416.6452189261
-5795.941447727853,-19642.64597209048,-29910.188008569243,-11415.773500892345
-5793.996845960241,-19654.69356235189,-29915.999462127624,-11424.088349829715
-5825.6916195978665,-19679.70516439738,-29914.72541269367,-11418.45571022698
-5839.125018015507,-19679.70516439738,-29916.82647667247,-11416.242887525905
-5832.665363867923,-19671.479722437827,-29922.749688953125,-11420.73558816142
-5811.654724079934,-19662.98605954481,-29933.1656018693,-11429.810396410276
-5808.369017645004,-19669.110437525564,-29933.09854663593,-11433.520785989856
-5833.179453990395,-19683.504960954782,-29926.504782021617,-11429.765692921364
-5847.037535552685,-19686.27657726724,-29926.16950585479,-11426.815262653265
-5840.332012216093,-19677.112362040563,-29923.04026163105,-11425.138881819115
-5816.505052626736,-19663.92483281193,-29921.63210173036,-11423.104873073682
-5811.498261868747,-19664.32716421213,-29919.95572089621,-11423.998942851897
-5842.4777796838025,-19681.42624872044,-29918.793430184534,-11423.842480640707
-5856.1570472904505,-19679.235777763817,-29916.692366205734,-11422.277858528836
-5849.652689653956,-19669.021030547745,-29920.380404040865,-11430.59270746621
-5826.563337631624,-19657.53223389772,-29923.219075586687,-11435.152463335093
-5821.802416062644,-19665.13182701252,-29926.527133766074,-11437.991134880916
-5858.30281475816,-19692.75858315928,-29932.942084424747,-11445.300155317802
-5875.7371754333,-19700.89461814101,-29930.885723934854,-11443.69082971702
-5868.83048639661,-19693.965577359864,-29929.768136712093,-11436.761788935875
-5843.014221550729,-19680.733344642325,-29932.36093906891,-11437.097065102706
-5837.403933692448,-19686.544798200703,-29932.98678791366,-11434.951297634996
-5858.124000802517,-19701.07343209665,-29921.1627150968,-11424.73655041892
-5871.691509686889,-19699.66527219597,-29918.502857506617,-11420.02033233885
-5868.696375929878,-19691.618644192054,-29922.2132470862,-11420.668532928054
-5847.01518380823,-19684.42138247745,-29925.677767476773,-11419.819166638752
-5841.717820372322,-19695.150219816,-29931.15394486832,-11424.02129459635
-5868.338748018593,-19717.99370264932,-29926.99652039964,-11425.138881819115
-5882.576809236623,-19717.34550206012,-29920.089831362944,-11415.617038681155
-5874.507829488258,-19702.258074552785,-29917.25115981712,-11409.984399078416
-5849.540930931679,-19688.46704822386,-29917.94406389524,-11410.87846885663
-5830.877224311498,-19685.56132144467,-29918.949892395725,-11412.06311131276
-5852.44665771087,-19703.93445538693,-29909.20453181321,-11408.486832199913
-5868.562265463146,-19708.8518391671,-29912.333776036958,-11412.26427701286
-5863.175495049417,-19702.28042629724,-29911.305595792008,-11419.059207327273
-5849.049192553663,-19694.14439131551,-29910.523284736075,-11424.445977741
-5832.978288290297,-19688.578806946138,-29911.283244047558,-11428.31282953177
-5854.525369945213,-19706.61666472157,-29913.473715004173,-11431.01739061086
-5874.239608554793,-19716.29497007072,-29919.17340984028,-11431.263259799867
-5874.172553321428,-19714.998568892308,-29918.25698831761,-11429.586878965722
-5851.641994910478,-19696.826600650144,-29921.94502615273,-11428.983381865428
-5834.565262146623,-19687.215350534363,-29921.54269475254,-11429.83274815473
-5854.458314711847,-19696.42426924995,-29915.418316771786,-11428.201070809491
-5869.054003841163,-19692.646824437004,-29912.1102585924,-11425.094178330206
-5865.410669494948,-19686.65655692298,-29918.97224414018,-11424.133053318626
-5840.935509316387,-19676.620623662548,-29920.425107529773,-11421.763768406365
-5827.368000432015,-19684.197865032897,-29918.14522959533,-11425.697675430498
-5853.050154811162,-19711.288179312727,-29915.77594468307,-11423.21663179596
-5869.635149197001,-19715.602065992603,-29910.188008569243,-11412.35368399068
-5863.466067727336,-19702.61570246407,-29908.77984866856,-11408.129204288629
-5841.53900641668,-19687.438867978915,-29910.14330508033,-11413.717140402454
-5828.396180676959,-19684.51078945527,-29908.198703312723,-11417.807509637774
-5855.642957167978,-19701.47576349685,-29908.01988935708,-11417.651047426589
-5887.3824342945145,-19720.340635817127,-29921.20741858571,-11434.571317979256
-5891.763376207755,-19721.368816062077,-29928.963473911703,-11441.746227949408
-5871.803268409165,-19709.56709498967,-29938.39591007184,-11445.858948929186
-5854.167742033928,-19706.77312693276,-29938.954703683223,-11446.574204751756
-5871.870323642532,-19721.301760828705,-29927.063575633,-11432.850233656196
-5891.226934340827,-19725.61564750858,-29920.738031952147,-11426.122358575149
-5889.997588395785,-19714.03744388073,-29916.87118016138,-11423.50720447388
-5865.231855539305,-19690.813981391668,-29910.94796788073,-11415.438224725513
-5846.009355307741,-19685.76248714477,-29911.484409747653,-11412.331332246224
-5872.898503887475,-19708.538914744728,-29904.9577003667,-11411.101986301182
-5896.54664952119,-19719.155993361,-29900.621461942374,-11402.653026897076
-5899.0053414112745,-19713.813926436174,-29908.53397947955,-11406.87750659913
-5883.560285992657,-19703.532123986737,-29915.2618545606,-11413.672436913545
-5864.784820650199,-19695.03846109372,-29917.96641563969,-11411.057282812271
-5894.758509964766,-19718.887772427533,-29925.09662212093,-11420.892050372608
-5913.981010196329,-19723.13460387404,-29914.43484001575,-11412.39838747959
-5909.622420027545,-19709.74590894531,-29910.076249846967,-11405.558753676269
-5893.283294830715,-19701.63222570804,-29920.738031952147,-11414.387692736113
-5886.398957538481,-19711.75756594629,-29923.375537797878,-11420.4450154835
-5914.293934618704,-19736.23272612485,-29915.35126153842,-11417.606343937678
-5937.740914552322,-19746.5592320632,-29908.399869012817,-11415.549983447789
-5935.863368018076,-19731.829432467155,-29901.85080788741,-11411.549021190289
-5919.993629454807,-19720.27358058376,-29904.82358989997,-11420.176794550038
-5904.8167949696535,-19721.21235385089,-29905.00240385561,-11421.674361428542
-5918.674876531944,-19733.34935109012,-29897.44751422972,-11417.36047474867
-5936.444513373914,-19738.80317673721,-29891.613708926885,-11410.476137456437
-5931.638888316023,-19730.7565487333,-29886.986897824638,-11405.290532742803
-5909.533013049724,-19722.37464456256,-29891.81487462698,-11408.82210836674
-5889.461146528858,-19722.53110677375,-29902.76722941008,-11415.795852636797
-5904.8167949696535,-19738.602011037117,-29901.56023520949,-11413.359512491168
-5923.50285333429,-19740.99364769383,-29892.1054473049,-11404.195297264492
-5916.998495697796,-19725.99562716432,-29892.1054473049,-11402.273047241337
-5888.254152328272,-19707.577789733143,-29890.67493565976,-11402.25069549688
-5872.786745165199,-19715.95969390389,-29900.84497938693,-11413.180698535529
-5892.12100411904,-19736.90327845851,-29905.44943874472,-11418.45571022698
-5911.5670217951565,-19742.222993638872,-29897.112238062888,-11409.269143255848
-5916.663219530967,-19739.42902558196,-29897.73808690764,-11406.45282345448
-5896.971332665841,-19727.694359742924,-29898.07336307447,-11405.134070531616
-5877.97234987883,-19721.368816062077,-29897.313403762982,-11407.793928121797
-5903.565097280157,-19740.636019782545,-29906.09763933392,-11419.193317794005
-5930.923632493453,-19755.6116885676,-29904.085982332945,-11418.902745116084
-5932.2870889052265,-19746.93921171894,-29898.67686017476,-11415.3935212366
-5911.5670217951565,-19727.87317369857,-29904.041278844037,-11419.863870127663
-5889.707015717866,-19720.18417360594,-29911.64087195884,-11420.757939905876
-5901.396978067992,-19736.366836591584,-29917.474677261675,-11425.228288796938
-5923.525205078746,-19751.63307805456,-29916.40179352782,-11420.199146294492
-5931.571833082657,-19752.6612582995,-29919.08400286245,-11416.756977648376
-5918.563117809667,-19741.932420960955,-29928.24821808913,-11423.082521329228
-5894.847916942587,-19734.84691796862,-29927.24238958864,-11427.30700103128
-5911.83524272862,-19748.749703019825,-29913.29490104853,-11414.432396225024
-5935.952774995897,-19753.95765947791,-29906.92465387877,-11404.664683898054
-5944.446437888913,-19756.371647879085,-29913.25019755962,-11410.766710134354
-5942.971222754863,-19762.16074969301,-29923.219075586687,-11424.82595739674
-5917.423178842447,-19745.08401692915,-29911.57381672547,-11423.797777151798
-5925.603917313089,-19751.34250537664,-29903.92952012176,-11423.01546609586
-5953.722411837865,-19760.976107236875,-29905.1588660668,-11424.557736463275
-5958.773906084765,-19750.739008276345,-29901.470828231675,-11417.271067770847
-5942.725353565855,-19733.25994411229,-29900.576758453462,-11415.438224725513
-5915.098597419095,-19720.81002245069,-29901.448476487218,-11416.421701481546
-5928.330830136637,-19738.691418014936,-29910.14330508033,-11426.122358575149
-5960.51734215228,-19758.29389790224,-29909.606863213405,-11428.02225685385
-5967.066403277684,-19756.59516532364,-29912.043203359037,-11426.524689975346
-5955.8234758166645,-19747.34154311914,-29908.91395913529,-11423.909535874074
-5935.706905806888,-19743.05000818372,-29909.562159724494,-11427.374056264647
-5951.710754836889,-19757.48923510185,-29916.71471795019,-11431.106797588684
-5977.415260960492,-19763.837130527158,-29916.44649701673,-11429.989210365917
-5980.432746461957,-19757.26571765729,-29920.64862497433,-11432.693771445009
-5965.166504998983,-19742.71473201689,-29916.625310972373,-11426.032951597328
-5939.663164575478,-19736.500947058317,-29920.425107529773,-11425.943544619508
-5951.621347859067,-19754.38234262256,-29917.85465691741,-11421.763768406365
-5983.964322085896,-19772.0178689978,-29918.25698831761,-11418.478061971437
-5990.736900655855,-19767.59222359565,-29921.766212197093,-11421.607306195176
-5979.069290050184,-19761.11021770361,-29925.76717445459,-11425.898841130596
-5959.623272374067,-19758.740932791345,-29929.63402624536,-11428.268126042858
-5968.742784111832,-19770.34148816365,-29924.09079362045,-11429.318658032258
-5990.982769844863,-19778.544578378747,-29922.0120813861,-11430.5480039773
-5999.409377504513,-19777.40463941153,-29925.58836049895,-11431.576184222244
-5989.127575055072,-19766.564043350703,-29927.19768609973,-11425.004771352384
-5963.89245556503,-19755.075246700675,-29931.48922103515,-11427.150538820091
-5972.296711480226,-19771.57083410869,-29938.06063390501,-11432.73847493392
-6000.817537405198,-19789.0722500172,-29924.940159909747,-11426.032951597328
-6014.541508500756,-19793.43084018598,-29923.241427331144,-11424.177756807538
-6005.846679907641,-19783.238444714363,-29926.527133766074,-11429.922155132552
-5977.504667938312,-19769.29095617425,-29928.002348900125,-11431.576184222244
-5982.064423807195,-19781.383249924573,-29924.247255831637,-11433.856062156685
-6007.210136319415,-19791.95562505193,-29920.89449416333,-11430.033913854828
-6016.486110268368,-19786.30063370474,-29924.671938976284,-11422.97076260695
-6010.80876717672,-19779.43864815696,-29928.963473911703,-11431.866756900165
-5987.294732009737,-19775.214168454902,-29933.456174547217,-11440.829806426742
-5989.418147732991,-19781.67382260249,-29931.131593123868,-11437.253527313893
-6018.363656802614,-19795.800125098245,-29920.603921485417,-11426.859966142174
-6034.434561065979,-19802.550351923743,-29916.78177318356,-11424.848309141196
-6026.991430162362,-19797.744726865854,-29927.13063086637,-11433.16315807857
-5996.101319325128,-19779.77392432379,-29926.281264577065,-11425.697675430498
-5993.284999523759,-19778.9692615234,-29922.8614476754,-11417.852213126684
-6021.381142304081,-19795.084869275677,-29922.660281975302,-11418.768634649354
-6030.768874975309,-19793.20732274143,-29919.59809298493,-11418.25454452688
-6021.694066726454,-19779.86333130161,-29922.12384010838,-11422.099044573191
-5998.47060423739,-19769.983860252367,-29928.672901233786,-11425.563564963766
-6006.785453174764,-19790.14513375105,-29931.824497201986,-11430.324486532749
-6033.406380821036,-19803.511476935324,-29925.20838084321,-11424.669495185552
-6044.358735604136,-19801.723337378902,-29927.622369244385,-11426.569393464257
-6032.199386620448,-19789.96631979541,-29931.57862801297,-11425.049474841297
-6004.215002562404,-19776.57762486668,-29931.48922103515,-11415.795852636797
-6009.735883442865,-19793.564950652715,-29928.941122167245,-11417.002846837384
-6041.408305336036,-19816.319026508216,-29924.224904087176,-11419.372131749646
-6054.48407584239,-19820.54350621027,-29923.10731686441,-11416.35464624818
-6044.336383859681,-19808.98765432688,-29919.88866566285,-11411.370207234646
-6019.123616114094,-19797.54356116576,-29931.377462312877,-11416.980495092928
-6018.587174247167,-19811.17812528349,-29931.645683246337,-11418.07573057124
-6051.220721151915,-19832.14406158257,-29918.234636573157,-11418.902745116084
-6070.577331850212,-19838.849584919168,-29923.822572686982,-11428.089312087215
-6065.257616669848,-19827.047863846765,-29928.13645936685,-11432.202033066991
-6039.016668679317,-19810.664035161022,-29928.91877042279,-11432.02321911135
-6032.981697676385,-19810.194648527464,-29920.98390114116,-11426.412931253068
-6068.386860893591,-19836.21207907344,-29918.30169180652,-11429.83274815473
-6089.933942548507,-19852.685314737,-29924.515476765097,-11434.88424240163
-6079.361567421147,-19841.934125654,-29928.739956467147,-11433.386675523125
-6053.679413041999,-19818.710663164933,-29924.940159909747,-11431.375018522149
-6050.773686262809,-19820.11882306562,-29923.55435175352,-11431.620887711157
-6083.809564567753,-19846.62799198961,-29925.94598841024,-11427.530518475833
-6094.359587950657,-19838.06727386323,-29916.44649701673,-11415.572335192244
-6093.666683872543,-19826.958456868942,-29921.54269475254,-11417.427529982037
-6071.20318069496,-19815.40260498555,-29925.856581432414,-11421.629657939631
-6068.275102171315,-19817.86129687563,-29916.60295922792,-11419.88622187212
-6091.543268149289,-19832.568744727225,-29909.78567716905,-11412.06311131276
-6101.378035709624,-19836.21207907344,-29906.544674223027,-11403.994131564396
-6101.959181065462,-19836.569706984727,-29908.265758546087,-11410.654951412076
-6079.138049976594,-19827.047863846765,-29914.948930138224,-11417.583992193222
-6072.991320251384,-19828.679541192003,-29916.670014461284,-11426.614096953166
-6107.301247990281,-19851.52302402533,-29912.93727313725,-11430.033913854828
-6124.199166798493,-19850.383085058103,-29904.44361024423,-11419.30507651628
-6114.520861449345,-19836.860279662644,-29901.91786312078,-11420.377960250134
-6088.972817536929,-19825.907924879542,-29904.1083340774,-11425.585916708222
-6085.284779701803,-19833.708683694447,-29908.15399982381,-11421.78612015082
-6110.072864302739,-19852.01476240334,-29904.555368966507,-11415.527631703331
-6127.753094166887,-19854.965192671443,-29904.935348622246,-11415.25941076987
-6124.176815054037,-19845.68921872249,-29914.591302226934,-11420.601477694689
-6100.595724653688,-19837.106148851653,-29928.15881111131,-11430.480948743934
-6084.122488990127,-19837.419073274028,-29919.240465073643,-11431.531480733334
-6117.605402184177,-19861.760122985856,-29920.24629357413,-11430.480948743934
-6139.376001283647,-19863.034172419808,-29921.810915686005,-11427.821091153752
-6135.352687281691,-19846.382122800605,-29918.90518890681,-11427.865794642665
-6105.423701456035,-19825.662055690536,-29919.240465073643,-11432.224384811449
-6090.000997781873,-19826.10909057964,-29921.07330811898,-11426.412931253068
-6122.16515805306,-19847.097378623173,-29917.988767384148,-11418.746282904898
-6145.12039960866,-19853.758198470856,-29917.049994117024,-11420.35560850568
-6137.654916960588,-19840.861241920145,-29913.42901151526,-11416.35464624818
-6116.800739383786,-19824.611523701136,-29913.49606674863,-11418.098082315691
-6103.836727599708,-19825.43853824598,-29918.324043550976,-11423.26133528487
-6127.060190088772,-19849.69018097999,-29918.97224414018,-11424.82595739674
-6148.540216510322,-19862.74359974189,-29912.423183014773,-11419.103910816182
-6142.3711350406575,-19849.041980390783,-29907.975185868167,-11415.929963103528
-6115.347875994191,-19826.86904989112,-29913.272549304074,-11415.3935212366
-6109.11173929116,-19835.96620988443,-29926.16950585479,-11429.944506877007
-6139.890091406119,-19858.563823528748,-29920.13453485185,-11428.044608598306
-6158.3973358151125,-19860.284907851805,-29916.468848761186,-11419.863870127663
-6153.234082845936,-19850.338381569192,-29918.502857506617,-11421.07086432825
-6127.417818000057,-19832.99342787188,-29918.189933084243,-11425.742378919407
-6109.245849757892,-19831.67467494901,-29916.49120050564,-11419.21566953846
-6138.280765805336,-19852.282983336805,-29907.885778890348,-11405.40229146508
-6169.193228387026,-19860.731942740917,-29914.25602606011,-11410.051454311784
-6174.021205189372,-19852.35003857017,-29914.12191559338,-11411.929000846028
-6144.4274955305455,-19831.45115750446,-29918.63696797335,-11410.654951412076
-6131.150559324094,-19836.256782562352,-29923.755517453614,-11419.327428260736
-6154.955167168995,-19852.41709380354,-29915.77594468307,-11419.5956491942
-6175.6528825346095,-19858.653230506567,-29910.0091946136,-11418.88039337163
-6169.46144932049,-19845.82332918922,-29912.601996970418,-11419.662704427565
-6143.891053663619,-19831.11588133763,-29916.71471795019,-11419.953277105484
-6130.2788412903365,-19827.606657458145,-29922.280302319567,-11423.618963196155
-6161.280710849847,-19854.138178126595,-29924.1131453649,-11423.30603877378
-6182.425461104568,-19866.69985851048,-29926.03539538805,-11419.416835238557
-6171.406051088101,-19855.25576534936,-29920.82743892997,-11410.006750822871
-6146.260338575881,-19841.800015187266,-29920.98390114116,-11414.275934013836
-6129.541233723311,-19840.59302098668,-29917.34056679494,-11417.248716026392
-6154.195207857515,-19856.35100082767,-29911.909092892303,-11413.40421598008
-6175.786993001341,-19862.341268341694,-29909.65156670232,-11407.68216939952
-6175.719937767975,-19854.42875080452,-29912.601996970418,-11409.20208802248
-6153.234082845936,-19842.31410530974,-29919.911017407303,-11414.96883809195
-6127.328411022236,-19833.038131360787,-29916.133572594357,-11412.219573523947
-6150.5518735113,-19851.50067228087,-29907.01406085659,-11406.45282345448
-6175.0046819454055,-19862.25186136387,-29905.04710734452,-11407.413948466055
-6178.692719780532,-19865.269346865334,-29912.98197662616,-11412.912477602064
-6158.330280581747,-19851.992410658888,-29918.03347087305,-11416.868736370652
-6136.783198926831,-19842.11293960964,-29923.509648264608,-11421.048512583797
-6155.759829969386,-19860.06139040725,-29920.53686625205,-11423.462500984968
-6170.959016198995,-19865.805788732265,-29913.339604537443,-11417.02519858184
-6165.16991438507,-19858.16149212855,-29910.59033996944,-11408.866811855652
-6138.146655338604,-19839.989523886383,-29911.864389403392,-11408.755053133376
-6122.902765620085,-19845.21983208893,-29920.514514507595,-11414.96883809195
-6146.036821131328,-19869.538530056303,-29925.677767476773,-11422.233155039925
-6161.727745738954,-19873.18186440252,-29923.196723842237,-11420.132091061128
-6156.765658469875,-19867.348059099684,-29926.325968065976,-11424.423625996546
-6129.6306407011325,-19851.27715483632,-29924.20255234272,-11427.128187075636
-6099.724006619931,-19842.15764309855,-29929.07523263398,-11431.732646433433
-6109.759939880364,-19860.106093896164,-29922.146191852837,-11426.100006830691
-6137.811379171775,-19875.70761152597,-29918.189933084243,-11427.754035920389
-6146.796780442808,-19877.07106793774,-29932.718566980195,-11434.59366972371
-6124.422684243046,-19865.31405035425,-29939.692311250248,-11436.314754046767
-6099.031102541817,-19856.08277989421,-29936.093680392943,-11437.365286036167
-6110.430492214024,-19868.733867255916,-29924.940159909747,-11428.692809187509
-6136.134998337627,-19882.144913929096,-29920.760383696605,-11425.295344030304
-6134.235100058926,-19869.9408614565,-29922.146191852837,-11421.942582362008
-6104.104948533171,-19846.717398967437,-29921.1627150968,-11420.802643394783
-6074.5112388743455,-19837.754349440856,-29921.98972964165,-11428.983381865428
-6089.4869076594005,-19854.74167522689,-29919.240465073643,-11434.526614490343
-6126.143768566105,-19876.93695747101,-29926.97416865518,-11439.041666870316
-6128.4012947560905,-19877.80867550477,-29934.81963095899,-11443.579070994743
-6102.719140376943,-19865.626974776624,-29934.73022398117,-11440.583937237732
-6071.650215584066,-19852.01476240334,-29932.20447685772,-11435.420684268556
-6081.797907566775,-19867.996259688887,-29930.282226834566,-11433.274916800849
-6105.043721800294,-19879.95444297248,-29928.06940413349,-11429.07278884325
-6096.527707162823,-19865.17993988752,-29929.410508800807,-11427.5975737092
-6080.210933710448,-19858.675582251024,-29931.131593123868,-11427.3964080091
-6054.953462475952,-19853.02059090383,-29926.661244232804,-11426.703503930989
-6058.194465421971,-19858.385009573103,-29916.29003480554,-11415.371169492146
-6081.172058722027,-19870.298489367786,-29913.94310163773,-11414.119471802647
-6088.30226520327,-19875.327631870223,-29919.106354606916,-11421.048512583797
-6078.020462753829,-19871.48313182392,-29925.11897386539,-11426.345876019705
-6051.555997318745,-19858.385009573103,-29925.76717445459,-11423.909535874074
-6064.899988758563,-19868.8903294671,-29916.245331316637,-11419.036855582815
-6086.692939602487,-19869.672640523037,-29907.818723656983,-11408.419776966546
-6091.610323382655,-19864.911718954056,-29915.15009583832,-11410.587896178711
-6071.96314000644,-19853.534681026304,-29919.843962173934,-11416.332294503723
-6045.498674571357,-19845.108073366653,-29917.452325517217,-11418.768634649354
-6050.036078695784,-19853.154701370564,-29910.92561613627,-11410.498489200889
-6074.019500496328,-19859.346134584684,-29906.187046311745,-11405.357587976168
-6076.187619708493,-19852.662962992545,-29910.25506380261,-11415.818204381252
-6056.875712499108,-19846.158605356053,-29919.01694762909,-11429.54217547681
-6034.233395365882,-19838.044922118774,-29914.88187490486,-11428.871623143152
-6041.363601847124,-19844.83985243319,-29899.01213634159,-11414.566506691755
-6064.564712591733,-19852.484149036904,-29897.782790396548,-11405.335236231713
-6070.398517894569,-19847.902041423564,-29903.10250557691,-11413.225402024436
-6053.00886070834,-19832.54639298277,-29905.091810833437,-11418.50041371589
-6027.930203429485,-19824.477413234403,-29916.20062782772,-11425.697675430498
-6040.6259942801,-19845.21983208893,-29917.09469760593,-11430.5480039773
-6069.325634160714,-19861.55895728576,-29913.719584193183,-11425.898841130596
-6067.537494604289,-19852.61825950364,-29913.361956281897,-11424.82595739674
-6035.820369222209,-19831.49586099337,-29905.561197467,-11412.107814801671
-5989.976941344374,-19809.613503171626,-29900.755572409103,-11398.763823361853
-5997.75534841482,-19831.965247626933,-29905.91882537828,-11408.35272173318
-6039.754276246343,-19864.71055325396,-29909.96449112469,-11416.064073570262
-6044.67166002651,-19865.60462303217,-29907.572854467973,-11412.219573523947
-6020.263555081315,-19848.662000735047,-29902.074325331967,-11404.329407731226
-5982.824383118676,-19830.758253426346,-29906.03058410056,-11402.474212941434
-5986.624179676078,-19841.934125654,-29908.98101436865,-11400.26139024036
-6016.508462012824,-19862.542434041792,-29914.05486036001,-11404.240000753403
-6024.085703383173,-19858.7873409733,-29921.028604630068,-11412.376035735137
-6010.249973565337,-19844.370465799628,-29921.654453474817,-11412.30898050177
-5975.448307448424,-19828.433672002997,-29921.319177307985,-11409.045625811295
-5975.805935359709,-19842.604677987656,-29922.88379941986,-11408.710349644463
-6001.130461827572,-19860.955460185465,-29917.228808072665,-11405.4916984429
-6003.499746739834,-19852.23827984789,-29904.734182922148,-11399.68024488452
-5987.562952943201,-19840.59302098668,-29909.048069602024,-11407.63746591061
-5951.688403092433,-19830.802956915257,-29909.808028913503,-11404.217649008948
-5942.300670421204,-19836.860279662644,-29904.89064513333,-11396.439241938502
-5963.288958464737,-19852.01476240334,-29902.744877665627,-11392.885314570109
-5970.486220179346,-19855.993372916382,-29905.717659678183,-11398.272084983835
-5950.570815869667,-19838.111977352142,-29902.454304987707,-11395.075785526727
-5918.7866352542205,-19826.623180702118,-29910.478581247164,-11398.20502975047
-5916.21618464186,-19838.33549479669,-29914.457191760208,-11401.088404785203
-5939.79727504221,-19856.55216652777,-29917.005290628116,-11409.000922322384
-5946.882778034542,-19860.106093896164,-29918.72637495117,-11411.25844851237
-5925.827434757643,-19850.91952692503,-29931.377462312877,-11423.50720447388
-5893.283294830715,-19845.420997789028,-29941.07811940648,-11432.470254000456
-5895.853745443076,-19861.246032863382,-29942.15100314033,-11431.844405155707
-5922.005286455785,-19876.691088282,-29931.35511056842,-11422.50137597339
-5928.643754559012,-19873.11480916915,-29931.757441968613,-11425.161233563573
-5917.490234075813,-19864.30822185376,-29934.64081700335,-11423.68601842952
-5889.841126184599,-19852.685314737,-29935.93721818176,-11427.239945797915
-5878.30762604566,-19850.40543680256,-29931.15394486832,-11424.803605652289
-5894.803213453676,-19862.52008229733,-29921.229770330167,-11418.276896271336
-5907.275486859738,-19867.437466077503,-29918.30169180652,-11414.857079369674
-5892.858611686064,-19853.758198470856,-29925.990691899147,-11417.852213126684
-5862.974329349319,-19837.106148851653,-29926.236561088157,-11413.73949214691
-5857.609910680046,-19841.10711110915,-29927.22003784419,-11412.73366364642
-5885.303722060171,-19858.49676829538,-29923.889627920347,-11417.136957304116
-5903.006303668774,-19863.61531777565,-29922.459116275208,-11425.652971941588
-5894.579696009123,-19860.55312878527,-29922.749688953125,-11420.757939905876
-5865.835352639599,-19847.25384083436,-29923.93433140926,-11419.21566953846
-5858.101649058062,-19853.758198470856,-29923.93433140926,-11418.299248015792
-5891.07047212964,-19878.568634816245,-29923.93433140926,-11420.869698628152
-5903.430986813425,-19880.490884839404,-29918.458154017702,-11415.97466659244
-5894.847916942587,-19871.438428335005,-29920.06747961849,-11418.276896271336
-5870.372756764025,-19856.26159384985,-29924.78369769856,-11418.612172438166
-5868.428154996414,-19867.59392828869,-29922.772040697582,-11418.656875927076
-5897.194850110394,-19891.197370433496,-29919.17340984028,-11421.629657939631
-5911.008228183774,-19889.65510006608,-29918.34639529543,-11418.366303249157
-5903.721559491344,-19875.41703884805,-29918.12287785088,-11417.986323593415
-5877.3465010340815,-19855.769855471837,-29918.97224414018,-11418.187489293516
-5873.859628899054,-19864.844663720687,-29922.749688953125,-11421.517899217357
-5899.0053414112745,-19886.90583549808,-29921.229770330167,-11414.901782858586
-5911.678780517434,-19889.18571343252,-29921.766212197093,-11409.82793686723
-5901.709902490366,-19876.02053594834,-29930.863372190404,-11419.461538727468
-5874.016091110241,-19863.70472475347,-29937.74770948264,-11424.602439952188
-5870.037480597196,-19875.439390592503,-29943.425052574286,-11426.59174520871
-5894.959675664863,-19897.61232109217,-29937.18891587125,-11421.96493410646
-5906.649638014989,-19894.30426291278,-29926.482430277163,-11414.83472762522
-5894.624399498034,-19876.93695747101,-29925.700119221223,-11403.949428075484
-5864.807172394654,-19859.077913651217,-29929.00817740061,-11399.769651862342
-5858.414573480436,-19865.47051256544,-29927.577665755474,-11403.748262375388
-5891.293989574193,-19895.66771932456,-29930.39398555684,-11412.73366364642
-5906.604934526078,-19895.55596060228,-29922.92850290877,-11411.21374502346
-5900.100576889584,-19882.010803462363,-29918.70402320672,-11414.633561925122
-5875.2901405441935,-19866.632803277116,-29912.49023824814,-11417.606343937678
-5871.266826542238,-19875.528797570325,-29916.133572594357,-11430.324486532749
-5895.205544853872,-19895.578312346737,-29912.758459181605,-11433.02904761184
-5912.572850295645,-19903.647292095106,-29910.92561613627,-11431.352666777691
-5914.472748574347,-19906.70948108548,-29912.713755692694,-11433.677248201044
-5891.897486674487,-19893.32078615675,-29910.14330508033,-11431.620887711157
-5877.97234987883,-19892.02438497834,-29910.79150566954,-11434.303097045791
-5900.815832712154,-19908.65408285309,-29908.77984866856,-11429.944506877007
-5915.880908475031,-19911.246885209905,-29910.79150566954,-11426.5470417198
-5908.1025014045845,-19900.09336472671,-29913.49606674863,-11427.530518475833
-5872.1832480649055,-19879.73092552792,-29910.0091946136,-11419.953277105484
-5856.1570472904505,-19877.004012704376,-29904.287148033043,-11412.510146201868
-5884.588466237601,-19902.194428705505,-29907.55050272352,-11418.411006738068
-5904.570925780646,-19909.190524720016,-29908.645738201827,-11420.668532928054
-5899.586486767112,-19897.00882399188,-29913.58547372645,-11423.954239362984
-5874.351367277071,-19883.01663196285,-29926.236561088157,-11430.704466188488
-5856.134695545995,-19876.8922539821,-29922.68263371976,-11420.534422461322
-5869.143410818984,-19881.519065084347,-29907.93048237926,-11406.430471710024
-5884.253190070772,-19886.436448864515,-29904.53301722205,-11402.585971663711
-5889.394091295492,-19887.039945964807,-29913.74193593764,-11408.30801824427
-5876.340672533593,-19882.346079629195,-29930.68455823476,-11424.31186727427
-5856.089992057085,-19875.327631870223,-29929.231694845166,-11422.16609980656
-5876.564189978146,-19890.28094891083,-29927.577665755474,-11414.83472762522
-5897.708940232867,-19901.233303693927,-29929.34345356744,-11414.991189836406
-5893.640922742,-19899.55692285978,-29935.758404226115,-11421.204974794982
-5870.663329441944,-19890.7950390333,-29938.91000019431,-11427.754035920389
-5858.34751824707,-19888.96219598797,-29936.29484609304,-11426.010599852872
-5886.130736605017,-19904.60841710668,-29927.734127966654,-11421.36143700617
-5909.153033393984,-19912.85621081069,-29926.549485510528,-11423.730721918431
-5901.6428472570005,-19900.07101298225,-29931.466869290696,-11430.302134788291
-5871.892675386986,-19883.486018596413,-29934.77492747008,-11424.35657076318
-5860.269768270227,-19890.5938733332,-29934.43965130325,-11424.691846930007
-5879.559323735157,-19903.200257205997,-29926.057747132512,-11421.652009684089
-5896.1890216099055,-19904.966045017965,-29919.08400286245,-11415.17000379205
-5900.927591434431,-19904.206085706483,-29925.09662212093,-11419.483890471924
-5886.376605794026,-19899.8474955377,-29936.13838388185,-11426.703503930989
-5877.324149289626,-19906.08363224073,-29941.41339557331,-11425.429454497034
-5897.820698955143,-19920.85813532569,-29940.295808350544,-11416.287591014814
-5914.763321252265,-19921.41692893707,-29938.17239262729,-11416.01937008135
-5914.763321252265,-19911.246885209905,-29941.25693336212,-11420.6461811836
-5891.115175618551,-19897.679376325534,-29941.860430462413,-11423.730721918431
-5879.469916757335,-19901.14389671611,-29939.245276361144,-11429.54217547681
-5912.3269811066375,-19926.960161561987,-29945.570820041998,-11442.282669816335
-5932.5776615831455,-19934.22447850996,-29949.482375321677,-11444.540196006325
-5930.4095423709805,-19927.04956853981,-29949.32591311049,-11442.260318071882
-5915.344466608103,-19913.437356166527,-29954.578573057483,-11444.02610588385
-5896.703111732378,-19901.9485595165,-29955.96438121371,-11443.199091339004
-5922.7205422783545,-19926.35666446169,-29956.23260214717,-11445.926004162551
-5947.419219901469,-19931.69873138651,-29951.225811389188,-11433.632544712133
-5943.753533810799,-19917.214800979476,-29952.946895712244,-11431.285611544325
-5921.468844588858,-19902.641463594613,-29961.887593494368,-11438.974611636952
-5899.765300722755,-19899.22164669295,-29954.444462590756,-11437.655858714088
-5918.429007342936,-19913.437356166527,-29952.052825934035,-11430.771521421852
-5953.431839159946,-19930.8046616083,-29962.2228696612,-11444.517844261867
-5963.4007171870135,-19932.212821508983,-29950.108224166423,-11444.6519547286
-5937.539748852223,-19906.24009445192,-29942.799203729537,-11441.79093143832
-5924.419274856959,-19903.334367672727,-29947.761290998616,-11454.352611822202
-5949.632042602545,-19928.591838907225,-29946.12961365338,-11461.5051700479
-5974.598941159123,-19943.254583269907,-29936.29484609304,-11454.956108922495
-5980.678615650966,-19943.321638503272,-29937.12186063789,-11452.296251332316
-5967.558141655701,-19936.66081865559,-29941.77102348459,-11454.93375717804
-5954.281205449249,-19939.90182160161,-29954.667980035305,-11460.588748525231
-5971.916731824485,-19954.09517933073,-29964.301581895543,-11464.589710782731
-5986.110089553606,-19953.156406063605,-29960.70295103824,-11452.922100177062
-5981.930313340463,-19939.410083223596,-29968.23548891968,-11441.83563492723
-5964.317138709681,-19927.29543772881,-29976.70680006824,-11443.891995417118
-5954.75059208281,-19932.23517325344,-29984.7757798166,-11456.252510100903
-5976.208266759904,-19954.117531075182,-29982.49590188216,-11457.92889093505
-5995.833098391664,-19956.509167731903,-29967.36377088592,-11442.21561458297
-5994.871973380086,-19938.69482740102,-29962.11111093892,-11433.766655178864
-5977.504667938312,-19927.6530656401,-29965.30741039603,-11441.947393649509
-5956.583435128145,-19926.446071439517,-29964.122767939894,-11443.400257039102
-5976.744708626832,-19945.780330393354,-29956.813747503013,-11440.606288982188
-6009.087682853661,-19959.8619294002,-29952.633971289877,-11436.225347068948
-6008.037150864262,-19948.52959496136,-29945.48141306417,-11427.418759753557
-5987.607656432111,-19931.36345521968,-29943.715625252204,-11422.143748062104
-5975.336548726148,-19935.67734189956,-29950.64466603335,-11430.905631888583
-5986.914752353997,-19948.395484494627,-29941.68161650677,-11423.820128896252
-6012.708665455421,-19950.876528129163,-29938.082985649467,-11416.6452189261
-6017.201366090938,-19939.70065590151,-29935.959569926214,-11416.935791604015
-5997.397720503535,-19923.383882449136,-29932.875029191386,-11419.349780005192
-5974.934217325952,-19916.81246957928,-29930.908075679312,-11421.294381772805
-5986.378310487069,-19930.31292323028,-29924.13549710936,-11421.428492239536
-6020.084741125673,-19951.189452551534,-29921.900322663823,-11417.40517823758
-6032.6017180206445,-19952.776426407865,-29932.293883835544,-11424.468329485457
-6017.581345746678,-19941.42174022457,-29941.10047115093,-11432.40319876709
-5994.000255346329,-19930.827013352755,-29947.515421809607,-11432.850233656196
-5998.716473426399,-19939.678304157056,-29942.106299651423,-11424.468329485457
-6020.6882382259655,-19948.127263561164,-29936.585418770963,-11421.272030028347
-6032.512311042823,-19947.79198739433,-29941.189878128756,-11421.160271306073
-6018.967153902907,-19935.073844799263,-29943.4697560632,-11417.136957304116
-5995.453118735924,-19925.440242939025,-29938.664131005306,-11415.482928214424
-6009.691179953955,-19945.71327515999,-29942.82155547399,-11425.02712309684
-6038.234357623382,-19961.828882912265,-29945.63787527536,-11421.383788750623
-6041.095380913661,-19954.38575200865,-29944.49793630814,-11415.013541580862
-6029.181901118983,-19944.841557126238,-29945.369654341896,-11415.080596814229
-6006.517232241301,-19931.60932440869,-29950.041168933058,-11416.73462590392
-6017.737807957865,-19940.706484402,-29943.87208746339,-11410.051454311784
-6049.186712406482,-19958.967859621986,-29940.13934613936,-11412.219573523947
-6052.762991519331,-19957.29147878784,-29931.645683246337,-11406.7433961324
-6028.690162740965,-19938.001923322907,-29920.961549396703,-11392.281817469817
-6002.471566494891,-19925.507298172397,-29916.513552250097,-11391.611265136156
-6017.782511446776,-19938.94069659003,-29915.08304060496,-11397.757994861364
-6044.939880959974,-19951.74824616292,-29913.093735348437,-11397.19920124998
-6054.171151420016,-19948.082560072253,-29904.845941644424,-11391.767727347342
-6037.966136689918,-19928.189507507028,-29903.59424395493,-11389.733718601909
-6017.536642257767,-19920.813431836777,-29910.188008569243,-11395.656930882566
-6027.103188884639,-19935.90085934411,-29914.8595231604,-11407.21278276596
-6047.19740714996,-19941.265278013383,-29908.91395913529,-11408.26331475536
-6056.115753187627,-19937.934868089545,-29904.22009279968,-11410.073806056238
-6049.7455060178645,-19935.29736224381,-29908.511627735097,-11417.695750915498
-6022.766950460309,-19923.920324316063,-29909.003366113116,-11414.074768313738
-6023.236337093871,-19930.31292323028,-29902.58841545444,-11404.664683898054
-6054.171151420016,-19950.54125196233,-29904.86829338888,-11403.949428075484
-6054.841703753675,-19943.768673392377,-29905.561197467,-11394.405233193069
-6041.989450691874,-19934.4032924656,-29911.81968591448,-11394.181715748517
-6020.2188515924045,-19927.89893482911,-29921.87797091937,-11398.92028557304
-6037.139122145071,-19947.635525183145,-29932.83032570247,-11404.329407731226
-6070.510276616845,-19969.62964172717,-29939.17822112778,-11408.889163600108
-6074.064203985239,-19964.444037013534,-29934.2161338587,-11404.999960064884
-6059.602625322656,-19949.80364439531,-29931.377462312877,-11397.288608227804
-6028.533700529779,-19930.8046616083,-29928.13645936685,-11390.20310523547
-6033.227566865393,-19943.545155947824,-29927.801183200027,-11393.06412852575
-6065.123506203116,-19964.175816080075,-29928.18116285577,-11396.461593682956
-6073.617169096133,-19956.44211249854,-29927.309444822007,-11395.075785526727
-6056.629843310099,-19941.7570163914,-29925.990691899147,-11399.032044295316
-6033.987526176873,-19933.263353498383,-29925.29778782103,-11403.21182050846
-6042.660003025532,-19949.557775206304,-29925.566008754497,-11406.5422304323
-6068.029232982306,-19966.031010869865,-29923.53200000906,-11398.20502975047
-6069.526799860812,-19958.14084507714,-29916.89353190584,-11393.958198303962
-6050.594872307167,-19943.500452458917,-29916.9605871392,-11395.947503560485
-6026.052656895239,-19934.22447850996,-29916.178276083265,-11399.68024488452
-6030.210081363926,-19943.254583269907,-29913.87604640437,-11399.143803017594
-6056.6074915656445,-19956.687981687544,-29915.239502816145,-11397.802698350277
-6066.643424826077,-19956.82209215428,-29915.597130727427,-11401.222515251937
-6051.623052552111,-19945.44505422653,-29912.266720803585,-11397.422718694535
-6027.349058073647,-19940.930001846555,-29918.569912739986,-11405.424643209535
-6026.43263655098,-19949.066036828284,-29917.54173249504,-11407.793928121797
-6046.325689116203,-19958.744342177437,-29912.713755692694,-11402.094233285694
-6066.15168644806,-19972.04363012834,-29919.93336915176,-11400.954294318472
-6061.726041045909,-19970.121380105185,-29923.509648264608,-11397.288608227804
-6031.998220920351,-19948.17196705007,-29919.17340984028,-11384.391651677091
-6024.532738272279,-19939.94652509052,-29917.38527028385,-11377.104982984662
-6044.939880959974,-19953.37992350816,-29925.856581432414,-11380.882427797607
-6061.189599178983,-19959.258432299903,-29926.504782021617,-11380.100116741673
-6051.4442385964685,-19945.66857167108,-29921.1627150968,-11375.942692272984
-6026.700857484443,-19934.492699443424,-29924.560180254008,-11377.194389962482
-6032.6017180206445,-19949.982458350954,-29927.845886688938,-11390.761898846851
-6057.05452645475,-19966.47804575897,-29926.795354699538,-11391.052471524772
-6076.5675993642335,-19974.122342362683,-29920.80508718552,-11390.314863957748
-6067.179866693004,-19964.37698178017,-29924.314311065,-11394.06995702624
-6035.552148288745,-19945.959144349,-29926.750651210627,-11395.723986115932
-6029.450122052446,-19947.836690883243,-29918.525209251075,-11390.337215702202
-6055.244035153871,-19966.72391494798,-29911.082078347456,-11384.615169121644
-6071.136125461594,-19964.935775391557,-29905.225921300167,-11375.428602150512
-6061.971910234918,-19947.076731571764,-29909.875084146868,-11375.92034052853
-6040.9389187024735,-19938.13603378964,-29920.98390114116,-11384.905741799565
-6034.613375021622,-19946.38382749365,-29916.379441783363,-11385.4868871554
-6061.033136967795,-19960.9124613896,-29917.94406389524,-11391.5889133917
-6077.640483098088,-19967.28270855936,-29921.967377897192,-11401.82601235223
-6062.418945124024,-19955.99507760943,-29925.76717445459,-11400.462555940458
-6025.516215028312,-19931.922248831062,-29921.69915696373,-11391.097175013683
-6010.741711943354,-19923.160365004584,-29911.506761492103,-11379.92130278603
-6034.993354677362,-19934.269181998872,-29907.14817132332,-11377.283796940304
-6050.080782184695,-19941.5558506913,-29914.79246792704,-11386.470363911434
-6049.074953684206,-19943.41104548109,-29926.72829946617,-11398.02621579483
-6034.009877921329,-19946.85321412721,-29935.44547980374,-11402.697730385988
-6036.781494233786,-19966.34393529224,-29940.295808350544,-11409.336198489214
-6062.173075935016,-19987.153409380127,-29938.574724027483,-11404.150593775585
-6073.840686540686,-19988.67332800309,-29939.245276361144,-11396.752166360877
-6073.170134207026,-19981.81134245531,-29937.837116460458,-11392.505334914367
-6038.703744256944,-19954.34104851974,-29933.657340247315,-11381.597683620175
-6026.723209228899,-19956.062132842795,-29932.91973268029,-11379.29545394128
-6058.574445077711,-19980.023202898887,-29932.942084424747,-11385.4868871554
-6082.937846533996,-19989.612101270213,-29935.512535037105,-11395.701634371477
-6074.779459807809,-19978.36917380919,-29938.664131005306,-11398.137974517103
-6042.436485580979,-19951.927060118564,-29928.24821808913,-11389.197276734982
-6030.81357846422,-19948.864871128186,-29923.77786919807,-11389.644311624088
-6057.993299721873,-19968.95908939351,-29920.20159008522,-11392.192410491993
-6087.922285547529,-19985.7676012239,-29922.88379941986,-11403.860021097664
-6088.950465792474,-19982.90657793362,-29928.22586634468,-11404.441166453502
-6063.223607924415,-19968.780275437864,-29929.74578496764,-11404.508221686869
-6045.453971082446,-19965.00283062492,-29924.53782850955,-11403.055358297272
-6072.141953962083,-19986.505208790924,-29920.089831362944,-11403.502393186378
-6095.29836121778,-19994.551836794835,-29923.73316570916,-11407.078672299229
-6096.01361704035,-19987.645147758147,-29925.498953521128,-11410.230268267424
-6075.181791208004,-19971.57424349478,-29926.460078532706,-11407.145727532594
-6063.91651200253,-19968.08737135975,-29936.004273415125,-11408.643294411098
-6090.403329182069,-19988.82979021428,-29937.97122692719,-11404.374111220135
-6109.044684057794,-19989.366232081204,-29927.64472098884,-11391.030119780316
-6110.430492214024,-19985.05234540133,-29935.62429375938,-11394.226419237426
-6088.950465792474,-19974.591728996245,-29937.434785060264,-11398.294436728293
-6078.422794154024,-19974.323508062786,-29931.958607668712,-11399.30026522878
-6108.977628824428,-19994.507133305924,-29936.428956559776,-11401.155460018572
-6128.647163945099,-19998.99983394144,-29936.808936215515,-11402.92124783054
-6126.59080345521,-19991.57905478228,-29937.34537808244,-11407.816279866252
-6105.423701456035,-19972.87064467319,-29937.390081571357,-11399.479079184424
-6093.487869916901,-19965.78514168085,-29933.724395480684,-11398.339140217202
-6119.058265573772,-19984.851179701232,-29932.40564255782,-11404.530573431322
-6132.648126202599,-19987.08635414676,-29927.2647413331,-11399.523782673334
-6131.955222124484,-19984.270034345394,-29923.643758731338,-11396.573352405234
-6122.746303408898,-19984.98529016796,-29924.381366298363,-11401.378977463124
-6113.6044399266775,-19988.181589625077,-29930.05870939001,-11409.44795721149
-6133.229271558437,-20000.05036593084,-29926.325968065976,-11409.4926607004
-6142.572300740755,-19991.422592571093,-29922.369709297385,-11403.390634464102
-6143.7792949413415,-19988.025127413886,-29920.78273544106,-11405.692864143
-6131.016448857361,-19985.7676012239,-29921.967377897192,-11409.962047333962
-6117.4936434619,-19982.616005255702,-29915.887703405348,-11407.30218974378
-6136.470274504456,-19993.322490849798,-29905.516493978084,-11399.34496871769
-6162.018318416873,-20003.96192121052,-29907.01406085659,-11401.893067585595
-6163.426478317557,-20003.179610154584,-29915.373613282874,-11406.341064732202
-6146.483856020433,-19997.79283974085,-29924.515476765097,-11408.442128711002
-6126.926079622041,-19990.126191392683,-29932.04801464653,-11404.664683898054
-6143.242853074415,-19999.75979325292,-29930.081061134468,-11398.24973323938
-6165.84046671873,-20001.05619443133,-29936.518363537594,-11398.473250683934
-6167.025109174861,-19996.54114205136,-29938.53002053857,-11401.356625718669
-6145.589786242222,-19984.113572134207,-29934.953741425725,-11400.663721640554
-6124.288573776314,-19973.407086540115,-29943.00036942964,-11398.339140217202
-6145.746248453409,-19990.10383964823,-29944.29677060804,-11401.20016350748
-6177.977463957962,-20010.66744454711,-29945.54846829754,-11408.82210836674
-6179.4079756031015,-20007.29233113436,-29945.436709575264,-11407.860983355164
-6159.112591637682,-19991.422592571093,-29941.525154295585,-11407.056320554771
-6142.996983885406,-19989.81326697031,-29945.1684886418,-11413.73949214691
-6164.074678906761,-20007.40408985664,-29938.12768913838,-11412.040759568306
-6177.5080773244,-20001.86085723172,-29924.426069787278,-11397.243904738893
-6168.120344653171,-19988.405107069622,-29918.525209251075,-11389.309035457258
-6152.228254345448,-19985.454676801524,-29927.622369244385,-11395.008730293364
-6141.968803640461,-19991.042612915357,-29937.97122692719,-11407.369244977146
-6153.45760029049,-20001.547932809342,-29932.271532091087,-11399.099099528685
-6170.444926076523,-20006.01828170041,-29929.94695066773,-11394.62875063762
-6178.60331280271,-20004.9230462221,-29932.36093906891,-11399.188506506503
-6159.403164315601,-19992.33901409376,-29927.667072733293,-11392.34887270318
-6135.68796344852,-19987.466333802506,-29929.410508800807,-11391.141878502594
-6158.196170115015,-20014.35548238224,-29932.763270469102,-11398.428547195024
-6184.280655894359,-20028.77235755591,-29920.87214241888,-11394.852268082175
-6184.705339039009,-20017.551781839345,-29916.06651736099,-11391.655968625066
-6159.760792226886,-19995.84823797324,-29926.90711342181,-11390.292512213293
-6138.504283249889,-19991.71316524901,-29932.673863491284,-11394.293474470793
-6159.604330015699,-20013.81904051531,-29924.850752931925,-11399.367320462146
-6188.169859429581,-20026.73834881048,-29923.889627920347,-11404.441166453502
-6187.678121051565,-20015.13779343817,-29929.790488456547,-11400.30609372927
-6163.091202150727,-19997.166990896105,-29933.83615420296,-11395.232247737917
-6138.034896616327,-19993.21073212752,-29938.418261816296,-11395.344006460193
-6162.420649817068,-20019.96577024052,-29936.652474004328,-11397.847401839186
-6196.775281044875,-20036.751930326456,-29942.709796751715,-11407.659817655063
-6191.857897264707,-20026.91716276612,-29938.06063390501,-11401.73660537441
-6165.304024851803,-20010.131002680184,-29937.63595076036,-11395.54517216029
-6141.007678628884,-20009.28163639088,-29941.88278220687,-11400.708425129464
-6158.732611981942,-20027.96769475552,-29942.64274151835,-11407.190431021503
-6188.281618151858,-20041.088168750783,-29946.24137237565,-11409.671474656045
-6189.13098444116,-20032.23687794648,-29947.381311342877,-11408.978570577929
-6168.4332690755455,-20013.930799237587,-29937.74770948264,-11402.720082130443
-6145.522731008856,-20003.157258410127,-29932.49504953564,-11402.183640263514
-6159.179646871048,-20015.62953181619,-29939.2676281056,-11412.979532835428
-6181.352577370712,-20025.12902320969,-29931.600979757422,-11410.63259966762
-6175.831696490252,-20011.606217814235,-29919.57574124047,-11401.937771074508
-6155.804533458297,-19997.256397873927,-29924.671938976284,-11405.73756763191
-6130.681172690532,-19988.67332800309,-29928.002348900125,-11402.273047241337
-6143.064039118772,-20003.827810743787,-29922.593226741938,-11401.31192222976
-6168.612083031188,-20014.467241104518,-29917.429973772763,-11396.528648916325
-6173.931798211551,-20008.76754626841,-29917.184104583757,-11390.024291279828
-6163.69469925102,-20005.1242119222,-29929.34345356744,-11401.624846652132
-6148.853140932696,-20003.8725142327,-29933.94791292524,-11408.285666499814
-6159.067888148772,-20015.8754010052,-29930.48339253466,-11403.189468764003
-6186.024091961872,-20024.23495343148,-29925.856581432414,-11399.747300117886
-6192.640208320643,-20015.42836611609,-29928.516439022595,-11395.67928262702
-6166.108687652193,-19996.29527286235,-29924.940159909747,-11386.224494722426
-6141.6111757291765,-19992.540179793858,-29926.88476167736,-11388.236151723404
-6162.7335742394425,-20014.556648082336,-29924.604883742915,-11395.165192504548
-6189.89094375264,-20026.33601741028,-29918.949892395725,-11395.746337860386
-6180.07852793676,-20006.308854378327,-29917.474677261675,-11391.611265136156
-6156.765658469875,-19992.026089671384,-29924.20255234272,-11394.338177959702
-6137.07377160475,-19994.8200577283,-29933.83615420296,-11407.88333509962
-6157.503266036901,-20017.44002311707,-29930.68455823476,-11413.44891946899
-6185.979388472962,-20024.05613947584,-29928.807011700515,-11411.25844851237
-6176.41284184609,-20000.497400819942,-29925.92363666578,-11398.763823361853
-6153.815228201775,-19981.83369419977,-29924.180200598264,-11393.600570392677
-6133.586899469722,-19977.67626973108,-29928.672901233786,-11400.39550070709
-6142.393486785113,-19997.658729274124,-29921.20741858571,-11402.988303063908
-6160.386641071635,-20003.09020317676,-29911.663223703294,-11390.49367791339
-6174.401184845113,-20002.643168287657,-29910.456229502703,-11390.82895408022
-6167.874475464163,-19997.30110136284,-29917.94406389524,-11397.512125672356
-6145.209806586481,-19993.21073212752,-29932.02566290208,-11407.413948466055
-6152.138847367626,-20010.131002680184,-29937.12186063789,-11414.387692736113
-6167.963882441984,-20019.58579058478,-29924.49312502064,-11402.898896086084
-6179.631493047655,-20021.932723752587,-29922.23559883065,-11399.814355351253
-6171.674272021565,-20012.9249707371,-29926.2142093437,-11403.077710041727
-6149.344879310713,-20005.459488089025,-29936.83128795997,-11412.39838747959
-6143.667536219065,-20008.76754626841,-29935.467831548194,-11407.68216939952
-6173.261245877891,-20028.0794534778,-29940.74284323965,-11410.45378571198
-6176.368138357179,-20023.29618016436,-29932.718566980195,-11399.523782673334
-6161.07954514975,-20005.615950300213,-29927.622369244385,-11391.275988969326
-6134.346858781202,-19990.461467559515,-29926.39302329934,-11391.030119780316
-6138.280765805336,-20005.548895066848,-29925.498953521128,-11395.344006460193
-6163.202960873004,-20022.35740689724,-29922.369709297385,-11396.372186705135
-6176.5916558017325,-20024.34671215376,-29928.62819774487,-11402.071881541238
-6166.533370796844,-20013.506116092936,-29925.230732587665,-11401.334273974211
-6130.412951757068,-19991.310833848816,-29919.911017407303,-11395.344006460193
-6125.696733676999,-20000.38564209767,-29914.524246993573,-11392.527686658825
-6154.93281542454,-20020.39045338517,-29905.40473525581,-11392.170058747535
-6177.038690690839,-20032.05806399084,-29914.658357460303,-11401.334273974211
-6168.321510353268,-20025.12902320969,-29918.97224414018,-11398.361491961658
-6141.678230962543,-20010.309816635825,-29920.290997063043,-11401.557791418769
-6138.481931505434,-20017.551781839345,-29912.19966557022,-11396.863925083151
-6169.103821409205,-20038.02597976041,-29911.73027893666,-11395.098137271185
-6185.040615205839,-20043.859785063243,-29915.73124119416,-11402.653026897076
-6173.238894133437,-20031.63338084619,-29923.04026163105,-11409.246791511392
-6142.8405216742185,-20012.00854921443,-29927.845886688938,-11413.225402024436
-6131.865815146663,-20014.690758549063,-29925.38719479885,-11412.845422368697
-6158.106763137193,-20033.73444482499,-29925.901284921325,-11411.772538634845
-6175.116440667683,-20037.713055338038,-29935.22196235919,-11420.6461811836
-6165.684004507542,-20026.984217999485,-29934.171430369788,-11414.16417529156
-6134.279803547836,-20009.52750557989,-29941.54750604004,-11412.666608413054
-6124.914422621063,-20011.270941647406,-29950.59996254444,-11420.109739316673
-6155.4022020581015,-20041.646962362167,-29947.917753209804,-11425.854137641683
-6172.300120866314,-20047.212546731535,-29937.904171693823,-11419.863870127663
-6156.542141025322,-20022.133889452685,-29936.943046682245,-11414.521803202844
-6132.089332591216,-20006.733537522978,-29944.87791596388,-11421.003809094884
-6124.176815054037,-19991.82492397129,-29943.38034908537,-11423.30603877378
-6138.839559416719,-19977.542159264347,-29934.4172995588,-11408.73270138892
-6149.344879310713,-19963.393505024134,-29938.082985649467,-11408.26331475536
-6144.963937397473,-19949.7589409064,-29941.68161650677,-11417.181660793029
-6122.589841197711,-19934.33623723224,-29942.530982796077,-11420.757939905876
-6111.928059092529,-19932.30222848681,-29942.620389773896,-11416.35464624818
-6139.107780350182,-19950.317734517783,-29931.57862801297,-11407.033968810318
-6157.615024759177,-19953.89401363063,-29925.051918632023,-11400.797832107286
-6146.93089090954,-19940.505318701904,-29930.416337301296,-11400.887239085108
-6122.858062131174,-19934.447995954517,-29937.54654378254,-11412.778367135332
-6121.963992352962,-19948.931926361554,-29945.034378175067,-11427.150538820091
-6142.348783296202,-19961.71712418999,-29932.718566980195,-11416.421701481546
-6161.660690505587,-19965.561624236303,-29933.41147105831,-11418.008675337873
-6160.520751538366,-19960.823054411776,-29937.30067459353,-11424.177756807538
-6129.3400680232135,-19943.05341756981,-29946.28607586457,-11427.463463242468
-6123.193338298004,-19950.42949324006,-29953.59509630145,-11434.839538912718
-6148.853140932696,-19973.921176662585,-29953.908020723826,-11437.4993965029
-6160.096068393716,-19976.268109830395,-29958.93716322627,-11433.45373075649
-6143.041687374317,-19951.547080462824,-29963.049884206044,-11423.618963196155
-6115.906669605573,-19931.542269175323,-29968.906041253336,-11424.468329485457
-6121.315791763758,-19949.110740317195,-29979.52311986961,-11439.779274437342
-6150.082486877738,-19974.34585980724,-29984.7757798166,-11447.177701852048
-6150.730687466942,-19961.20303406752,-29969.93422149828,-11430.749169677398
-6142.505245507389,-19943.366341992183,-29959.853584748937,-11423.551907962788
-6120.220556285448,-19933.33040873175,-29975.611564589926,-11440.673344215556
-6115.616096927655,-19944.193356537027,-29989.76021883013,-11458.018297912871
-6136.045591359805,-19960.13015033366,-29978.092608224462,-11446.753018707395
-6147.199111843003,-19958.67728694407,-29976.93031751279,-11445.12134136216
-6138.5489867388,-19947.255545527405,-29975.343343656463,-11448.07177163026
-6120.198204540993,-19941.84642336922,-29973.66696282232,-11453.279728088348
-6138.481931505434,-19972.714182462,-29991.883634553396,-11475.944396966028
-6163.068850406272,-19987.309871591315,-29984.194634460764,-11472.971614953472
-6164.767582984875,-19971.976574894976,-29966.000314474142,-11450.530463520345
-6157.659728248087,-19963.527615490868,-29972.102340710444,-11452.564472265778
-6148.607271743688,-19963.974650379976,-29986.921547284317,-11466.869588717174
-6141.83469317373,-19963.058228857302,-29983.79230306057,-11470.60233004121
-6160.878379449651,-19967.349763792725,-29972.728189555197,-11463.047440415316
-6174.669405778576,-19968.422647526582,-29973.26463142212,-11460.968728180973
-6164.700527751509,-19960.420723011583,-29974.292811667063,-11460.812265969786
-6145.656841475588,-19955.19041480904,-29977.444407635263,-11465.03674567184
-6128.4012947560905,-19947.43435948305,-29965.88855575187,-11453.011507154884
-6157.995004414917,-19969.249662071423,-29964.34628538445,-11446.685963474032
-6178.044519191328,-19977.251586586422,-29963.765140028616,-11442.12620760515
-6172.814210988786,-19967.349763792725,-29965.50857609613,-11442.64029772762
-6157.726783481453,-19962.8123596683,-29974.561032600526,-11451.02220189836
-6141.387658284624,-19964.82401666928,-29974.292811667063,-11445.478969273445
-6156.40803055859,-19974.56937725179,-29967.006142974635,-11433.051399356294
-6169.729670253953,-19971.060153372306,-29958.64659054835,-11420.266201527858
-6169.550856298311,-19961.873586401176,-29957.39489285885,-11416.35464624818
-6148.719030465964,-19949.31190601729,-29961.10528243843,-11418.433358482524
-6145.634489731132,-19960.08544684475,-29962.82636676149,-11424.557736463275
-6167.114516152682,-19976.022240641385,-29959.585363815477,-11419.21566953846
-6187.946341985028,-19979.151484865128,-29953.840965490457,-11410.87846885663
-6181.084356437249,-19963.23704281295,-29944.944971197245,-11395.187544249004
-6154.731649724442,-19943.813376881288,-29938.23944786065,-11391.745375602886
-6145.545082753311,-19943.321638503272,-29944.14030839685,-11404.329407731226
-6164.097030651215,-19955.77156016488,-29943.067424663,-11406.430471710024
-6181.7549087709085,-19959.839577655745,-29931.757441968613,-11397.288608227804
-6177.262208135392,-19949.937754862043,-29932.15977336881,-11393.555866903767
-6158.039707903828,-19939.94652509052,-29933.59028501395,-11396.34983496068
-6135.732666937432,-19940.147690790614,-29939.17822112778,-11403.927076331029
-6148.987251399428,-19957.40323751012,-29921.29682556353,-11384.25754121036
-6176.524600568367,-19971.149560350128,-29920.06747961849,-11379.653081852566
-6192.014359475895,-19977.117476119696,-29933.053843147023,-11401.31192222976
-6171.808382488297,-19961.359496278703,-29934.059671647512,-11403.614151908654
-6140.806512928786,-19947.412007738592,-29940.429918817277,-11401.535439674311
-6154.351670068702,-19961.784179423357,-29941.97218918469,-11402.228343752426
-6182.64897854912,-19980.73845872145,-29936.607770515417,-11407.570410677245
-6183.990083216439,-19978.57033950929,-29933.702043736223,-11408.30801824427
-6162.21948411697,-19962.030048612363,-29934.327892580972,-11405.603457165178
-6142.751114696398,-19961.247737556427,-29942.19570662924,-11408.68799790001
-6165.013452173884,-19983.77829596738,-29932.49504953564,-11399.5908379067
-6177.239856390936,-19980.269072087893,-29915.75359293861,-11381.798849320276
-6170.154353398604,-19968.780275437864,-29907.34933702342,-11372.4334683935
-6158.754963726397,-19963.95229863552,-29911.68557544775,-11373.752221316365
-6141.566472240266,-19962.00769686791,-29912.177313825767,-11370.377107903614
-6157.88324569264,-19978.123304620185,-29916.558255739004,-11371.539398615289
-6187.074623951272,-19993.23308387197,-29925.275436076576,-11378.289625440791
-6186.381719873157,-19985.7676012239,-29929.11993612289,-11381.575331875722
-6159.045536404316,-19964.153464335617,-29920.335700551957,-11381.575331875722
-6135.196225070504,-19954.877490386665,-29917.228808072665,-11384.503410399368
-6146.193283342515,-19965.963955636496,-29908.131648079358,-11380.860076053152
-6167.248626619414,-19973.272976073386,-29901.604938698405,-11376.501485884368
-6167.762716741886,-19970.255490571915,-29906.119991078376,-11383.899913299074
-6151.445943289512,-19962.94647013503,-29910.29976729152,-11389.040814523794
-6128.5801087117325,-19953.5587374638,-29914.323081293474,-11388.77259359033
-6149.970728155462,-19979.822037198788,-29912.57964522596,-11390.359567446658
-6172.925969711062,-19993.277787360883,-29907.885778890348,-11388.68318661251
-6177.396318602124,-19988.67332800309,-29910.858560902903,-11391.387747691602
-6166.22044637447,-19981.14079012165,-29918.4134505288,-11396.416890194048
-6140.873568162152,-19973.116513862195,-29931.10924137941,-11403.457689697469
-6152.340013067725,-19991.176723382083,-29924.314311065,-11394.673454126532
-6182.067833193283,-20004.83363924428,-29920.961549396703,-11390.650140124577
-6185.8676297506845,-19994.97651993949,-29921.43093603026,-11389.465497668443
-6176.435193590545,-19985.924063435086,-29931.48922103515,-11392.594741892188
-6164.767582984875,-19991.37788908218,-29949.97411369969,-11405.514050187356
-6176.971635457473,-20009.505153835435,-29945.392006086357,-11404.754090875876
-6194.093071710238,-20009.10282243524,-29927.510610522106,-11385.77745983332
-6197.714054311998,-20002.330243865283,-29933.21030535821,-11400.77548036283
-6184.79474601683,-19992.495476304943,-29940.720491495194,-11413.046588068795
-6165.639301018632,-19989.94737743704,-29949.39296834385,-11426.479986486434
-6183.386586116146,-20008.16404916812,-29935.065500148,-11413.895954358097
-6210.007513762416,-20013.90844749313,-29925.29778782103,-11395.276951226826
-6223.440912180056,-20018.602313828746,-29927.35414831092,-11409.91734384505
-6208.621705606188,-20012.38852887017,-29935.44547980374,-11436.515919746867
-6185.241780905936,-19999.916255464108,-29928.963473911703,-11410.16321303406
-6202.922010770084,-20007.76171776792,-29921.87797091937,-11382.312939442749
-6225.050237780838,-20008.18640091257,-29913.42901151526,-11375.00391900586
-6234.66148789662,-20003.693700277057,-29909.78567716905,-11381.798849320276
-6216.489519654456,-19988.9191971921,-29915.217151071687,-11384.525762143823
-6200.910353769106,-19985.43232505707,-29915.597130727427,-11375.830933550707
-6211.7509498299305,-19995.95999669552,-29909.137476579843,-11370.131238714604
-6237.120179786704,-20005.168915411105,-29911.95379638121,-11368.700727069465
-6244.496255456956,-20001.25736013143,-29908.936310879748,-11362.218721177427
-6229.967621561006,-19986.90754019112,-29905.605900955907,-11362.576349088711
-6207.660580594609,-19983.822999456286,-29915.48537200515,-11377.574369618222
-6221.429255179079,-20006.13004042269,-29912.713755692694,-11383.162305732048
-6244.8538833682405,-20014.02020621541,-29902.476656732164,-11379.96600627494
-6253.280491027891,-20010.86861024721,-29905.337680022443,-11390.314863957748
-6240.137665288171,-19994.395374583648,-29914.367784782386,-11401.177811763027
-6218.456473166522,-19977.028069141877,-29913.20549407071,-11403.16711701955
-6237.880139098184,-19994.350671094737,-29907.14817132332,-11404.798794364786
-6285.757575721452,-20025.30783716534,-29920.02277612958,-11421.02616083934
-6304.823613741829,-20032.34863666876,-29927.35414831092,-11430.100969088197
-6294.050072914371,-20017.06004346133,-29935.579590270478,-11423.3954457516
-6275.453421527555,-20008.096993934752,-29935.892514692845,-11415.326466003236
-6288.015101911438,-20020.43515687408,-29932.89738093584,-11414.119471802647
-6320.20161392708,-20029.35350291175,-29931.377462312877,-11412.934829346515
-6329.030552986927,-20024.19024994257,-29935.378424570376,-11419.68505617202
-6322.436788372611,-20016.00951147193,-29938.91000019431,-11425.340047519214
-6303.750730007974,-20002.777278754387,-29934.707872236715,-11425.630620197133
-6308.802224254874,-20007.06881368981,-29926.43772678825,-11418.858041627174
-6334.998468756494,-20017.86470626172,-29918.748726695627,-11414.678265414032
-6349.996489286004,-20020.703377807546,-29912.266720803585,-11414.633561925122
-6341.30166069289,-20007.29233113436,-29912.601996970418,-11411.750186890387
-6311.663247545153,-19991.62375827119,-29911.305595792008,-11405.245829253892
-6313.272573145935,-19997.03288042937,-29906.544674223027,-11399.993169306896
-6350.443524175111,-20015.227200415997,-29912.914921392792,-11412.912477602064
-6354.757410854985,-20008.141697423664,-29911.01502311409,-11407.816279866252
-6348.230701474035,-20002.8219822433,-29904.77888641106,-11402.988303063908
-6327.82355878634,-19989.81326697031,-29900.44264798673,-11399.367320462146
-6338.664154847164,-20000.16212465312,-29902.253139287608,-11405.02231180934
-6374.695166909119,-20022.53622085288,-29900.1073718199,-11406.63163741012
-6383.278236779957,-20017.88705800617,-29899.0568398305,-11403.480041441922
-6369.978948829049,-19999.8715519752,-29899.369764252875,-11399.188506506503
-6352.030498031438,-19990.86379895971,-29904.935348622246,-11407.011617065862
-6367.54260868342,-20010.19805791355,-29912.24436905913,-11416.756977648376
-6396.26460030849,-20021.61979933021,-29908.198703312723,-11411.057282812271
-6408.446301036633,-20013.19319167056,-29905.225921300167,-11404.575276920234
-6408.558059758909,-20006.13004042269,-29916.558255739004,-11408.978570577929
-6389.179097316158,-19997.30110136284,-29921.27447381908,-11409.44795721149
-6393.492983996032,-20004.498363077448,-29919.75455519612,-11403.614151908654
-6432.921461215194,-20029.420558145117,-29925.40954654331,-11409.716178144954
-6455.049688225948,-20034.29323843637,-29925.09662212093,-11411.280800256824
-6455.452019626144,-20022.67033131961,-29920.22394182968,-11412.68896015751
-6440.65516479673,-20007.046461945352,-29928.22586634468,-11413.560678191268
-6442.443304353154,-20011.22623815849,-29920.02277612958,-11404.195297264492
-6480.575380393909,-20033.175651213605,-29914.50189524912,-11403.837669353208
-6511.398435997777,-20044.01624727443,-29916.178276083265,-11407.078672299229
-6522.708418692162,-20042.429273418104,-29919.240465073643,-11411.727835145932
-6508.29154351849,-20020.90454350764,-29914.72541269367,-11406.855154854677
-6518.483938990109,-20022.893848764164,-29912.22201731468,-11409.135032789116
-6564.72969826814,-20047.145491498173,-29907.0587643455,-11412.487794457413
-6591.998826503615,-20051.884061322697,-29905.695307933725,-11414.298285758292
-6587.081442723446,-20033.28740993588,-29898.0063078411,-11407.413948466055
-6572.73162278314,-20017.48472660598,-29893.11127580539,-11407.615114166156
-6588.556657857497,-20025.68781682108,-29893.468903716675,-11409.87264035614
-6641.507940472119,-20054.096884023773,-29893.692421161228,-11413.627733424632
-6680.265865357622,-20065.250404506973,-29900.35324100891,-11419.729759660931
-6702.8858307463925,-20069.273718508928,-29913.898398148824,-11430.033913854828
-6696.850859743459,-20061.67412539412,-29906.768191667583,-11424.669495185552
-6701.589429567985,-20051.615840389237,-29892.61953742737,-11408.68799790001
-6734.558252639563,-20052.845186334274,-29895.59231943993,-11409.425605467037
-6755.501837194185,-20047.39136068718,-29894.60884268389,-11405.514050187356
-6763.324947753543,-20041.91518329563,-29898.38628749684,-11402.965951319453
-6762.006194830679,-20041.758721084443,-29915.15009583832,-11417.78515789332
-6771.43863099082,-20048.86657582123,-29918.34639529543,-11425.228288796938
-6810.777701232159,-20064.91512834014,-29914.43484001575,-11420.981457350428
-6835.92341374438,-20061.383552716205,-29917.698194706227,-11417.427529982037
-6835.498730599729,-20043.703322852056,-29915.708889449703,-11410.364378734155
-6820.1654339033885,-20037.556593126847,-29922.43676453075,-11410.386730478613
-6811.269439610177,-20036.21548845953,-29914.613653971395,-11399.568486162245
-6838.940899245847,-20047.41371243164,-29903.52718872156,-11384.503410399368
-6861.694975101349,-20051.995820044973,-29906.81289515649,-11384.302244699267
-6859.951539033836,-20044.128005996707,-29909.83038065796,-11389.197276734982
-6848.708611572816,-20038.227145460503,-29911.327947536465,-11396.215724493948
-6847.747486561238,-20042.47397690701,-29912.69140394824,-11400.797832107286
-6871.306225217131,-20051.079398522303,-29904.44361024423,-11394.293474470793
-6892.339216749575,-20055.63915439119,-29900.621461942374,-11392.572390147734
-6891.8921818604695,-20053.694552623576,-29903.281319532554,-11397.73564311691
-6875.195428752355,-20051.191157244582,-29912.15496208131,-11409.470308955946
-6865.226550725288,-20058.567232914836,-29915.39596502733,-11417.11460555966
-6884.292588745665,-20074.88400636721,-29906.187046311745,-11409.537364189311
-6889.992283581768,-20070.324250498325,-29907.818723656983,-11401.78130886332
-6886.259542257732,-20069.54193944239,-29920.24629357413,-11413.135995046616
-6864.533646647174,-20061.56236667185,-29918.97224414018,-11415.751149147887
-6839.097361457034,-20046.54199439788,-29905.76236316709,-11404.955256575971
-6849.915605773403,-20049.7829973439,-29900.30853752,-11399.5908379067
-6868.087574015567,-20062.29997423887,-29907.952834123716,-11407.056320554771
-6863.192541979855,-20060.06479979334,-29913.272549304074,-11412.599553179689
-6837.510387600707,-20049.42536943261,-29919.531037751563,-11417.427529982037
-6820.2101373923,-20051.32526771132,-29921.810915686005,-11414.119471802647
-6838.8291405235705,-20065.29510799588,-29911.707927192205,-11404.016483308851
-6849.40151565093,-20062.56819517233,-29902.476656732164,-11402.071881541238
-6839.499692857229,-20049.760645599443,-29906.09763933392,-11408.82210836674
-6808.8330994645485,-20034.427348903104,-29910.14330508033,-11398.87558208413
-6785.252009064199,-20035.433177403596,-29912.80316267052,-11392.594741892188
-6808.698988997816,-20063.171692272623,-29908.399869012817,-11390.337215702202
-6827.407399106908,-20066.502102196468,-29909.3609940244,-11384.414003421549
-6814.085759411545,-20046.36318044224,-29908.086944590446,-11384.525762143823
-6790.482317266741,-20037.735407082488,-29909.71862193568,-11388.459669167956
-6773.226770547244,-20039.948229783564,-29909.74097368014,-11386.62682612262
-6784.514401497174,-20052.241689233982,-29904.86829338888,-11383.20700922096
-6798.283076081643,-20057.092017780786,-29901.87315963187,-11387.699709856475
-6796.852564436504,-20056.041485791386,-29903.907168377304,-11392.103003514172
-6774.567875214562,-20046.407883931148,-29905.74001142264,-11395.12048901564
-6750.450342947286,-20041.825776317808,-29903.124857321367,-11388.079689512217
-6767.370613499954,-20060.02009630443,-29904.1083340774,-11390.001939535374
-6782.681558451839,-20066.077419051817,-29897.76043865209,-11393.421756437036
-6783.933256141336,-20064.021058561928,-29903.14720906582,-11399.54613441779
-6757.915825595359,-20049.40301768816,-29908.33281377945,-11404.128242031127
-6726.735142080205,-20033.332113424796,-29902.454304987707,-11395.232247737917
-6745.465903933752,-20051.101750266764,-29897.49221771863,-11393.10883201466
-6766.968282099758,-20063.574023672823,-29901.87315963187,-11396.662759383054
-6754.160732526867,-20055.370933457725,-29915.48537200515,-11401.82601235223
-6720.029618743613,-20037.48953789348,-29910.992671369637,-11394.673454126532
-6696.8955632323705,-20035.835508803782,-29908.44457250173,-11401.155460018572
-6717.548575109074,-20059.617764904237,-29911.551464981017,-11407.5927624217
-6737.307517207565,-20072.9394045996,-29920.24629357413,-11414.141823547105
-6733.99945902818,-20066.72561964102,-29924.82840118747,-11414.186527036016
-6697.722577777216,-20045.51381415293,-29918.748726695627,-11403.97177981994
-6655.589539478963,-20028.928819767098,-29906.544674223027,-11385.844515066688
-6666.988929151169,-20044.86561356373,-29908.511627735097,-11386.000977277872
-6683.260999114633,-20055.080360779808,-29910.813857413992,-11390.426622680025
-6681.919894447315,-20060.44477944908,-29921.25212207462,-11404.485869942411
-6664.753754705639,-20058.030791047902,-29934.30554083652,-11417.06990207075
-6632.008449078614,-20045.91614555313,-29923.44259303124,-11403.725910630932
-6627.046361809536,-20044.10565425225,-29905.181217811256,-11391.946541302985
-6636.2552805251225,-20046.094959508773,-29904.57772071096,-11392.01359653635
-6631.851986867427,-20043.50215715196,-29898.45334273021,-11387.453840667467
-6612.003637791114,-20034.986142514485,-29893.96064209469,-11386.62682612262
-6590.411852647288,-20032.952133769053,-29903.281319532554,-11396.081614027216
-6594.859849793894,-20041.7810728289,-29891.43489497124,-11388.079689512217
-6609.187317989746,-20046.36318044224,-29889.57970018145,-11383.29641619878
-6607.2650679665885,-20044.86561356373,-29889.73616239264,-11381.86590455364
-6586.0756142229575,-20039.747064083465,-29891.23372927114,-11386.291549955791
-6562.852151733894,-20039.6800088501,-29896.68755491824,-11386.000977277872
-6565.959044213181,-20042.16105248464,-29894.318270005977,-11383.139953987593
-6574.765631528572,-20043.6809711076,-29885.221110012662,-11380.323634186225
-6573.580989072441,-20043.032770518395,-29886.67397340226,-11388.459669167956
-6562.2486546336,-20041.28933445088,-29897.648679929815,-11404.418814709046
-6543.361430568866,-20046.00555253095,-29907.34933702342,-11421.942582362008
-6540.679221234229,-20049.939459555088,-29895.793485140024,-11405.134070531616
-6547.027116659537,-20050.073570021817,-29892.15015079381,-11393.309997714758
-6541.327421823433,-20044.664447863637,-29884.841130356926,-11387.364433689649
-6520.2720785465335,-20036.930744282097,-29892.15015079381,-11389.912532557551
-6488.800822353462,-20029.33115116729,-29903.66129918829,-11391.92418955853
-6490.454851443154,-20039.41178791664,-29901.24731078712,-11390.20310523547
-6499.552011436464,-20044.731503097,-29893.53595895004,-11389.711366857457
-6489.136098520291,-20037.48953789348,-29895.21233978419,-11390.426622680025
-6454.110914958825,-20023.25147667545,-29895.39115373983,-11388.25850346786
-6419.689228497652,-20020.25634291844,-29899.660336930792,-11391.857134325164
-6423.444321566144,-20041.892831551177,-29903.370726510377,-11395.187544249004
-6430.172196647191,-20046.765511842437,-29893.625365927863,-11387.900875556574
-6397.091614853337,-20023.743215053462,-29891.524301949063,-11374.668642839031
-6349.7506200969965,-20006.733537522978,-29901.627290442862,-11377.97670101842
-6291.121994390726,-19992.67429026059,-29904.756534666605,-11380.815372564242
-6268.434973768589,-20008.365214868216,-29905.717659678183,-11390.292512213293
-6261.304767287346,-20020.703377807546,-29901.761400909592,-11392.706500614466
-6227.799502348841,-20012.612046314724,-29902.14138056533,-11389.599608135177
-6170.333167354246,-19993.277787360883,-29893.312441505488,-11380.033061508306
-6101.78036710982,-19974.05528712932,-29898.721563663672,-11382.357642931658
-6070.130296961105,-19986.795781468845,-29908.578682968466,-11395.455765182469
-6042.749410003354,-19991.042612915357,-29904.98005211116,-11390.359567446658
-5994.715511168899,-19977.18453135306,-29901.135552064843,-11389.197276734982
-5935.751609295799,-19967.170949837084,-29907.2599300456,-11395.25459948237
-5862.214370037838,-19956.24094679844,-29901.73904916514,-11389.934884302009
-5830.2737272112045,-19977.296290075337,-29905.717659678183,-11393.153535503572
-5833.425323179403,-20003.6713485326,-29908.48927599064,-11401.982474563418
-5824.149349230451,-20015.40601437164,-29910.478581247164,-11405.581105420722
-5785.681997022867,-20001.950264209543,-29907.818723656983,-11393.4888116704
-5746.208816314795,-19997.32345310729,-29910.16565682479,-11386.090384255696
-5751.752048939711,-20018.46820336201,-29910.232712058158,-11387.945579045483
-5768.6946712368335,-20032.974485513507,-29906.67878468976,-11384.481058654912
-5770.013424159697,-20036.34959892626,-29911.238540558643,-11393.06412852575
-5744.510083736192,-20027.54301161087,-29915.03833711605,-11394.62875063762
-5709.060217030074,-20021.53039235239,-29916.49120050564,-11397.06509078325
-5715.1622432663735,-20038.49536639397,-29915.10539234941,-11399.076747784227
-5739.123313322462,-20046.54199439788,-29910.858560902903,-11398.5403059173
-5740.352659267504,-20035.433177403596,-29904.06363058849,-11387.073861011728
-5723.65590615939,-20027.744177310968,-29909.472752746675,-11389.197276734982
-5691.536449377114,-20023.07266271981,-29914.278377804563,-11391.92418955853
-5688.36250166446,-20027.610066844238,-29904.600072455414,-11387.833820323209
-5713.776435110144,-20039.72471233901,-29896.933424107247,-11381.821201064731
-5719.297315990605,-20035.477880892504,-29896.64285142933,-11381.77649757582
-5716.32453397805,-20035.254363447948,-29901.403772998307,-11388.862000568151
-5700.275981459139,-20032.5274506244,-29896.173464795767,-11389.599608135177
-5695.358597678972,-20037.64600010467,-29892.418371727275,-11385.173962733026
-5721.174862524851,-20058.29901198137,-29884.30468849,-11376.97087251793
-5738.832740644543,-20064.177520773115,-29886.450455957707,-11383.49758189888
-5733.84830163101,-20051.57113690032,-29883.56708092297,-11386.336253444702
-5712.41297869837,-20041.177575728605,-29885.44462745722,-11387.54324764529
-5709.551955408091,-20047.32430545381,-29884.19292976772,-11387.029157522817
-5736.597566199013,-20061.24944224947,-29886.60691816889,-11386.604474378166
-5748.086362849041,-20061.62942190521,-29890.29495600402,-11389.085518012706
-5744.063048847085,-20052.845186334274,-29903.52718872156,-11396.68511112751
-5721.532490436136,-20038.87534604971,-29911.14913358082,-11404.038835053309
-5717.419769456359,-20041.42344491761,-29904.421258499773,-11395.567523904743
-5739.838569145032,-20055.63915439119,-29902.96839511018,-11387.364433689649
-5744.085400591541,-20052.39815144517,-29904.376555010866,-11380.860076053152
-5731.858996374488,-20045.759683341945,-29902.96839511018,-11387.319730200736
-5705.260420472672,-20038.20479371605,-29906.321156778475,-11389.510201157356
-5714.156414765885,-20047.100788009266,-29915.39596502733,-11392.997073292385
-5746.432333759348,-20066.47975045201,-29920.469811018684,-11391.097175013683
-5748.622804715968,-20055.12506426872,-29907.10346783441,-11380.703613841964
-5735.099999320508,-20043.748026340967,-29910.0091946136,-11386.40330867807
-5710.088397275019,-20034.24853494746,-29914.47954350466,-11385.889218555596
-5714.89402233291,-20046.00555253095,-29918.16758133979,-11390.49367791339
-5740.307955778594,-20057.49434918098,-29910.567988224982,-11385.732756344409
-5742.811351157588,-20045.804386830856,-29901.82845614296,-11376.792058562289
-5726.762798638678,-20032.16982271312,-29895.435857228746,-11375.830933550707
-5695.917391290354,-20026.6265900882,-29903.706002677205,-11382.335291187204
-5693.5034028891805,-20042.78690132939,-29903.862464888392,-11388.929055801518
-5720.683124146834,-20059.662468393144,-29895.14528455082,-11386.962102289452
-5723.745313137211,-20054.36510495724,-29892.79835138301,-11377.39555566258
-5693.123423233441,-20034.78497681439,-29892.127799049355,-11369.952424758963
-5655.818361737533,-20021.7762615414,-29889.62440367036,-11371.718212570931
-5650.722164001723,-20032.48274713549,-29882.270679744564,-11375.62976785061
-5688.049577242086,-20063.73048588401,-29883.34356347842,-11387.655006367566
-5710.423673441848,-20074.92870985612,-29879.990801810123,-11387.900875556574
-5709.619010641457,-20067.84320686379,-29873.039409284524,-11379.518971385834
-5699.337208192016,-20060.57888991581,-29876.54863316401,-11382.424698165025
-5707.964981551764,-20069.899567353677,-29887.52333969156,-11388.124393001128
-5742.140798823929,-20083.6905936826,-29885.511682690583,-11381.4859248979
-5755.685955963845,-20072.47001796604,-29880.48254018814,-11373.036965493797
-5749.136894838441,-20052.800482845367,-29886.62926991335,-11373.752221316365
-5736.508159221192,-20048.5312996544,-29896.15111305131,-11385.643349366588
-5750.008612872197,-20066.367991729738,-29899.369764252875,-11392.751204103375
-5793.080424437574,-20094.68765195461,-29907.528150979066,-11402.809489108264
-5809.710122312323,-20090.8431519083,-29898.49804621912,-11393.801736092775
-5801.14940418594,-20065.54097718489,-29893.312441505488,-11380.144820230582
-5779.401156830926,-20047.8830990652,-29894.362973494884,-11377.797887062776
-5785.994921445242,-20061.294145738382,-29900.01796484208,-11387.096212756183
-5821.087160240074,-20084.29409078289,-29891.63606067134,-11378.691956840988
-5844.914119829431,-20083.377669260222,-29891.23372927114,-11378.91547428554
-5846.031707052196,-20070.05602956486,-29897.62632818536,-11384.793983077288
-5827.390352176471,-20055.750913113465,-29901.023793342567,-11388.54907614578
-5826.004544020241,-20060.042448048884,-29898.38628749684,-11388.146744745582
-5862.974329349319,-20078.05795407986,-29889.847921114917,-11379.92130278603
-5882.621512725534,-20077.61091919076,-29897.00047934061,-11389.15257324607
-5882.174477836428,-20072.291204010395,-29903.52718872156,-11395.500468671378
-5864.449544483369,-20060.10950328225,-29903.303671277008,-11394.807564593264
-5860.985024092797,-20067.44087546359,-29911.283244047558,-11400.909590829562
-5895.183193109417,-20080.807218647864,-29893.55831069449,-11389.353738946167
-5906.962562437363,-20066.41269521865,-29881.91305183328,-11381.083593497706
-5905.532050792223,-20059.662468393144,-29884.61761291237,-11384.905741799565
-5884.320245304138,-20052.19698574507,-29886.4057524688,-11391.275988969326
-5878.262922556749,-20058.902509081665,-29893.73712465014,-11402.653026897076
-5916.819681742154,-20080.091962825296,-29884.88583384584,-11393.444108181491
-5941.406600642991,-20077.92384361313,-29877.95679306469,-11385.665701111044
-5935.483388362335,-20061.964698072043,-29873.73231336264,-11379.317805685736
-5914.31628636316,-20045.67027636412,-29884.975240823656,-11381.217703964438
-5909.644771772,-20049.35831419925,-29885.332868734946,-11380.144820230582
-5944.602900100101,-20069.564291186845,-29885.73520013514,-11376.590892862188
-5971.313234724193,-20075.331041256315,-29891.412543226787,-11374.78040156131
-5972.27435973577,-20070.436009220604,-29900.24148228663,-11379.809544063752
-5951.978975770352,-20059.885985837696,-29903.21426429919,-11380.234227208404
-5950.861388547586,-20067.485578952503,-29911.17148532528,-11387.029157522817
-5978.890476094542,-20080.427238992124,-29913.54077023754,-11384.190485976991
-5997.285961781259,-20081.54482621489,-29910.79150566954,-11384.503410399368
-5994.112014068605,-20075.420448234137,-29906.25410154511,-11381.418869664534
-5975.761231870799,-20066.74797138548,-29913.02668011507,-11385.553942388768
-5974.241313247838,-20069.094904553283,-29920.290997063043,-11395.388709949102
-6005.33258978517,-20082.729468671023,-29913.83134291546,-11394.226419237426
-6025.091531883661,-20084.584663460813,-29900.28618577554,-11381.217703964438
-6029.584232519178,-20081.500122725975,-29906.656432945307,-11383.274064454326
-6010.6523049655325,-20068.02202081943,-29911.260892303097,-11388.102041256672
-5999.901115882531,-20067.70909639705,-29911.75263068112,-11393.377052948124
-6025.71738072841,-20085.16580881665,-29915.55242723852,-11398.808526850764
-6047.24211063887,-20095.80523917737,-29912.15496208131,-11403.927076331029
-6055.6687182985215,-20093.190085076105,-29912.378479525865,-11410.654951412076
-6043.978755948396,-20084.91993962764,-29919.64279647384,-11415.30411425878
-6025.605622006134,-20078.97437560253,-29915.03833711605,-11410.364378734155
-6044.068162926217,-20091.178428075127,-29905.605900955907,-11401.714253629954
-6070.197352194471,-20094.30767229887,-29903.124857321367,-11394.002901792874
-6076.008805752851,-20089.859675152264,-29903.057802088,-11395.522820415834
-6050.907796729541,-20071.330078998813,-29905.717659678183,-11392.997073292385
-6031.729999986887,-20061.718828883037,-29903.95187186621,-11392.72885235892
-6055.6687182985215,-20080.85192213677,-29896.844017129424,-11389.86782906864
-6086.089442502194,-20094.195913576597,-29895.279395017555,-11381.664738853544
-6091.096233260183,-20093.637119965213,-29898.408639241297,-11382.223532464926
-6068.319805660225,-20078.281471524417,-29888.81974086997,-11372.321709671223
-6051.667756041022,-20074.526378455925,-29889.62440367036,-11372.567578860231
-6068.543323104778,-20088.9432536296,-29886.11517979088,-11371.449991637468
-6092.951428049973,-20098.107468856277,-29888.64092691433,-11378.624901607622
-6094.203125739471,-20097.928654900632,-29899.034488086047,-11388.25850346786
-6076.075860986217,-20089.055012351877,-29897.87219737437,-11392.281817469817
-6055.176979920505,-20082.125971570727,-29897.179293296256,-11390.024291279828
-6085.575352379722,-20107.383442805225,-29901.806104398504,-11399.367320462146
-6119.438245229512,-20124.1025476578,-29911.305595792008,-11406.5422304323
-6126.59080345521,-20119.252219110997,-29911.417354514284,-11404.35175947568
-6105.177832267026,-20094.151210087683,-29903.19191255473,-11395.746337860386
-6088.123451247627,-20082.34948901528,-29905.225921300167,-11397.646236139088
-6117.292477761803,-20109.149230617197,-29918.4134505288,-11413.068939813247
-6151.021260144861,-20125.64481802521,-29921.520343008084,-11416.444053226
-6164.097030651215,-20115.81005046488,-29914.948930138224,-11412.376035735137
-6153.971690412962,-20089.03266060742,-29905.29297653353,-11405.91638158755
