 EXG Channel 0, EXG Channel 1, EXG Channel 2, EXG Channel 3
-11682.854495388809,-8773.082050452478,-8763.761373014615,-30003.95357655925
-12995.550095504535,-9756.447047763711,-9280.533704821311,-29806.654728252262
-14701.122307911195,-11927.896669852338,-9356.976670858465,-29239.3003987432
-14336.543004100682,-11905.79079458604,-9051.07069624313,-29192.048810964683
-13011.24102011216,-10569.71526977006,-8784.615550591416,-29526.60972197172
-11680.440506987634,-8765.661271293315,-8753.479570565172,-29986.40745716184
-12971.633728937357,-9721.958306069171,-9271.6377105281,-29805.80536196296
-14688.739441482956,-11900.202858472212,-9359.055383092807,-29241.088538299628
-14336.07361746712,-11894.16788746928,-9049.46137064235,-29188.96427022985
-13027.088406930972,-10584.199200177098,-8790.248190194154,-29527.41438477211
-11689.761184425495,-8782.156858701332,-8758.285195623064,-29986.20629146174
-12947.627955392356,-9696.566724367944,-9265.625091269623,-29808.42051606423
-14690.43817406156,-11888.490544377632,-9360.62000520468,-29240.596799921608
-14362.471027668838,-11914.597381901429,-9058.245606213284,-29188.472531851832
-13043.002848983151,-10607.824994066355,-8793.511544884628,-29529.09076560626
-11689.872943147771,-8793.01980650661,-8752.138465897855,-29988.50852114064
-12925.11974872586,-9678.39475612578,-9260.59594876718,-29825.184324405716
-14684.179685614072,-11885.517762365076,-9367.884322152651,-29257.31590477418
-14374.451562696882,-11928.477815208176,-9061.97834753732,-29189.76893303024
-13047.652011829856,-10611.960066790589,-8784.190867446765,-29512.975157853984
-11681.044004087926,-8780.88280926738,-8747.154026884322,-29981.110093725933
-12898.990559457608,-9633.355991048336,-9255.611509753646,-29828.738251774103
-14673.786124442357,-11848.659735758274,-9359.725935426466,-29247.816413380675
-14370.964690561856,-11902.795660829028,-9055.451638156372,-29178.77187475823
-13063.566453882037,-10608.249677211008,-8790.806983805536,-29508.6165676852
-11695.93026589516,-8785.822544792003,-8748.025744918079,-29970.60477383194
-12886.875913962833,-9608.791423891951,-9257.846684199178,-29827.307740128967
-14670.254548818417,-11832.365314050356,-9365.738554684944,-29246.296494757717
-14383.101687801089,-11914.955009812717,-9060.927815547922,-29171.082874665604
-13089.047442561085,-10639.96680259309,-8793.958579773735,-29505.464971717
-11710.682417235665,-8807.101405513455,-8745.410590816808,-29968.347247641952
-12857.550425237469,-9585.344443958336,-9243.45216076996,-29820.42340283673
-14663.794894670831,-11822.016456367548,-9363.23515930595,-29240.105061543592
-14395.238685040318,-11926.2649925071,-9065.17464699443,-29172.088703166093
-13099.552762455078,-10657.356459779316,-8790.762280316625,-29498.379468724663
-11704.3121700659,-8813.426949194307,-8729.58555574245,-29959.78652951557
-12822.033503297986,-9559.774048301464,-9231.404570508548,-29825.51960057254
-14649.109798563695,-11818.171956321235,-9366.878493652164,-29250.811547137684
-14398.502039730793,-11939.497225224644,-9068.907388318466,-29173.40745608896
-13103.374910756937,-10667.079468617376,-8791.656350094838,-29496.45721870151
-11706.145013111236,-8827.285030756597,-8738.34743956893,-29966.179128429787
-12812.77988109349,-9547.637051062233,-9238.959460134443,-29836.069623955445
-14655.18947305554,-11813.589848707898,-9373.226389077472,-29257.204146051903
-14412.04719687071,-11949.488454996164,-9065.912254561455,-29166.277249607712
-13115.087224851515,-10691.576980540392,-8784.570847102505,-29482.33091620576
-11714.191641115149,-8852.698964202282,-8732.088951121445,-29959.67477079329
-12791.590427349858,-9542.339687626323,-9235.114960088127,-29850.441795640207
-14647.165196796084,-11809.655941683764,-9373.226389077472,-29266.48012000085
-14422.798385953713,-11960.75373420164,-9068.12507726253,-29171.12757815452
-13137.528376284645,-10712.386454628284,-8796.1266989859,-29493.395029711133
-11726.239231376558,-8860.767943950646,-8729.071465619978,-29961.015875460613
-12779.632244066268,-9513.438882045612,-9222.463872726426,-29854.375702664343
-14650.696772420022,-11797.563647933444,-9375.305101311817,-29271.59866948112
-14440.031580928751,-11974.768277975116,-9079.144487278996,-29175.240299134293
-13157.80140850561,-10733.397094416272,-8802.608704877937,-29490.89163433214
-11738.689153038164,-8881.867990716457,-8738.101570379922,-29963.11693943941
-12758.979232189564,-9501.480698762023,-9232.49980598686,-29867.093845259413
-14639.297382747816,-11798.591828178389,-9384.648130494134,-29279.80175969622
-14440.456264073404,-11985.47476356921,-9082.877228603033,-29178.39189510249
-13169.357260389002,-10757.715792383648,-8812.801100349558,-29494.62437565617
-11739.85144374984,-8900.397586869907,-8736.045209890033,-29962.31227663902
-12726.546850984914,-9478.413698484148,-9223.44734948246,-29874.939307563225
-14624.008789540389,-11774.206074977646,-9388.112650884706,-29291.447018557432
-14456.348354381127,-11986.480592069698,-9092.287313018718,-29182.14698817098
-13184.735260574254,-10763.527245942028,-8810.275353226109,-29489.97521280947
-11745.305269396937,-8904.309142149585,-8730.457273776206,-29962.759311528127
-12704.776251885443,-9448.574119636312,-9219.781663391788,-29878.73910412063
-14606.619132354155,-11749.328583398888,-9387.196229362038,-29289.971803423385
-14437.684647760949,-11971.907254684837,-9084.955940837375,-29179.844758492087
-13190.770231577186,-10775.41837399225,-8815.572716662016,-29494.400858211626
-11758.04576373646,-8919.038941745632,-8740.850834947925,-29968.146081941853
-12682.402155685682,-9428.278735670894,-9222.597983193158,-29897.469865974173
-14608.295513188305,-11749.194472932157,-9399.042653923352,-29308.65786178802
-14462.025697472776,-11993.476688084207,-9094.56719095316,-29186.81850276214
-13210.03743529766,-10795.356130046384,-8808.911896814334,-29489.081143031257
-11761.957319016135,-8937.34502045453,-8726.121035351878,-29957.19372715876
-12651.914376248644,-9405.837584237765,-9203.867221339611,-29893.58066243895
-14591.26348391336,-11730.17313840069,-9388.894961940645,-29295.42562907048
-14461.936290494954,-11997.745871275172,-9095.617722942558,-29172.401627588468
-13220.878031358485,-10815.38329307834,-8814.186908505788,-29475.670096358077
-11764.080734739391,-8944.765799613691,-8729.093817364434,-29947.850697976435
-12639.956192965055,-9384.514020027402,-9200.380349204584,-29893.468903716675
-14591.196428679996,-11716.203298116125,-9389.118479385195,-29300.231254128368
-14479.43770640346,-12009.391130136388,-9097.696435176902,-29168.646534519976
-13237.19480481086,-10831.834176997443,-8818.120815529921,-29469.29984918831
-11782.833848337395,-8967.095192324543,-8722.857680661402,-29935.512535037105
-12612.463547285028,-9367.6608047081,-9190.411471177516,-29888.059781558488
-14571.12456215913,-11704.781556699463,-9387.129174128671,-29295.3138703482
-14487.663148363014,-12028.23365071221,-9099.50692647778,-29168.668886264437
-13258.138389365482,-10861.360831422906,-8821.160652775843,-29470.12686373316
-11778.676423868708,-8986.45180302284,-8723.237660317143,-29935.981921670667
-12575.15848578912,-9347.141903298128,-9186.365805431104,-29897.849845629917
-14549.778646204311,-11687.302492535411,-9391.308950341816,-29307.204998398425
-14475.637909846058,-12018.04125524059,-9102.725577679346,-29174.41328458945
-13252.192825340371,-10863.260729701607,-8819.03723705259,-29465.656514842096
-11785.56076116094,-8999.080538640088,-8727.573898741472,-29939.938180439254
-12571.53750318736,-9335.630754903646,-9193.026625278786,-29914.837171415948
-14562.943823688487,-11680.105230820804,-9401.300180113338,-29316.928007236485
-14493.34049145466,-12018.71180757425,-9108.313513793171,-29167.998333930773
-13273.404630828456,-10869.519218149091,-8828.201452279265,-29465.56710786428
-11807.443118982688,-9007.194221877364,-8731.597212743427,-29941.748671740137
-12557.634718136158,-9309.099234235196,-9194.7700613463,-29920.469811018684
-14557.869977697132,-11666.470666703066,-9404.63059003718,-29318.17970492598
-14512.49593645286,-12034.782711837615,-9119.489386020829,-29168.668886264437
-13287.933264724406,-10889.076994547486,-8833.387056992897,-29456.22407868196
-11807.37606374932,-9016.894878970968,-8730.412570287297,-29930.461040790207
-12525.917592754078,-9284.60172231218,-9186.745785086843,-29924.426069787278
-14540.077989110709,-11649.103361261292,-9406.776357504888,-29327.589789341662
-14516.519250454814,-12041.979973552225,-9125.144377368018,-29174.748560756278
-13303.467727120844,-10909.372378512906,-8843.870025142434,-29466.79645380932
-11816.160299320258,-9043.046419983675,-8733.407704044308,-29936.22779085968
-12496.078013906244,-9268.061431415252,-9178.989729760851,-29932.875029191386
-14522.06248307973,-11624.941125505104,-9408.519793572405,-29333.80357430024
-14520.16258480103,-12040.750627607184,-9127.290144835728,-29172.91571771094
-13317.549326127688,-10917.553116983549,-8843.17712106432,-29457.98986649393
-11827.336171547911,-9043.40404789496,-8725.249317318121,-29921.74386045264
-12478.330728808727,-9230.331686774694,-9170.00432848982,-29927.756479711115
-14511.847735863656,-11601.650607782676,-9411.403168607136,-29331.18842019897
-14529.907945383544,-12047.43379919932,-9133.727447238856,-29166.590174030087
-13328.769901844253,-10933.914593924832,-8843.735914675703,-29449.33974138972
-11834.15345360678,-9061.486609159305,-8729.63025923136,-29915.820648171983
-12456.56012970926,-9220.25105002535,-9168.707927311412,-29930.863372190404
-14495.240389733362,-11590.20651462156,-9406.865764482707,-29323.298254406247
-14521.235468534884,-12042.583470652518,-9125.56906051267,-29148.105281365548
-13330.73685535632,-10939.815454461032,-8838.907937873357,-29432.508877814875
-11833.639363484308,-9068.706222618368,-8720.197823071221,-29903.482485232653
-12439.550452178772,-9204.090738784163,-9160.884816752055,-29929.00817740061
-14500.381290958085,-11594.498049556978,-9409.43621509507,-29329.04265273126
-14550.225681093418,-12069.494970976708,-9126.306668079696,-29155.794281458177
-13368.377193019056,-10977.03110897912,-8840.427856496317,-29437.985055206427
-11861.042602186511,-9106.57007772566,-8724.422302773273,-29905.94117712273
-12414.31533268873,-9189.025663021286,-9148.367839857085,-29923.822572686982
-14474.408563901015,-11571.363994045734,-9402.753043502931,-29325.533428851777
-14533.059541351742,-12062.72239240675,-9130.352333826106,-29148.842888932573
-13357.02250683576,-10974.147733944385,-8843.624155953426,-29422.919979443548
-11856.594605039909,-9103.75375792429,-8718.946125381724,-29888.35035423641
-12391.002463221845,-9160.996575474332,-9137.99663042982,-29921.609749985902
-14470.161732454508,-11554.086095581784,-9405.7705290044,-29329.08735622017
-14552.058524138753,-12067.595072698006,-9133.23570886084,-29146.25008657576
-13379.240140824337,-10982.8425625375,-8844.853501898468,-29419.16488637506
-11870.743259280118,-9109.431101015938,-8723.416474272784,-29887.433932713742
-12379.826590994193,-9138.354258341104,-9155.676860293968,-29941.480450806677
-14448.43583684395,-11514.724673595989,-9421.90848850113,-29339.547972625256
-14545.040076379786,-12050.652450400885,-9143.159883398996,-29142.33853129608
-13383.26345482629,-10990.486859141214,-8854.151827591877,-29418.427278808034
-11864.127142921348,-9118.438854031428,-8721.941259138735,-29884.997592568117
-12344.376724288071,-9116.114272608074,-9139.181272885951,-29937.1665641268
-14432.834319214144,-11509.829641560274,-9418.220450666004,-29343.28071394929
-14539.720361199425,-12060.28605226112,-9139.47184556387,-29141.01977837322
-13382.145867603524,-11005.641341881912,-8846.552234477072,-29412.03467989381
-11871.436163358232,-9139.851825219612,-8713.469947990174,-29876.25806048609
-12327.38939850204,-9102.56911546816,-9130.195871614918,-29943.44740431874
-14431.873194202566,-11496.195077442537,-9413.325418630291,-29345.985275028383
-14557.892329441587,-12066.00809884168,-9134.442703061426,-29136.86235390453
-13396.65214975502,-11014.202060008296,-8837.835054139501,-29396.746086686384
-11878.54401809502,-9142.57873804316,-8703.63518042984,-29860.32126668945
-12294.822906830655,-9067.7898010957,-9114.639057474024,-29931.936255924255
-14416.070510872663,-11467.875417217663,-9410.754968017933,-29342.90073429355
-14569.35877434716,-12070.321985521554,-9142.265813620785,-29140.460984761838
-13415.22644939738,-11030.876461371954,-8842.104237330466,-29399.65181346557
-11896.917152037282,-9165.176351687474,-8702.025854829057,-29868.18908073772
-12287.312720693675,-9052.814132310645,-9108.961714382376,-29948.700064265737
-14413.969446893863,-11453.07856238825,-9409.324456372791,-29350.880307064093
-14580.78051576382,-12075.172314068355,-9149.507778824303,-29140.43863301738
-13439.343981664657,-11049.71898194778,-8862.623138740437,-29398.802447176276
-11913.055111534011,-9177.223941948883,-8710.743035166626,-29855.806214309483
-12277.723822322348,-9032.004658222755,-9107.575906226148,-29943.82738397448
-14401.743042676811,-11428.35753302068,-9411.559630818325,-29351.416748931024
-14581.495771586391,-12069.070287832055,-9148.412543345994,-29137.30938879364
-13447.658830602031,-11057.497389018225,-8849.65912695636,-29393.035697106803
-11925.996771573637,-9204.560125417724,-8708.329046765453,-29856.76733932106
-12253.606290055071,-9030.820015766623,-9103.016150357264,-29954.82444224649
-14380.75475463328,-11421.74141666191,-9412.811328507822,-29362.033827547293
-14579.88644598561,-12081.386099026931,-9152.324098625671,-29140.550391739656
-13457.001859784348,-11078.373918339485,-8858.398659038385,-29399.785923932308
-11935.339800755955,-9229.7281896744,-8716.330971280453,-29868.166728993267
-12235.881356702012,-9023.667457540923,-9100.93743812292,-29967.810805775025
-14376.507923186771,-11409.671474656045,-9415.158261675628,-29375.57898468721
-14601.254713684884,-12090.527962509152,-9149.61953754658,-29141.846792918062
-13474.167999526026,-11089.90741847842,-8849.70383044527,-29394.57796747422
-11951.36600153041,-9242.35692529165,-8703.09873856291,-29855.85091779839
-12228.348818820576,-9007.618905022016,-9092.622589185548,-29969.084855208977
-14373.26692024075,-11389.241980223893,-9413.437177352567,-29371.04158056278
-14610.821260311755,-12088.762174697182,-9153.754610270811,-29139.790432428174
-13490.104793322658,-11098.468136604804,-8848.31802228904,-29385.81608364774
-11964.397068547854,-9248.481303272403,-8696.1026425484,-29845.63617058232
-12205.885315642992,-8976.840552907057,-9075.501152932782,-29962.044055705555
-14360.973460790332,-11370.242997436882,-9412.67721804109,-29378.127083555115
-14618.532612148836,-12092.11493636548,-9163.164694686497,-29141.466813262323
-13501.928866139517,-11107.878221020488,-8859.270377072142,-29384.229109791413
-11976.869341953916,-9269.26842561584,-8707.77025315407,-29846.03850198251
-12194.485925970785,-8971.274968537686,-9081.42436521344,-29976.818558790517
-14346.668344338936,-11352.115732683627,-9420.410921622626,-29399.3388890432
-14621.840670328222,-12094.663035233383,-9162.449438863929,-29146.33949355358
-13511.3389505552,-11119.255258948238,-8857.571644493539,-29385.61491794764
-11981.47380131171,-9281.763050766356,-8705.24450603062,-29847.536068861016
-12157.650251108438,-8942.24005249024,-9071.611949397558,-29975.36569540092
-14322.975495216311,-11330.09926439515,-9420.030941966885,-29393.6391942071
-14617.057397014783,-12093.433689288342,-9170.33960465665,-29148.77583369921
-13519.117357625648,-11136.756674856744,-8867.249949842686,-29388.34183077119
-11992.22499039471,-9305.679417333537,-8704.685712419237,-29843.445699625696
-12137.801902032126,-8934.14872099742,-9064.79466733869,-29982.093570481968
-14309.899724709956,-11321.38208405758,-9419.00276172194,-29401.19408383299
-14626.959219808488,-12110.197497629822,-9178.162715216007,-29154.07319713512
-13531.38846533161,-11152.559358186649,-8876.816496469557,-29381.166920801035
-12008.89939175837,-9317.995228528407,-8717.023875358567,-29837.544839089496
-12117.93120121136,-8907.661903817881,-9068.03567028471,-29983.859358293936
-14278.16024758342,-11269.883664832552,-9418.980409977486,-29401.417601277542
-14621.37128369466,-12087.756346196693,-9173.58060760267,-29135.85652540404
-13546.095913183202,-11158.370811745026,-8867.071135887043,-29363.01730430333
-12019.717636074738,-9335.36253397018,-8705.937410108734,-29827.173629662237
-12096.607637000996,-8882.180915138832,-9053.663498599946,-29983.94876527176
-14254.310936249609,-11231.349257391605,-9407.20104064954,-29398.10954309816
-14616.520955147858,-12069.29380527661,-9166.80802903271,-29134.090737592072
-13552.130884186136,-11149.854797107551,-8871.496781289194,-29360.111577524134
-12023.360970420954,-9334.46846419197,-8709.603096199406,-29812.6896992552
-12083.598921728006,-8876.66003425837,-9054.132885233508,-29981.69123908177
-14260.43531423036,-11237.831263283642,-9421.796729778856,-29408.10077286968
-14637.621001913669,-12095.601808500507,-9181.515476884304,-29135.141269581472
-13569.431134394545,-11182.30953005666,-8879.811630226568,-29356.267077477823
-12045.310383476066,-9366.297348296326,-8714.274610790564,-29806.341803829888
-12074.255892545689,-8865.171237608343,-9053.395277666485,-29975.41039888983
-14245.258479745207,-11218.072321185153,-9429.888061271677,-29405.32915655722
-14636.503414690902,-12092.941950910325,-9184.979997274875,-29120.90320836344
-13586.016128780382,-11190.289102827204,-8875.14011563541,-29343.370120927117
-12051.43476145682,-9379.082546124762,-8710.117186321877,-29798.85396943736
-12042.650525885883,-8848.273318800131,-9043.9851932508,-29981.199500703755
-14221.789148067135,-11200.660312254467,-9418.980409977486,-29408.50310426988
-14634.089426289727,-12100.116860880478,-9182.43189840697,-29127.98871135577
-13582.283387456346,-11204.616571023056,-8883.611426783971,-29347.773414584808
-12062.610633684471,-9404.205906892528,-8720.264878304586,-29802.05026889447
-12034.76036009316,-8843.199472808776,-9040.699486815867,-29986.005125761647
-14217.274095687164,-11186.578713247623,-9425.440064125069,-29422.02590966534
-14650.205034042006,-12109.996331929724,-9195.261799724318,-29135.655359703946
-13598.89073358664,-11219.145204919008,-8884.125516906442,-29345.649998861554
-12073.831209401038,-9416.38760762067,-8713.134671823344,-29799.16689385973
-12013.861479027448,-8822.054722554056,-9039.023105981722,-29994.387029932383
-14188.485048828728,-11155.845064621575,-9433.933727018086,-29439.594380807208
-14653.870720132676,-12108.744634240227,-9202.05673003873,-29145.49012726428
-13623.321190276289,-11242.525129619256,-8894.899057733901,-29353.629571632096
-12100.698006236316,-9448.44000916958,-8725.092855106934,-29805.693603240685
-12009.32407490302,-8821.518280687127,-9035.893861757975,-30007.485152183195
-14177.040955667611,-11141.15996851444,-9430.33509616078,-29442.63421805313
-14656.508225978405,-12114.287866865145,-9206.325913229692,-29140.215115572824
-13630.65256245763,-11249.029487255752,-8896.575438568048,-29345.918219795018
-12114.1090529095,-9462.186332009594,-8724.82463417347,-29794.294213568475
-11998.349368375466,-8812.488175927183,-9036.005620480257,-30003.66300388134
-14179.387888835416,-11134.6779626224,-9434.403113651648,-29439.281456384837
-14657.37994401216,-12115.718378510282,-9202.526116672292,-29131.743804424263
-13631.74779793594,-11260.51828390578,-8892.23920014372,-29334.541181867266
-12120.166375656889,-9480.179486296116,-8712.732340423148,-29783.341858785378
-11982.099650156457,-8798.540687387072,-9017.856003982544,-30008.93801557279
-14164.836903195011,-11115.030779246186,-9427.876404270695,-29455.30765715929
-14671.461543019002,-12122.267439635689,-9201.520288171803,-29132.16848756892
-13653.026658657393,-11278.667900403489,-8891.009854198677,-29328.886190520072
-12124.30144838112,-9493.97051262504,-8714.028741601556,-29772.88124238029
-11946.918004383804,-8773.93141674178,-9011.932791701887,-29995.2810997106
-14122.815623619035,-11082.084307919064,-9422.266116412417,-29444.35530237619
-14666.544159238836,-12123.899116980923,-9207.510555685823,-29132.637874202475
-13672.919711222616,-11297.957455868418,-8898.609447313482,-29333.98238825588
-12156.35384993003,-9526.559356040878,-8721.181299827254,-29783.72183844112
-11957.713896955716,-8785.062585480522,-9018.83948073858,-30015.91175984285
-14121.27335325162,-11071.646043258435,-9432.525567117402,-29461.2532211844
-14675.887188421151,-12127.765968771691,-9220.765140147823,-29146.16067959794
-13676.227769402,-11300.840830903153,-8908.019531729165,-29331.90367602154
-12158.767838331203,-9532.706085766087,-8728.87029991988,-29774.445864492165
-11938.513748468607,-8770.265730651108,-9021.141710417474,-30018.70572789976
-14104.040158276575,-11046.388572023938,-9436.34771541926,-29468.383427665645
-14671.32743255227,-12112.097395908522,-9222.7767971488,-29138.4269760164
-13694.46679287753,-11307.345188539648,-8911.037017230632,-29324.61700732911
-12183.421812465407,-9556.376583144258,-8729.317334808986,-29769.9755156011
-11918.128957525369,-8756.050021177534,-9010.010541678732,-30020.471515711728
-14084.817658045014,-11019.7005891443,-9430.089226971771,-29476.228889969458
-14681.832752446266,-12119.004084945213,-9217.568840690714,-29137.823478916107
-13702.558124370353,-11325.114825381615,-8908.444214873816,-29328.08152771968
-12198.352777761553,-9578.147182243729,-8728.467968519684,-29776.010486604035
-11916.564335413495,-8752.45139032023,-9001.650989252448,-30025.143030302886
-14068.746753781648,-11004.590809892514,-9424.635401324678,-29479.581651637756
-14693.880342707676,-12130.247012406233,-9231.806901908743,-29154.408473301944
-13717.064406521846,-11345.790189002775,-8913.361598653984,-29329.66850157601
-12191.021405580212,-9590.95473181662,-8716.53213698055,-29764.61109693183
-11887.372957154868,-8736.648706990327,-8985.40127103344,-30021.41028897885
-14046.640878515347,-10982.239065437208,-9420.925011745096,-29489.63993664264
-14681.788048957354,-12129.97879147277,-9224.050846582752,-29147.702949965354
-13726.072159537336,-11358.24011066438,-8915.19444169932,-29326.40514688553
-12201.012635351735,-9611.384226248769,-8725.58459348495,-29762.51003295303
-11867.97164296766,-8734.815863944992,-8992.665587981413,-30027.9369983598
-14036.068503387987,-10975.131210700418,-9429.619840338211,-29495.898425090127
-14685.81136295931,-12134.650306063928,-9227.11303557313,-29142.85262141855
-13729.424921205631,-11366.48790436839,-8918.211927200786,-29319.56551308221
-12224.861946685549,-9634.406523037736,-8733.474759277673,-29759.13491954028
-11863.210721398678,-8715.593363713428,-8978.9192651414,-30022.41611747934
-14021.67397995877,-10936.753265470656,-9418.041636710364,-29489.908157576105
-14695.981406686476,-12126.648381548928,-9230.041114096775,-29141.39975802896
-13756.157607574178,-11375.54036087279,-8920.156528968399,-29318.62673981509
-12263.418705870952,-9653.986651180585,-8726.63512547435,-29753.23405900408
-11882.723794308162,-8721.471872505173,-8978.226361063285,-30025.45595472526
-14015.124918833366,-10922.537555997082,-9428.926936260095,-29502.000451326425
-14707.00081670294,-12130.537585084152,-9240.25586131285,-29148.507612765745
-13779.023442151958,-11392.72885235892,-8929.790130828635,-29319.05142295974
-12282.708261335882,-9675.779602024508,-8740.403800058819,-29756.631524161283
-11879.97452974016,-8721.516575994085,-8987.30116931214,-30039.17992582082
-14006.072462328966,-10906.891334878366,-9434.045485740362,-29515.03151834387
-14711.404110360636,-12134.292678152642,-9246.9837363939,-29150.85454593355
-13783.449087554109,-11407.458651954968,-8931.690029107336,-29315.18457116897
-12283.557627625183,-9691.470526632134,-8732.714799966192,-29739.823012330893
-11850.58198578143,-8711.368884011375,-8969.240959792252,-30026.81941113704
-13977.730450359635,-10890.842782359456,-9426.557651347835,-29511.879922375672
-14711.71703478301,-12143.278079423677,-9243.094532858677,-29144.551353997154
-13790.44518356862,-11423.551907962788,-8926.727941838259,-29308.52375132129
-12306.468165691873,-9720.21487000166,-8728.57972724196,-29742.996960043547
-11847.25157585759,-8709.089006076932,-8962.11075331101,-30034.731928674213
-13970.846113067402,-10874.280139718074,-9426.736465303477,-29524.08397484827
-14721.328284898793,-12143.076913723578,-9250.895291673576,-29163.12565363952
-13819.2118786826,-11444.003754139394,-8938.931994310857,-29328.349748653145
-12330.384532259051,-9746.277004036549,-8739.107398880411,-29749.70248338014
-11846.648078757296,-8705.177450797255,-8961.887235866456,-30041.21393456625
-13966.375764176342,-10856.778723809568,-9425.90945075863,-29531.95178889654
-14721.596505832256,-12139.59004158855,-9250.135332362095,-29154.944915168875
-13817.893125759736,-11438.527576747843,-8935.981564042755,-29309.104896677127
-12329.758683414304,-9742.141931312315,-8728.244451075132,-29731.843439560347
-11822.083511600911,-8681.596360396905,-8945.838683347545,-30031.24505653919
-13929.070702680434,-10816.679694256747,-9417.751064032444,-29531.616512729703
-14719.897773253651,-12127.967134471792,-9247.698992216468,-29154.4308250464
-13830.901841032726,-11448.138826863627,-8932.427636674362,-29304.23221638587
-12352.266890080797,-9770.439239792731,-8737.810997702003,-29734.436241917163
-11830.934802405216,-8687.139593021822,-8953.125352039975,-30044.61139972346
-13935.060970194456,-10802.195763849708,-9429.418674638116,-29550.056701905334
-14742.316572942324,-12141.109960211512,-9265.893312203088,-29155.973095413818
-13856.02520180049,-11471.205827141504,-8946.084552536555,-29300.94650995094
-12370.483561811872,-9789.75114700212,-8742.460160548706,-29725.272026690487
-11812.762834163052,-8678.914151062269,-8948.856168849012,-30035.35777751896
-13907.389510558784,-10783.062670595966,-9423.651924568643,-29539.08199537778
-14736.81804380632,-12137.35486714302,-9264.59691102468,-29156.01779890273
-13865.211768771622,-11481.778202268864,-8953.617090417993,-29302.265262873803
-12380.720660772404,-9811.566449590498,-8745.63410826136,-29722.209837700117
-11795.104956043358,-8671.046337014,-8942.016535045688,-30042.398577022384
-13887.004719615546,-10757.246405750086,-9427.094093214762,-29558.95269619855
-14742.607145620244,-12138.58421308806,-9264.418097069038,-29155.928391924903
-13878.041670088967,-11494.116365208194,-8946.933918825856,-29294.777428481277
-12404.189992450476,-9834.633449868375,-8741.990773915146,-29721.360471410808
-11798.077738055914,-8675.092002760412,-8935.378066942461,-30049.21585908125
-13872.878417119791,-10737.040428762488,-9422.57904083479,-29566.932268969093
-14748.373895689714,-12141.221718933788,-9267.614396526144,-29159.23645010429
-13890.759812684038,-11511.058987505316,-8954.10882879601,-29300.231254128368
-12421.490242658883,-9854.124171033403,-8749.456256563219,-29721.136953966256
-11785.42665069421,-8665.704270089182,-8932.67350586337,-30042.689149700305
-13843.105893505322,-10706.30678013644,-9418.53337508838,-29559.980876443493
-14740.707247341545,-12137.913660754402,-9274.990472196398,-29152.016836645227
-13899.521696510516,-11521.966638799506,-8958.668584664892,-29290.374134823574
-12421.1326147476,-9869.77039215212,-8741.007297159113,-29701.3109566344
-11766.80764756294,-8658.70817407467,-8927.331438938552,-30038.33055953152
-13826.766768308493,-10688.35832933883,-9422.869613512708,-29573.347219627765
-14754.095942270273,-12145.222681191288,-9279.818448998743,-29167.886575208497
-13918.677141508717,-11544.541900699363,-8957.215721275297,-29294.822131970184
-12450.927490106522,-9900.72755822272,-8740.694372736738,-29708.84349451584
-11766.941758029672,-8666.978319523134,-8916.356732410995,-30046.80187068008
-13808.751262277516,-10675.148448365742,-9414.130081430683,-29579.158673186143
-14748.843282323276,-12146.921413769893,-9279.192600153996,-29162.14217688348
-13932.42346434873,-11557.930595628097,-8963.854189378522,-29291.737591235356
-12470.731135693924,-9924.621573045442,-8747.645765262338,-29704.77547702497
-11755.542368357465,-8662.731488076626,-8912.33341840904,-30045.639579968403
-13795.407270837695,-10655.68007894517,-9422.71315130152,-29591.206263447555
-14757.918090572131,-12147.12257946999,-9288.915608992054,-29171.172281643427
-13941.1406446863,-11563.4291247641,-8960.72494515478,-29285.90378593252
-12485.28212133433,-9942.5476720986,-8747.377544328874,-29699.67927928916
-11768.595787119364,-8668.364127679364,-8912.020493986665,-30049.595838736997
-13770.73094495904,-10621.638372139738,-9409.659732539623,-29591.3850774032
-14756.934613816096,-12141.154663700425,-9287.194524668996,-29163.282115850703
-13952.33886865841,-11567.497142254966,-8961.730773655268,-29277.79010269524
-12496.748566239905,-9945.028715733137,-8737.721590724183,-29683.25074711451
-11748.166292687214,-8646.861749513359,-8896.486031590228,-30037.81646940905
-13747.775703403438,-10581.964025731568,-9401.300180113338,-29588.926385513118
-14752.844244580776,-12121.462776835297,-9275.616321041149,-29153.134423867992
-13959.938461773214,-11570.358165545244,-8958.690936409348,-29265.764864178287
-12506.963313455975,-9965.458210165289,-8739.845006447436,-29680.121502890768
-11735.582260558876,-8648.471075114141,-8888.841734986512,-30039.40344326537
-13731.749502628983,-10575.660833795171,-9395.019339921397,-29591.13920821419
-14755.213529493038,-12132.906869996414,-9273.984643695909,-29155.01197040224
-13970.28731945602,-11591.882895455708,-8958.48977070925,-29267.195375823427
-12516.932191483043,-9989.128707543456,-8739.040343647044,-29678.86980520127
-11727.490929066054,-8652.42733388273,-8884.304330862085,-30040.722196188235
-13712.504650652963,-10557.220644619543,-9396.025168421886,-29605.354917687768
-14753.134817258697,-12131.565765329096,-9281.807754255266,-29162.298639094668
-13977.305767214986,-11607.015026451949,-8964.524741712183,-29265.966029878386
-12526.029351476354,-10010.474623498276,-8741.20846285921,-29673.59479350982
-11718.527879539475,-8648.225205925131,-8880.70570000478,-30042.8903154004
-13691.315196909332,-10521.524908724416,-9385.922179928086,-29607.344222944288
-14764.221282508528,-12123.675599536373,-9275.795134996788,-29159.549374526665
-13997.57879943595,-11611.932410232115,-8956.746334641735,-29254.432529739446
-12545.788293574846,-10018.633010224465,-8730.0102388871,-29654.595810722807
-11709.430719546166,-8634.322420873932,-8865.081830630521,-30031.26740828364
-13660.670955261106,-10484.041033272868,-9377.42851703507,-29606.00311827697
-14749.49148291248,-12107.090605150534,-9278.11971642014,-29152.508575023247
-13997.489392458128,-11610.568953820342,-8955.382878229962,-29244.150727290005
-12548.179930231565,-10025.584402750064,-8730.859605176402,-29646.72799667454
-11692.59985597132,-8623.884156213302,-8867.473467287238,-30028.56284720455
-13629.423216512589,-10449.619346811694,-9385.586903761256,-29613.647414880685
-14753.246575980971,-12104.430747560353,-9289.36264388116,-29154.520232024224
-14021.1598898363,-11628.472701129043,-8967.430468491373,-29246.87764011355
-12580.813477136311,-10063.18003692389,-8743.957727427212,-29647.3985490082
-11703.418100287689,-8645.364182634852,-8871.56383652256,-30031.446222239283
-13624.639943199152,-10458.984727738469,-9387.464450295503,-29621.917560329148
-14754.833549837298,-12114.086701165046,-9285.227571156927,-29153.11207212354
-14029.29592481803,-11639.760332078977,-8970.135029570465,-29241.088538299628
-12589.754174918437,-10078.3792231535,-8755.982965944168,-29645.38689200722
-11693.672739705176,-8645.699458801682,-8874.246045857197,-30030.574504205528
-13607.898486602127,-10433.59314603724,-9394.795822476844,-29628.265455754456
-14754.788846348389,-12106.375349327964,-9302.393710898605,-29160.44344430488
-14030.882898674356,-11642.196672224603,-8980.953273886833,-29239.970951076863
-12592.749308675446,-10086.47055464632,-8750.573843785984,-29637.18380179212
-11671.902140605704,-8628.37685684882,-8857.906920660367,-30024.673643669328
-13570.079334983748,-10386.34155825872,-9377.7637932019,-29630.18770577761
-14760.7344103735,-12098.976921913258,-9298.07982421873,-29163.63974376199
-14045.858567459414,-11653.551358407898,-8980.193314575352,-29240.708558643888
-12613.78230020789,-10112.800909614672,-8757.1676084003,-29640.06717682686
-11680.887541876738,-8643.129008189322,-8861.550255006583,-30034.95544611877
-13553.986078975926,-10376.998529076402,-9379.551932758324,-29643.464641984065
-14746.96573578903,-12101.614427758985,-9301.700806820489,-29166.321953096623
-14049.479550061173,-11674.919626107172,-8988.530515257182,-29247.771709891764
-12636.491672574482,-10145.456808263876,-8763.02376544759,-29643.844621639804
-11682.4074604997,-8654.506046117074,-8861.639661984404,-30039.537553732105
-13537.289325867812,-10368.616624905662,-9385.966883416995,-29658.5520694914
-14750.58671839079,-12106.35299758351,-9310.328580180238,-29176.7378660128
-14054.732210008173,-11686.140201823737,-8994.811355449123,-29247.83876512513
-12635.9328789631,-10161.259491593775,-8762.979061958678,-29638.61431343726
-11659.74279162202,-8649.096923958889,-8851.782542679613,-30032.65321643987
-13515.652837235077,-10337.547700112784,-9379.8648571807,-29661.81542418187
-14755.079419026306,-12100.720357980772,-9317.950525039498,-29187.4890550958
-14081.084916720978,-11701.942885153638,-9005.383730576485,-29256.667704184976
-12671.248635202484,-10186.762832017284,-8772.031518463078,-29641.67650242764
-11677.64653893072,-8651.354450148876,-8855.89526365939,-30042.398577022384
-13495.849191647672,-10299.169754883022,-9376.132115856662,-29669.705589974597
-14751.905471313654,-12078.078040847546,-9316.475309905449,-29175.15089215647
-14094.607722116438,-11690.565847225887,-8999.952256673843,-29232.70663412889
-12677.261254460962,-10181.040785436724,-8774.132582441876,-29624.756231874973
-11663.699050390607,-8641.072647699433,-8856.252891570675,-30032.496754228683
-13469.742354123871,-10276.281568560787,-9379.57428450278,-29669.191499852124
-14748.552709645355,-12079.48620074823,-9318.41991167306,-29172.71455201084
-14097.468745406715,-11708.916629423697,-9002.88033519749,-29230.627921894546
-12690.024100544942,-10207.035864238249,-8767.628224805383,-29614.16150500316
-11655.920643320162,-8650.348621648387,-8842.260699541654,-30024.763050647147
-13445.446007900957,-10258.26606252981,-9369.85127566472,-29676.165244122178
-14757.269889982928,-12090.438555531333,-9322.465577419469,-29183.756313771763
-14114.053739792556,-11735.917536725705,-9003.953218931343,-29239.769785376764
-12704.642141418712,-10235.422579696487,-8765.191884659755,-29622.319891729345
-11656.837064842828,-8662.23974969861,-8837.008039594655,-30031.982664106214
-13420.389702366556,-10237.367181464098,-9368.174894830572,-29684.86007271529
-14749.603241634755,-12085.565875240074,-9327.025333288351,-29183.935127727407
-14119.999303817667,-11746.020525219505,-9008.937657944878,-29228.236285237825
-12717.650856691702,-10256.142646806557,-8778.133544699376,-29613.401545691675
-11656.21121599808,-8668.833514312926,-8849.212092067253,-30032.51910597314
-13396.048652654728,-10210.187460206444,-9370.454772765012,-29687.96696519458
-14746.295183455371,-12077.094564091512,-9334.826092103254,-29181.029400948217
-14133.723274913224,-11752.815455533915,-9016.760768504237,-29226.93988405942
-12730.972496387065,-10270.112487091124,-8773.752602786137,-29609.557045645364
-11644.856529814784,-8662.99970901009,-8827.665010412336,-30023.064318068544
-13381.475315269869,-10186.181686661444,-9361.916406383089,-29697.80173275492
-14758.052201038863,-12079.1509245814,-9342.068057306777,-29189.34424988559
-14140.69701918328,-11767.813476063428,-9018.012466193732,-29216.792192076708
-12750.977307674564,-10301.829612473204,-8776.568922587505,-29599.208187962555
-11665.911873091683,-8690.201782012198,-8824.714580144237,-30019.666852911338
-13360.777599904251,-10173.955282444393,-9344.32558349676,-29690.82798848486
-14735.096959483262,-12058.967299338256,-9324.79015884282,-29183.242223649293
-14137.008981348155,-11761.912615527228,-9017.341913860071,-29218.87090431105
-12744.383543060248,-10293.403004813554,-8770.82452426249,-29597.9341385286
-11646.130579248736,-8669.660528857772,-8818.232574252197,-30023.15372504637
-13333.3967129465,-10135.107950581069,-9345.46552246398,-29710.877503261272
-14733.375875160204,-12053.044087057602,-9333.932022325042,-29194.172226687937
-14153.526920500628,-11774.317833699924,-9020.8287859951,-29223.11773575756
-12771.652671295724,-10320.605077815662,-8773.394974874851,-29594.5366733714
-11647.225814727046,-8685.23969474312,-8818.79136786358,-30021.477344212217
-13308.5415731122,-10117.628886417018,-9350.673478922066,-29719.013538243
-14732.459453637535,-12044.393961953398,-9338.55883342729,-29194.999241232785
-14163.316984572051,-11783.258531482046,-9020.962896461831,-29217.283930454723
-12778.380546376771,-10337.48064487942,-8783.810887791025,-29592.77088555943
-11639.06742800086,-8686.58079941044,-8823.731103388203,-30026.81941113704
-13284.24522688928,-10099.166345496937,-9350.159388799597,-29728.93771278116
-14730.447796636558,-12056.843883615004,-9347.700696909513,-29207.78443906122
-14177.957377190278,-11805.163241048249,-9037.0338007252,-29223.87769506904
-12800.642883854258,-10361.844046335704,-8787.40951864833,-29591.94387101458
-11653.014916540971,-8696.01323557058,-8820.55715567555,-30026.774707648125
-13261.334688822591,-10060.989565967271,-9346.001964330908,-29731.10583199332
-14732.973543760008,-12032.212261225255,-9353.176874301062,-29204.92341577094
-14195.99523496571,-11801.139927046292,-9039.626603082012,-29218.669738610955
-12821.29589573096,-10369.823619106248,-8791.633998350382,-29584.925423255616
-11648.768085094463,-8687.899552333301,-8818.366684718929,-30022.61728317944
-13254.495055019266,-10030.32297257459,-9345.510225952892,-29736.49260240705
-14747.658639867144,-12020.991685508692,-9352.41691498958,-29204.7446018153
-14220.492746888727,-11810.505307973064,-9038.55371934816,-29214.98170077583
-12842.64181168578,-10383.413479735074,-8788.616512848916,-29580.365667386734
-11660.614509655776,-8686.603151154894,-8811.45999568224,-30015.688242398293
-13229.52815646269,-9993.93433260135,-9340.503435194902,-29739.845364075347
-14729.28550592488,-12003.534973089096,-9360.061211593296,-29201.01186049126
-14218.72695907676,-11817.94843887668,-9048.053210741666,-29203.984642503816
-12845.6816489317,-10402.14424158862,-8794.27150419611,-29568.653353292157
-11641.056733257385,-8688.659511644782,-8810.297704970564,-30006.680489382805
-13195.777022335174,-9976.142344014925,-9348.862987621187,-29743.376939699287
-14721.730616298988,-12001.657426554852,-9362.296386038826,-29204.11875297055
-14213.831927041048,-11820.474186000132,-9039.69365831538,-29200.38601164651
-12844.720523920125,-10411.755491704404,-8789.465879138217,-29563.445396834064
-11616.358055634268,-8682.24456098611,-8795.903181541345,-29996.68925961128
-13143.295126354114,-9935.909203995372,-9325.617173387667,-29734.65975936172
-14686.794839715343,-11977.204618120744,-9356.976670858465,-29196.65327032248
-14199.549162334104,-11811.891116129294,-9038.956050748357,-29192.048810964683
-12844.094675075374,-10414.39299755013,-8785.666082580816,-29557.09750140876
-11628.763273806962,-8694.716834392171,-8801.893449055367,-30008.736849872694
-13144.926803699353,-9927.795520758096,-9330.378094956648,-29750.46244269162
-14715.62859006269,-11992.068528183525,-9366.09618259623,-29207.762087316765
-14253.729790893767,-11851.856035215384,-9058.871455058032,-29205.817485549152
-12909.920562496252,-10470.473524388495,-8805.939114801778,-29568.09455968077
-11664.838989357828,-8727.506843508107,-8805.626190379404,-30010.25676849565
-13139.74119898572,-9909.690607749297,-9332.747379868912,-29761.615963174816
-14720.478918609491,-11976.824638465005,-9373.405203033117,-29215.562846131663
-14264.212759043308,-11851.476055559642,-9057.485646901803,-29203.202331447883
-12904.89141999381,-10468.528922620884,-8797.177230975298,-29557.52218455341
-11650.667983373163,-8720.711913193692,-8797.400748419852,-30004.91470157084
-13117.83648941952,-9893.418537785834,-9330.51220542338,-29768.9249836117
-14719.495441853458,-11981.630263522897,-9379.686043225056,-29228.07982302664
-14263.989241598754,-11860.975546953148,-9062.403030681971,-29204.811657048664
-12912.580420086437,-10479.816553570814,-8801.69228335527,-29553.78944322937
-11652.769047351963,-8728.847948175424,-8799.770033332114,-30007.59691090547
-13082.16310526885,-9858.90744434684,-9328.36643795567,-29781.46431225113
-14700.474107321992,-11963.011260391624,-9382.748232215434,-29230.650273639
-14268.504293978727,-11870.117410435369,-9070.002623796776,-29210.041965251206
-12927.8019580605,-10505.588114927785,-8813.27048698312,-29565.971143957515
-11643.11309374727,-8741.230814603665,-8799.41240542083,-30013.98950981969
-13046.19914844026,-9839.707295859733,-9326.8018158438,-29790.67323096672
-14678.770563455888,-11956.641013221864,-9389.00672066292,-29241.423814466456
-14253.305107749118,-11869.893892990816,-9073.623606398536,-29212.478305396835
-12918.369521900358,-10512.94183885358,-8811.974085804712,-29562.57367880031
-11641.883747802229,-8745.857625705914,-8802.206373477742,-30012.447239452275
-13042.28759316058,-9820.37303690589,-9334.669629892069,-29801.04444039398
-14691.8686857067,-11941.531233970074,-9395.756947488422,-29240.19446852141
-14281.468305762804,-11874.16307618178,-9076.79755411119,-29198.95550000137
-12957.619185163878,-10532.253746062965,-8817.07028354052,-29540.713672723017
-11657.038230542928,-8751.177340886277,-8799.434757165285,-29995.12463749941
-13018.5723922935,-9784.856114966407,-9319.068112262265,-29785.107646597346
-14694.23797061896,-11931.048265820536,-9393.655883509622,-29228.504506171288
-14304.64706476296,-11881.740317552129,-9075.836429099612,-29191.40061037548
-12975.210008050206,-10538.713400210549,-8810.096539270466,-29535.84099243176
-11672.21506502808,-8753.233701376164,-8791.723405328203,-29992.59889037596
-13008.312941588514,-9756.514102997078,-9316.899993050098,-29794.42832403521
-14697.501325309437,-11912.339855711443,-9387.732671228969,-29222.76010784628
-14324.987152217289,-11882.947311752714,-9075.009414554765,-29181.87876723752
-12993.203162336727,-10546.782379958911,-8816.22091725122,-29525.31332079331
-11680.954597110103,-8756.184131644266,-8795.277332696598,-29987.59209961797
-12986.05060411103,-9729.244974761605,-9307.89224003461,-29797.423457792214
-14688.135944382662,-11904.717910852183,-9386.883304939664,-29226.895180570507
-14327.714065040836,-11901.78983232854,-9076.439926199904,-29180.895290481483
-13008.6705694998,-10580.846438508805,-8812.957562560745,-29525.80505917133
-11680.21698954308,-8784.906123269335,-8792.036329750577,-29989.87197755241
-12961.463685210192,-9730.273155006547,-9311.245001702906,-29813.114382399846
-14677.85414193322,-11905.075538763467,-9393.00768292042,-29235.14297427452
-14326.104739440054,-11904.74026259664,-9080.41853671295,-29178.101322424573
-13005.116642131406,-10588.446031623607,-8811.50469917115,-29517.13258232267
-11671.656271416698,-8784.794364547059,-8783.274445924097,-29985.111055983434
-12938.84371982142,-9699.852430802874,-9301.253771931384,-29812.555588788466
-14673.361441297704,-11897.945332282226,-9396.874534711187,-29246.2517912688
-14335.380713389006,-11926.421454718287,-9088.867496117056,-29196.72032555584
-13028.63067729839,-10622.823014595868,-8821.808853365046,-29529.8730766622
-11674.003204584504,-8799.16653623182,-8774.82548651999,-29986.116884483923
-12918.07894922244,-9680.62993057131,-9287.060414202264,-29824.156144160766
-14681.542179768348,-11895.866620047882,-9393.410014320614,-29253.38199775005
-14363.901539313978,-11943.02880084858,-9083.592484425602,-29188.338421385102
-13059.54313988008,-10645.264166028996,-8815.438606195285,-29517.95959686752
-11699.774765941474,-8815.952696317756,-8776.747736543148,-29976.61739309041
-12904.690254293711,-9653.181988380193,-9283.484135089417,-29820.535161559008
-14685.654900748124,-11880.332157651445,-9397.410976578114,-29246.20708777989
-14386.968539591857,-11938.089065323957,-9088.666330416958,-29172.91571771094
-13072.35068945297,-10644.839482884348,-8819.685437641792,-29499.74292513644
-11705.452109033122,-8822.479405698707,-8779.631111577883,-29965.530927840584
-12880.617425515346,-9622.470691498602,-9281.69599553299,-29817.361213846358
-14668.913444151098,-11848.1456456358,-9397.5674387893,-29241.8037941222
-14377.781972620724,-11929.50599545312,-9086.520562949248,-29168.62418277552
-13081.693718635288,-10653.288442288453,-8813.002266049656,-29500.435829214555
-11701.18292584216,-8818.389036463384,-8758.128733411877,-29959.9206399823
-12849.146169322274,-9593.52518242898,-9264.21693136894,-29821.38452784831
-14652.41785674308,-11839.54022402051,-9390.817211963798,-29244.463651712376
-14379.279539499228,-11936.725608912184,-9084.50890594827,-29169.76412174274
-13090.723823395232,-10671.147486108242,-8816.287972484586,-29497.01601231289
-11707.97785615657,-8836.806873894559,-8770.73511728467,-29965.55327958504
-12822.05585504244,-9573.676833352663,-9273.64936752908,-29834.750871032586
-14636.9057460911,-11816.942610376193,-9397.835659722765,-29245.02244532376
-14381.000623822289,-11935.652725178328,-9094.388376997516,-29161.449272805366
-13097.272884520637,-10676.668366988704,-8825.094559799976,-29490.98104130996
-11696.801983928915,-8828.581431935005,-8761.705012524726,-29954.17624165729
-12780.995700478044,-9532.750789254998,-9260.350079578173,-29833.677987298728
-14611.044777756308,-11795.037900809992,-9403.021264436396,-29256.019503595773
-14377.692565642905,-11940.905385125328,-9105.47484224735,-29179.10715092506
-13090.232085017216,-10682.21159961362,-8824.692228399781,-29499.07237280278
-11691.50462049301,-8830.74955114717,-8755.580634543972,-29958.69129403726
-12764.85774098131,-9508.02975988743,-9256.885559187598,-29848.00545549458
-14621.930077306042,-11788.690005384686,-9402.86480222521,-29257.82999489665
-14391.662405927467,-11939.720742669197,-9095.148336308996,-29159.34820882657
-13117.657675463875,-10695.667349775717,-8818.232574252197,-29472.183224223045
-11703.798079943428,-8840.830187896514,-8747.243433862142,-29936.40660481532
-12747.468083795082,-9483.241675286494,-9243.58627123669,-29839.735310046115
-14627.585068653236,-11782.744441359571,-9398.930895201076,-29252.5549832052
-14423.401883054004,-11966.94516741576,-9101.451528245394,-29154.699045979865
-13146.334963600037,-10730.536071125993,-8824.714580144237,-29467.46700614297
-11722.282972607967,-8867.495819031694,-8753.367811842896,-29934.84198270345
-12727.485624252036,-9471.149381536172,-9242.468684013926,-29835.019091966045
-14617.392673181615,-11779.972825047116,-9401.501345813436,-29249.470442470367
-14433.907202948,-11978.791591977071,-9099.529278222237,-29140.908019650946
-13158.583719561544,-10743.813007332446,-8821.674742898314,-29456.93933450453
-11719.958391184617,-8873.32962433453,-8742.147236126333,-29920.469811018684
-12693.37686221324,-9440.549843376855,-9230.845776897166,-29833.119193687344
-14593.141030447609,-11756.212920691123,-9405.547011559844,-29256.667704184976
-14418.037464384732,-11977.65165300985,-9109.744025438313,-29149.62519998851
-13154.873329981963,-10757.581681916916,-8827.79912087907,-29458.12397696066
-11717.298533594434,-8887.031243685633,-8751.9149484533,-29933.009139658112
-12659.156341452162,-9418.488671599467,-9239.898233401564,-29859.06956899996
-14581.115791930652,-11743.919461240705,-9411.447872096049,-29272.850367170617
-14426.732292977846,-11985.832391480491,-9114.035560373732,-29165.830214718608
-13168.351431888514,-10777.005347848575,-8838.192682050787,-29476.094779502724
-11726.529804054477,-8908.734787551735,-8761.347384613442,-29946.77781424258
-12640.917317976631,-9401.724863257989,-9247.274309071816,-29877.82268259796
-14567.391820835091,-11722.573545285886,-9425.48476761398,-29283.959184164905
-14434.108368648098,-11980.46797281122,-9124.89850817901,-29161.7845489722
-13183.841190796042,-10781.296882783996,-8842.551272219573,-29465.76827356437
-11736.632792548276,-8913.406302142896,-8757.748753756137,-29935.579590270478
-12622.186556123086,-9374.053403622318,-9231.605736208649,-29877.755627364597
-14568.956442946965,-11708.559001512407,-9419.695665800056,-29288.3624778226
-14449.732238022358,-11983.664272268328,-9124.652638990005,-29156.15190936946
-13208.159888763415,-10797.9489324032,-8846.060496099055,-29456.55935484879
-11757.911653269728,-8931.488863407238,-8758.329899111975,-29933.053843147023
-12622.45477705655,-9365.13505758465,-9231.91866063102,-29884.841130356926
-14558.384067819605,-11695.058547861405,-9411.850203496242,-29280.31584981869
-14434.71186574839,-11974.99179541967,-9114.169670840463,-29154.184955857392
-13205.544734662144,-10804.632103995336,-8838.974993106722,-29460.292096172823
-11756.972880002604,-8942.128293767964,-8750.283271108065,-29923.28613082005
-12591.966997619513,-9334.870795592164,-9215.49012845637,-29876.034543041533
-14556.774742218822,-11685.737870423542,-9412.230183151984,-29286.50728303281
-14457.778866026269,-11998.349368375466,-9116.56130749718,-29149.893420921973
-13219.4698714578,-10820.501842558604,-8826.12274004492,-29440.28728488532
-11758.872778281306,-8954.041773562643,-8736.246375590132,-29909.78567716905
-12554.952508801522,-9309.613324357668,-9202.704930627937,-29876.86155758638
-14531.472567495415,-11664.950748080106,-9406.48578482697,-29282.707486475407
-14453.95671772441,-12005.926609745817,-9119.33292380964,-29148.82053718812
-13226.890650616962,-10848.687392316746,-8834.504644215662,-29442.477755841945
-11751.116722955314,-8965.642328934948,-8736.15696861231,-29916.82647667247
-12515.725197282458,-9277.560922808758,-9205.34243647366,-29897.69338341873
-14502.34824447015,-11631.423131397143,-9420.276811155893,-29304.41103034151
-14450.894528734032,-12002.976179477711,-9132.94513618292,-29158.118862881525
-13225.214269782817,-10847.14512194933,-8851.60372872397,-29451.82078502426
-11756.481141624588,-8969.017442347698,-8758.575768300983,-29924.1131453649
-12513.355912370196,-9268.55316979327,-9228.275326284804,-29911.35029928092
-14516.854526621644,-11635.468797143556,-9439.164035220629,-29304.99217569735
-14462.651546317524,-12000.226914909712,-9142.802255487712,-29156.755406469754
-13252.14812185146,-10858.075124987976,-8858.979804394223,-29447.50689834439
-11782.47622042611,-8985.82595417809,-8756.072372921988,-29914.99363362713
-12503.319979109763,-9247.006088138352,-9212.986733077376,-29912.378479525865
-14515.602828932148,-11623.152985948682,-9431.184462450085,-29310.42364959999
-14489.808915830725,-12022.086920987002,-9142.131703154051,-29153.20147910136
-13286.703918779363,-10894.754337639137,-8856.521112504139,-29448.02098846686
-11809.275962028025,-9019.510033072238,-8745.477646050173,-29911.238540558643
-12488.52312428035,-9238.557128734246,-9192.91486655651,-29900.174427053265
-14502.594113659155,-11605.96449446255,-9422.735503045977,-29296.72203024889
-14483.796296572244,-12016.588391850995,-9132.587508271636,-29132.973150369307
-13274.410459328945,-10890.574561425992,-8845.613461209949,-29420.97537767594
-11799.508249701054,-9024.338009874584,-8743.644803004838,-29894.16180779479
-12454.03438258581,-9210.706855142937,-9191.082023511177,-29908.53397947955
-14489.920674553,-11587.256084353456,-9426.356485647735,-29311.27301588929
-14491.574703642693,-12020.56700236404,-9137.862519963088,-29137.04116786017
-13298.080956707116,-10913.999189615151,-8848.630946711415,-29415.81212470676
-11806.839621882396,-9044.700449073369,-8737.676887235271,-29890.563176937485
-12429.872146829624,-9195.373558446594,-9186.455212408926,-29912.311424292497
-14473.514494122805,-11575.163790603136,-9430.469206627513,-29317.03976595876
-14503.39877645955,-12036.436740927307,-9153.821665504178,-29148.887592421484
-13313.838936548109,-10932.886413679887,-8869.932159177322,-29436.44278483901
-11818.82015691044,-9056.345707934584,-8754.328936854476,-29899.07919157496
-12412.79541406577,-9177.425107648982,-9190.612636877611,-29922.25795057511
-14467.323060908684,-11561.484522996489,-9444.036715511886,-29325.6228358296
-14505.701006138446,-12031.742874591691,-9166.67391856598,-29153.20147910136
-13322.15378548548,-10936.909727681845,-8876.70473774728,-29428.686729513018
-11835.047523384992,-9069.08620227411,-8754.217178132198,-29896.285223518043
-12403.608847094638,-9161.778886530266,-9189.24918046584,-29932.763270469102
-14478.923616280988,-11558.779961917397,-9450.317555703828,-29338.4750888914
-14548.146968859071,-12059.570796438553,-9171.010156990307,-29149.82636568861
-13369.427725008456,-10973.432478121817,-8881.488011060717,-29422.53999978781
-11858.740372507618,-9095.125984564542,-8756.787628744558,-29884.61761291237
-12382.26293113982,-9140.81295023119,-9181.403718162026,-29921.18506684125
-14460.595185827637,-11535.08711279477,-9450.451666170558,-29326.80747828573
-14546.157663602551,-12066.991575597713,-9178.654453594025,-29142.29382780717
-13365.471466239867,-10987.715242828755,-8882.51619130566,-29411.83351419372
-11859.656794030285,-9118.774130198257,-8751.758486242114,-29878.64969714281
-12374.55157930274,-9145.350354355616,-9178.095659982642,-29933.63498850286
-14453.420275857485,-11530.460301692525,-9443.612032367237,-29330.94255100996
-14552.63966949459,-12071.707793677782,-9163.947005742431,-29132.682577691387
-13382.682309470452,-11007.138908760418,-8874.156638879376,-29402.468133266942
-11877.895817505816,-9143.562214799193,-8748.405724573819,-29876.66039188628
-12355.39613430454,-9127.111330880089,-9162.67295630848,-29934.462003047705
-14443.630211786058,-11517.719807352998,-9442.762666077931,-29340.933780781485
-14557.64646025258,-12084.11301185048,-9170.09373546764,-29138.225810316304
-13394.79695496523,-11022.583964179035,-8874.983653424222,-29404.5915489902
-11885.808335042992,-9160.884816752055,-8750.506788552617,-29875.83337734144
-12330.228070047864,-9112.381531284038,-9163.790543531244,-29949.32591311049
-14424.452415043404,-11495.74804255343,-9446.67422135761,-29354.52364141031
-14556.886500941098,-12073.205360556289,-9181.493125139848,-29151.078063378107
-13405.816364981696,-11027.881327614945,-8892.082737932533,-29410.04537463729
-11900.426375916764,-9167.903264511022,-8760.743887513148,-29882.360086722387
-12309.351540726608,-9079.010376812264,-9163.321156897684,-29955.29382888005
-14423.200717353908,-11480.6606150461,-9462.566311665334,-29363.732560125896
-14572.867998226644,-12082.1013548495,-9193.33954970116,-29156.755406469754
-13437.80171129724,-11052.065915115583,-8896.32956937904,-29407.474924024933
-11935.250393778131,-9198.01106429232,-8756.586463044461,-29876.59333665292
-12320.326247254165,-9083.03369081422,-9156.928557983463,-29965.50857609613
-14425.346484821615,-11465.260263116392,-9455.749029606466,-29363.643153148078
-14587.284873400316,-12083.397756027907,-9182.29778794024,-29142.025606873707
-13442.383818910575,-11057.251519829217,-8882.85146747249,-29396.14258958609
-11925.192108773244,-9201.743805616356,-8742.34840182643,-29859.13662423332
-12258.300156390687,-9040.990059493788,-9132.542804782726,-29947.805994487524
-14379.36894647705,-11438.415818025567,-9442.606203866746,-29351.46145241993
-14576.958367461964,-12092.517267765674,-9180.040261750251,-29127.452269488847
-13436.840586285662,-11075.445839815837,-8882.404432583384,-29383.357391757658
-11919.02302730358,-9226.218965794917,-8747.556358284517,-29854.46510964216
-12246.721952762837,-9043.739324061791,-9141.796426987225,-29961.328799882987
-14369.22125449434,-11431.754998177888,-9442.58385212229,-29363.307876981245
-14568.442352824492,-12096.428823045351,-9177.983901260364,-29132.19083931337
-13434.739522306863,-11086.219380643295,-8878.626987770438,-29374.930784098004
-11920.878222093372,-9232.075122842209,-8730.390218542841,-29838.885943756814
-12206.198240065363,-9008.691788755868,-9114.66140921848,-29951.69519802275
-14337.79470179018,-11393.39940469258,-9435.990087507977,-29356.736464111385
-14567.324765601728,-12085.230599073244,-9182.901285040532,-29126.15586831044
-13449.357563180634,-11089.6168458005,-8886.673615774347,-29374.32728699771
-11930.020085575592,-9243.07218111422,-8741.722552981682,-29841.009359480067
-12190.574370691103,-8986.608265234026,-9122.082188377644,-29955.249125391143
-14328.921059241422,-11369.907721270052,-9451.345735948771,-29371.60037417417
-14588.961254234464,-12097.188782356834,-9199.06159628172,-29140.01394987273
-13475.15147628206,-11113.041473989662,-8896.866011245967,-29385.25729003636
-11960.060830123524,-9268.486114559902,-8749.366849585396,-29844.898563015293
-12197.03402483869,-8984.708366955325,-9130.62055475957,-29969.509538353628
-14345.483701882804,-11375.562712617244,-9464.309747732848,-29383.91618536904
-14606.015635253863,-12114.801956987616,-9209.857488853631,-29145.803051686653
-13503.068805106735,-11143.14927377096,-8903.303313649096,-29381.837473134696
-11984.156010646346,-9300.538516108814,-8744.20359661622,-29834.259132654566
-12179.778478119191,-8975.365337773006,-9119.71290346538,-29968.391951130863
-14330.105701697554,-11358.798904275764,-9458.565349407834,-29386.397229003574
-14605.501545131392,-12108.543468540129,-9205.320084729205,-29137.19763007136
-13515.205802345969,-11147.306698239649,-8903.795052027113,-29372.09211255218
-12004.13847018939,-9317.570545383758,-8748.87511120738,-29832.135716931312
-12174.771687361204,-8965.374108001484,-9109.252287060295,-29966.35794238543
-14322.819033005124,-11344.71730526892,-9445.243709712471,-29374.95313584246
-14617.526783648347,-12107.358826083995,-9192.132555500575,-29124.74770840975
-13527.387503074113,-11152.514654697736,-8891.680406532336,-29361.45268219145
-12009.055853969558,-9331.406275201593,-8733.877090677868,-29822.636225537804
-12140.97584974478,-8942.843549590534,-9086.408804226972,-29967.56493658601
-14293.381785557483,-11307.993389128853,-9443.746142833968,-29383.402095246565
-14616.789176081322,-12108.990503429235,-9196.49114566936,-29126.87112413301
-13538.049285179291,-11169.92666362842,-8892.038034443622,-29363.509042681344
-12016.364874406445,-9349.600595188213,-8734.815863944992,-29827.777126762525
-12116.545393055128,-8922.548165625116,-9088.778089139234,-29979.65723033634
-14282.071802863098,-11289.799069142233,-9448.10473300275,-29398.266005309342
-14620.924248805552,-12109.661055762894,-9204.381311462084,-29134.403662014447
-13548.085218439724,-11175.045213108686,-8901.559877581582,-29362.19028975848
-12035.60972638246,-9359.033031348352,-8739.867358191892,-29820.06577492545
-12116.143061654931,-8911.998142242212,-9090.36506299556,-29985.133407727888
-14281.468305762804,-11273.147019523029,-9459.63823314169,-29404.54684550129
-14642.13605429364,-12112.276209864163,-9216.33949474567,-29133.80016491415
-13572.58273036274,-11184.075317868628,-8907.728959051246,-29363.687856636985
-12059.101409804987,-9376.66855772359,-8750.05975366351,-29822.23389413761
-12113.282038364654,-8901.939857237323,-9101.004493356288,-29997.717439856227
-14273.891064392456,-11258.059592015696,-9462.789829109888,-29409.48658102591
-14653.826016643765,-12128.771797272182,-9219.73695990288,-29135.498897492755
-13590.3076637158,-11220.352199119592,-8908.868898018467,-29351.61791463112
-12066.38807849742,-9400.674331268589,-8739.509730280606,-29800.887978182796
-12082.436631016331,-8883.589075039516,-9075.70231863288,-29980.57365185901
-14248.030096057666,-11243.396847653014,-9454.385573194691,-29412.12408687164
-14643.410103727592,-12137.2654601652,-9216.004218578842,-29128.43574624488
-13590.35236720471,-11229.449359112905,-8902.163374681875,-29337.80453655774
-12074.01002335668,-9421.528508845391,-8732.088951121445,-29790.89674841127
-12056.374496981442,-8874.51426679066,-9058.714992846846,-29973.823425033504
-14225.47718590226,-11217.535879318224,-9441.287450943884,-29408.01136589186
-14642.85131011621,-12128.794149016638,-9207.8234801082,-29124.255970031736
-13593.593370150733,-11234.567908593168,-8905.940819494823,-29341.894905793062
-12076.62517745795,-9431.810311294832,-8735.77698895657,-29788.70627745465
-12031.340543191498,-8848.899167644879,-9055.11636198954,-29972.325858155
-14202.43253736884,-11185.841105680598,-9442.405038166648,-29410.358299059662
-14640.169100781572,-12117.752387255716,-9214.439596466971,-29122.803106642143
-13606.26680925689,-11243.84388254212,-8913.696874820815,-29340.17382147
-12087.53282875214,-9447.903567302654,-8742.415457059797,-29786.13582684229
-12014.219106938734,-8831.308344758552,-9061.307795203662,-29987.145064728866
-14184.484086571229,-11157.566148944636,-9446.45070391306,-29419.701328241987
-14651.590842198237,-12119.78639600115,-9222.553279704249,-29124.07715607609
-13623.701169932028,-11253.790408824732,-8916.379084155451,-29334.22825744489
-12110.912753452392,-9463.482733188002,-8737.900404679824,-29781.93369888469
-12013.52620286062,-8824.960449333244,-9049.237853197796,-29991.41424791983
-14172.883531198924,-11138.097779524063,-9438.717000331522,-29428.82083997975
-14660.41978125808,-12126.693085037838,-9225.25784078334,-29129.843906145565
-13643.147187608149,-11274.354013723614,-8922.324648180562,-29336.19521095696
-12132.102207196023,-9492.696463191089,-8747.77987572907,-29783.386562274285
-12005.479574856708,-8821.071245798023,-9045.773332807225,-29995.482265410694
-14172.168275376354,-11132.688657365878,-9441.376857921705,-29432.24065688141
-14671.148618596628,-12131.610468818006,-9219.759311647334,-29126.75936541073
-13659.12868489369,-11288.457964474914,-8908.220697429264,-29320.057251460228
-12149.0671812376,-9510.242582588504,-8730.412570287297,-29768.209727789133
-11993.14141191738,-8810.655332881848,-9026.506129086749,-29987.48034089569
-14166.80385670708,-11127.458349163337,-9444.237881211982,-29436.04045343881
-14670.120438351683,-12140.193538688844,-9222.30741051524,-29118.690385662365
-13668.89639722066,-11304.260647804816,-8915.52971786615,-29320.01254797132
-12163.998146533746,-9539.478664336046,-8737.162797112798,-29765.92984985469
-11967.41455404932,-8795.0761669965,-9025.053265697154,-29983.144102471368
-14131.197527789776,-11083.648930030937,-9434.783093307387,-29429.53609580232
-14670.723935451975,-12129.2635356502,-9229.459968740935,-29121.08202231908
-13677.99355721397,-11310.966171141406,-8924.224546459263,-29316.86095200312
-12167.149742501944,-9546.74298128402,-8735.598175000927,-29760.31956199641
-11954.070562609502,-8791.432832650284,-9015.799643492655,-29989.06731475202
-14118.568792172528,-11076.451668316326,-9436.258308441438,-29440.846078496703
-14666.119476094183,-12129.867032750491,-9230.845776897166,-29122.870161875508
-13685.459039862042,-11319.839813690163,-8926.482072649249,-29318.91731249301
-12178.79500136316,-9561.98687100254,-8740.783779714558,-29759.26903000701
-11934.289268766555,-8771.83035276298,-9023.198070907363,-29998.253881723154
-14098.563980885028,-11048.064952858083,-9454.296166216873,-29460.78383455084
-14683.33031932477,-12141.556995100618,-9251.11880911813,-29138.851659161053
-13702.938104026092,-11335.173110386504,-8937.05444777661,-29323.857048017628
-12194.351815504053,-9578.258940966003,-8752.049058920033,-29756.36330322782
-11920.006504059616,-8761.123867168888,-9025.701466286358,-30004.668832381827
-14081.621358587903,-11024.305048502094,-9452.597433638268,-29467.332895676245
-14684.067926891796,-12134.359733386009,-9248.995393394876,-29132.95079862485
-13710.828269818816,-11344.6278982911,-8937.501482665717,-29315.206922913425
-12197.726928916803,-9588.764260859998,-8742.147236126333,-29748.58489615737
-11906.997788786626,-8743.957727427212,-9003.416777064416,-30001.20431199125
-14082.537780110571,-11008.055330283089,-9443.924956789608,-29468.383427665645
-14684.894941436642,-12118.042959933637,-9233.907965887543,-29122.51253396422
-13726.80976710436,-11341.163377900528,-8931.421808173873,-29306.4673908314
-12239.94937419288,-9609.260810525517,-8749.746829241138,-29747.17673625669
-11910.104681265911,-8735.598175000927,-8998.767614217713,-29999.37146894592
-14060.320146121998,-10972.806629277067,-9442.695610844568,-29466.57293636477
-14698.462450321014,-12132.057503707112,-9252.236396340895,-29123.853638631543
-13741.24899402249,-11369.572445103222,-8939.379029199961,-29302.48878031836
-12238.965897436849,-9633.892432915263,-8745.298832094531,-29743.24282923256
-11880.712137307184,-8729.674962720272,-8997.627675250493,-30007.86513183893
-14033.63216324236,-10961.630757049414,-9446.048372512863,-29483.89553831763
-14703.648055034644,-12145.759123058217,-9257.243187098884,-29136.68353994889
-13756.314069785363,-11391.991244791896,-8946.9115670814,-29309.350765866133
-12253.695697032894,-9665.833075741895,-8752.518445553595,-29745.768576356004
-11882.54498035252,-8739.755599469614,-9004.668474753915,-30019.04100406659
-14023.238602070644,-10952.332431356006,-9452.843302827276,-29495.384334967654
-14699.937665455063,-12148.754256815226,-9261.445315056482,-29138.71754869432
-13764.114828600268,-11403.457689697469,-8951.940709583845,-29310.244835644346
-12270.23598792982,-9683.803878283965,-8762.062640436012,-29744.338064710864
-11862.316651620467,-8727.216270830188,-9005.808413721135,-30021.723213401227
-13993.354319733897,-10920.816471674025,-9457.268948229426,-29495.94312857904
-14697.255456120429,-12142.048733478634,-9270.609530283158,-29134.582475970088
-13773.703726971597,-11409.850288611686,-8958.243901520242,-29304.65689953052
-12289.816116072669,-9699.20423021367,-8768.119963183399,-29739.755957097528
-11863.054259187493,-8719.43786375974,-9003.30501834214,-30021.00795757865
-13999.702215159205,-10907.96421861222,-9456.486637173492,-29506.247282772936
-14724.368122144717,-12148.039000992656,-9272.59883553968,-29139.38810102798
-13798.201238894611,-11419.3944834941,-8966.223474290786,-29303.762829752308
-12306.646979647516,-9710.313047207956,-8766.175361415788,-29731.55286688243
-11851.431352070733,-8706.943238609223,-8990.944503658355,-30015.62118716493
-13981.217322494664,-10881.67856713278,-9453.916186561131,-29504.36973623869
-14722.892907010664,-12152.062314994611,-9271.88357971711,-29134.984807370285
-13801.73281451855,-11437.253527313893,-8951.180750272364,-29294.039820914248
-12314.179517528954,-9737.626878932344,-8758.508713067617,-29724.40030865673
-11833.371142550845,-8703.076386818455,-8982.87552390999,-30018.146934288376
-13958.038563494512,-10865.67471810278,-9449.177616736606,-29511.142314808647
-14718.869593008709,-12145.625012591485,-9274.006995440364,-29135.141269581472
-13809.958256478105,-11438.415818025567,-8961.462552721805,-29289.86004470111
-12327.277639779764,-9749.40624826029,-8763.336689869964,-29716.30897716391
-11825.212755824658,-8692.280494246543,-8973.577198216582,-30013.94480633078
-13940.961830730655,-10830.649534541311,-9439.544014876368,-29516.08205033327
-14728.369084402217,-12142.853396279026,-9280.98073971042,-29145.646589475466
-13832.68998058915,-11461.281652603348,-8969.151552814432,-29293.481027302867
-12344.130855099063,-9776.809486962497,-8766.555341071527,-29721.539285366453
-11808.24778178308,-8691.498183190606,-8978.360471530017,-30028.24992278217
-13911.815155960938,-10807.694292985714,-9449.02115452542,-29530.163649340117
-14725.351598900748,-12146.317916669595,-9285.808716512764,-29150.72043546682
-13845.139902250756,-11485.577998826266,-8974.001881361233,-29295.55973953721
-12348.310631312208,-9796.210801149702,-8757.547588056039,-29709.78226778296
-11793.294464742476,-8685.798488354503,-8965.8658463795,-30028.65225418237
-13885.775373670504,-10786.303673541985,-9443.6790876006,-29538.65731223313
-14708.38662485917,-12134.382085130464,-9278.74556526489,-29141.80208942915
-13832.64527710024,-11468.523617806866,-8960.747296899235,-29279.332373062654
-12361.162884374007,-9801.619923307888,-8762.464971836207,-29709.648157316227
-11790.880476341305,-8675.181409738232,-8960.121448054488,-30025.992396592188
-13876.164123554723,-10764.8907023538,-9442.472093400012,-29537.09269012126
-14728.39143614667,-12147.435503892364,-9284.065280445251,-29139.656321961444
-13865.055306560434,-11499.212562944003,-8966.268177779697,-29280.002925396315
-12389.21432366542,-9837.919156303304,-8764.275463137086,-29703.032040957456
-11791.57338041942,-8688.972436067157,-8953.080648551066,-30021.11971630093
-13873.057231075434,-10756.106466782863,-9442.092113744273,-29546.27925709239
-14744.81996832132,-12157.538492386162,-9291.441356115503,-29143.143194096472
-13882.46731549112,-11521.85488007723,-8969.978567359278,-29274.951431149417
-12413.153041977052,-9870.99973809716,-8762.263806136109,-29694.091343175336
-11790.455793196654,-8693.62159891386,-8952.812427617602,-30025.41125123635
-13845.721047606594,-10732.771245571525,-9438.940517776076,-29549.542611782865
-14737.645058351169,-12156.800884819137,-9291.59781832669,-29138.67284520541
-13883.2272748026,-11530.415598203612,-8971.722003426792,-29268.961163635395
-12408.034492496789,-9873.57018870952,-8761.928529969278,-29687.318764605378
-11747.585147331376,-8658.99874675259,-8937.166206498887,-30017.632844165902
-13807.186640165644,-10694.68387301968,-9427.25055542595,-29549.252039104944
-14716.790880774366,-12137.868957265491,-9283.327672878228,-29135.744766681764
-13881.349728268351,-11533.813063360818,-8974.270102294697,-29269.721122946878
-12407.542754118773,-9890.445755773277,-8761.459143335718,-29680.47913080205
-11730.530766311977,-8658.886988030314,-8934.707514608803,-30016.627015665417
-13788.031195167448,-10680.043480401457,-9436.034790996884,-29557.544536297864
-14710.53239232688,-12137.2654601652,-9295.129393950629,-29140.326874295104
-13867.178722283688,-11527.71103712452,-8972.213741804808,-29261.674494942963
-12397.59622783616,-9891.496287762677,-8760.050983435034,-29673.70655223209
-11701.78642294245,-8641.22910991062,-8924.872747048468,-30016.381146476408
-13740.086703310812,-10629.506186188006,-9416.05233145384,-29551.151937383645
-14700.250589877438,-12118.06531167809,-9276.912722219557,-29129.374519512003
-13892.927931896202,-11542.5749471873,-8961.976642844278,-29254.67839892845
-12433.73899862039,-9916.15026189688,-8754.105419409922,-29670.040866141426
-11720.450129562632,-8649.163979192255,-8921.631744102448,-30022.438469223795
-13742.76891264545,-10614.754034847503,-9414.353598875236,-29567.46871083602
-14723.63051457769,-12129.889384494949,-9284.98170196792,-29140.036301617183
-13929.562441058451,-11574.984976647494,-8985.334215800074,-29274.951431149417
-12473.256882817375,-9964.4523816648,-8773.439678363762,-29685.374162837765
-11726.440397076654,-8662.798543309993,-8913.540412609627,-30023.734870402204
-13735.526947441933,-10608.853174311302,-9406.865764482707,-29571.22380390451
-14742.316572942324,-12147.323745170086,-9285.69695779049,-29140.57274348411
-13941.43121736422,-11588.686595998595,-8976.795849418146,-29258.902878630503
-12473.793324684302,-9972.722527113265,-8755.11124791041,-29665.01172363898
-11707.597876500831,-8660.943348520203,-8902.789223526624,-30024.785402391604
-13712.482298908508,-10593.653988081693,-9413.303066885836,-29589.52988261341
-14732.414750148626,-12137.533681098665,-9295.151745695084,-29156.554240769656
-13931.864670737348,-11577.801296448864,-8971.25261679323,-29257.42766349645
-12473.011013628366,-9973.996576547215,-8753.278404865076,-29669.571479507864
-11697.047853117929,-8650.37097339284,-8906.432557872839,-30042.95737063377
-13676.18306591309,-10550.246900349486,-9406.552840060334,-29601.063382752345
-14712.968732472507,-12119.138195411944,-9297.789251540811,-29161.96336292784
-13931.507042826062,-11589.692424499086,-8988.39640479045,-29268.134149090547
-12469.390031026607,-9987.36291973149,-8763.381393358874,-29668.61035449629
-11665.420134713666,-8639.083342442911,-8906.81253752858,-30038.263504298156
-13640.710847462518,-10518.88740287869,-9417.616953565712,-29611.367536946243
-14714.846279006752,-12119.428768089863,-9306.46172838947,-29163.4832815508
-13947.823816278436,-11601.807069993863,-8990.810393191623,-29261.719198431874
-12500.034272674831,-10018.387141035457,-8773.864361508413,-29673.39362780972
-11664.727230635552,-8638.27867964252,-8901.8504502595,-30039.448146754283
-13632.373646780688,-10500.64837940316,-9408.743311016957,-29610.00408053447
-14729.173747202603,-12117.908849466903,-9302.572524854246,-29151.882726178497
-13985.665319641272,-11622.996523737494,-8991.078614125086,-29252.152651805005
-12543.798988318324,-10046.483283815776,-8769.841047506457,-29657.747406691007
-11688.17421056917,-8647.465246613652,-8887.254761130185,-30027.355853003963
-13629.17734732358,-10481.98467278298,-9394.080566654273,-29606.986595033
-14734.694628083069,-12114.757253498705,-9299.309170163771,-29156.5318890252
-13998.24935176961,-11631.266669185958,-8995.168983360409,-29251.14682330452
-12564.67551763958,-10057.256824643237,-8772.187980674265,-29652.42769151064
-11683.055661088903,-8641.966717477646,-8891.680406532336,-30026.32767275902
-13607.563210435295,-10458.627099827185,-9401.210773135515,-29616.97782480453
-14735.834567050288,-12110.644532518929,-9304.181850455028,-29162.25393560576
-14009.648741441815,-11641.213195468568,-8994.274913582196,-29253.22553553886
-12569.168218275096,-10075.249978929756,-8768.321128883497,-29650.5501449764
-11667.811771370383,-8635.529415074518,-8876.19064762481,-30029.501620471678
-13574.192055963524,-10426.462939555997,-9393.588828276255,-29625.20326676408
-14721.216526176517,-12105.235410360743,-9313.122548237152,-29168.95945894235
-13998.58462793644,-11637.614564611264,-8994.945465915855,-29254.298419272716
-12566.798933362834,-10080.793211554672,-8767.225893405186,-29651.690083943617
-11648.142236249714,-8631.148473161278,-8873.866066201457,-30034.41900425184
-13541.066770680758,-10400.512564243383,-9393.253552109429,-29635.21684828005
-14703.58099980128,-12092.62902648795,-9318.71048435098,-29170.68054326541
-13985.844133596916,-11636.184052966126,-9002.478003797294,-29247.12350930256
-12554.840750079244,-10080.055603987646,-8772.59031207446,-29643.44229023961
-11628.651515084686,-8613.870574697325,-8874.000176668189,-30030.507448972163
-13503.314674295743,-10355.04911602129,-9391.219543363994,-29637.42967098113
-14694.640302019156,-12069.047936087602,-9313.36841742616,-29167.238374619294
-14002.742052405129,-11635.49114888801,-8997.337102572574,-29238.540439431723
-12573.079773554777,-10092.550229138164,-8765.21423640421,-29626.320853986843
-11623.39885513769,-8607.61208624984,-8867.160542864865,-30019.219818022237
-13494.105755580158,-10327.46706336344,-9391.778336975376,-29637.653188425684
-14717.684950552575,-12068.95852910978,-9320.6997896075,-29163.751502484265
-14038.191919111245,-11654.847759586306,-9004.176736375897,-29238.22751500935
-12609.088433872275,-10113.985552070804,-8761.123867168888,-29615.23438873701
-11640.654401857186,-8610.22724035111,-8852.721315946736,-30011.17319001832
-13494.77630791382,-10313.787795756793,-9377.204999590516,-29634.25572326848
-14720.7247877985,-12068.444438987308,-9304.673588833046,-29157.47066229232
-14039.622430756384,-11657.39585845421,-8986.720023956303,-29226.179924747936
-12626.366332336229,-10134.616212203053,-8755.49122756615,-29609.355879945266
-11645.59413738181,-8619.32440034442,-8847.066324599544,-30010.547341173573
-13475.509104193345,-10290.720795478916,-9374.43338327806,-29645.364540262766
-14730.939535014577,-12070.076116332546,-9314.575411626747,-29164.06442690664
-14068.702050292735,-11684.55322796741,-9000.466346796316,-29226.671663125955
-12651.60145182627,-10174.312910355677,-8767.315300383008,-29616.374327704238
-11638.262765200468,-8634.322420873932,-8845.680516443315,-30017.923416843823
-13445.04367650076,-10269.88896964657,-9376.46739202349,-29654.327589789344
-14720.098938953752,-12064.219959285256,-9323.27024021986,-29162.27628735021
-14063.807018257025,-11685.134373323248,-9003.863811953523,-29218.49092465531
-12650.84149251479,-10178.760907502285,-8769.97515797319,-29609.534693900907
-11628.852680784785,-8632.511929573051,-8847.356897277463,-30017.47638195472
-13416.902830231527,-10242.105751288624,-9375.528618756369,-29662.3518660488
-14698.797726487845,-12050.585395167518,-9322.577336141749,-29166.813691474643
-14050.48537856166,-11688.844762902829,-9010.457576567838,-29219.697918855894
-12645.588832567792,-10190.719090785871,-8780.189905189265,-29600.95162403007
-11603.997540950482,-8618.922068944225,-8852.85542641347,-30010.614396406934
-13381.676480969963,-10210.723902073372,-9383.843467693743,-29670.756121963997
-14700.38470034417,-12044.818645098048,-9336.144845026118,-29167.90892695295
-14070.467838104709,-11695.438527517144,-9011.262239368229,-29216.769840332254
-12677.50712364997,-10208.801652050215,-8775.049003964545,-29599.85638855176
-11625.030532482926,-8630.388513849797,-8840.405504751861,-30010.167361517837
-13376.17795183396,-10190.383814619045,-9366.476162251967,-29668.118616118267
-14724.122252955707,-12055.167502780856,-9332.300344979803,-29166.701932752363
-14105.31420771053,-11723.042931919448,-9016.604306293048,-29211.561883874165
-12702.071690806351,-10235.042600040746,-8782.35802440143,-29596.973013517025
-11631.870166286251,-8643.33017388942,-8846.149903076875,-30016.537608687595
-13371.081754098148,-10179.96790170287,-9373.114630355196,-29687.87755821676
-14744.931727043597,-12065.114029063468,-9345.689039908531,-29187.39964811798
-14140.249984294176,-11750.446170621655,-9025.41089360844,-29223.050680524197
-12737.47685402356,-10266.782077167283,-8782.64859707935,-29596.771847816926
-11643.604832125287,-8646.146493690789,-8838.41619949534,-30011.821390607525
-13353.98266958984,-10150.642412977508,-9373.516961755391,-29683.653078514708
-14729.620782091712,-12040.840034585004,-9349.533539954846,-29176.35788635706
-14132.404521990362,-11736.789254759462,-9018.370094105016,-29205.21398844886
-12739.71202846909,-10275.476905760395,-8776.9712539877,-29584.85836802225
-11635.02176225445,-8653.746086805593,-8831.218937780732,-30011.75433537416
-13331.96620130136,-10128.827110389127,-9369.538351242349,-29701.89210199024
-14723.6752180666,-12036.727313605228,-9344.437342219037,-29187.55611032917
-14134.41617899134,-11750.580281088389,-9025.321486630615,-29214.914645542463
-12753.212482120096,-10292.240714101878,-8785.710786069725,-29589.10519946876
-11636.02759075494,-8656.0930199734,-8839.019696595633,-30019.599797677973
-13298.572695085131,-10102.362644954044,-9371.32649079877,-29704.708421791605
-14713.236953405973,-12034.71565660425,-9359.144790070628,-29188.83015976312
-14148.564833231549,-11771.792086576474,-9043.940489761888,-29218.91560779996
-12772.882017240763,-10325.365999384643,-8804.93328630129,-29592.703830326063
-11633.904175031685,-8666.844209056402,-8842.84184489749,-30013.341309230487
-13274.835142473596,-10074.154743451449,-9370.991214631942,-29709.40228812722
-14717.304970896836,-12020.879926786414,-9357.446057492023,-29182.01287770425
-14164.680440983826,-11769.065173752926,-9037.74905654777,-29197.659098822965
-12788.684700570668,-10326.036551718302,-8791.87986753939,-29573.86130975024
-11641.771989079953,-8663.96083402167,-8830.74955114717,-30004.244149237176
-13267.280252847702,-10050.41719083991,-9366.073830851774,-29707.860017759805
-14725.86568902322,-12013.369740649432,-9363.57043547278,-29182.70578178237
-14172.436496309818,-11772.216769721124,-9043.02406823922,-29196.63091857802
-12793.378566906282,-10339.291136180298,-8792.908047784334,-29563.46774857852
-11632.496015131,-8664.229054955133,-8823.55228943256,-29997.046887522567
-13239.4746827453,-10021.114053859004,-9356.887263880642,-29713.71617480709
-14723.049369221852,-12006.127775445912,-9362.788124416844,-29194.462799365858
-14188.149772661898,-11786.164258261237,-9038.017277481233,-29202.55413085868
-12802.118098988309,-10354.982060787925,-8783.185038946276,-29559.46678632102
-11624.561145849366,-8671.515723647562,-8812.242306738175,-29995.526968899605
-13208.271647485692,-9998.98582684825,-9342.068057306777,-29713.98439574056
-14705.033863190874,-11997.723519530717,-9353.46744697898,-29186.25970915076
-14198.14100243342,-11803.688025914196,-9044.655745584458,-29201.68241282492
-12832.874099358807,-10394.76816591837,-8797.445451908761,-29566.46288233553
-11640.699105346095,-8703.210497285187,-8822.926440587813,-30009.720326628725
-13195.106470001516,-9993.97903609026,-9349.153560299106,-29740.09123326436
-14712.38758711667,-12003.602028322464,-9363.548083728325,-29206.57744486063
-14209.853316528,-11815.065063841948,-9052.098876488077,-29213.506485641778
-12849.839073400388,-10407.307494557796,-8801.424062421807,-29576.297649895867
-11646.242337971013,-8696.773194882058,-8821.31711498703,-30019.9350738448
-13179.683766327356,-9960.317308940568,-9350.271147521871,-29751.44591944765
-14711.113537682715,-11985.2288943802,-9373.941644900042,-29209.08084023963
-14221.319761433571,-11814.394511508288,-9064.012356282754,-29212.07597399664
-12864.367707296338,-10416.739930717937,-8812.756396860648,-29570.285030637388
-11640.274422201446,-8691.565238423973,-8819.372513219418,-30006.836951593992
-13161.310632385092,-9933.048180705093,-9347.745400398422,-29754.23988750457
-14715.695645296057,-11979.328033843998,-9380.133078114162,-29217.01570952126
-14233.38970343944,-11820.407130766764,-9065.17464699443,-29210.8466280516
-12876.862332446854,-10429.458073313008,-8808.531917158594,-29569.860347492737
-11642.867224558262,-8696.035587315035,-8811.996437549167,-30010.81556210704
-13134.756759972188,-9901.778090212118,-9343.61032767419,-29765.393407987765
-14708.364273114716,-11969.716783728218,-9385.273979338885,-29224.43648868042
-14232.29446796113,-11830.800691938484,-9065.822847583631,-29207.82914255013
-12880.8409429599,-10448.367649122198,-8809.403635192351,-29560.18204214359
-11630.506709874477,-8701.779985640047,-8804.039216523077,-30003.0818585255
-13097.16112579836,-9870.440944485776,-9323.18083324204,-29763.26999226451
-14693.142735140653,-11950.40487651883,-9367.638452963643,-29217.35098568809
-14250.667601903391,-11838.892023431305,-9061.26309171475,-29199.134313957016
-12912.26749566406,-10478.0731175033,-8814.902164328358,-29562.37251310021
-11649.438637428122,-8733.005372644111,-8806.341446201974,-30011.30730048505
-13091.103803050972,-9871.782049153097,-9322.532632652836,-29776.41281800423
-14710.66650279361,-11971.169647117811,-9376.489743767946,-29231.65610213949
-14284.195218586352,-11879.415736128776,-9067.02984178422,-29217.08276475463
-12946.108036769396,-10516.875745877713,-8809.425986936807,-29567.602821302757
-11662.000317812004,-8741.119055881389,-8796.797251319558,-30007.239282994185
-13072.171875497328,-9843.95412730624,-9317.03410351683,-29776.99396336007
-14697.031938675877,-11950.047248607549,-9376.80266819032,-29226.604607892587
-14268.839570145556,-11852.593642782407,-9075.210580254865,-29206.84566579409
-12935.580365130943,-10501.833021859293,-8816.422082951318,-29557.4774810645
-11652.947861307604,-8738.928584924768,-8799.032425765088,-30007.19457950528
-13040.521805348611,-9811.141766445848,-9314.553059882292,-29782.55954772944
-14687.800668215832,-11933.305792010522,-9374.254569322417,-29221.933093301428
-14282.652948218936,-11867.211683656178,-9064.325280705129,-29196.385049389013
-12951.964193816686,-10526.978734371512,-8806.676722368804,-29542.21123960152
-11642.82252106935,-8732.82655868847,-8787.655387837338,-29986.45216065075
-12997.025310638584,-9762.21379783318,-9312.56375462577,-29785.308812297444
-14673.741420953444,-11913.16687025629,-9390.973674174986,-29239.41215746548
-14285.357509298028,-11873.4031168703,-9076.685795388914,-29199.6931075684
-12956.56865317448,-10534.310106552854,-8819.707789386248,-29542.09948087925
-11631.244317441502,-8744.53887278305,-8796.663140852826,-29992.62124212041
-12953.148836272818,-9744.779437158042,-9305.098271977697,-29791.008507133545
-14639.99028682593,-11895.710157836696,-9378.6131594912,-29229.108003271584
-14269.845398646046,-11869.82683775745,-9073.489495931804,-29189.16543592995
-12952.388876961337,-10542.55790025686,-8815.84093759548,-29531.05771911833
-11644.67771585914,-8758.285195623064,-8789.421175649308,-29987.2791751956
-12966.85045562392,-9743.88536737983,-9311.826147058744,-29806.453562552164
-14668.62287147318,-11907.64598937583,-9388.447927051537,-29238.18281152044
-14300.40023331645,-11890.54690486752,-9077.065775044652,-29189.41130511896
-12985.178886077272,-10572.95627271608,-8812.9799143052,-29522.765221925405
-11652.433771185131,-8768.432887605773,-8778.982910988678,-29978.60669834694
-12938.821368076966,-9707.854355317872,-9300.583219597724,-29803.413725306244
-14652.507263720903,-11877.404079127798,-9389.94549393004,-29235.679416141444
-14308.782137487193,-11884.10960246439,-9083.45837395887,-29182.81754050464
-13003.32850257498,-10581.47228735355,-8823.418178965829,-29521.04413760235
-11659.943957322115,-8772.25503590763,-8784.950826758246,-29978.18201520229
-12915.061463720976,-9676.941892736184,-9297.7445480519,-29808.59933001987
-14653.33427826575,-11869.312747634978,-9397.634494022668,-29244.39659647901
-14322.84138474958,-11894.480811891654,-9093.762528152767,-29187.757276029264
-13016.247810870149,-10592.894028770212,-8829.40844647985,-29526.22974231598
-11672.863265617283,-8788.013015748622,-8793.98093151819,-29989.335535685485
-12901.113975180862,-9662.4803140736,-9304.450071388492,-29821.16101040376
-14654.250699788416,-11872.44199185872,-9405.815232493307,-29252.21970703837
-14340.49926286927,-11914.709140623709,-9093.404900241483,-29185.49974983928
-13042.444055371769,-10629.014447809988,-8825.251022011164,-29519.434812001564
-11682.720384922077,-8813.27048698312,-8784.749661058147,-29981.244204192662
-12876.705870235666,-9646.185892365682,-9292.491888104903,-29822.055080181966
-14639.073865303262,-11855.856997472883,-9402.261305124915,-29250.92330585996
-14339.31462041314,-11922.196975016232,-9091.437946729417,-29178.77187475823
-13045.305078662048,-10638.335125247851,-8823.149958032365,-29503.96740483849
-11681.625149443764,-8817.114987029432,-8779.251131922143,-29975.075122723
-12856.522244992524,-9626.650467711745,-9290.636693315111,-29835.108498943868
-14652.887243376645,-11859.992070197117,-9400.5178690574,-29263.32852403266
-14370.31648997265,-11943.542890971052,-9089.873324617543,-29188.338421385102
-13063.745267837676,-10658.071715601887,-8818.478443441207,-29509.30947176331
-11682.183943055146,-8818.903126585858,-8768.008204461123,-29973.21992793321
-12834.595183681868,-9592.966388817596,-9270.296605860784,-29834.14737393229
-14642.180757782551,-11837.86384318636,-9397.165107389106,-29261.69684668742
-14371.948167317889,-11939.720742669197,-9091.952036851888,-29180.64942129248
-13083.6383204029,-10669.87343667429,-8824.513414444138,-29506.35904149521
-11704.60274274382,-8837.298612272574,-8774.669024308805,-29973.532852355584
-12821.094730030864,-9579.264769466492,-9277.69503327549,-29845.77028104905
-14627.987400053433,-11833.01351463956,-9402.90950571412,-29263.864965899586
-14367.388411449005,-11947.320335784,-9099.573981711148,-29181.90111898197
-13087.013433815651,-10684.804401970436,-8829.162577290843,-29502.64865191563
-11700.020635130482,-8845.501702487672,-8769.572826572994,-29963.54162258406
-12796.507811130024,-9552.84500752032,-9270.542475049791,-29845.63617058232
-14629.239097742928,-11818.730749932618,-9409.726787772988,-29268.245907812823
-14379.681870899423,-11948.3708677734,-9101.384473012027,-29175.21794738984
-13100.938570611308,-10692.180477640686,-8826.994458078678,-29493.61854715569
-11704.401577043722,-8846.641641454893,-8765.795381760046,-29958.758349270625
-12767.584653804855,-9516.679884991632,-9257.466704543436,-29844.876211270835
-14619.359626693682,-11792.556857175454,-9400.42846207958,-29264.893146144528
-14387.862609370068,-11943.498187482142,-9097.025882843243,-29168.28890660869
-13116.942419641307,-10705.88209699179,-8825.586298177994,-29487.203596497013
-11714.817489959894,-8863.114877118454,-8764.700146281737,-29953.72920676818
-12738.66149647969,-9490.863620145754,-9254.091591130686,-29844.965618248654
-14601.992321251908,-11773.535522643986,-9407.379854605182,-29260.914535631484
-14394.054042584186,-11945.375734016388,-9105.51954573626,-29161.471624549824
-13119.892849909407,-10710.754777283046,-8828.536728446094,-29477.033552769848
-11706.167364855692,-8864.187760852308,-8760.609777046417,-29950.48820382216
-12715.393330501716,-9465.15911402215,-9247.296660816271,-29858.108443988374
-14608.966065521963,-11761.398525404757,-9408.676255783588,-29278.259489328804
-14408.292103802218,-11946.873300894891,-9104.8489934026,-29168.17714788641
-13143.228071120748,-10725.283411178996,-8837.857405883957,-29482.84500632823
-11727.379170343778,-8877.822324970046,-8763.671966036793,-29946.53194505357
-12699.501240193991,-9447.121256246715,-9246.35788754915,-29862.332923690432
-14586.055527455275,-11740.678458294686,-9404.854107481731,-29269.92228864697
-14416.361083550584,-11954.629356220885,-9108.76054868228,-29161.069293149627
-13168.060859210596,-10757.805199361468,-8837.70094367277,-29482.375619694667
-11731.782464001471,-8897.022473457155,-8753.993660687645,-29948.521250310096
-12675.026080015432,-9418.734540788477,-9235.271422299316,-29864.41163592477
-14587.866018756156,-11734.576432058386,-9411.33611337377,-29277.52188176178
-14431.47086280237,-11968.643899994362,-9121.210470343884,-29168.221851375325
-13187.03749025315,-10766.500027954582,-8845.948737376779,-29478.41936092608
-11756.727010813596,-8917.04963648911,-8764.141352670355,-29944.944971197245
-12662.956138009566,-9400.607276035224,-9232.477454242404,-29869.843109827416
-14577.27129188434,-11705.720329966583,-9406.888116227165,-29275.778445694265
-14433.482519803349,-11964.978213903692,-9109.498156249305,-29152.597982001065
-13188.959740276308,-10775.641891436802,-8837.835054139501,-29463.48839562993
-11752.70369681164,-8916.356732410995,-8758.73223051217,-29934.88668619236
-12642.481940088504,-9378.389642046648,-9229.035285596286,-29879.253194243094
-14573.806771493766,-11706.189716600147,-9412.900735485642,-29288.004849911315
-14439.361028595094,-11979.529199544097,-9121.858670933088,-29165.785511229697
-13202.482545671768,-10800.005292893087,-8846.976917621723,-29473.54668063482
-11757.33050791389,-8939.62489838897,-8762.822599747491,-29938.798241472035
-12607.367349549217,-9363.6598424506,-9230.35403851915,-29887.500987947107
-14552.863186939145,-11695.416175772689,-9423.651924568643,-29301.37119309559
-14441.149168151518,-11990.79447874957,-9130.799368715212,-29170.72524675432
-13207.869316085496,-10821.507671059093,-8855.9399671483,-29474.753674835407
-11751.675516566696,-8955.405229974416,-8764.25311139263,-29942.709796751715
-12584.389756249162,-9348.32654575426,-9227.895346629066,-29901.73904916514
-14556.081838140708,-11691.63873095974,-9432.234994439485,-29314.78223976877
-14451.118046178586,-11994.929551473804,-9139.158921141496,-29175.6873340234
-13212.42907195438,-10823.988714693633,-8856.744629948691,-29469.92569803306
-11760.459752137633,-8963.228340533775,-8760.073335179488,-29933.478526291678
-12550.638622121647,-9314.351894182191,-9217.77000639081,-29892.261909516088
-14521.16841330152,-11654.937166564128,-9420.276811155893,-29295.068001159198
-14449.754589766811,-11990.123926415912,-9128.18421461394,-29154.676694235408
-13226.465967472312,-10830.51542407458,-8845.345240276485,-29448.04334021132
-11762.627871349798,-8962.669546922392,-8745.991736172646,-29913.361956281897
-12532.153729457108,-9286.479268846426,-9214.752520889346,-29890.183197281745
-14515.49107020987,-11638.642744856208,-9430.290392671872,-29297.012602926807
-14460.371668383084,-11997.432946852798,-9138.466017063382,-29151.994484900773
-13247.700124704854,-10851.928395262768,-8852.85542641347,-29446.5010698439
-11780.03988028048,-8983.16609658791,-8747.01991641759,-29910.79150566954
-12516.23928740493,-9267.569693037236,-9202.302599227738,-29889.333830992444
-14513.211192275428,-11619.889631258206,-9421.014418722918,-29295.291518603743
-14470.139380710052,-11993.342577617475,-9133.794502472225,-29150.943952911373
-13259.52419752171,-10859.527988377571,-8848.429781011317,-29441.471927341456
-11778.18468549069,-8995.616018249515,-8747.39989607333,-29910.188008569243
-12485.57269401225,-9251.07410562922,-9197.876953825587,-29901.09084857593
-14500.068366535708,-11620.649590569688,-9428.122273459709,-29310.51305657781
-14477.537808124758,-12015.291990672587,-9151.675898036468,-29165.36082808505
-13275.997433185272,-10889.814602114511,-8858.979804394223,-29445.15996517658
-11798.368310733831,-9024.44976859686,-8746.39406757284,-29908.556331224005
-12482.398746299596,-9250.604718995655,-9195.641779380056,-29908.91395913529
-14497.922599068,-11616.492166101,-9422.57904083479,-29311.27301588929
-14483.72924133888,-12023.025694254124,-9141.081171164651,-29153.357941312548
-13280.981872198803,-10902.666855176312,-8854.531807247617,-29432.933560959525
-11795.440232210189,-9030.015352966231,-8735.86639593439,-29895.569967695472
-12450.636917428605,-9220.452215725449,-9185.29292169725,-29909.472752746675
-14480.510590137315,-11590.474735555024,-9427.563479848324,-29314.02228045729
-14500.157773513529,-12029.887679801905,-9146.244424133827,-29148.038226132183
-13310.91085802446,-10920.704712951743,-8854.8894351589,-29427.882066712627
-11831.62770648333,-9055.563396878648,-8738.481550035662,-29896.39698224032
-12442.523234191329,-9203.263724239318,-9176.307520426217,-29915.239502816145
-14480.890569793057,-11584.260950596446,-9423.920145502108,-29318.492629348355
-14513.63587542008,-12045.422142198342,-9152.972299214876,-29150.29575232217
-13330.714503611864,-10947.102123153463,-8870.379194066429,-29434.22996213793
-11844.278793845033,-9082.296083247194,-8751.646727519837,-29909.003366113116
-12419.724454846912,-9184.018872263296,-9181.359014673117,-29928.13645936685
-14463.09858120663,-11560.076363095804,-9439.58871836528,-29333.691815577964
-14511.132480041086,-12045.064514287056,-9162.33768014165,-29152.77679595671
-13339.722256627352,-10959.015602948142,-8869.596883010494,-29427.07740391224
-11842.870633944349,-9093.628417686035,-8742.661326248804,-29890.272604259564
-12402.31244591623,-9179.794392561244,-9171.23367443486,-29927.48825877765
-14472.441610388949,-11567.564197488333,-9436.146549719162,-29336.66459759052
-14532.053712851251,-12061.314232506063,-9161.130685941063,-29152.10624362305
-13354.183835289936,-10982.820210793045,-8874.626025512938,-29428.73143300193
-11860.68497427523,-9120.741083710323,-8752.183169386766,-29895.994650840123
-12383.78284976278,-9166.450401121429,-9179.839096050157,-29941.815726973506
-14453.86731074659,-11546.508854211434,-9444.260232956438,-29344.66652210552
-14541.01676237783,-12070.321985521554,-9169.378479645073,-29156.129557625005
-13364.018602850272,-10990.308045185571,-8872.592016767505,-29419.500162541888
-11860.43910508622,-9123.959734911889,-8742.706029737716,-29882.471845444663
-12353.898567426037,-9135.89556645102,-9158.269662650784,-29932.696215235737
-14433.773092481268,-11521.094920765749,-9433.91137527363,-29338.20686795793
-14533.68539019649,-12060.755438894685,-9165.7127935544,-29144.640760974977
-13374.434515766445,-10998.444080167304,-8872.033223156122,-29412.258197338368
-11877.895817505816,-9143.29399386573,-8746.572881528484,-29885.48933094613
-12345.114331855098,-9118.215336586874,-9160.52718884077,-29948.02951193208
-14432.499043047315,-11504.353464168724,-9440.080456743295,-29355.708283866443
-14549.599832248668,-12066.05280233059,-9169.490238367349,-29152.21800234533
-13399.289655600744,-11014.917315830866,-8878.269359859152,-29415.141572373104
-11898.72764333816,-9159.834284762655,-8744.740038483147,-29882.15892102229
-12333.290259038242,-9108.46997600436,-9157.375592872571,-29952.16458465631
-14428.8557087011,-11495.32335940878,-9442.695610844568,-29360.983295557893
-14574.902006972075,-12087.421070029864,-9179.012081505309,-29155.526060524717
-13422.535469834263,-11047.61791796898,-8881.890342460913,-29412.504066527377
-11912.272800478078,-9192.601942134135,-8747.981041429168,-29881.64483089981
-12318.96279084239,-9103.440833501916,-9151.608842803102,-29955.047959691045
-14423.37953130955,-11490.763603539895,-9438.33702067578,-29357.04938853376
-14571.12456215913,-12084.805915928591,-9173.29003492475,-29147.14415635397
-13431.051484471738,-11056.558615751102,-8881.666825016358,-29404.658604223565
-11918.330123225463,-9202.928448072487,-8744.293003594043,-29868.881984815835
-12290.687834106426,-9081.156144279974,-9140.589432786635,-29957.864279492413
-14412.18130733744,-11472.457524831,-9445.042544012374,-29374.57315618672
-14586.74843153339,-12099.491012035727,-9180.19672396144,-29153.02266514572
-13453.537339393775,-11081.816086985598,-8887.925313463846,-29408.05606938077
-11944.615774704907,-9238.35596303415,-8753.323108353987,-29881.801293111
-12280.696604334904,-9070.382603452515,-9149.485427079848,-29973.89048026687
-14397.026824596744,-11449.949318164508,-9455.614919139734,-29375.19900503147
-14576.488980828402,-12085.34235779552,-9189.7185670994,-29151.949781411862
-13449.290507947268,-11077.14457239444,-8893.960284466779,-29403.138685600603
-11939.050190335536,-9234.623221710111,-8752.071410664488,-29869.016095282568
-12250.454694086871,-9037.41378038094,-9139.89652870852,-29968.61546857541
-14374.384507463516,-11411.437262468013,-9442.87442480021,-29372.29327825228
-14593.65512057008,-12083.06247986108,-9184.19768621894,-29147.501784265256
-13473.788019870284,-11084.274778875682,-8892.23920014372,-29397.6401564646
-11957.579786488985,-9244.770913692822,-8743.73420998266,-29856.4991183876
-12235.27785960172,-9013.363303347029,-9126.865461691075,-29963.22869816169
-14374.384507463516,-11397.914457072551,-9448.663526614131,-29376.428350976512
-14603.042853241308,-12091.086756120534,-9193.29484621225,-29148.01587438773
-13490.2836072783,-11103.229058173783,-8895.122575178453,-29394.376801774124
-11974.053022152546,-9264.932187191507,-8749.568015285495,-29859.158975977774
-12219.139900104989,-9004.534364287181,-9121.99278139982,-29972.236451177178
-14357.12896074402,-11389.353738946167,-9443.500273644957,-29386.03960109229
-14615.17985048054,-12109.21402087379,-9193.317197956703,-29153.469700034824
-13504.186392329502,-11124.127939239495,-8893.692063533314,-29395.226168063426
-11978.724536743706,-9281.7406990219,-8741.789608215047,-29856.34265617641
-12195.067071326625,-8988.217590834807,-9114.57200224066,-29979.47841638069
-14344.477873382317,-11370.041831736784,-9441.421561410614,-29390.554653472263
-14612.765862079366,-12104.229581860254,-9186.231694964374,-29151.52509826721
-13509.371997043134,-11133.783892844189,-8891.590999554515,-29391.493426739387
-11990.347443860466,-9297.565734096255,-8740.224986103176,-29847.692531072204
-12182.237170009275,-8973.644253449947,-9105.251324802795,-29976.907965768336
-14331.22328892032,-11352.473360594911,-9441.332154432792,-29392.96864187344
-14620.477213916449,-12113.505555809208,-9192.423128178492,-29149.759310455243
-13526.359322829168,-11157.744962900277,-8895.457851345283,-29384.76555165834
-12007.223010924225,-9329.104045522696,-8746.885805950858,-29848.072510727947
-12167.842646580058,-8971.051451093132,-9110.951019638898,-29987.972079273717
-14317.45461433585,-11341.342191856167,-9457.67127962962,-29404.88212166812
-14629.08263553174,-12116.411282588397,-9207.667017897013,-29146.607714487043
-13536.81993923425,-11159.913082112442,-8899.302351391596,-29376.227185276413
-12020.85757504196,-9337.195377015518,-8748.763352485103,-29837.723653045137
-12144.283907924166,-8946.53158742566,-9106.525374236748,-29988.53087288509
-14304.8258787186,-11317.604639244631,-9456.956023807052,-29405.57502574623
-14632.32363847776,-12121.239259390744,-9214.01491332232,-29144.797223186164
-13557.338840644225,-11187.137506859006,-8909.561802096583,-29380.29520276728
-12035.341505448998,-9362.654013950112,-8747.086971650955,-29836.71782454465
-12130.738750784249,-8936.62976463196,-9101.786804412222,-29989.93903278578
-14289.850209933546,-11300.796127414242,-9462.49925643197,-29410.06772638175
-14639.587955425735,-12125.463739092796,-9213.25495401084,-29147.43472903189
-13567.263015182378,-11197.17344011944,-8908.086586962532,-29377.031848076804
-12051.948851579293,-9384.357557816214,-8754.753619999126,-29836.829583266925
-12126.089587937546,-8931.511215151693,-9108.738196937824,-30007.529855672103
-14294.20880010233,-11290.201400542426,-9471.30584374736,-29434.140555160116
-14654.876548633163,-12137.578384587572,-9223.939087860475,-29159.05763614865
-13587.424288681066,-11215.211297894872,-8915.105034721499,-29379.49053996689
-12064.935215107826,-9401.836621980265,-8748.226910618176,-29830.459336097163
-12102.284980092643,-8911.595810842015,-9082.56430418066,-29996.46574216673
-14270.180674812877,-11264.094563018629,-9451.837474326789,-29422.182371876526
-14655.971784111474,-12130.828157762073,-9212.830270866189,-29148.217040087828
-13595.716785873983,-11215.434815339424,-8909.271229418664,-29364.447815948468
-12069.360860509976,-9399.71320625701,-8750.238567619153,-29815.81894347894
-12065.762229652672,-8867.428763798329,-9079.502115190282,-29989.89432929687
-14230.72984584926,-11206.002379179285,-9445.511930645936,-29416.169752618047
-14653.870720132676,-12112.767948242185,-9218.753483146846,-29141.62327547351
-13614.246382027432,-11219.994571208308,-8916.200270199808,-29361.72090312492
-12082.324872294052,-9408.296276127849,-8743.041305904544,-29809.18047537571
-12058.922595849348,-8857.348127048985,-9074.025937798731,-30002.2324922362
-14235.267249973684,-11203.990722178309,-9455.883140073198,-29434.58759004922
-14658.18460681255,-12111.96328544179,-9218.68642791348,-29142.85262141855
-13613.21820178249,-11228.376475379047,-8909.941781752323,-29358.546955412265
-12095.512401522685,-9436.928860775097,-8737.162797112798,-29812.46618181064
-12042.315249719057,-8856.409353781863,-9054.959899778354,-30001.718402113725
-14206.165278692875,-11179.5379137442,-9440.952174777052,-29435.68282552753
-14653.490740476936,-12112.164451141887,-9211.91384934352,-29148.127633110005
-13626.092806588747,-11240.379362151549,-8906.924296250856,-29357.67523737851
-12117.797090744629,-9453.826779583307,-8738.660363991305,-29810.00748992056
-12040.348296206988,-8845.635812954404,-9053.261167199753,-30011.86609409644
-14212.110842717988,-11179.090878855097,-9449.803465581354,-29449.16092743408
-14676.535389010358,-12132.616297318496,-9230.488148985882,-29157.850641948065
-13642.901318419135,-11255.690307103432,-8921.654095846903,-29360.893888580074
-12128.905907738914,-9469.473000702024,-8751.11028565291,-29810.990966676596
-12025.976124522223,-8829.274336013119,-9068.728574362824,-30023.623111679928
-14191.837810497023,-11135.460273678336,-9455.771381350922,-29455.128843203645
-14686.928950182077,-12114.913715709892,-9231.851605397656,-29154.31906632413
-13667.801161742347,-11257.813722826688,-8925.543299382127,-29356.937629811484
-12141.132311955967,-9469.048317557374,-8747.466951306695,-29800.61975724933
-11998.505830586651,-8788.907085526835,-9048.969632264332,-30009.67562313981
-14170.246025353195,-11100.144517438952,-9446.830683568798,-29447.953933233493
-14675.082525620764,-12101.72618648126,-9228.409436751535,-29143.97020864132
-13668.717583265015,-11262.060554273196,-8924.67158134837,-29346.432309917487
-12154.74452432925,-9488.471983489037,-8751.177340886277,-29789.44388502168
-11988.201676392757,-8782.603893590438,-9042.9346612614,-30006.658137638347
-14162.154693860375,-11088.5663138111,-9449.423485925614,-29452.804261780297
-14686.19134261505,-12118.378236100463,-9236.791340922278,-29144.372540041517
-13690.935217253593,-11301.19845881444,-8937.926165810368,-29350.746196597363
-12167.820294835605,-9519.004466414985,-8753.188997887253,-29790.76263794454
-11970.119115128413,-8776.054832465034,-9041.97353624982,-30019.01865232213
-14141.389923261397,-11071.199008369327,-9455.503160417456,-29470.59625036672
-14691.265188606403,-12123.809710003105,-9245.374410793116,-29149.11110986604
-13693.863295777235,-11300.594961714143,-8936.942689054333,-29341.33611218168
-12177.275082740198,-9537.645821290713,-8754.530102554572,-29785.957012886647
-11954.897577154348,-8777.060660965522,-9040.811245538143,-30027.84759138198
-14123.75439688616,-11053.317612805082,-9459.973509308518,-29484.87901507366
-14694.416784574603,-12124.30144838112,-9249.889463173087,-29158.76706347073
-13712.459947164054,-11316.062368877218,-8940.63072688946,-29349.136870996583
-12201.929056874402,-9558.678812823156,-8755.938262455256,-29793.08721936789
-11950.628393963383,-8767.069431194,-9033.882204757,-30035.00014960768
-14110.455108935252,-11031.167034049871,-9457.134837762696,-29491.02574479887
-14695.646130519644,-12121.507480324208,-9252.01287889634,-29163.63974376199
-13725.468662437042,-11332.66971500751,-8946.9115670814,-29354.32247571021
-12219.385769293996,-9586.216161992092,-8759.49218982365,-29791.053210622456
-11940.950088614236,-8762.084992180466,-9030.820015766623,-30038.777594420622
-14107.79525134507,-11016.481937942735,-9461.24755874247,-29501.55341643732
-14717.39437787466,-12129.755274028215,-9252.862245185644,-29159.325857082116
-13749.519139470953,-11349.76879951582,-8945.592814158537,-29340.33028368119
-12239.055304414667,-9609.260810525517,-8759.916872968302,-29781.68782969568
-11932.009390832114,-8759.268672379098,-9025.50030058626,-30038.84464965399
-14086.561094112529,-10999.27109471215,-9458.788866852388,-29502.69335540454
-14725.82098553431,-12136.997239231736,-9259.54541677778,-29163.706798995358
-13759.935052387124,-11358.06129670874,-8943.759971113202,-29340.844373803666
-12246.118455662545,-9618.08974958536,-8750.171512385788,-29772.948297613657
-11919.738283126151,-8745.052962905522,-9017.07369292661,-30036.117736830445
-14083.297739422052,-10974.862989766954,-9463.929768077109,-29510.15883805261
-14738.427369407103,-12131.990448473744,-9267.301472103773,-29165.20436587386
-13777.77174446246,-11360.832913021197,-8951.225453761275,-29335.85993479013
-12261.89878724799,-9627.835110167876,-8759.805114246024,-29768.67911442269
-11896.671282848274,-8725.20461382921,-9019.711198772337,-30040.297513043584
-14046.037381415055,-10948.17500688732,-9458.744163363475,-29513.399840998634
-14716.880287752188,-12127.58715481605,-9257.511408032347,-29162.96919142833
-13777.81644795137,-11374.735698072398,-8946.9115670814,-29336.26226619032
-12271.711203063873,-9650.6785930012,-8752.361983342407,-29767.472120222108
-11880.77919254055,-8716.889764891836,-8998.141765372964,-30036.36360601945
-14028.20068933972,-10923.16340484183,-9445.400171923658,-29514.3162625213
-14725.597468089756,-12132.68335255186,-9261.221797611928,-29164.62322051802
-13791.87569521376,-11397.06509078325,-8955.047602063132,-29335.390548156567
-12296.164011497976,-9683.692119561689,-8763.202579403232,-29766.421588232708
-11882.92496000826,-8722.522404494573,-9000.175774118397,-30050.06522537056
-14007.10064257391,-10898.084747562974,-9439.231090453994,-29525.335672537767
-14726.71505531252,-12129.55410832812,-9252.191692851984,-29158.25297334826
-13800.838744740338,-11407.101024043684,-8942.687087379347,-29321.174838682997
-12290.263150961777,-9693.079852232917,-8748.718648996193,-29750.19422175816
-11848.63738401382,-8701.467061217674,-8986.094175111553,-30037.928228131324
-13988.369880720364,-10886.10421253493,-9443.656735856144,-29518.3172247788
-14714.48865109547,-12127.743617027238,-9256.93026267651,-29150.742787211275
-13810.360587878298,-11417.561640448766,-8950.174921771875,-29317.86678050361
-12314.671255906973,-9714.604582143376,-8750.439733319252,-29750.03775954697
-11835.896889674294,-8689.710043634183,-8973.957177872322,-30040.45397525477
-13960.47490364014,-10847.256880671606,-9436.05714274134,-29530.968312140503
-14725.798633789856,-12134.315029897098,-9263.658137757557,-29154.699045979865
-13826.275029930475,-11437.767617436364,-8952.253634006218,-29314.446963601946
-12333.781997416258,-9731.770721885052,-8750.104457152422,-29736.783175084973
-11833.371142550845,-8686.133764521333,-8973.040756349654,-30039.04581535409
-13959.066743739457,-10839.970211979176,-9440.10280848775,-29541.69714947905
-14731.29716292586,-12128.414169360896,-9260.908873189554,-29153.49205177928
-13840.021352770493,-11442.282669816335,-8952.812427617602,-29309.12724842158
-12346.142512100045,-9755.68708845223,-8752.965480442701,-29736.49260240705
-11813.835717896904,-8676.321348705453,-8957.372183486485,-30033.50258272917
-13933.09401668239,-10802.531040016538,-9433.307878173337,-29540.221934345
-14743.031828764895,-12125.776663515171,-9273.135277406607,-29164.10913039555
-13853.812379099416,-11448.02706814135,-8954.935843340856,-29309.03784144376
-12367.555483288228,-9770.5062950261,-8747.668117006793,-29733.54217213895
-11818.015494110048,-8675.784906838526,-8957.14866604193,-30046.08661485751
-13920.0853014094,-10778.100583326886,-9431.117407216718,-29555.13054789669
-14753.045410280874,-12126.40251235992,-9270.475419816425,-29165.53964204069
-13871.000870585547,-11463.025088670862,-8955.785209630158,-29305.685079775463
-12383.73814627387,-9789.639388279842,-8754.641861276848,-29734.19037272816
-11801.989293335591,-8671.33690969192,-8958.735639898257,-30050.93694340431
-13898.024129632013,-10763.862522108857,-9434.939555518577,-29561.836071233283
-14750.117331757228,-12126.58132631556,-9271.92828320602,-29161.561031527643
-13876.253530532544,-11468.903597462608,-8955.472285207783,-29298.331355849667
-12393.729376045392,-9807.409025121811,-8750.171512385788,-29722.768631311494
-11791.707490886152,-8660.004575253079,-8945.883386836456,-30042.443280511296
-13857.768637868005,-10714.800443029457,-9426.602354836745,-29561.18787064408
-14733.308819926837,-12106.554163283608,-9274.02934718482,-29159.77289197122
-13880.030975345491,-11473.619815542675,-8959.987337587754,-29302.95816695192
-12403.340626161174,-9823.792853807552,-8753.926605454279,-29722.1651342112
-11780.397508191769,-8658.417601396752,-8941.547148412126,-30043.784385178613
-13856.583995411873,-10712.632323817292,-9424.277773413394,-29565.70292302405
-14749.49148291248,-12123.49678558073,-9275.906893719066,-29162.58921177259
-13899.208772088145,-11495.636283831154,-8959.562654443103,-29290.821169712686
-12425.804129338758,-9852.358383221434,-8756.16177989981,-29710.54222709444
-11776.016566278526,-8662.664432843261,-8943.156474012909,-30045.147841590388
-13841.496567904542,-10696.673178276204,-9428.971639749008,-29575.023600461915
-14762.6343086522,-12132.035151962657,-9281.718347277443,-29167.193671130382
-13927.081397423912,-11524.04535103385,-8969.799753403635,-29298.2643006163
-12449.519330205838,-9887.04829061607,-8762.576730558483,-29716.286625419456
-11778.788182590984,-8674.62261612685,-8944.072895535577,-30051.2945713156
-13830.857137543817,-10684.44677405915,-9438.001744508952,-29588.4346471351
-14772.469076212536,-12146.362620158508,-9296.828126529232,-29180.11297942555
-13937.497310340084,-11546.084171066785,-8975.208875561819,-29299.024259927784
-12452.045077329289,-9900.369930311434,-8760.408611346318,-29708.08353520436
-11746.71342929762,-8646.749990791082,-8936.093322765031,-30049.1935073368
-13783.404384065198,-10631.517843188984,-9426.892927514664,-29587.02648723441
-14740.684895597087,-12107.023549917169,-9290.703748548478,-29164.802034473665
-13921.292295609986,-11515.32817069628,-8972.124334826987,-29286.596690010632
-12452.000373840378,-9891.876267418416,-8754.261881621109,-29698.11465717729
-11736.74455127055,-8634.501234829573,-8923.53164238115,-30046.42189102434
-13768.831046680338,-10613.882316813746,-9423.160186190627,-29589.552234357863
-14745.646982866168,-12111.717416252784,-9296.582257340224,-29167.77481648622
-13940.76066503056,-11540.295069252858,-8984.931884399877,-29285.68026848797
-12478.263673575364,-9925.850918990483,-8767.918797483302,-29698.472285088574
-11742.734818784576,-8646.749990791082,-8924.313953437086,-30048.47825151423
-13765.187712334122,-10609.0543400114,-9427.138796703674,-29598.492932139987
-14751.637250380189,-12127.721265282782,-9302.259600431871,-29169.182976386903
-13948.159092445268,-11556.969470616516,-8979.67922445288,-29276.40429453901
-12483.270464333353,-9942.212395931769,-8763.157875914321,-29682.893119203225
-11719.824280717885,-8637.675182542227,-8919.933011523844,-30040.744547932693
-13727.413264204652,-10570.922263970646,-9420.165052433616,-29599.85638855176
-14746.652811366655,-12111.896230208426,-9297.386920140616,-29169.853528720563
-13962.1959879632,-11568.52532249991,-8985.11069835552,-29283.288631831245
-12506.225705888952,-9967.358108443988,-8768.410535861318,-29692.97375595257
-11707.866097434297,-8631.32728711692,-8907.371331139962,-30046.51129800216
-13698.914790024137,-10540.881519422714,-9411.850203496242,-29610.29465321239
-14746.786921833387,-12108.92344819587,-9294.436489872514,-29174.234470633804
-13968.499179899596,-11568.279453310905,-8975.275930795186,-29278.88533817355
-12506.113947166676,-9961.948986285804,-8756.385297344363,-29678.28865984543
-11695.63969321724,-8611.367179318331,-8902.9009822489,-30041.348045032984
-13676.56304556883,-10499.709606136035,-9414.308895386326,-29610.965205546046
-14741.86953805322,-12092.62902648795,-9302.326655665238,-29174.703857267366
-13971.986052034625,-11575.186142347591,-8987.7705559457,-29282.79689345323
-12528.175118944064,-9993.174373289869,-8765.97419571569,-29680.613241268784
-11701.60760898681,-8626.186385892199,-8900.554049081094,-30044.276123556632
-13670.595129799263,-10494.144021766666,-9412.811328507822,-29619.48122018352
-14761.15909351815,-12103.670788248872,-9305.947638266998,-29178.72717126932
-13993.91311334528,-11589.513610543445,-8981.757936687223,-29271.44220726993
-12546.0118110194,-10013.067425855092,-8759.559245057017,-29667.91745041817
-11693.73979493854,-8621.984257934602,-8889.467583831261,-30037.883524642413
-13640.688495718065,-10459.029431227378,-9410.777319762388,-29628.82424936584
-14754.386514948192,-12091.53379100964,-9307.17698421204,-29173.29569736668
-14004.373729750365,-11598.990750192494,-8984.037814621666,-29261.38392226505
-12565.636642651158,-10029.026571396182,-8758.933396212267,-29664.4529300276
-11700.512373508498,-8629.539147560496,-8882.158563394376,-30043.963199134258
-13624.304667032322,-10441.572718807784,-9396.494555055448,-29632.62404592324
-14757.135779516197,-12092.941950910325,-9306.729949322931,-29177.654287535464
-14025.116148604888,-11613.564087577352,-8988.239942579263,-29261.47332924287
-12588.815401651313,-10050.864225729016,-8756.385297344363,-29653.43352001113
-11688.710652436095,-8622.096016656878,-8875.22952261323,-30038.75524267617
-13605.663312156596,-10408.380378291651,-9394.080566654273,-29634.367481990757
-14766.21058776505,-12085.118840350968,-9309.210992957473,-29175.41911308993
-14034.43682604275,-11613.675846299631,-8989.0222536352,-29258.4558437414
-12590.15650631863,-10058.329708377089,-8758.754582256626,-29656.316895045868
-11678.384146497743,-8617.46920555463,-8871.787353967113,-30046.131318346423
-13579.64588161062,-10384.598122191206,-9396.941589944552,-29655.758101434483
-14748.35154394526,-12072.445401244808,-9305.388844655616,-29185.83502600611
-14040.941183679246,-11627.221003439548,-8986.004768133733,-29260.60161120911
-12619.772567721911,-10088.102231991556,-8760.363907857407,-29658.797938680404
-11676.864227874785,-8622.900679457269,-8861.818475940046,-30041.929190388822
-13546.25237539439,-10354.75854334337,-9384.826944449776,-29652.02536011045
-14749.53618640139,-12068.243273287211,-9306.752301067389,-29182.14698817098
-14053.234643129665,-11638.463930900569,-8994.140803115464,-29257.382960007544
-12619.45964329954,-10096.260618717744,-8769.617530061905,-29648.382025764236
-11667.36473648128,-8616.128100887312,-8866.288824831108,-30040.05164385458
-13533.780101988328,-10332.965592499446,-9385.162220616608,-29660.83194742584
-14753.671259125622,-12068.53384596513,-9314.910687793576,-29189.54541558569
-14065.371640368896,-11644.25303271449,-8992.933808914877,-29254.991323350827
-12640.514986576438,-10113.069130548136,-8765.035422448567,-29645.096319329303
-11666.917701592172,-8615.94928693167,-8861.930234662323,-30043.47146075624
-13516.993941902392,-10307.574010798218,-9384.201095605027,-29673.080703387343
-14759.92974757311,-12068.176218053844,-9320.36451344067,-29196.273290666737
-14075.698146307248,-11658.31227997688,-9002.075672397099,-29260.08752108664
-12653.903681505166,-10137.499587237786,-8771.651538807339,-29647.175031563645
-11666.470666703066,-8620.933725945202,-8861.505551517672,-30050.825184682035
-13483.555732197254,-10270.80539116924,-9377.89790366863,-29677.66281100069
-14755.6829161266,-12054.2957847471,-9321.638562874625,-29197.837912778607
-14093.087803493478,-11664.950748080106,-9006.68013175489,-29257.964105363382
-12673.975548026032,-10146.730857697828,-8772.433849863273,-29638.502554714985
-11669.219931271067,-8614.250554353066,-8852.833074669014,-30040.677492699328
-13484.561560697744,-10260.098905575143,-9384.201095605027,-29691.476189074063
-14778.325233259826,-12065.583415697029,-9337.41889446007,-29205.61631984905
-14108.59991414546,-11673.73498365104,-9015.397312092462,-29250.945657604418
-12681.061051018363,-10156.20799734688,-8775.674852809292,-29628.33251098782
-11660.5027509335,-8609.154356617255,-8855.738801448202,-30040.16340257685
-13458.4770749184,-10220.02222776678,-9383.508191526911,-29686.98348843855
-14757.091076027284,-12019.136490718902,-9333.395580458116,-29192.495845853788
-14118.009998561143,-11662.536759678933,-9016.872527226513,-29250.74449190432
-12704.172754785151,-10169.797857975704,-8778.379413888386,-29632.020548822948
-11649.371582194755,-8602.27001932502,-8846.015792610144,-30033.94961761828
-13419.920315732994,-10179.587922047129,-9375.19334258954,-29685.217700626577
-14763.662488897144,-12029.507700146163,-9340.704600895,-29197.72615405633
-14131.689266167792,-11687.92834138016,-9019.174756905408,-29247.45878546939
-12724.334028283838,-10199.771547290273,-8785.241399436165,-29628.71249064356
-11660.413343955675,-8616.664542754239,-8847.289842044096,-30041.88448689991
-13407.55980104921,-10164.142866628512,-9372.622891977178,-29693.644308286228
-14756.040544037884,-12015.38139765041,-9340.011696816886,-29190.17126443044
-14143.781559918114,-11687.92834138016,-9017.78894874918,-29228.660968382475
-12751.871377452777,-10218.569364377185,-8780.92751275629,-29608.73003110052
-11669.041117315426,-8624.353542846864,-8841.858368141457,-30030.10511757197
-13393.187629364447,-10143.713372196362,-9375.461563523002,-29703.88140724676
-14753.291279469882,-12006.105423701458,-9346.359592242194,-29200.520122113245
-14152.766961189149,-11693.225704816068,-9029.031876210198,-29238.540439431723
-12754.844159465332,-10229.45466392692,-8787.923608770801,-29610.942853801596
-11660.79332361142,-8621.336057345397,-8839.533786718106,-30031.401518750376
-13363.571567961166,-10118.210031772856,-9367.034955863352,-29713.26913991799
-14746.58575613329,-12005.770147534628,-9336.860100848688,-29203.090572725603
-14158.734876958712,-11704.669797977183,-9021.745207517768,-29238.4510324539
-12766.33295611536,-10247.537225191263,-8782.805059290537,-29610.76403984595
-11647.11405600477,-8623.794749235482,-8831.97889709221,-30030.59685594998
-13337.375323459546,-10091.075014004116,-9364.598615717725,-29716.13016320827
-14752.978355047508,-12000.159859676343,-9343.90090035211,-29201.01186049126
-14175.18576087782,-11719.2654871065,-9026.17085291992,-29229.08565152713
-12781.57684583388,-10268.212588812425,-8782.603893590438,-29600.325775185323
-11655.87593983125,-8637.004630208568,-8836.248080283176,-30034.910742629854
-13319.11394823956,-10070.600816083052,-9367.481990752458,-29724.892047034748
-14752.352506202758,-11998.572885820018,-9347.879510865154,-29204.051697737184
