 EXG Channel 0, EXG Channel 1, EXG Channel 2, EXG Channel 3
-35195.36974374887,-29512.103439820225,-38169.22464003857,-35627.630129770056
-35178.29301098502,-29492.098628532724,-38142.29078796993,-35618.44356279893
-35156.88003979684,-29495.67490764557,-38130.042032008416,-35641.35410086562
-35161.886830554824,-29504.16857053859,-38133.59595937681,-35675.373455926594
-35198.83426413945,-29517.51256197841,-38170.83396563935,-35657.7155778069
-35188.15013028981,-29500.189960025546,-38167.4588522266,-35619.13646687704
-35160.85865030988,-29482.375619694667,-38146.179991505145,-35621.72926923386
-35152.36498741686,-29485.16958775158,-38133.97593903255,-35635.47559207387
-35151.67208333875,-29500.100553047723,-38136.72520360055,-35669.65140934604
-35192.59812743642,-29518.093707334247,-38170.07400632787,-35655.927438250474
-35195.30268851551,-29506.35904149521,-38170.8116138949,-35628.94888269292
-35165.70897885668,-29489.84110234274,-38146.49291592752,-35630.93818794945
-35147.782879803526,-29495.339631478742,-38134.13240124374,-35644.99743521183
-35153.05789149498,-29507.94601535154,-38138.08866001233,-35681.184909484975
-35183.4562639542,-29511.61170144221,-38169.09052957184,-35649.0654527027
-35190.92174660227,-29502.02280307088,-38162.36265449079,-35619.76231572179
-35180.52818543055,-29496.52427393488,-38137.26164546748,-35621.28223434475
-35170.31343821448,-29500.480532703463,-38124.90113078369,-35654.407519627515
-35169.173499247256,-29512.394012498145,-38128.41035466318,-35672.55713612522
-35198.744857161626,-29522.385242269665,-38165.201326036615,-35645.35506312312
-35202.63406069685,-29506.962538595504,-38164.642532425234,-35623.69622274592
-35167.94415330221,-29488.45529418651,-38141.843753080815,-35627.6077780256
-35150.44273739371,-29486.577747652263,-38130.46671515307,-35641.77878401027
-35149.28044668203,-29496.390163468142,-38131.22667446455,-35667.3715314116
-35191.70405765821,-29512.103439820225,-38168.7105499161,-35666.1198337221
-35201.82939789646,-29503.453314716025,-38171.30335227291,-35638.91776071999
-35154.46605139566,-29482.867358072683,-38137.23929372303,-35619.53879827724
-35136.316434897955,-29482.88970981714,-38122.68830808262,-35639.63301654256
-35143.156068701275,-29498.40182046912,-38133.10422099879,-35674.613496615115
-35179.9023365858,-29511.432887486564,-38172.73386391805,-35668.08678723416
-35185.08794129943,-29496.233701256955,-38168.7105499161,-35627.02663266977
-35163.18323173323,-29483.426151684067,-38145.24121823802,-35626.04315591373
-35147.15703095878,-29480.83334932725,-38132.970110532064,-35638.87305723108
-35149.593371104405,-29492.098628532724,-38138.356880945794,-35668.44441514545
-35186.071418055464,-29504.392087983146,-38173.89615462973,-35653.513449849306
-35196.80025539402,-29491.83040759926,-38167.8611836268,-35622.42217331197
-35176.59427840642,-29487.337706963743,-38147.78931710593,-35629.21710362638
-35140.9432460002,-29474.440750413032,-38125.05759299488,-35638.51542931979
-35142.01612973406,-29487.5612244083,-38130.42201166416,-35663.75054880983
-35189.13360704584,-29510.270596774888,-38170.6104481948,-35655.882734761566
-35184.260926754585,-29493.93147157806,-38162.49676495752,-35628.255978614805
-35164.85961256738,-29483.090875517235,-38139.72033735756,-35643.34340612214
-35145.52535361354,-29483.5602621508,-38124.07411623885,-35631.18405713845
-35152.54380137251,-29496.45721870151,-38131.53959888692,-35667.617400600604
-35181.57871741995,-29509.98002409697,-38169.805785394405,-35662.454147631426
-35168.03356028003,-29483.64966912862,-38154.04780555342,-35615.18020810845
-35150.75566181608,-29471.333857933743,-38135.02647102195,-35615.403725553006
-35149.9957025046,-29476.27359345837,-38124.14117147221,-35636.81669674119
-35148.00639724808,-29490.109323276203,-38129.14796223021,-35666.3209994222
-35172.526260915554,-29500.32407049228,-38160.663921912186,-35650.18303992546
-35171.743949859614,-29484.92371856257,-38151.61146540779,-35622.01984191177
-35149.43690889322,-29468.49518638792,-38127.20336046259,-35611.626280740056
-35144.2960076685,-29472.004410267404,-38116.11689521276,-35633.575693795174
-35143.98308324612,-29487.628279641664,-38123.962357516575,-35657.894391762544
-35175.96842956167,-29504.101515305225,-38157.378215477256,-35643.633978800055
-35177.37658946235,-29491.74100062144,-38157.86995385528,-35630.40174608252
-35154.77897581804,-29474.82073006877,-38132.12074424276,-35617.348327320615
-35139.84801052189,-29477.413532425588,-38115.245177179,-35633.75450775081
-35134.30477789698,-29493.439733200044,-38124.856427294784,-35671.48425239137
-35179.164729018776,-29509.443582230044,-38163.72611090256,-35661.22480168638
-35185.06558955498,-29502.55924493781,-38156.64060791023,-35635.587350796144
-35157.52824038604,-29486.242471485435,-38130.667880853165,-35637.084917674656
-35142.08318496742,-29482.35326795021,-38118.82145629185,-35649.60189456963
-35155.80715606298,-29494.91494833409,-38128.857389552286,-35684.58237464218
-35190.430008224255,-29507.789553140352,-38160.999198079015,-35666.72333082239
-35176.03548479504,-29489.349363964724,-38151.79027936343,-35626.24432161383
-35151.694435083205,-29474.038419012835,-38131.36078493128,-35630.66996701598
-35143.91602801276,-29478.64287837063,-38116.63098533523,-35652.61938007109
-35154.44369965121,-29497.57480592428,-38129.50559014149,-35671.57365936919
-35197.269642027575,-29509.577692696774,-38168.53173596045,-35662.5659063537
-35181.95869707569,-29490.3104889763,-38156.86412535478,-35628.77006873728
-35146.97821700313,-29472.42909341205,-38128.74563083001,-35627.987757681345
-35143.73721405712,-29476.51946264737,-38117.3462411578,-35652.12764169308
-35158.86934505336,-29496.4125152126,-38126.3986976622,-35680.15672924003
-35184.14916803231,-29506.35904149521,-38159.21105852259,-35663.12469996508
-35172.928592315744,-29490.98104130996,-38149.30923572889,-35632.63692052805
-35158.55642063099,-29486.06365752979,-38132.45602040959,-35637.75547000831
-35148.475783881644,-29489.684640131552,-38123.4482673941,-35669.24907794584
-35143.80426929048,-29488.343535464235,-38126.86808429576,-35705.14597954106
-35168.48059516914,-29493.10445703321,-38163.390834735736,-35651.01005447031
-35170.715769614675,-29482.71089586149,-38148.32575897286,-35599.109303845085
-35156.455356652186,-29474.32899169076,-38127.06924999586,-35611.268652828774
-35135.62353081984,-29469.948049777515,-38107.71263929756,-35628.59125478163
-35136.025862220034,-29478.35230569271,-38114.26170042297,-35650.74183353685
-35172.459205682186,-29490.82457909877,-38149.46569794008,-35638.64953978652
-35170.358141703386,-29474.26193645739,-38126.71162208458,-35595.756542176794
-35144.58658034642,-29457.676942071557,-38105.0974851963,-35596.8517776551
-35124.917045225746,-29452.089005957725,-38093.340467612805,-35601.769161435266
-35138.261036665564,-29469.67982884405,-38107.06443870836,-35634.78268799576
-35161.39509217681,-29475.46893065797,-38140.5026484135,-35610.97808015085
-35140.987949489114,-29446.657532055087,-38116.56393010187,-35558.65264638098
-35123.95592021417,-29439.72849127394,-38096.51441532546,-35568.30859998567
-35119.4408678342,-29448.82565126725,-38091.03823793391,-35599.33282128964
-35128.828600505425,-29465.008314252893,-38102.63879330621,-35634.067432173186
-35165.7983858345,-29479.06756151528,-38135.47350591105,-35609.92754816145
-35158.93640028672,-29465.52240437537,-38129.08090699684,-35594.68365844293
-35127.26397839355,-29444.467061098465,-38097.743761270496,-35574.500033199794
-35112.33301309741,-29443.77415702035,-38085.45030182008,-35593.34255377562
-35126.23579814861,-29462.102587473702,-38103.30934563987,-35629.798248982224
-35167.78769109103,-29479.089913259737,-38140.21207573558,-35616.09662963112
-35149.325150170946,-29457.229907182445,-38121.21309294857,-35593.0519810977
-35133.52246684104,-29449.630314067643,-38102.705848539576,-35600.09278060112
-35125.07350743694,-29454.12301470316,-38085.718522753545,-35611.67098422897
-35129.588559816904,-29466.23766019793,-38091.19470014509,-35620.81284771119
-35164.23376372263,-29479.73811384894,-38130.33260468634,-35610.28517607274
-35161.57390613245,-29465.79062530883,-38116.38511614622,-35577.76338789027
-35153.370815917355,-29465.812977053283,-38109.72429629854,-35596.874129399555
-35140.227990177635,-29466.39412240912,-38100.80595026088,-35623.07037390117
-35138.551609343485,-29478.97815453746,-38112.09358121081,-35633.95567345091
-35176.661333639786,-29487.5612244083,-38144.81653509337,-35599.28811780073
-35163.294990455506,-29466.01414275338,-38128.16448547417,-35573.4942046993
-35140.362100644365,-29455.5535263483,-38106.81856951935,-35580.60205943609
-35129.610911561365,-29457.855756027195,-38097.69905778159,-35609.99460339482
-35143.46899312365,-29473.814901568283,-38108.42789512013,-35628.16657163698
-35176.43781619523,-29487.136541263648,-38140.033261779936,-35608.58644349414
-35161.059816009976,-29467.69052358753,-38125.92931102864,-35585.206518793886
-35139.892714010806,-29458.101625216204,-38096.24619439199,-35589.27453628475
-35130.437926106206,-29462.706084574,-38089.764188499954,-35600.09278060112
-35141.43498437822,-29483.336744706245,-38110.48425561002,-35633.44158332844
-35175.52139467256,-29490.913986076597,-38140.41324143568,-35616.54366452023
-35167.51947015756,-29469.232793954947,-38121.727183071045,-35590.83915839662
-35152.946132772704,-29462.661381085087,-38099.80012176039,-35612.185074351444
-35132.114306940355,-29469.29984918831,-38093.25106063498,-35637.75547000831
-35128.538027827504,-29486.153064507613,-38108.47259860904,-35653.89342950504
-35157.19296421921,-29494.93730007855,-38138.8039158349,-35635.185019395954
-35156.88003979684,-29477.68175335905,-38128.142133729714,-35599.533986989736
-35131.57786507343,-29462.59432585172,-38111.19951143259,-35603.579652736145
-35125.81111500396,-29466.34941892021,-38104.449284607086,-35622.57863552316
-35144.81009779097,-29484.4096284401,-38113.76996204495,-35642.24817064383
-35173.576792904954,-29489.81875059828,-38141.62023563626,-35616.90129243151
-35151.403862405285,-29465.723570075465,-38121.70483132658,-35581.71964665886
-35139.78095528853,-29458.79452929432,-38097.1402641702,-35578.7468646463
-35133.05308020748,-29456.53700310433,-38086.61259253176,-35612.81092319619
-35138.261036665564,-29468.674000343563,-38107.08679045281,-35638.64953978652
-35152.186173461225,-29469.746884077416,-38132.16544773167,-35584.647725182505
-35135.265902908555,-29448.378616378144,-38114.3958108897,-35567.41453020746
-35120.20082714568,-29438.566200562265,-38098.34725837079,-35568.621524408045
-35109.248472362575,-29443.21536340897,-38091.41821758964,-35601.52329224626
-35128.403917360774,-29463.42134039657,-38101.83413050582,-35622.06454540069
-35160.45631890969,-29470.26097419989,-38135.07117451086,-35600.98685037933
-35150.95682751618,-29452.64779956911,-38122.5989011048,-35575.25999251127
-35117.5409695555,-29436.95687496148,-38098.23549964852,-35574.56708843316
-35114.14350439829,-29440.756671518884,-38089.697133266585,-35596.248280554806
-35134.10361219688,-29461.67790432905,-38110.48425561002,-35621.841027956136
-35165.038426523024,-29469.2551456994,-38131.78546807593,-35586.033533338734
-35152.119118227856,-29449.78677627883,-38107.600880575286,-35549.957817787865
-35138.03751922101,-29441.78485176383,-38090.01005768896,-35553.06471026716
-35122.23483589111,-29443.64004655362,-38079.30357209487,-35586.70408567239
-35131.39905111778,-29465.053017741804,-38095.10625542477,-35616.32014707568
-35164.59139163392,-29474.17252947957,-38132.2995581984,-35592.71670493087
-35154.62251360685,-29459.509785116887,-38121.83894179332,-35582.36784724806
-35145.50300186909,-29453.564221091776,-38107.71263929756,-35597.14235033302
-35114.925815454226,-29449.18327917853,-38091.954659456576,-35613.88380693005
-35114.00939393156,-29459.68859907253,-38105.96920323005,-35622.466876800885
-35154.66721709576,-29472.876128301163,-38135.94289254462,-35600.42805676795
-35145.3465396579,-29458.63806708313,-38115.11106671227,-35572.24250700981
-35130.370870872845,-29450.703197801497,-38092.98283970152,-35577.96455359037
-35125.47583883713,-29460.78383455084,-38088.15486289917,-35611.961556906885
-35138.685719810215,-29480.16279699359,-38107.69028755311,-35641.08587993215
-35160.9480572877,-29483.962593550998,-38139.54152340192,-35617.080106387155
-35145.70416756918,-29460.001523494902,-38121.1460377152,-35585.25122228279
-35129.43209760572,-29448.51272684488,-38099.129569426725,-35590.3474200186
-35108.01912641754,-29446.545773332808,-38089.40656058866,-35610.48634177284
-35128.76154527206,-29470.149215477613,-38111.42302887714,-35630.5135048048
-35168.122967257856,-29486.465988929987,-38143.67659612616,-35618.98000466586
-35144.51952511305,-29463.600154352207,-38122.71065982708,-35587.26287928377
-35126.97340571564,-29452.111357702182,-38104.40458111818,-35583.46308272637
-35116.57984454392,-29456.15702344859,-38097.609650803766,-35616.789533709234
-35133.61187381886,-29478.06173301479,-38113.09940971129,-35634.35800485111
-35157.93057178624,-29481.74977084992,-38140.949683302606,-35605.32308880366
-35154.62251360685,-29463.600154352207,-38121.36955515976,-35584.67007692696
-35134.3941848748,-29455.10649145919,-38102.9964212175,-35584.983001349334
-35117.31745211094,-29453.20659318049,-38093.22870889053,-35605.881882415044
-35122.45835333566,-29465.611811353185,-38110.01486897646,-35619.583501766145
-35155.53893512952,-29476.69827660302,-38140.14502050221,-35596.69531544391
-35141.61379833386,-29454.45829086999,-38119.98374700353,-35567.63804765201
-35118.546798055984,-29442.880087242134,-38098.05668569287,-35577.20459427888
-35113.62941427582,-29453.050130969303,-38090.41238908916,-35621.0587169002
-35124.69352778119,-29467.109378231693,-38111.11010445477,-35631.34051934964
-35149.883943782326,-29466.97526776496,-38136.23346522253,-35583.70895191538
-35137.05404246498,-29450.680846057043,-38116.4968748685,-35565.08994878411
-35127.53219932702,-29448.69154080052,-38098.81664500435,-35582.256088525784
-35114.791704987496,-29448.959761733982,-38083.39394133019,-35605.18897833693
-35115.61871953234,-29462.616677596176,-38101.81177876137,-35620.11994363307
-35144.89950476879,-29469.344552677223,-38129.14796223021,-35597.924661388955
-35133.723632541136,-29451.932543746538,-38110.663069565664,-35575.88584135602
-35121.05019343498,-29448.06569195577,-38097.07320893684,-35574.768254133254
-35112.109495652854,-29452.424282124557,-38089.09363616629,-35604.31726030317
-35125.02880394802,-29467.39995090961,-38108.58435733132,-35627.58542628115
-35143.46899312365,-29467.891689287622,-38135.294691955416,-35607.8041324382
-35135.86940000885,-29450.77025303486,-38115.28988066792,-35584.11128331558
-35127.19692316019,-29448.51272684488,-38097.52024382594,-35570.92375408694
-35114.52348405403,-29457.520479860366,-38088.75835999946,-35601.47858875735
-35119.79849574548,-29471.06563700028,-38112.25004342199,-35626.24432161383
-35157.081205496936,-29483.537910406343,-38138.11101175678,-35590.14625431851
-35148.38637690382,-29469.12103523267,-38119.4473051366,-35573.740073888315
-35119.86555097885,-29448.22215416696,-38094.05572343537,-35576.265821011766
-35104.576957771416,-29442.96949421996,-38082.76809248544,-35597.075295099654
-35123.933568469714,-29459.77800605035,-38107.93615674212,-35621.01401341129
-35157.79646131951,-29466.93056427605,-38139.40741293519,-35597.52232998876
-35145.03361523552,-29450.92671524605,-38119.15673245868,-35574.9470680889
-35121.698394024184,-29436.73335751693,-38093.184005401614,-35577.226946023344
-35105.64984150527,-29439.907305229583,-38089.5406710554,-35613.61558599658
-35125.76641151505,-29463.220174696467,-38117.03331673543,-35630.15587689351
-35149.9957025046,-29466.952916020506,-38141.44142168063,-35598.86343465608
-35134.12596394133,-29446.72458728845,-38116.58628184632,-35568.82269010814
-35125.76641151505,-29444.48941284292,-38097.47554033704,-35581.18320479193
-35110.34370784089,-29445.897572743605,-38086.00909543146,-35605.546606248216
-35119.37381260083,-29461.54379386232,-38108.15967418667,-35615.24726334182
-35154.689568840215,-29466.55058462031,-38132.52307564295,-35587.26287928377
-35137.81400177646,-29446.344607632716,-38105.81274101886,-35566.27459124024
-35117.9880044446,-29440.01906395186,-38086.94786869858,-35574.61179192207
-35114.5905392874,-29449.853831512195,-38079.37062732824,-35610.06165862819
-35125.967577215146,-29465.053017741804,-38100.6941915386,-35615.98487090884
-35146.68764432522,-29465.41064565309,-38130.53377038644,-35581.54083270321
-35129.36504237235,-29446.32225588825,-38107.600880575286,-35567.70510288538
-35109.49434155159,-29437.761537761875,-38085.293839608894,-35573.00246632129
-35097.75967571255,-29443.30477038679,-38075.81669995984,-35597.7011439444
-35122.27953938002,-29461.58849735123,-38101.02946770543,-35617.03540289824
-35153.46022289518,-29463.890727030128,-38125.48227613953,-35586.18999554992
-35136.13762094231,-29446.568125077265,-38107.42206661965,-35577.651629167995
-35119.41851608974,-29451.105529201694,-38097.09556068129,-35600.60687072359
-35111.99773693058,-29454.92767750355,-38083.751569241474,-35624.18796112394
-35127.97923421612,-29473.680791101557,-38112.272395166445,-35634.04508042873
-35160.2998566985,-29478.64287837063,-38137.03812802293,-35604.74194344782
-35136.42819362023,-29453.608924580687,-38113.12176145575,-35579.75269314679
-35113.27178636453,-29445.472889598957,-38098.503720581975,-35594.1025130871
-35101.3359548254,-29447.73041578894,-38082.09754015178,-35623.42800181246
-35122.34659461339,-29463.37663690765,-38100.42597060513,-35637.554304308214
-35154.17547871774,-29469.18809046604,-38129.43853490812,-35601.679754457444
-35144.45246987969,-29453.63127632514,-38111.06540096586,-35584.24539378231
-35131.75667902907,-29445.048206454303,-38091.32881061183,-35593.96840262037
-35115.17168464323,-29451.68667455753,-38082.99160993,-35622.24335935633
-35119.95495795667,-29469.83629105524,-38110.55131084339,-35629.84295247113
-35142.597275089895,-29465.455349142,-38129.95262503059,-35593.0519810977
-35127.33103362692,-29451.32904664625,-38113.881720767225,-35599.109303845085
-35111.99773693058,-29449.250334411903,-38095.46388333606,-35602.30560330219
-35107.19211187269,-29450.814956523773,-38080.91289769565,-35598.52815848925
-35130.97436797313,-29470.015105010883,-38111.60184283279,-35630.066469915684
-35148.76635655956,-29471.69148584503,-38133.59595937681,-35608.80996093869
-35134.72946104163,-29453.474814113957,-38111.579491088334,-35587.46404498387
-35123.66534753625,-29452.37957863565,-38096.73793277001,-35596.06946659916
-35106.722725239124,-29454.32418040325,-38085.360894842255,-35622.98096692336
-35129.543856328,-29472.294982945325,-38118.709697569575,-35648.886638747055
-35158.265847953066,-29472.563203878788,-38142.62606413676,-35612.69916447391
-35147.67112108125,-29455.397064137112,-38118.37442140275,-35582.054922825686
-35131.846086006895,-29452.37957863565,-38100.15774967167,-35590.593289207616
-35108.44380956219,-29449.518555345367,-38083.97508668603,-35615.470780786374
-35122.681870780216,-29463.28722992984,-38112.11593295526,-35628.05481291471
-35142.306702411974,-29460.806186295296,-38130.82434306435,-35586.63703043902
-35127.17457141574,-29443.57299132025,-38107.377363130734,-35569.02385580824
-35113.89763520928,-29439.19204940701,-38096.17913915862,-35578.32218150165
-35101.51476878104,-29445.67405529905,-38088.512490810455,-35602.86439691358
-35119.82084748994,-29460.64972408411,-38108.092618953306,-35601.0539056127
-35141.122059955844,-29448.333912889237,-38121.727183071045,-35564.62056215055
-35114.65759452076,-29424.3951945776,-38096.559118814366,-35551.09775675509
-35108.22029211764,-29421.35535733168,-38076.6884179936,-35568.93444883042
-35103.32526008192,-29436.19691565,-38072.93332492511,-35604.54077774772
-35106.78978047249,-29453.787738536328,-38102.03529620592,-35614.7555249638
-35135.73528954211,-29457.609886838185,-38125.57168311736,-35581.831405381134
-35126.3922603598,-29442.03072095284,-38100.96241247207,-35564.59821040609
-35113.49530380908,-29435.794584249805,-38088.087807665805,-35597.432923010936
-35108.9355479402,-29439.68378778503,-38074.386188314704,-35612.81092319619
-35131.26494065105,-29464.650686341607,-38102.25881365047,-35602.84204516912
-35142.50786811207,-29462.035532240337,-38122.71065982708,-35576.869318112054
-35115.95399569917,-29434.05114818229,-38097.90022348169,-35567.97332381884
-35108.063829906445,-29435.21343889397,-38087.28314486541,-35578.43394022393
-35100.37482981382,-29444.869392498666,-38079.37062732824,-35603.69141145842
-35119.4408678342,-29462.21434619598,-38104.71750554055,-35617.638899998536
-35138.50690585457,-29455.844099026217,-38127.13630522923,-35593.454312497895
-35118.278577122524,-29436.73335751693,-38094.34629611329,-35571.214326764864
-35110.70133575217,-29437.18039240604,-38086.92551695413,-35583.91011761548
-35092.30585006545,-29443.818860509266,-38081.24817386248,-35620.96930992238
-35114.501132309575,-29464.06954098577,-38107.04208696391,-35636.61553104109
-35145.83827803592,-29469.97040152197,-38134.98176753304,-35608.72055396087
-35133.030728463025,-29455.97820949295,-38116.22865393504,-35596.874129399555
-35127.2416266491,-29458.682770572043,-38104.94102298511,-35612.56505400718
-35126.57107431544,-29468.13755847664,-38096.24619439199,-35631.161705394
-35156.500060141094,-29488.96938430898,-38124.74466857251,-35641.264693887795
-35175.54374641702,-29479.291078959835,-38144.41420369318,-35600.159835834485
-35141.7926122895,-29450.814956523773,-38114.06053472287,-35579.77504489125
-35120.82667599043,-29443.37182562016,-38093.541633312896,-35588.64868744
-35099.190187357686,-29439.12499417365,-38082.47751980752,-35609.92754816145
-35113.56235904245,-29446.612828566176,-38109.16550268716,-35613.21325459638
-35138.395147132294,-29448.624485567158,-38130.13143898624,-35587.24052753932
-35136.71876629815,-29439.594380807208,-38109.16550268716,-35566.07342554014
-35115.86458872135,-29435.21343889397,-38096.469711836544,-35584.67007692696
-35091.367076798335,-29436.666302283564,-38076.24138310449,-35607.73707720484
-35113.450600320175,-29450.658494312585,-38104.2928223959,-35620.790495966736
-35138.64101632131,-29446.813994266275,-38120.22961619253,-35559.92669581493
-35116.84806547738,-29426.764479489862,-38097.05085719239,-35551.83536432211
-35105.89571069428,-29425.356319589177,-38087.05962742086,-35574.298867499696
-35091.41178028724,-29431.570104547754,-38077.96246742755,-35601.277423057254
-35111.4389433192,-29446.612828566176,-38105.03042996293,-35608.541740005225
-35137.836353520914,-29450.144404190112,-38124.27528193895,-35576.243469267305
-35129.25328365008,-29440.01906395186,-38104.33752588481,-35567.302771485185
-35113.875283464826,-29431.503049314382,-38093.78750250191,-35584.82653913814
-35102.94528042618,-29438.700311028995,-38086.67964776512,-35614.17437960796
-35111.99773693058,-29453.11718620267,-38107.243252664,-35624.702051246415
-35134.72946104163,-29452.558392591287,-38117.21213069107,-35591.17443456345
-35128.068641193946,-29442.522459330856,-38105.07513345184,-35589.587460707124
-35111.95303344167,-29440.577857563243,-38091.17234840064,-35604.60783298109
-35097.3349925679,-29448.959761733982,-38086.90316520968,-35628.4571443149
-35125.7887632595,-29469.612773610686,-38122.42008714916,-35642.024653199274
-35150.48744088262,-29465.63416309764,-38137.48516291203,-35607.26769057127
-35124.984100459114,-29446.769290777363,-38108.785523031416,-35600.651574212505
-35114.41172533175,-29448.44567161151,-38100.62713630523,-35631.117001905084
-35104.46519904914,-29454.346532147712,-38101.0965229388,-35665.24811568834
-35133.1424871853,-29475.535985891343,-38123.02358424945,-35634.80503974021
-35150.845068793904,-29472.339686434232,-38132.903055298695,-35606.97711789335
-35132.874266251834,-29454.14536644761,-38116.56393010187,-35610.9557284064
-35113.942338698194,-29452.20076468,-38110.52895909893,-35641.64467354354
-35109.71785899614,-29461.07440722876,-38104.15871192917,-35647.72434803538
-35129.588559816904,-29469.411607910588,-38128.142133729714,-35634.62622578457
-35147.76052805907,-29468.42813115456,-38144.79418334892,-35609.100533616605
-35127.26397839355,-29454.279476914344,-38121.70483132658,-35601.52329224626
-35114.85876022086,-29451.97724723545,-38105.7456857855,-35614.88963543053
-35112.71299275315,-29462.86254678518,-38101.945889228096,-35647.94786547993
-35157.081205496936,-29490.131675020657,-38140.68146236914,-35673.138281481064
-35160.67983635424,-29482.68854411704,-38153.66782589768,-35658.16261269601
-35120.156123656765,-29453.720683302963,-38117.793276046905,-35614.084972630146
-35108.26499560654,-29445.919924488066,-38101.49885433899,-35594.16956832047
-35111.75186774157,-29458.54866010531,-38102.88466249522,-35636.21319964089
-35138.551609343485,-29480.296907460324,-38137.731032101045,-35651.904124248525
-35151.29210368301,-29473.680791101557,-38144.68242462664,-35614.33084181915
-35134.058908707964,-29450.680846057043,-38114.90990101217,-35600.584518979136
-35129.05211794998,-29456.73816880443,-38113.14411320021,-35618.08593488764
-35119.32910911192,-29466.5058811314,-38115.35693590128,-35651.01005447031
-35129.63326330582,-29465.991791008928,-38135.33939544432,-35645.69033928995
-35149.727481571135,-29464.673038086064,-38148.95160781761,-35615.94016741993
-35123.441830091695,-29445.338779132224,-38126.51045638448,-35607.62531848256
-35104.84517870488,-29437.046281939303,-38109.18785443161,-35617.99652790982
-35102.09591413688,-29447.037511710827,-38104.8963194962,-35646.942036979446
-35143.33488265692,-29469.590421866236,-38139.54152340192,-35655.77097603929
-35157.282371197034,-29465.16477646408,-38147.52109617247,-35623.74092623484
-35125.699356281686,-29447.104566944192,-38121.43661039312,-35616.07427788666
-35116.80336198847,-29445.428186110043,-38110.08192420983,-35627.496019303326
-35108.24264386209,-29450.814956523773,-38098.570775815344,-35636.19084789644
-35131.60021681788,-29468.562241621286,-38130.44436340861,-35653.73696729386
-35150.73331007163,-29467.77993056535,-38144.39185194872,-35616.029574397755
-35123.10655392487,-29444.33295063173,-38116.27335742395,-35596.96353637738
-35103.66053624875,-29431.368938847656,-38096.402656603175,-35595.24245205432
-35099.99485015808,-29439.661436040573,-38091.03823793391,-35621.125772133564
-35129.27563539453,-29457.78870079383,-38122.84477029381,-35629.88765596005
-35145.70416756918,-29456.71581705997,-38140.34618620231,-35602.886748658035
-35122.16778065774,-29436.04045343881,-38110.50660735448,-35579.17154779095
-35105.67219324973,-29432.91120921507,-38098.503720581975,-35590.727399674346
-35095.50214952257,-29438.700311028995,-38094.21218564656,-35617.907120932
-35125.833466748416,-29455.5535263483,-38121.05663073738,-35621.550455278215
-35152.40969090578,-29452.26781991337,-38132.23250296504,-35592.269670041765
-35120.87137947934,-29433.73822375992,-38104.8963194962,-35582.21138503688
-35102.72176298163,-29429.87137196915,-38094.189833902106,-35599.601042223105
-35099.681925735706,-29435.97339820545,-38088.95952569956,-35633.03925192824
-35121.832504490914,-29450.077348956747,-38118.12855221374,-35627.13839139204
-35141.43498437822,-29444.757633776386,-38128.857389552286,-35597.7011439444
-35117.920949211235,-29426.272741111847,-38101.58826131681,-35587.642858939515
-35104.53225428251,-29422.048261409796,-38087.26079312096,-35586.257050783286
-35087.34376279638,-29421.10948814267,-38079.41533081714,-35610.53104526175
-35119.41851608974,-29438.38738660662,-38107.51147359746,-35614.01791739678
-35135.332958141924,-29437.06863368376,-38120.43078189263,-35587.41934149496
-35105.15810312726,-29420.81891546475,-38093.69809552409,-35576.243469267305
-35093.75871345505,-29420.684804998014,-38081.67285700713,-35590.66034444098
-35092.0823326209,-29432.26300862587,-38078.83418546131,-35617.81771395418
-35116.736306755105,-29447.953933233493,-38107.19854917509,-35617.638899998536
-35131.08612669541,-29442.03072095284,-38118.083848724826,-35586.458216483385
-35117.026879433026,-29430.18429639153,-38097.22967114802,-35584.73713216033
-35101.60417575886,-29428.17263939055,-38088.73600825501,-35600.651574212505
-35093.04345763248,-29433.49235457091,-38085.45030182008,-35629.9100077045
-35112.824751475426,-29441.941313975018,-38114.172293445146,-35633.95567345091
-35132.114306940355,-29440.22022965196,-38123.47061913856,-35592.35907701958
-35107.46033280615,-29427.569142290253,-38104.516339840455,-35581.697294914404
-35092.64112623229,-29421.53417128732,-38086.478482065024,-35589.386295007025
-35085.555623239954,-29428.44086032401,-38079.34827558378,-35612.34153656263
-35110.81309447445,-29440.801375007795,-38108.96433698706,-35605.0548678702
-35125.31937662594,-29433.470002826456,-38115.4463428791,-35572.60013492109
-35108.86849270684,-29422.24942710989,-38087.01492393195,-35569.09091104161
-35092.70818146565,-29424.99869167789,-38074.52029878144,-35590.593289207616
-35087.790797685484,-29434.699348771497,-38071.77103421343,-35621.32693783366
-35133.38835637431,-29452.983075735938,-38108.40554337568,-35622.891559945536
-35124.782934759016,-29433.87233422665,-38110.57366258784,-35578.5456989462
-35099.748980969074,-29423.3446625882,-38093.72044726854,-35574.3435709886
-35088.17077734122,-29424.752822488885,-38084.0868454083,-35595.108341587584
-35086.114416851335,-29432.933560959525,-38079.50473779497,-35617.52714127626
-35121.765449257546,-29449.317389645268,-38113.47938936704,-35609.43580978344
-35138.14927794329,-29440.86843024116,-38125.88460753973,-35585.81001589418
-35102.3864868148,-29421.2435986094,-38099.37543861574,-35583.77600714874
-35092.37290529882,-29424.752822488885,-38085.38324658671,-35597.81290266668
-35085.80149242896,-29438.07446218425,-38087.39490358769,-35629.32886234866
-35119.64203353429,-29451.57491583525,-38122.06245923787,-35630.89348446053
-35130.14735342829,-29441.36016861918,-38127.31511918487,-35599.310469545184
-35107.795608972985,-29427.5467905458,-38102.81760726185,-35591.44265549692
-35095.27863207801,-29426.4962585564,-38089.138339655205,-35603.11026610259
-35088.03666687449,-29432.620636537154,-38085.80792973136,-35632.63692052805
-35118.59150154489,-29452.35722689119,-38123.33650867183,-35636.90610371901
-35124.13473416981,-29441.91896223056,-38127.806857562886,-35603.780818436244
-35107.68385025071,-29426.58566553422,-38105.857444507776,-35597.432923010936
-35101.1347891253,-29430.11724115816,-38101.07417119434,-35612.90033017401
-35096.463274534144,-29440.77902326334,-38105.63392706322,-35648.37254862458
-35110.85779796336,-29451.194936179512,-38135.13822974423,-35643.09753693313
-35122.34659461339,-29440.197877907503,-38138.46863966807,-35609.882844672546
-35103.90640543776,-29424.842229466707,-38111.19951143259,-35603.98198413634
-35082.336972038385,-29417.712022985463,-38094.03337169092,-35611.33570806214
-35080.14650108177,-29429.916075458063,-38086.567889042846,-35633.39687983953
-35115.61871953234,-29455.084139714734,-38124.40939240568,-35634.93915020694
-35116.736306755105,-29442.768328519865,-38126.24223545101,-35598.21523406688
-35100.75480946956,-29423.568180032755,-38099.37543861574,-35589.83332989614
-35094.496321022074,-29424.01521492186,-38083.550403541376,-35598.88578640053
-35105.29221359399,-29438.096813928703,-38081.85167096277,-35632.27929261676
-35109.38258282931,-29451.64197106862,-38119.29084292542,-35633.62039728408
-35110.3884113298,-29439.750843018395,-38119.96139525907,-35585.541794960714
-35085.51091975104,-29422.02590966534,-38088.44543557709,-35578.92567860195
-35079.028913859,-29425.8480579672,-38078.02952266092,-35595.08598984313
-35090.80828318695,-29443.52828783134,-38084.06449366385,-35626.445487313926
-35123.35242311387,-29460.247392683912,-38117.70386906909,-35628.09951640362
-35141.680853567224,-29457.49812811591,-38126.756325573486,-35605.92658590396
-35115.75282999907,-29440.3990436076,-38097.83316824832,-35595.44361775442
-35105.985117672106,-29440.890781985618,-38086.45613032057,-35610.82161793967
-35097.916137923734,-29441.74014827492,-38086.97022044304,-35637.88958047504
-35117.71978351114,-29450.79260477932,-38119.13438071423,-35637.219028141386
-35121.09489692389,-29438.58855230672,-38121.70483132658,-35608.16176034949
-35101.80534145896,-29422.83057246573,-38096.78263625892,-35598.975193378355
-35083.78983542798,-29424.417546322056,-38078.67772325012,-35608.49703651632
-35070.71406492163,-29440.04141569632,-38081.78461572941,-35652.19469692644
-35111.95303344167,-29462.97430550746,-38129.48323839704,-35661.56007785322
-35116.62454803283,-29445.897572743605,-38131.42784016464,-35622.735097734345
-35101.91710018124,-29434.54288656031,-38108.02556371994,-35606.26186207079
-35100.39718155828,-29438.67795928454,-38095.08390368032,-35627.02663266977
-35097.513806523544,-29445.137613432125,-38087.30549660987,-35648.05962420221
-35120.11142016786,-29455.151194948103,-38116.31806091285,-35638.49307757534
-35121.29606262399,-29441.18135466353,-38116.899206268696,-35606.77595219326
-35098.54198676848,-29430.67603476954,-38090.99353444499,-35600.62922246805
-35089.17660584171,-29431.3465871032,-38077.895412194186,-35611.71568771788
-35091.70235296516,-29437.38155810613,-38085.718522753545,-35639.67772003147
-35117.362155599854,-29449.78677627883,-38122.62125284925,-35633.2627693728
-35112.824751475426,-29430.18429639153,-38118.75440105848,-35595.533024732234
-35100.64305074728,-29419.991900919904,-38094.7933310024,-35596.315335788175
-35092.14938785427,-29419.567217775253,-38082.65633376317,-35596.51650148827
-35077.19607081367,-29425.758650989374,-38077.51543253844,-35614.353193563606
-35110.3884113298,-29442.835383753227,-38109.63488932072,-35612.16272260698
-35119.19499864519,-29434.92286621605,-38108.87493000924,-35580.37854199154
-35097.08912337889,-29422.87527595464,-38081.60580177377,-35578.836271624124
-35084.39333252828,-29418.91901718605,-38067.97123765603,-35584.24539378231
-35089.198957586166,-29434.274665626846,-38070.96637141304,-35612.56505400718
-35122.79362950249,-29451.485508857437,-38104.82926426283,-35618.60002501011
-35122.79362950249,-29437.15804066158,-38101.58826131681,-35595.86830089907
-35092.395257043274,-29416.370918318145,-38074.22972610351,-35567.570992418645
-35067.27189627551,-29410.358299059662,-38059.58933348529,-35576.28817275622
-35069.350608509856,-29421.75768873188,-38060.43869977459,-35607.73707720484
-35116.95982419966,-29447.26102915538,-38100.62713630523,-35610.352231306104
-35122.77127775804,-29438.275627884344,-38104.91867124065,-35585.85471938309
-35107.99677467308,-29425.445726567,-38089.87594722223,-35590.05684734069
-35092.03762913199,-29423.16584863256,-38073.02273190293,-35599.444580011914
-35089.93656515319,-29436.465136583465,-38076.46490054904,-35625.95374893591
-35118.21152188916,-29449.831479767738,-38109.07609570934,-35629.038289670745
-35123.68769928071,-29437.046281939303,-38104.96337472956,-35588.268707784264
-35101.224196103125,-29423.47877305493,-38077.51543253844,-35578.344533246105
-35090.450655275665,-29422.76351723236,-38060.416348030136,-35582.256088525784
-35092.97640239912,-29436.375729605643,-38066.16074635515,-35618.46591454338
-35130.5943883174,-29454.41358738108,-38106.01390671896,-35614.86728368608
-35132.40487961828,-29444.22119190946,-38099.82247350484,-35576.75755938978
-35104.576957771416,-29430.11724115816,-38076.91193543816,-35576.869318112054
-35091.94822215417,-29431.771270247853,-38063.79146144289,-35595.264803798775
-35092.261146576544,-29443.505936086887,-38069.42410104562,-35621.79632446722
-35117.1386381553,-29450.34556989021,-38102.03529620592,-35609.79343769472
-35124.648824292286,-29437.225095894948,-38103.57756657333,-35584.357152504585
-35108.71203049565,-29430.96660744746,-38087.28314486541,-35590.21330955187
-35095.8821291783,-29426.272741111847,-38069.982894657005,-35608.09470511612
-35105.58278627191,-29441.96366571947,-38076.37549357122,-35645.35506312312
-35135.66823430875,-29459.3533229057,-38119.2014359476,-35624.47853380186
-35126.25814989307,-29437.87329648415,-38116.80979929087,-35593.789588664724
-35102.051210647965,-29420.01425266436,-38088.55719429936,-35587.70991417288
-35093.177568099214,-29423.21055212147,-38078.83418546131,-35610.3075278172
-35091.076504120414,-29438.320331373256,-38085.67381926463,-35638.537781064246
-35122.57011205794,-29450.23381116793,-38118.642642336206,-35628.255978614805
-35126.593426059895,-29437.895648228605,-38111.4453806216,-35599.55633873419
-35103.21350135964,-29426.20568587848,-38086.1879093871,-35588.60398395109
-35087.90255640776,-29424.7975259778,-38075.05674064836,-35603.49024575833
-35095.72566696712,-29440.98018896344,-38082.03048491842,-35645.37741486757
-35126.50401908207,-29454.614753081176,-38115.51339811247,-35632.6592722725
-35131.37669937333,-29439.661436040573,-38110.819531776855,-35577.76338789027
-35097.11147512335,-29420.573046275746,-38089.49596756649,-35583.150158304
-35085.10858835084,-29421.06478465376,-38078.07422614982,-35606.41832428197
-35095.30098382247,-29438.20857265098,-38086.34437159829,-35637.219028141386
-35123.28536788051,-29448.803299522795,-38115.62515683474,-35631.04994667172
-35110.41076307425,-29426.98799693441,-38101.945889228096,-35601.72445794636
-35085.66738196223,-29408.905435670076,-38076.30843833786,-35578.411588479474
-35081.84523366037,-29412.54877001629,-38066.94305741108,-35594.19192006492
-35084.37098078382,-29424.48460155542,-38073.15684236966,-35630.58056003816
-35114.12115265383,-29440.644912796608,-38109.56783408736,-35634.64857752903
-35111.349536341375,-29422.472944554444,-38101.856482250274,-35591.44265549692
-35086.96378314064,-29406.446743779987,-38079.03535116141,-35579.08214081313
-35077.173719069215,-29409.10660137017,-38069.82643244582,-35608.80996093869
-35077.3301812804,-29422.919979443548,-38076.263734848944,-35627.6077780256
-35107.639146761794,-29436.33102611673,-38110.41720037666,-35617.61654825408
-35114.16585614275,-29424.506953299875,-38105.58922357431,-35586.97230660586
-35094.11634136633,-29412.52641827183,-38083.885679708204,-35592.06850434167
-35076.525518480004,-29408.34664205869,-38067.90418242266,-35605.18897833693
-35074.24564054557,-29418.002595663384,-38070.69815047958,-35628.56890303718
-35110.8354462189,-29432.553581303782,-38111.4453806216,-35621.21517911139
-35116.11045791036,-29416.3932700626,-38101.49885433899,-35589.52040547376
-35096.75384721206,-29408.01136589186,-38074.87792669272,-35578.500995457296
-35091.6800012207,-29413.82281945024,-38069.42410104562,-35600.785684679235
-35078.80539641445,-29423.322310843745,-38076.30843833786,-35638.42602234197
-35106.96859442814,-29432.330063859237,-38110.99834573249,-35621.46104830039
-35107.97442292862,-29419.008424163872,-38107.57852883083,-35588.87220488456
-35082.94046913868,-29405.083287368216,-38088.53484255491,-35594.86247239858
-35074.8267859014,-29410.67122348204,-38077.738949983,-35616.63307149805
-35075.11735857932,-29422.96468293246,-38086.478482065024,-35651.63590331506
-35109.36023108485,-29436.88981972812,-38127.35982267378,-35639.945940964935
-35121.072545179435,-29433.447651082,-38125.839904050816,-35612.98973715183
-35100.75480946956,-29420.505991042377,-38104.00224971798,-35616.54366452023
-35077.08431209139,-29413.711060727965,-38090.322982111335,-35630.26763561578
-35074.49150973457,-29426.4962585564,-38093.541633312896,-35663.23645868736
-35114.23291137611,-29450.16675593457,-38137.105183256295,-35671.97599076939
-35124.067678936444,-29443.52828783134,-38131.49489539801,-35635.67675777397
-35101.000678658565,-29427.949121945992,-38104.06930495135,-35618.93530117694
-35094.11634136633,-29427.30092135679,-38097.47554033704,-35644.10336543362
-35095.90448092276,-29446.612828566176,-38111.646546321695,-35676.73691233837
-35118.21152188916,-29453.40775888059,-38140.390889691225,-35653.66991206049
-35119.597330045384,-29438.11916567316,-38130.3996599197,-35627.94305419243
-35095.12216986682,-29426.473906811945,-38108.07026720885,-35620.25405409981
-35092.03762913199,-29429.893723713605,-38097.5425955704,-35636.861400230104
-35093.26697507703,-29446.92575298855,-38106.34918288579,-35673.29474369225
-35121.65369053527,-29455.330008903744,-38140.7038141136,-35664.421101143496
-35125.3417283704,-29440.13082267413,-38128.991500019016,-35609.27934757225
-35099.32429782442,-29423.612883521662,-38106.058610207874,-35617.12480987606
-35081.219384815624,-29419.29899684179,-38089.63007803322,-35637.04021418574
-35084.505091250554,-29430.050185924792,-38091.93230771212,-35662.61060984262
-35119.57497830093,-29441.67309304155,-38124.96818601706,-35627.3619088366
-35114.74700149858,-29425.713947500462,-38113.07705796684,-35597.4552747554
-35087.67903896321,-29409.91126417056,-38084.71269425305,-35600.98685037933
-35072.94923936716,-29411.5429415158,-38072.508641780456,-35620.656385500006
-35073.955067867646,-29420.707156742475,-38078.11892963874,-35641.264693887795
-35115.79753348798,-29437.426261595043,-38117.86033128027,-35629.0606414152
-35115.10462940987,-29429.35728184668,-38112.65237482219,-35604.13844634753
-35085.60032672886,-29416.72854622943,-38087.73017975452,-35605.747771948314
-35064.50027996305,-29412.928749672028,-38070.29581907938,-35621.66221400049
-35072.904535878246,-29426.362148089665,-38084.4891768085,-35648.39490036904
-35118.92677771173,-29441.49427908591,-38116.899206268696,-35637.15197290802
-35128.02393770504,-29433.00061619289,-38110.14897944319,-35614.554359263704
-35097.75967571255,-29414.426316550533,-38084.22095587504,-35604.630184725545
-35067.47306197561,-29408.458400780964,-38070.20641210156,-35600.31629804568
-35085.689733706684,-29429.334930102224,-38085.49500530899,-35649.42308061398
-35114.94816719868,-29438.2979796288,-38112.78648528892,-35612.654460985
-35096.17270185622,-29414.33690957271,-38092.04406643439,-35575.30469600018
-35080.21355631513,-29403.25044432288,-38072.41923480263,-35584.58066994914
-35067.92009686471,-29402.155208844568,-38059.92460965212,-35601.277423057254
-35076.86079464684,-29423.277607354838,-38074.475595292526,-35630.26763561578
-35118.99383294509,-29438.43209009553,-38109.18785443161,-35609.592271994625
-35114.05409742047,-29425.82570622274,-38094.83803449131,-35577.09283555661
-35076.45846324664,-29410.894740926597,-38064.59612424328,-35571.10256804259
-35075.18441381269,-29416.281511340323,-38057.08593810629,-35595.71183868788
-35092.9316989102,-29434.20761039348,-38067.233630089,-35621.23753085584
-35121.564283557454,-29438.07446218425,-38103.73402878452,-35593.454312497895
-35107.639146761794,-29416.549732273787,-38086.3890750872,-35563.7935476057
-35088.774274441515,-29406.75966820236,-38069.64761849018,-35585.45238798289
-35076.279649291,-29403.42925827852,-38057.68943520659,-35585.74296066081
-35083.36515228333,-29420.707156742475,-38071.70397898006,-35625.394955324526
-35107.28151885051,-29428.865543468663,-38102.30351713938,-35598.01406836678
-35098.02789664601,-29407.117296113647,-38083.59510703029,-35566.18518426242
-35076.257297546545,-29400.63529022161,-38065.17726959912,-35572.35426573209
-35063.33798925138,-29403.42925827852,-38054.40372877166,-35599.57869047865
-35068.81416664293,-29418.650796252587,-38065.89252542168,-35616.14133312003
-35106.92389093922,-29430.63133128063,-38096.98380195902,-35598.70697244489
-35103.63818450429,-29414.62748225063,-38080.8905459512,-35568.062730796664
-35089.93656515319,-29407.787848447308,-38059.79049918539,-35571.5943064206
-35074.60326845685,-29409.173656603536,-38046.29004553438,-35594.706010187394
-35069.99880909906,-29421.712985242964,-38061.86921141973,-35621.550455278215
-35100.21836760263,-29434.811107493773,-38097.22967114802,-35604.76429519228
-35096.06094313395,-29416.68384274052,-38080.37645582872,-35572.130748287535
-35079.78887317048,-29410.693575226494,-38059.85755441876,-35575.72937914483
-35065.95314335265,-29413.308729327768,-38045.39597575617,-35600.785684679235
-35079.6324109593,-29427.52443880134,-38060.19283058558,-35623.74092623484
-35105.87335894982,-29437.336854617224,-38095.88856648071,-35606.28421381524
-35093.602251243865,-29418.449630552488,-38077.336618582805,-35578.59040243511
-35073.262163789535,-29407.519627513844,-38056.482441006,-35590.9509171189
-35070.602306199355,-29414.694537484,-38055.789536927885,-35617.66125174299
-35078.76069292554,-29429.513744057866,-38074.319133081335,-35648.50665909131
-35116.40103058828,-29440.73431977443,-38107.48912185301,-35628.613606526094
-35116.66925152174,-29426.429203323038,-38087.68547626561,-35588.24635603981
-35084.23687031709,-29411.25236883788,-38065.04315913238,-35589.09572232911
-35060.29815200545,-29406.98318564692,-38050.51452523643,-35605.92658590396
-35070.06586433242,-29421.131839887126,-38060.32694105231,-35617.0577546427
-35110.50017005207,-29436.97922670594,-38094.01101994646,-35596.04711485471
-35098.40787630175,-29416.97441541844,-38077.02369416043,-35567.07925404063
-35069.261201532034,-29403.11633385615,-38053.88963864918,-35564.88878308401
-35060.29815200545,-29406.714964713454,-38042.31143502134,-35589.609812451585
-35070.75876841054,-29424.30578759978,-38060.57281024132,-35619.158818621494
-35101.02303040303,-29431.704215014484,-38095.37447635824,-35601.29977480171
-35095.680963478204,-29411.989976404904,-38082.499871551976,-35582.814882137165
-35079.6324109593,-29400.56823498824,-38064.50671726545,-35571.19197502041
-35069.79764339896,-29401.283490810813,-38056.81771717283,-35595.37656252105
-35074.06682658992,-29416.572084018244,-38073.98385691451,-35625.23849311334
-35107.54973978397,-29427.010348678872,-38103.73402878452,-35601.59034747963
-35088.41664653023,-29405.664432724054,-38085.986743687004,-35575.192937277905
-35062.53332645098,-29389.86174939415,-38065.95958065505,-35572.98011457684
-35050.038701300466,-29392.119275584137,-38051.00626361445,-35589.36394326257
-35071.429320744195,-29412.34760431619,-38072.70980748056,-35619.874074444066
-35098.497283279576,-29420.841267209205,-38108.20437767558,-35597.58938522213
-35082.80635867195,-29404.77036294584,-38091.4405693341,-35575.349399489096
-35068.36713175382,-29394.332098285213,-38067.36774055573,-35565.358169717576
-35054.06201530242,-29393.594490718187,-38055.47661250551,-35592.18026306394
-35079.94533538167,-29417.600264263187,-38082.47751980752,-35627.697185003424
-35111.66246076375,-29422.98703467692,-38115.8933777682,-35599.109303845085
-35079.811224914934,-29398.556577987267,-38094.97214495804,-35572.60013492109
-35064.54498345196,-29385.86078713665,-38073.91680168114,-35576.28817275622
-35057.07950080389,-29392.67806919552,-38062.31624630884,-35598.818731167165
-35068.81416664293,-29410.15713335957,-38077.78365347191,-35628.32303384817
-35087.90255640776,-29413.174618861038,-38108.31613639786,-35599.64574571201
-35079.85592840385,-29397.34958378668,-38092.20052864558,-35575.77408263375
-35070.15527131024,-29394.399153518578,-38073.78269121441,-35582.90428911499
-35066.46723347512,-29400.63529022161,-38065.19962134357,-35614.19673135242
-35077.88897489178,-29419.1425346306,-38079.68355175061,-35638.42602234197
-35111.17072238573,-29432.53122955933,-38112.67472656664,-35606.865359171075
-35096.19505360068,-29413.800467705783,-38094.90508972467,-35580.91498385846
-35075.89966963526,-29403.42925827852,-38071.79338595789,-35585.63120193854
-35066.10960556383,-29412.191142105003,-38070.16170861265,-35617.25892034279
-35087.36611454083,-29431.503049314382,-38090.88177572272,-35650.67477830348
-35122.43600159121,-29436.15221216109,-38122.151866215696,-35612.34153656263
-35110.07548690742,-29414.269854339345,-38101.43179910562,-35581.54083270321
-35069.37296025431,-29398.57892973172,-38077.31426683834,-35588.134597317534
-35044.853096586834,-29397.95308088697,-38064.03733063189,-35614.12967611905
-35071.76459691102,-29423.970511432948,-38089.45126407758,-35645.600932312125
-35103.54877752648,-29430.474869069443,-38120.07315398135,-35621.10342038911
-35088.10372210786,-29408.77132520334,-38099.80012176039,-35585.81001589418
-35079.18537607019,-29405.664432724054,-38084.62328727523,-35596.49414974381
-35067.13778580878,-29407.94431065849,-38078.11892963874,-35626.26667335829
-35073.03864634498,-29419.3437003307,-38089.764188499954,-35634.87209497358
-35109.06965840694,-29430.58662779172,-38121.23544469303,-35613.32501331866
-35095.055114633455,-29415.856828195672,-38106.43858986361,-35593.23079505334
-35072.50220447805,-29406.89377866909,-38085.04797041988,-35616.029574397755
-35071.451672488656,-29414.24750259489,-38074.54265052589,-35642.04700494373
-35072.2786870335,-29424.73047074443,-38086.50083380948,-35635.65440602951
-35102.09591413688,-29429.17846789104,-38115.82632253484,-35605.83717892614
-35092.50701576555,-29409.173656603536,-38093.45222633508,-35585.966478105365
-35079.14067258128,-29405.373860046133,-38076.66606624914,-35597.2541090553
-35063.71796890712,-29406.33498505771,-38063.4338335316,-35618.24239709883
-35077.173719069215,-29424.417546322056,-38087.52901405442,-35647.74669977983
-35109.15906538475,-29427.859714968174,-38115.02165973445,-35624.67969950196
-35094.98805940009,-29410.06772638175,-38092.89343272369,-35591.44265549692
-35072.61396320033,-29404.323328056733,-38074.36383657024,-35589.52040547376
-35054.50905019153,-29400.72469719943,-38056.214220072536,-35603.71376320288
-35073.463329489634,-29420.90832244257,-38079.59414477279,-35625.77493498027
-35102.3864868148,-29425.713947500462,-38109.81370327636,-35602.48441725784
-35087.030838374005,-29405.262101323857,-38085.40559833117,-35589.63216419604
-35069.10473932084,-29395.85201690817,-38068.19475510058,-35582.32314375915
-35056.76657638152,-29398.936557643006,-38060.416348030136,-35611.11219061758
-35070.93758236618,-29413.15226711658,-38079.32592383932,-35631.85460947211
-35104.06286764894,-29420.505991042377,-38108.42789512013,-35604.22785332535
-35088.12607385231,-29404.636252479107,-38094.10042692429,-35588.067542084165
-35061.66160841723,-29397.81897042024,-38080.04117966189,-35596.91883288846
-35052.58680016837,-29401.462304766454,-38069.96054291255,-35618.555321521206
-35073.530384722995,-29419.67897649753,-38089.07128442184,-35640.59414155414
-35106.387449072296,-29428.44086032401,-38120.54254061491,-35629.57473153767
-35095.07746637792,-29409.128953114625,-38101.0965229388,-35588.559280462185
-35071.76459691102,-29393.169807573537,-38079.12475813922,-35574.72355064435
-35056.63246591479,-29397.036659364305,-38066.71953996653,-35600.07042885666
-35063.8744311183,-29410.559464759765,-38088.15486289917,-35630.89348446053
-35093.62460298832,-29413.91222642806,-38121.39190690421,-35619.24822559932
-35078.76069292554,-29395.09205759669,-38101.945889228096,-35578.210422779375
-35067.33895150888,-29392.70042093997,-38083.95273494157,-35585.58649844963
-35070.13291956579,-29396.321403541733,-38074.52029878144,-35610.91102491749
-35071.60813469984,-29414.11339212816,-38104.516339840455,-35640.05769968721
-35083.05222786096,-29412.816990949752,-38128.92444478565,-35605.680716714945
-35072.99394285607,-29394.466208751943,-38107.75734278648,-35589.319239773664
-35058.80058512695,-29385.81608364774,-38088.15486289917,-35597.2541090553
-35045.59070415386,-29386.553691214765,-38077.85070870527,-35620.209350610894
-35065.975495097104,-29404.859769923663,-38098.23549964852,-35644.684510789455
-35104.509902538055,-29414.38161306162,-38128.65622385219,-35617.32597557616
-35091.41178028724,-29391.560481972752,-38098.97310721554,-35579.953858846886
-35062.689788662174,-29381.569252201232,-38078.7894819724,-35583.84306238211
-35047.55765766593,-29385.346697014174,-38075.12379588173,-35610.17341735047
-35063.09212006237,-29403.272796067336,-38095.553290313874,-35630.44644957143
-35087.299059307465,-29401.976394888927,-38120.810761548375,-35598.32699278915
-35074.75973066804,-29382.91035686855,-38095.35212461378,-35575.25999251127
-35048.787003610974,-29371.19804277397,-38072.66510399164,-35575.72937914483
-35043.91432331972,-29376.20483353196,-38062.69622596457,-35604.87605391456
-35059.694654905164,-29398.82479892073,-38084.9362116976,-35620.94695817792
-35082.00169587156,-29408.81602869225,-38111.73595329952,-35601.61269922408
-35068.300076520456,-29391.672240695032,-38087.86429022125,-35576.243469267305
-35069.976457354605,-29387.42540924852,-38073.78269121441,-35592.604946208594
-35074.26799229002,-29397.81897042024,-38065.512545765945,-35624.76910647978
-35068.076559075904,-29414.605130506174,-38083.72921749702,-35634.559170551205
-35091.41178028724,-29416.169752618047,-38105.00807821848,-35589.6992194294
-35084.54979473946,-29397.506045997867,-38083.0363134189,-35576.399931478496
-35080.12414933731,-29398.064839609247,-38069.80408070136,-35591.28619328573
-35074.51386147903,-29399.94238614349,-38061.22101083052,-35613.48147552985
-35078.31365803643,-29408.525456014333,-38084.377418086224,-35639.87888573157
-35092.685829721195,-29403.764534445352,-38107.33265964183,-35597.030591610746
-35063.33798925138,-29378.350600999667,-38078.07422614982,-35565.31346622866
-35043.891971575256,-29370.706304395957,-38061.466880019536,-35579.05978906868
-35041.50033491854,-29379.892871367083,-38057.60002822877,-35600.38335327904
-35063.76267239603,-29403.07163036724,-38085.27148786443,-35622.33276633415
-35089.55658549745,-29405.73148795742,-38105.45511310758,-35589.94508861841
-35069.03768408748,-29383.91618536904,-38077.5377842829,-35562.966533060855
-35060.99105608357,-29381.68101092351,-38062.7856329424,-35580.35619024708
-35041.70150061864,-29382.619784190632,-38045.48538273399,-35594.28132704274
-35052.98913156857,-29399.62946172112,-38065.780766699405,-35618.93530117694
-35085.26505056203,-29400.72469719943,-38092.60286004578,-35579.75269314679
-35075.765559168525,-29386.30782202576,-38076.88958369369,-35567.012198807264
-35060.096986305354,-29382.41861849053,-38057.15299333966,-35575.416454722465
-35050.75395712304,-29387.939499370998,-38044.36779551122,-35599.55633873419
-35065.640218930275,-29406.11146761316,-38066.36191205525,-35618.04123139873
-35094.719838466626,-29411.408831049062,-38095.06155193586,-35596.0024113658
-35073.64214344527,-29393.75095292937,-38074.20737435906,-35576.69050415642
-35058.018274071015,-29387.5371679708,-38060.63986547469,-35590.593289207616
-35044.74133786456,-29393.505083740365,-38052.10149909276,-35622.5562837787
-35064.34381775186,-29408.1901798475,-38081.7399122405,-35638.15780140851
-35086.114416851335,-29410.06772638175,-38107.17619743064,-35601.61269922408
-35071.94341086667,-29392.67806919552,-38083.77392098593,-35592.38142876404
-35055.93956183667,-29385.838435392197,-38064.41731028764,-35606.48537951534
-35045.501297176044,-29388.990031360398,-38046.67002519012,-35608.832312683146
-35073.105701578344,-29410.134781615117,-38071.07813013531,-35611.536873762234
-35110.030783418515,-29415.16392411756,-38095.24036589151,-35585.85471938309
-35074.33504752339,-29392.029868606314,-38067.188926600094,-35567.90626858548
-35059.98522758308,-29388.78886566029,-38044.43485074459,-35579.126844302045
-35052.38563446828,-29395.941423885997,-38038.109307063736,-35595.689486943425
-35066.71310266413,-29410.62651999313,-38059.45522301856,-35603.37848703605
-35102.94528042618,-29419.231941608425,-38085.38324658671,-35578.23277452383
-35084.70625695065,-29398.15424658707,-38057.77884218441,-35559.546716159195
-35053.63733215777,-29387.179540059515,-38037.3269960078,-35566.29694298469
-35032.04554701395,-29385.883138881105,-38027.91691159212,-35573.2930389992
-35057.75005313755,-29402.80340943377,-38054.04610086037,-35588.42516999545
-35092.551719254465,-29401.68582221101,-38075.54847902638,-35559.814937092655
-35072.9268876227,-29381.368086501134,-38055.8342404168,-35555.903381812976
-35048.429375699685,-29370.59454567368,-38038.17636229711,-35545.80039331918
-35043.55669540843,-29376.897737610077,-38035.13652505118,-35569.06855929716
-35062.198050284154,-29395.74025818589,-38066.40661554416,-35595.93535613243
-35085.39916102876,-29394.980298874416,-38090.99353444499,-35567.593344163106
-35064.61203868533,-29373.589679430686,-38063.4338335316,-35542.67114909543
-35048.787003610974,-29368.67229565052,-38043.205504799545,-35555.81397483516
-35042.66262563022,-29376.249537020867,-38033.773068639406,-35586.23469903883
-35064.54498345196,-29400.121200099136,-38061.44452827508,-35600.361001534584
-35090.584765742395,-29399.517702998844,-38083.416293074646,-35567.34747497409
-35077.374884769306,-29382.128045812613,-38058.42704277361,-35548.81787882064
-35054.82197461391,-29375.57898468721,-38034.42126922861,-35553.06471026716
-35043.0202535415,-29380.786941145296,-38026.73226913599,-35588.76044616228
-35076.77138766902,-29401.79758093329,-38056.41538577264,-35597.74584743331
-35107.66149850625,-29406.53615075781,-38082.65633376317,-35570.47671919784
-35076.816091157925,-29387.82774064872,-38064.70788296555,-35567.83921335211
-35056.0736723034,-29380.54107195629,-38043.25020828846,-35554.294056212195
-35047.69176813266,-29382.86565337964,-38033.9295308506,-35589.587460707124
-35070.602306199355,-29400.121200099136,-38066.56307775535,-35606.597138237616
-35079.6324109593,-29393.68389769601,-38087.77488324343,-35568.55446917468
-35066.690750919675,-29377.00949633235,-38061.64569397517,-35554.20464923437
-35054.08436704688,-29374.41669397553,-38041.75264140996,-35564.17352726144
-35052.72091063511,-29382.016287090337,-38033.10251630575,-35590.68269618544
-35069.261201532034,-29399.69651695449,-38063.0315021314,-35605.814827181675
-35089.60128898636,-29396.030830863816,-38080.55526978437,-35573.51655644376
-35070.26703003252,-29379.91522311154,-38058.20352532906,-35559.61377139256
-35057.392425226266,-29376.361295743143,-38042.28908327688,-35576.69050415642
-35044.517820420006,-29380.138740556093,-38035.09182156227,-35604.74194344782
-35067.2271927866,-29401.61876697764,-38072.86626969174,-35618.48826628784
-35089.60128898636,-29399.361240787657,-38090.63590653371,-35586.23469903883
-35075.765559168525,-29378.708228910957,-38065.512545765945,-35573.33774248812
-35056.207782770136,-29372.181519530004,-38040.14331580917,-35556.819803335646
-35042.86379133032,-29377.367124243632,-38030.86734186022,-35581.29496351421
-35063.27093401801,-29393.415676762543,-38064.0820341208,-35594.88482414303
-35081.75582668255,-29389.34765927168,-38085.83028147582,-35565.42522495094
-35066.199012541656,-29372.24857476337,-38062.76328119794,-35555.32223645714
-35059.068806060415,-29372.5838509302,-38051.98974037048,-35573.941239588414
-35042.08148027438,-29380.65283067857,-38044.65836818914,-35601.635050968536
-35065.75197765255,-29399.852979165677,-38075.70494123756,-35625.79728672472
-35088.148425596766,-29392.49925523988,-38090.70296176708,-35576.176414033944
-35065.148480552256,-29371.44391196298,-38062.71857770904,-35558.496184169795
-35044.49546867555,-29372.539147441286,-38049.06166184684,-35571.05786455367
-35044.62957914228,-29388.274775537822,-38048.99460661347,-35613.012088896285
-35078.53717548098,-29410.000671148384,-38078.32009533884,-35630.15587689351
-35095.27863207801,-29402.758705944863,-38091.798197245385,-35579.66328616897
-35060.9240008502,-29375.690743409486,-38066.272505077424,-35552.10358525557
-35049.92694257819,-29369.231089261903,-38045.59714145627,-35560.1949167484
-35050.15046002274,-29379.87051962263,-38036.20940878504,-35592.96257411988
-35070.33408526589,-29402.088153611203,-38067.07716787782,-35607.20063533791
-35087.857852918845,-29397.416639020044,-38086.45613032057,-35573.40479772149
-35071.98811435558,-29379.49053996689,-38059.075243362815,-35562.65360863848
-35060.43226247219,-29379.088208566693,-38043.25020828846,-35575.23764076682
-35048.138803021764,-29386.68780168149,-38031.739059893975,-35595.64478345451
-35081.17468132671,-29409.419525792546,-38068.306513822856,-35612.29683307372
-35101.71593448114,-29404.92682515703,-38086.7914064874,-35585.45238798289
-35071.69754167766,-29383.849130135677,-38057.64473171768,-35566.92279182944
-35055.760747881024,-29376.830682376705,-38041.75264140996,-35564.08412028362
-35046.954160565634,-29384.67614468052,-38034.756545395445,-35583.64189668201
-35080.861756904334,-29405.77619144633,-38065.780766699405,-35601.56799573517
-35101.93945192569,-29401.57406348873,-38083.46099656355,-35571.9966378208
-35062.89095436227,-29373.92495559752,-38054.09080434928,-35559.77023360375
-35050.06105304493,-29372.62855441911,-38036.58938844078,-35566.811033107166
-35041.098003518346,-29385.74902841437,-38037.95284485255,-35604.786646936736
-35068.68005617619,-29401.976394888927,-38070.02759814592,-35604.831350425644
-35092.77523669902,-29400.300014054777,-38083.95273494157,-35580.42324548045
-35076.279649291,-29382.57508070172,-38059.11994685173,-35564.709969128366
-35066.48958521958,-29378.14943529957,-38045.82065890082,-35567.90626858548
-35048.6752448887,-29381.34573475668,-38037.79638264136,-35598.349344533606
-35063.31563750692,-29400.7917524328,-38067.50185102247,-35614.73317321935
-35085.957954640144,-29398.847150665184,-38078.47655755002,-35568.26389649676
-35062.71214040663,-29376.830682376705,-38047.29587403487,-35551.45538466637
-35048.80935535543,-29373.589679430686,-38035.15887679564,-35574.008294821775
-35048.719948377606,-29386.106656325657,-38033.86247561723,-35613.39206855203
-35074.1785853122,-29399.271833809835,-38069.0888248788,-35601.65740271299
-35079.252431303554,-29388.54299647129,-38086.63494427621,-35568.353303474585
-35059.73935839407,-29371.734484640896,-38063.81381318734,-35551.45538466637
-35040.51685816251,-29364.224298503912,-38045.70890017854,-35554.159945745465
-35040.98624479607,-29374.70726665345,-38036.20940878504,-35589.78862640722
-35068.52359396501,-29391.80635116176,-38065.020807387926,-35593.61077470908
-35081.55466098245,-29382.217452790435,-38076.80017671587,-35552.17064048894
-35056.76657638152,-29363.933725825995,-38052.0344438594,-35544.3922334185
-35036.94057904966,-29358.837528090186,-38035.98589134048,-35557.91503881395
-35033.69957610364,-29378.887042866598,-38034.64478667317,-35597.0529433552
-35065.975495097104,-29399.7412204434,-38067.72536846702,-35601.836216668635
-35081.06292260443,-29385.279641780813,-38075.48142379301,-35565.91696332896
-35051.73743387907,-29360.446853690966,-38051.00626361445,-35552.77413758924
-35039.04164302846,-29356.75881585584,-38041.35031000976,-35567.146309273994
-35033.25254121453,-29364.693685137478,-38036.45527797405,-35605.34544054812
-35068.79181489847,-29384.474978980423,-38068.12769986722,-35597.18705382193
-35087.34376279638,-29384.40792374705,-38078.7894819724,-35569.47089069735
-35069.79764339896,-29370.885118351594,-38061.13160385271,-35565.961666817864
-35048.51878267751,-29365.140720026586,-38045.3289205228,-35553.48939341181
-35037.946407550146,-29372.91912709703,-38036.34351925177,-35584.67007692696
-35070.13291956579,-29394.712077940952,-38071.81573770234,-35599.37752477855
-35091.0318006315,-29387.157188315057,-38087.461958821055,-35566.83338485163
-35064.097948562856,-29366.325362482712,-38057.84589741778,-35547.74499508679
-35042.43910818567,-29358.14462401207,-38037.57286519681,-35565.08994878411
-35024.62476785479,-29366.52652818281,-38034.19775178406,-35597.030591610746
-35056.833631614885,-29385.503159225365,-38073.91680168114,-35603.55730099169
-35074.51386147903,-29378.708228910957,-38088.78071174392,-35569.98498081982
-35054.3749397248,-29362.838490347684,-38062.80798468685,-35562.832422594125
-35035.80064008244,-29358.90458332355,-38046.915894379126,-35580.22207978035
-35032.2690644585,-29367.10767353865,-38039.60687394224,-35610.06165862819
-35058.42060547121,-29386.15135981457,-38072.01690340244,-35597.54468173321
-35069.75293991005,-29378.708228910957,-38077.26956334944,-35570.14144303101
-35046.328311720885,-29359.552783912757,-38042.95963561054,-35554.89755331249
-35025.362375421806,-29355.082435021694,-38031.96257733853,-35571.706065142884
-35020.892026530746,-29361.85501359165,-38027.17930402509,-35603.512597502784
-35052.631503657285,-29381.256327778858,-38062.80798468685,-35603.69141145842
-35073.731550423094,-29378.328249255213,-38074.49794703698,-35564.88878308401
-35043.84726808635,-29363.911374081537,-38048.50286823545,-35567.168661018455
-35031.88908480276,-29363.82196710372,-38030.979100582495,-35564.8440795951
-35029.36333767931,-29372.11446429664,-38023.848894101255,-35595.84594915461
-35064.232059029586,-29390.33113602771,-38057.80119392886,-35599.77985617875
-35069.57412595441,-29379.468188222432,-38063.76910969843,-35563.03358829422
-35052.72091063511,-29365.36423747113,-38041.70793792104,-35555.836326579614
-35036.068861015905,-29364.961906070937,-38027.93926333657,-35576.243469267305
-35025.34002367735,-29368.739350883887,-38021.412553955626,-35614.353193563606
-35060.20874502763,-29386.30782202576,-38061.06454861934,-35606.57478649316
-35070.15527131024,-29379.311726011245,-38069.289990578895,-35548.37084393154
-35054.41964321371,-29365.140720026586,-38047.07235659032,-35549.86841081004
-35043.31082621942,-29365.788920615785,-38037.23758902998,-35576.37757973404
-35040.31569246241,-29375.891909109585,-38032.8789988612,-35612.07331562917
-35055.09019554737,-29387.73833367089,-38062.986798642494,-35603.06556261368
-35067.026027086504,-29376.67422016552,-38072.06160689135,-35557.40094869148
-35047.44589894365,-29359.70924612394,-38045.5300862229,-35552.88589631151
-35040.76272735152,-29358.05521703425,-38031.0238040714,-35569.91792558646
-35025.54118937745,-29361.89971708056,-38028.81098137033,-35595.957707876885
-35052.11741353481,-29380.116388811635,-38066.11604286624,-35600.67392595696
-35071.87635563331,-29374.2825835088,-38077.336618582805,-35571.32608548714
-35057.68299790419,-29361.407978702544,-38057.60002822877,-35567.90626858548
-35035.2194947266,-29360.55861241324,-38044.881885633695,-35589.36394326257
-35030.03389001297,-29370.95217358496,-38044.99364435597,-35618.15299012101
-35061.88512586178,-29389.54882497177,-38081.49404305149,-35610.88867317303
-35066.80250964195,-29376.49540620988,-38080.0858831508,-35550.47190791034
-35045.54600066495,-29363.933725825995,-38057.75649043996,-35558.69734986989
-35034.21366622611,-29364.42546420401,-38047.60879845725,-35583.239565281816
-35037.54407614995,-29377.81415913274,-38043.29491177737,-35608.60879523859
-35070.02116084351,-29395.62849946362,-38075.28025809291,-35606.88771091554
-35078.89480339227,-29389.682935438508,-38088.95952569956,-35582.837233881626
-35058.51001244903,-29371.24274626288,-38060.63986547469,-35563.1453470165
-35045.38953845377,-29368.09115029468,-38043.00433909945,-35578.92567860195
-35030.70444234663,-29374.57315618672,-38040.14331580917,-35607.8041324382
-35058.30884674893,-29390.420543005534,-38080.21999361754,-35608.38527779404
-35073.17275681171,-29383.312688268747,-38085.83028147582,-35574.365922733065
-35052.698558890654,-29370.19221427348,-38064.50671726545,-35581.786701892226
-35043.91432331972,-29368.20290901696,-38051.69916769257,-35590.03449559624
-35030.23505571306,-29373.187348030493,-38046.46885949002,-35608.51938826077
-35065.30494276345,-29392.20868256196,-38081.60580177377,-35595.48832124333
-35076.41375975773,-29386.285470281306,-38088.02075243244,-35571.5943064206
-35055.85015485885,-29374.506100953357,-38061.668045719634,-35570.32025698665
-35042.416756441206,-29372.695609652477,-38044.50190597796,-35578.81391987967
-35041.1203552628,-29382.70919116845,-38040.79151639838,-35612.654460985
-35070.19997479916,-29403.406906534063,-38082.20929887406,-35614.5096557748
-35089.31071630844,-29396.79079017529,-38087.618421032246,-35582.21138503688
-35065.908439863735,-29377.6353451771,-38062.02567363092,-35573.53890818822
-35025.65294809973,-29363.55374617025,-38046.915894379126,-35574.56708843316
-35027.28462544497,-29378.127083555115,-38052.19090607058,-35614.88963543053
-35069.37296025431,-29403.518665256343,-38089.29480186639,-35610.374583050565
-35074.51386147903,-29395.270871552333,-38098.54842407089,-35579.395065235505
-35054.21847751361,-29376.13777829859,-38071.48046153551,-35572.15310003199
-35049.25639024453,-29378.14943529957,-38057.28710380639,-35593.789588664724
-35036.85117207184,-29390.219377305435,-38057.130641595206,-35625.01497566879
-35074.22328880111,-29412.459363038462,-38097.22967114802,-35619.53879827724
-35082.31462029393,-29402.06580186675,-38101.744723528,-35588.358114762086
-35053.83849785787,-29386.66544993704,-38074.83322320381,-35579.260954768775
-35037.85700057232,-29376.3836474876,-38057.3318072953,-35585.74296066081
-35035.44301217116,-29385.10082782517,-38055.11898459423,-35610.218120839374
-35066.78015789749,-29390.845226150184,-38093.899261224185,-35612.72151621837
-35076.21259405763,-29376.49540620988,-38097.11791242575,-35587.441693239416
-35059.35937873833,-29365.81127236024,-38072.75451096946,-35588.201652550895
-35039.51102966202,-29368.53818518379,-38064.97610389902,-35596.53885323273
-35039.913361062216,-29380.786941145296,-38064.327903309815,-35633.59804553963
-35069.484718976586,-29394.10858084066,-38100.470674094046,-35622.48922854534
-35072.971591111615,-29381.502196967867,-38103.890490995705,-35587.03936183922
-35050.86571584531,-29373.4332172195,-38077.895412194186,-35589.76627466277
-35040.4721546736,-29376.651868421064,-38062.11508060874,-35604.630184725545
-35052.09506179036,-29384.922013869527,-38068.32886556731,-35641.77878401027
-35064.96966659661,-29399.271833809835,-38104.02460146244,-35625.66317625799
-35057.660646159726,-29383.089170824194,-38096.78263625892,-35586.83819613912
-35043.80256459744,-29370.37102822912,-38073.67093249213,-35582.50195771479
-35037.34291044986,-29369.901641595563,-38059.54462999638,-35594.72836193185
-35027.28462544497,-29375.422522476023,-38056.72831019501,-35627.45131581442
-35062.3768642398,-29396.835493664206,-38098.101389181786,-35615.18020810845
-35068.501242220555,-29381.122217312124,-38097.1402641702,-35573.51655644376
-35050.46338444512,-29365.587754915687,-38070.474633035024,-35570.32025698665
-35022.993090509546,-29363.28552523679,-38055.38720552769,-35594.52719623175
-35018.07570672938,-29373.969659086422,-38057.51062125094,-35628.613606526094
-35057.772404882,-29393.370973273635,-38098.54842407089,-35613.861455185586
-35069.03768408748,-29381.59160394569,-38097.85551999277,-35571.12491978704
-35047.803526854936,-29368.49348169488,-38070.94401966858,-35568.68857964141
-35044.450765186644,-29369.49931019537,-38057.98000788451,-35585.31827751616
-35049.055224544434,-29385.301993525267,-38064.59612424328,-35624.90321694651
-35071.496375977564,-29403.07163036724,-38099.241328149,-35621.841027956136
-35066.46723347512,-29387.82774064872,-38093.02754319043,-35579.81974838016
-35043.042605285955,-29372.740313141385,-38071.07813013531,-35576.28817275622
-35034.50423890403,-29371.130987540604,-38058.24822881797,-35597.008239866285
-35029.85507605733,-29379.84816787817,-38058.51644975144,-35628.255978614805
-35070.78112015499,-29399.271833809835,-38094.592165302296,-35617.974176165364
-35071.161099810735,-29385.592566203188,-38087.90899371016,-35583.35132400409
-35038.68401511717,-29366.43712120499,-38063.8361649318,-35581.004390836286
-35030.86090455781,-29369.655772406557,-38056.46008926154,-35598.08112360014
-35023.820105054394,-29378.708228910957,-38055.72248169452,-35622.35511807861
-35053.50322169104,-29388.67710693802,-38090.36768560025,-35612.11801911808
-35066.42252998621,-29378.037676577293,-38091.10529316727,-35580.69146641391
-35049.81518385591,-29365.81127236024,-38068.8876591787,-35579.32801000214
-35035.778288337984,-29366.95121132746,-38059.54462999638,-35594.348382276105
-35021.16024746421,-29373.142644541585,-38062.919743409126,-35615.3590220641
-35051.75978562353,-29385.927842370016,-38085.60676403127,-35601.32212654616
-35059.046454315954,-29370.683952651496,-38086.34437159829,-35564.777024361734
-35042.97555005259,-29358.2787344788,-38055.67777820561,-35568.37565521904
-35020.35558466382,-29359.61983914612,-38043.205504799545,-35581.54083270321
-35017.98629975156,-29368.694647394976,-38047.2288188015,-35608.13940860503
-35054.77727112499,-29384.653792936064,-38087.39490358769,-35605.59130973712
-35062.64508517326,-29375.489577709388,-38085.0926739088,-35581.58553619213
-35035.97945403808,-29358.12227226761,-38056.61655147273,-35570.9461058314
-35025.60824461082,-29360.066874035227,-38046.44650774557,-35578.67980941293
-35042.55086690794,-29382.463321979445,-38058.24822881797,-35616.54366452023
-35076.21259405763,-29403.65277572308,-38097.810816503865,-35612.09566737362
-35065.148480552256,-29387.268947037333,-38087.57371754333,-35580.66911466946
-35037.253503472035,-29374.461397464445,-38059.18700208509,-35583.66424842647
-35024.22243645459,-29366.772397371817,-38049.24047580248,-35580.87028036956
-35031.97849178058,-29382.50802546836,-38058.181173584606,-35616.07427788666
-35078.85009990336,-29405.6420809796,-38098.81664500435,-35617.52714127626
-35086.00265812906,-29392.96864187344,-38086.97022044304,-35580.55735594718
-35062.8238991289,-29377.970621343928,-38067.39009230019,-35575.43880646692
-35033.476058659086,-29370.23691776239,-38051.587408970285,-35591.75557991929
-35028.11163998981,-29381.90452836806,-38052.86145840424,-35615.85076044211
-35066.60134394185,-29395.203816318968,-38093.116950168245,-35605.03251612574
-35063.27093401801,-29377.657696921557,-38089.7418367555,-35570.029684308734
-35036.895875560745,-29362.39145545858,-38064.61847598773,-35570.096739542096
-35023.820105054394,-29357.541126911776,-38050.40276651416,-35587.307582772686
-35015.88523577276,-29366.43712120499,-38051.6321124592,-35619.29292908823
-35058.66647466022,-29388.028906348816,-38090.14416815569,-35613.97321390786
-35069.194146298665,-29375.489577709388,-38083.86332796375,-35579.32801000214
-35039.15340175074,-29355.66358037753,-38057.24240031748,-35572.51072794327
-35029.78802082396,-29367.219432260925,-38048.726385680005,-35603.17732133596
-35018.74625906304,-29375.556632942757,-38052.86145840424,-35638.7612985088
-35064.165003796224,-29393.90741514056,-38102.01294446146,-35623.025670412266
-35062.60038168435,-29377.367124243632,-38094.65922053567,-35587.911079872974
-35039.73454710657,-29358.323437967712,-38070.49698477948,-35583.46308272637
-35017.114581717804,-29357.138795511582,-38052.14620258167,-35595.17539682095
-35016.10875321731,-29366.95121132746,-38058.73996719599,-35621.86337970059
-35056.69952114815,-29383.044467335283,-38100.73889502751,-35610.1063621171
-35062.60038168435,-29371.80153987426,-38095.4415315916,-35579.64093442451
-35037.92405580569,-29357.138795511582,-38066.40661554416,-35578.14336754601
-35020.86967478629,-29355.730635610897,-38051.00626361445,-35594.974231120854
-35024.870637043794,-29373.120292797124,-38054.71665319403,-35623.27153960127
-35064.433224729684,-29391.404019761565,-38094.56981355784,-35615.62724299756
-35067.67422767571,-29379.781112644807,-38085.9420401981,-35582.9489926039
-35042.215590741114,-29364.35840897065,-38059.34346429628,-35583.440730981914
-35021.1155439753,-29356.535298411287,-38048.12288857972,-35589.52040547376
-35022.30018643144,-29370.57219392922,-38053.59906597126,-35625.86434195809
-35060.99105608357,-29385.972545858927,-38092.75932225696,-35614.17437960796
-35061.28162876149,-29372.695609652477,-38090.7923687449,-35583.08310307063
-35031.710270847114,-29356.825871089208,-38059.47757476301,-35581.02674258074
-35016.93576776216,-29356.71411236693,-38043.87605713321,-35596.78472242173
-35023.17190446519,-29375.847205620677,-38057.01888287293,-35632.27929261676
-35056.25248625904,-29389.59352846069,-38094.77097925794,-35615.09080113063
-35055.2243060141,-29371.06393230724,-38085.226784375525,-35574.72355064435
-35034.28072145948,-29357.18349900049,-38060.52810675241,-35574.768254133254
-35019.23799744106,-29360.893888580074,-38044.2783885334,-35597.23175731084
-35022.07666898688,-29374.796673631277,-38054.76135668294,-35629.440621070935
-35062.15334679525,-29389.884101138607,-38094.01101994646,-35612.609757496095
-35056.4760037036,-29372.67325790802,-38083.77392098593,-35583.84306238211
-35031.64321561375,-29356.222373988912,-38058.65056021816,-35577.584573934626
-35016.82400903988,-29357.4293681895,-38049.978083369504,-35605.43484752594
-35024.110677732315,-29377.05419982126,-38068.01594114494,-35646.83027825717
-35054.28553274698,-29381.882176623607,-38094.86038623576,-35625.97610068037
-35051.60332341234,-29364.29135373728,-38090.09946466678,-35591.46500724137
-35025.80941031092,-29349.785071585786,-38064.61847598773,-35592.62729795305
-35011.48194211506,-29348.19809772946,-38048.43581300209,-35592.62729795305
-35013.94063400515,-29360.178632757503,-38051.229781059,-35621.66221400049
-35054.95608508064,-29376.651868421064,-38093.02754319043,-35612.386240051535
-35045.94833206515,-29358.077568778703,-38087.4396070766,-35581.004390836286
-35025.22826495508,-29346.700530850954,-38070.117005123735,-35582.16668154796
-35014.07474447188,-29348.5780773852,-38055.34250203878,-35602.57382423566
-35016.89106427325,-29358.61401064563,-38061.668045719634,-35631.34051934964
-35049.50225943354,-29368.49348169488,-38099.57660431583,-35612.453295284904
-35048.787003610974,-29355.26124897733,-38091.306458867366,-35573.82948086614
-35030.950311535635,-29345.359426183637,-38068.97706615652,-35586.18999554992
-35018.567445107394,-29345.47118490591,-38054.15785958265,-35596.56120497718
-35017.33809916236,-29363.307876981245,-38062.76328119794,-35636.30260661872
-35054.732567636085,-29377.322420754725,-38098.23549964852,-35616.83423719814
-35047.04356754346,-29361.050350791254,-38086.52318555393,-35589.09572232911
-35022.143724220245,-29343.683045349488,-38063.61264748724,-35572.66719015446
-35007.816256024395,-29343.124251738103,-38052.2803130484,-35596.874129399555
-35019.483866630064,-29362.23499324739,-38061.042196874885,-35632.167533894484
-35057.81710837092,-29380.183444045004,-38099.129569426725,-35624.05385065721
-35052.72091063511,-29363.17376651452,-38086.5902407873,-35585.13946356052
-35033.49841040354,-29347.639304118075,-38064.26084807645,-35585.51944321626
-35017.963948007106,-29348.175745985,-38049.41928975812,-35604.361963792086
-35016.71225031761,-29363.86667059263,-38057.73413869549,-35626.42313556947
-35057.03479731498,-29381.05516207876,-38097.58729905931,-35608.76525744978
-35052.09506179036,-29363.486690936887,-38086.411426831655,-35572.48837619882
-35032.492581903054,-29346.34290293967,-38063.0315021314,-35570.029684308734
-35021.093192230845,-29345.47118490591,-38045.15010656716,-35592.42613225295
-35014.79000029445,-29359.128100768103,-38052.8838101487,-35619.315280832685
-35048.6752448887,-29367.308839238747,-38088.0431041769,-35585.45238798289
-35042.39440469675,-29354.18836524348,-38082.32105759634,-35565.492280184306
-35024.870637043794,-29349.38274018559,-38067.99358940048,-35579.73034140233
-35010.476113614575,-29347.81811807372,-38049.7322141805,-35592.8508153976
-35019.79679105244,-29364.760740370843,-38060.75162419696,-35625.57376928017
-35052.206820512634,-29376.920089354528,-38100.0459909494,-35620.27640584426
-35045.88127683178,-29356.71411236693,-38085.3385430978,-35574.500033199794
-35026.25644520002,-29344.26419070533,-38064.05968237635,-35571.080216298134
-35011.57134909288,-29343.079548249192,-38051.49800199247,-35602.61852772457
-35015.23703518356,-29358.41284494553,-38065.378435299215,-35631.47462981637
-35056.94539033716,-29376.920089354528,-38105.29865089639,-35625.01497566879
-35047.89293383276,-29359.15045251256,-38091.48527282301,-35592.4484839974
-35028.0669365009,-29344.48770814988,-38066.49602252198,-35575.52821344474
-35011.2137211816,-29340.79967031475,-38048.63697870219,-35594.19192006492
-35021.651985842225,-29357.831699589697,-38066.51837426643,-35623.98679542384
-35044.9201518202,-29364.738388626385,-38101.5435578279,-35607.24533882682
-35039.622788384295,-29349.06981576321,-38085.718522753545,-35583.35132400409
-35019.30505267442,-29334.630588845088,-38060.75162419696,-35576.6458006675
-35010.83374152586,-29335.345844667656,-38055.34250203878,-35602.395010280015
-35019.573273607886,-29353.361350698637,-38066.831298688805,-35619.874074444066
-35053.056186801936,-29365.833624104696,-38099.487197338014,-35600.584518979136
-35040.13687850677,-29348.443966918465,-38080.71173199555,-35576.08700705612
-35017.56161660691,-29339.480917391887,-38064.81964168783,-35580.78087339173
-35006.87748275727,-29339.547972625256,-38049.06166184684,-35593.744885175816
-35019.483866630064,-29356.892926322573,-38060.34929279677,-35619.27057734377
-35050.86571584531,-29367.554708427757,-38096.626174047735,-35610.01695513928
-35047.93763732167,-29352.80255708725,-38082.11989189624,-35579.17154779095
-35031.03971851346,-29345.80646107274,-38064.8866969212,-35589.83332989614
-35012.778343293474,-29343.303065693744,-38048.74873742447,-35591.88969038602
-35020.78026780847,-29357.60818214514,-38058.24822881797,-35623.56211227919
-35054.66551240272,-29371.779188129807,-38098.12374092624,-35608.63114698305
-35049.1222797778,-29353.629571632096,-38079.68355175061,-35567.34747497409
-35027.57519812288,-29343.839507560675,-38055.20839157205,-35578.03160882373
-35008.732677547065,-29344.3759494276,-38034.30951050633,-35595.42126600996
-35023.79775330994,-29360.31274322424,-38055.54366773888,-35620.790495966736
-35062.86860261782,-29374.371990486623,-38098.23549964852,-35615.24726334182
-35043.400233197244,-29354.25542047685,-38078.11892963874,-35579.9985623358
-35024.60241611033,-29340.28558019228,-38050.46982174752,-35571.95193433189
-35004.798770522924,-29340.911429037027,-38036.008243084936,-35602.99850738031
-34998.85320649781,-29356.088263522182,-38049.24047580248,-35633.41923158398
-35041.23211398508,-29368.828757861706,-38086.3890750872,-35604.18314983644
-35036.02415752699,-29352.847260576164,-38069.1335283677,-35566.67692264044
-35016.77930555097,-29342.498402893358,-38048.97225486902,-35578.36688499056
-35010.99020373705,-29344.778280827795,-38042.646711188165,-35603.95963239189
-35012.73363980456,-29358.34578971217,-38055.18603982759,-35618.264748843285
-35042.55086690794,-29368.269964250325,-38086.7914064874,-35594.72836193185
-35035.55477089343,-29352.824908831702,-38074.07326389233,-35573.583611677124
-35019.774439307985,-29345.89586805056,-38049.62045545822,-35564.508803428274
-35008.084476957854,-29349.60625763014,-38035.29298726237,-35586.77114090576
-35009.78320953646,-29347.594600629163,-38047.16176356814,-35614.86728368608
-35039.4216226842,-29353.38370244309,-38082.499871551976,-35584.848890882604
-35037.946407550146,-29342.61016161563,-38071.30164757987,-35563.50297492778
-35016.82400903988,-29336.01639700132,-38050.06749034733,-35563.21240224986
-35003.2117966666,-29341.15729822604,-38035.74002215148,-35589.542757218216
-35009.53734034745,-29360.04452229077,-38053.487307248986,-35616.588368009136
-35050.262218745025,-29375.64603992057,-38087.93134545462,-35592.78376016423
-35048.89876233325,-29355.82004258872,-38068.06064463385,-35562.050111538185
-35027.664605100705,-29342.40899591553,-38044.65836818914,-35562.22892549383
-35017.941596262644,-29350.05329251925,-38033.9295308506,-35591.93439387493
-35026.211741711115,-29366.191252015986,-38048.86049614674,-35617.75065872081
-35053.72673913559,-29370.125159040115,-38082.45516806307,-35591.71087643038
-35034.01250052601,-29343.19130697147,-38068.35121731177,-35562.675960382934
-35010.342003147845,-29329.310873664723,-38047.74290892397,-35564.8440795951
-34997.333287874855,-29333.13302196658,-38029.168609281616,-35582.52430945925
-35009.22441592508,-29352.46728092042,-38043.987815855486,-35608.80996093869
-35045.05426228693,-29361.38562695809,-38079.974124428525,-35587.68756242842
-35045.45659368713,-29347.05815876224,-38063.32207480932,-35573.8965360995
-35022.59075910935,-29333.75887081133,-38037.23758902998,-35571.30373374269
-35005.80459902342,-29334.742347567364,-38024.02770805689,-35591.10737933009
-35006.78807577945,-29349.65096111905,-38039.00337684195,-35606.70889695989
-35040.02511978449,-29359.373969957112,-38071.70397898006,-35575.61762042256
-35027.105811489324,-29338.832716802684,-38051.72151943702,-35568.30859998567
-35016.80165729543,-29329.623798087097,-38031.20261802705,-35568.68857964141
-35015.95229100613,-29336.50813537933,-38026.17347552461,-35570.78964362021
-35009.917320003195,-29351.17087974201,-38044.63601644469,-35604.0043358808
-35037.20879998312,-29357.16114725604,-38075.05674064836,-35582.390198992514
-35025.18356146617,-29338.36333016912,-38050.31335953633,-35545.86744855255
-34998.31676463089,-29326.20398118544,-38027.17930402509,-35548.12497474253
-34985.73273250255,-29326.22633292989,-38021.54666442236,-35583.865414126565
-34999.568462320385,-29340.889077292573,-38044.30074027786,-35599.42222826746
-35035.26419821551,-29352.109653009134,-38074.49794703698,-35572.15310003199
-35027.97752952308,-29336.53048712379,-38058.85172591826,-35552.41650967795
-35006.899834501724,-29325.578132340688,-38037.46110647453,-35558.7420533588
-34987.07383716987,-29329.08735622017,-38027.15695228064,-35575.23764076682
-34996.148645418725,-29340.553801125745,-38047.0276531014,-35602.30560330219
-35028.75984057902,-29348.04163551827,-38077.895412194186,-35580.37854199154
-35018.74625906304,-29331.724862065897,-38057.06358636184,-35556.8421550801
-35003.92705248917,-29325.891056763063,-38037.10347856325,-35568.487413941315
-34992.080627927855,-29328.930894008983,-38021.97134756701,-35587.12876881704
-35012.35366014882,-29352.89196406507,-38044.36779551122,-35613.95086216341
-35040.85213432934,-29356.11061526664,-38072.083958635805,-35591.50971073028
-35020.55675036392,-29330.048481231748,-38050.91685663663,-35563.882954583525
-35004.08351470036,-29319.7219752934,-38029.57094068181,-35560.97722780433
-34995.522796573976,-29323.83469627317,-38025.48057144649,-35589.65451594049
-35003.971755978084,-29346.32055119521,-38052.16855432613,-35627.071336158675
-35034.1689627372,-29353.47310942091,-38079.25886860596,-35595.01893460977
-35016.555788106416,-29332.06013823273,-38057.86824916223,-35562.340684216106
-34994.20404365111,-29325.6228358296,-38044.4795542335,-35574.12005354405
-34990.69481977163,-29339.458565647437,-38035.69531866256,-35605.971289392866
-35014.61118633881,-29361.117406024627,-38049.19577231357,-35619.449391299415
-35031.35264293583,-29354.456586176944,-38075.86140344876,-35596.91883288846
-35018.41098289621,-29330.495516120856,-38058.35998754024,-35567.52628892974
-35001.69187804364,-29320.504286349333,-38043.31726352182,-35578.12101580155
-34989.5101773155,-29326.96394049692,-38033.080164561296,-35610.441638283926
-35008.240939169045,-29356.132967011094,-38053.10732759325,-35626.87017045858
-35042.5732186524,-29361.653847891557,-38084.62328727523,-35612.877978429555
-35025.69765158864,-29332.86480103312,-38062.24919107547,-35579.7973966357
-35006.09517170134,-29321.84539101665,-38046.44650774557,-35582.814882137165
-34985.73273250255,-29322.806516028228,-38035.382394240194,-35608.02764988275
-35004.88817750075,-29340.263228447824,-38052.995568870974,-35626.71370824739
-35038.84047732836,-29351.75202509785,-38087.52901405442,-35604.47372251436
-35031.33029119138,-29342.43134765999,-38071.1898888576,-35583.82071063766
-35015.03586948346,-29336.597542357154,-38050.84980140327,-35589.22983279584
-34994.42756109566,-29329.04265273126,-38035.941187851575,-35616.18603660894
-35001.55776757691,-29344.577115127697,-38049.7322141805,-35623.62916751256
-35029.67626210168,-29347.773414584808,-38079.549441283874,-35598.77402767826
-35017.382802651264,-29332.529524866288,-38060.57281024132,-35580.95968734738
-35006.85513101282,-29325.98046374088,-38045.39597575617,-35594.52719623175
-34991.186558149646,-29333.267132433317,-38037.66227217463,-35626.445487313926
-35002.1612646772,-29351.684969864487,-38058.56115324034,-35626.5572460362
-35036.18061973818,-29345.649998861554,-38085.1373773977,-35583.01604783726
-35018.88036952977,-29323.789992784263,-38065.22197308802,-35563.57003016115
-34999.50140708702,-29314.84929500214,-38045.64184494517,-35569.71675988636
-34997.73561927505,-29319.81138227122,-38030.844990115766,-35598.08112360014
-35010.74433454804,-29341.24670520386,-38058.98583638499,-35620.11994363307
-35029.98918652406,-29345.56059188373,-38090.56885130034,-35590.88386188554
-35025.988224266555,-29335.077623734192,-38074.00620865896,-35571.10256804259
-35012.93480550466,-29326.740423052364,-38052.995568870974,-35575.416454722465
-34984.41397957969,-29326.360443396625,-38040.32212976481,-35605.56895799267
-35009.38087813627,-29347.035807017783,-38056.6836067061,-35629.440621070935
-35046.1718495097,-29352.33317045369,-38083.6398105192,-35596.96353637738
-35032.11260224731,-29336.865763290614,-38060.03636837439,-35574.164757032966
-34992.92999421716,-29317.263283403317,-38035.225932029,-35564.8440795951
-34991.07479942737,-29326.695719563453,-38027.93926333657,-35595.64478345451
-35028.223398712085,-29361.96677231393,-38062.74092945349,-35632.12283040558
-35057.95121883765,-29366.66063864954,-38092.44639783459,-35604.831350425644
-35025.787058566464,-29337.8268883022,-38062.60681898675,-35570.96845757586
-35000.484883843055,-29321.75598403883,-38035.8294291293,-35570.454367453385
-34997.042715196934,-29330.56257135422,-38027.26871100292,-35615.06844938618
-35025.07180274389,-29365.878327593608,-38060.14812709667,-35647.6125893131
-35042.26029423002,-29365.543051426772,-38084.64563901969,-35606.239510326326
-35024.58006436587,-29337.022225501805,-38063.99262714299,-35586.21234729437
-35009.44793336963,-29328.66267307552,-38040.61270244273,-35581.339667003114
-34987.69968601462,-29323.678234061987,-38022.30662373384,-35593.163739819975
-35000.618994309785,-29342.00666451534,-38051.09567059227,-35623.38329832355
-35045.25542798703,-29357.89875482306,-38086.411426831655,-35608.0052981383
-35033.65487261473,-29338.408033658037,-38062.226839331015,-35581.45142572539
-35018.70155557413,-29337.111632479628,-38048.30170253536,-35596.11417008808
-35000.79780826543,-29345.180612227992,-38039.65157743116,-35625.81963846918
-35015.147628205734,-29360.893888580074,-38064.97610389902,-35641.890542732544
-35047.33414022138,-29356.490594922376,-38094.65922053567,-35607.37944929355
-35021.18259920867,-29331.99308299936,-38073.64858074768,-35585.675905427444
-35006.139875190245,-29328.819135286707,-38057.98000788451,-35597.96936487786
-34998.227357653064,-29331.657806832533,-38044.50190597796,-35616.40955405349
-35018.589796851855,-29349.67331286351,-38064.327903309815,-35634.402708340014
-35044.093137275355,-29356.3788362001,-38088.24426987699,-35599.64574571201
-35028.75984057902,-29338.050405746748,-38058.382339284704,-35571.23667850932
-35005.06699145639,-29325.689891062964,-38042.04321408787,-35575.46115821137
-34986.31387785839,-29325.13109745158,-38033.59425468377,-35599.13165558954
-35008.21858742459,-29342.632513360088,-38060.416348030136,-35613.81675169668
-35036.78411683847,-29348.42161517401,-38087.97604894353,-35587.24052753932
-35012.152494448725,-29324.05821371773,-38061.176307341615,-35563.21240224986
-34992.72882851706,-29314.31285313521,-38039.04808033086,-35572.4436727099
-34989.01843893748,-29322.225370672397,-38032.8789988612,-35599.93631838993
-35008.88913975825,-29345.20296397245,-38057.5329729954,-35611.38041155105
-35029.564503379406,-29351.997894286866,-38083.86332796375,-35591.196786307904
-35013.13597120476,-29327.45567887493,-38056.95182763956,-35562.22892549383
-34995.70161052962,-29318.023242714797,-38038.91396986413,-35573.76242563277
-34981.62001152278,-29335.368196412117,-38028.05102205885,-35602.50676900229
-35010.31965140339,-29350.2768099638,-38056.88477240619,-35625.596121024624
-35035.286549959965,-29339.726786580897,-38083.39394133019,-35605.63601322604
-35013.7171165606,-29322.78416428377,-38054.82841191631,-35570.92375408694
-34996.416866352185,-29317.4197456145,-38038.53399020839,-35575.57291693365
-34996.17099716318,-29335.25643768984,-38032.476667461,-35621.125772133564
-35019.23799744106,-29355.104786766147,-38060.81867943033,-35632.301644361214
-35040.114526762314,-29352.601391387157,-38082.8351477188,-35595.28715554323
-35019.707384074616,-29330.361405654123,-38057.84589741778,-35559.92669581493
-35006.09517170134,-29322.605350328133,-38040.70210942056,-35572.86835585455
-35001.91539548819,-29329.24381843136,-38031.20261802705,-35598.77402767826
-35015.304090416925,-29344.577115127697,-38053.59906597126,-35613.012088896285
-35030.34681443535,-29342.18547847098,-38078.67772325012,-35587.82167289516
-35000.50723558751,-29319.319643893203,-38059.74579569647,-35569.64970465299
-34986.76091274749,-29312.547065323244,-38041.35031000976,-35577.07048381215
-34986.716209258586,-29325.19815268495,-38034.533027950885,-35610.933376661946
-35010.29729965893,-29346.20879247293,-38060.77397594142,-35623.00331866781
-35033.900741803736,-29351.014417530827,-38086.36672334275,-35591.688524685924
-35026.636424855766,-29342.11842323761,-38065.31138006585,-35580.736169902826
-35000.50723558751,-29318.98436772637,-38034.98006284,-35580.66911466946
-34989.91250871569,-29326.96394049692,-38027.29106274737,-35603.736114947336
-35019.30505267442,-29351.506155908843,-38063.38913004269,-35623.31624309019
-35040.4721546736,-29340.151469725548,-38083.17042388564,-35586.07823682764
-35011.236072926054,-29315.22927465788,-38056.57184798383,-35566.78868136271
-34987.766741247986,-29309.70839377742,-38036.85760937424,-35574.56708843316
-34973.19340386312,-29321.353652638634,-38025.81584761332,-35605.747771948314
-35003.10003794432,-29336.642245846066,-38057.68943520659,-35623.226836112364
-35028.40221266773,-29325.80164978524,-38075.74964472648,-35583.37367574855
-35006.65396531272,-29306.109762920118,-38047.98877811299,-35563.77119586125
-34986.917374958684,-29303.65107103003,-38034.3318622508,-35570.07438779764
-34978.62487776576,-29315.07281244669,-38026.39699296916,-35601.32212654616
-35004.038811211445,-29341.872554048605,-38058.91878115163,-35621.416344811485
-35030.056241757426,-29341.939609281973,-38086.05379892037,-35591.44265549692
-35003.16709317769,-29319.85608576013,-38054.04610086037,-35571.03551280922
-34986.984430192046,-29318.582036326177,-38033.16957153912,-35582.59136469261
-34978.62487776576,-29327.008643985828,-38023.13363827868,-35612.94503366292
-35007.30216590192,-29348.3769116851,-38048.81579265783,-35624.88086520205
-35029.273930701485,-29348.823946574208,-38066.49602252198,-35589.76627466277
-35017.963948007106,-29334.51883012281,-38048.63697870219,-35587.26287928377
-34995.992183207534,-29322.56064683922,-38026.75462088044,-35589.94508861841
-34980.83770046684,-29323.857048017628,-38012.69537361805,-35599.28811780073
-35012.443067126645,-29348.33220819619,-38049.508696735946,-35632.167533894484
-35039.53338140647,-29350.03094077479,-38072.6874557361,-35588.60398395109
-35012.82304678238,-29329.780260298285,-38049.17342056912,-35565.91696332896
-34988.4596453261,-29319.81138227122,-38028.6768709036,-35576.8469663676
-34980.770645233475,-29329.109707964624,-38020.25026324395,-35607.24533882682
-35002.988279222045,-29348.39926342956,-38056.840068917285,-35629.99941468232
-35027.06110800042,-29342.073719748703,-38077.26956334944,-35592.49318748632
-35003.16709317769,-29317.91148399252,-38049.28517929139,-35559.971399303846
-34980.16714813318,-29314.42461185749,-38033.88482736168,-35573.4942046993
-34974.31099108589,-29323.678234061987,-38015.310527719324,-35600.76333293478
-35005.53637808995,-29347.505193651345,-38047.58644671279,-35619.53879827724
-35030.45857315762,-29349.29333320777,-38075.45907204856,-35591.688524685924
-35010.900796759226,-29331.1213649656,-38050.87215314772,-35586.36880950556
-34991.23126163855,-29323.633530573075,-38034.823600628806,-35599.06460035618
-34979.89892719971,-29331.61310334362,-38024.98883306847,-35609.905196417
-35012.80069503793,-29349.963885541427,-38063.702054465066,-35638.64953978652
-35028.37986092328,-29343.66069360503,-38078.90124069467,-35600.02572536776
-35007.07864845737,-29325.46637361841,-38052.61558921523,-35582.054922825686
-34998.40617160871,-29318.22440841489,-38035.40474598465,-35583.50778621528
-34980.43536906664,-29320.928969493983,-38027.78280112539,-35610.441638283926
-35006.54220659044,-29342.43134765999,-38062.83033643131,-35619.42703955496
-35028.156343478724,-29338.788013313773,-38080.64467676219,-35589.34159151812
-35008.33034614687,-29321.13013519408,-38057.55532473986,-35574.47768145534
-34998.49557858653,-29323.857048017628,-38042.44554548807,-35593.07433284215
-34993.04175293943,-29335.681120834488,-38033.5271994504,-35617.95182442091
-35014.63353808326,-29347.75106284035,-38062.80798468685,-35608.36292604959
-35035.37595693779,-29334.80940280073,-38078.70007499457,-35577.09283555661
-35017.78513405146,-29321.01837647181,-38048.726385680005,-35562.072463282646
-34998.00384020851,-29317.06211770321,-38032.722536650006,-35577.40575997898
-34974.28863934143,-29313.687004290463,-38024.49709469046,-35608.16176034949
-34998.96496522009,-29332.95420801094,-38051.27448454792,-35605.59130973712
-35031.866733058305,-29332.12719346609,-38071.01107490195,-35574.3435709886
-35016.332270661864,-29323.789992784263,-38047.60879845725,-35563.97236156135
-34985.64332552473,-29309.97661471088,-38027.38046972519,-35577.94220184591
-34973.7521974745,-29311.56358856721,-38015.44463818605,-35604.76429519228
-35003.770590277985,-29336.3740249126,-38048.74873742447,-35608.541740005225
-35025.04945099944,-29331.724862065897,-38065.356083554754,-35569.58264941962
-35012.17484619318,-29319.02907121528,-38041.68558617659,-35561.021931293246
-34998.71909603108,-29317.352690381136,-38024.63120515719,-35574.67884715544
-34977.551994031906,-29317.33033863668,-38013.634146885175,-35598.77402767826
-35000.35077337632,-29333.445946388954,-38047.34057752378,-35604.89840565901
-35029.698613846136,-29335.16703071201,-38067.39009230019,-35581.42907398094
-35000.28371814296,-29312.167085667505,-38036.49998146296,-35556.64098938
-34991.8571104833,-29310.736574022365,-38031.6273011717,-35583.150158304
-34981.91058420069,-29318.157353181527,-38026.62051041371,-35609.56992025017
-35010.02907872547,-29332.350710910647,-38055.81188867234,-35617.10245813161
-35021.674337586686,-29321.06307996072,-38064.61847598773,-35570.61082966457
-35001.46836059909,-29310.62481530009,-38040.00920534244,-35569.895573842
-34986.44798832512,-29311.18360891147,-38026.84402785826,-35575.61762042256
-34971.02528465096,-29313.26232114581,-38017.5233504204,-35594.3036787872
-35003.65883155571,-29335.725824323395,-38054.7837084274,-35611.73803946233
-35027.038756255955,-29332.306007421736,-38068.10534812276,-35577.361056490074
-35016.30991891741,-29316.235103158368,-38039.18219079759,-35566.31929472915
-34983.139930145735,-29304.7686582528,-38020.987870810975,-35571.5943064206
-34977.194366120624,-29314.156390924025,-38018.68564113208,-35609.07818187215
-35003.2117966666,-29332.01543474381,-38057.08593810629,-35621.34928957812
-35013.09126771585,-29324.639359073564,-38062.69622596457,-35564.06176853916
-34994.606375051306,-29309.261358888318,-38034.42126922861,-35555.63516087952
-34982.73759874554,-29307.294405376248,-38022.68660338958,-35582.47960597034
-34975.58504051984,-29317.240931658856,-38017.61275739822,-35620.924606433466
-35008.35269789132,-29337.24574294636,-38057.35415903976,-35612.05096388471
-35027.57519812288,-29331.456641132438,-38071.70397898006,-35573.67301865495
-35006.341040890344,-29310.200132155434,-38038.13165880819,-35561.6924836269
-34980.72594174456,-29306.42268734249,-38020.33967022177,-35576.42228322295
-34975.47328179757,-29316.726841536387,-38015.310527719324,-35608.832312683146
-35009.626747325274,-29337.53631562428,-38053.21908631553,-35617.39303080953
-35017.42750614018,-29325.578132340688,-38059.991664885485,-35574.56708843316
-34995.94747971863,-29303.22638788538,-38032.0743360608,-35561.75953886027
-34988.236127881544,-29307.5179228208,-38023.87124584571,-35579.48447221333
-34986.93972670314,-29317.06211770321,-38020.74200162196,-35612.185074351444
-35011.370183392784,-29335.815231301214,-38051.877981648206,-35610.62045223957
-35022.009613753515,-29331.5236963658,-38063.6349992317,-35574.008294821775
-35000.127255931766,-29311.22831240038,-38032.38726048318,-35549.46607940985
-34984.43633132414,-29303.67342277449,-38014.72938236349,-35560.08315802612
-34973.37221781877,-29312.65882404552,-38008.873225316194,-35598.66226895598
-35006.94453799064,-29335.792879556764,-38045.28421703389,-35602.9538038914
-35022.65781434272,-29331.1213649656,-38059.18700208509,-35578.61275417957
-34997.93678497515,-29309.70839377742,-38031.113211049225,-35557.73622485832
-34984.57044179087,-29305.23804488636,-38020.406725455134,-35560.440785937404
-34981.64236326723,-29315.81042001372,-38013.500036418445,-35595.17539682095
-35007.27981415747,-29334.764699311814,-38043.4290222441,-35598.23758581133
-35022.993090509546,-29328.752080053346,-38051.6321124592,-35559.85964058157
-34997.78032276396,-29318.023242714797,-38023.781838867886,-35555.03166377922
-34970.44413929512,-29316.95035898094,-38007.75563809343,-35562.56420166066
-34962.866897924774,-29307.18264665397,-38000.71483859001,-35595.130693332045
-35002.87652049977,-29328.90854226453,-38038.28812101938,-35592.29202178622
-35025.69765158864,-29332.75304231084,-38055.521315994425,-35562.87712608303
-34994.51696807348,-29301.72882100688,-38032.56607443882,-35556.17160274644
-34972.724017229564,-29306.556797809222,-38022.15016152265,-35568.86739359706
-34975.16035737519,-29386.19606330348,-38019.11032427673,-35610.73221096185
-35004.23997691154,-29417.890836941107,-38060.70692070806,-35620.54462677773
-35015.996994495035,-29298.42076282749,-38068.0829963783,-35567.07925404063
-34995.6122035518,-29252.934962860934,-38039.04808033086,-35552.43886142241
-34983.87753771276,-29264.11083508859,-38031.09085930477,-35567.07925404063
-34969.706531728094,-29281.36638180809,-38025.21235051303,-35612.90033017401
-34990.828930238364,-29307.3167571207,-38061.06454861934,-35622.66804250098
-35017.963948007106,-29310.08837343316,-38075.68258949311,-35567.48158544083
-35002.27302339948,-29297.325527349178,-38053.062624104336,-35562.340684216106
-34979.94363068863,-29294.50920754781,-38042.31143502134,-35586.748789161305
-34966.711397971085,-29305.193341397448,-38043.45137398856,-35622.39982156752
-35002.96592747759,-29325.399318385043,-38078.90124069467,-35621.21517911139
-35013.91828226069,-29318.738498537365,-38083.59510703029,-35591.50971073028
-35014.41002063871,-29314.357556624123,-38060.95278989706,-35596.874129399555
-34993.77936050646,-29313.75405952383,-38048.61462695773,-35600.09278060112
-34979.58600277734,-29323.05238521724,-38046.93824612359,-35633.19571413943
-35015.32644216138,-29342.319588937717,-38083.14807214118,-35640.16945840949
-35039.73454710657,-29337.24574294636,-38090.92647921163,-35601.903271902
-35010.07378221438,-29316.86095200312,-38060.19283058558,-35588.983963606835
-34988.68316277065,-29304.58984429716,-38043.36196701074,-35609.07818187215
-34983.09522665683,-29309.75309726633,-38039.293949519866,-35612.83327494065
-35016.93576776216,-29327.120402708104,-38078.67772325012,-35618.890597688034
-35027.84341905635,-29322.739460794863,-38089.67478152213,-35592.537890975225
-35008.03977346895,-29310.781277511272,-38057.84589741778,-35584.31244901568
-34982.89406095673,-29300.92415820648,-38039.11513556423,-35588.38046650654
-34980.86005221129,-29314.69283279095,-38036.79055414088,-35621.550455278215
-35008.59856708033,-29333.088318477672,-38067.72536846702,-35615.51548427528
-35019.97560500808,-29322.29242590576,-38071.592220257786,-35583.239565281816
-35000.95427047661,-29305.23804488636,-38050.93920838108,-35575.01412332227
-34989.80074999342,-29306.78031525377,-38034.533027950885,-35588.492225228816
-34988.794921492925,-29323.23119917288,-38031.0238040714,-35622.71274598989
-35016.39932589523,-29336.53048712379,-38068.12769986722,-35631.273464116275
-35015.23703518356,-29314.804591513228,-38068.61943824523,-35570.36496047556
-34993.44408433963,-29296.40910582651,-38042.22202804352,-35562.02775979373
-34977.7084562431,-29295.112704648105,-38026.28523424688,-35580.26678326926
-34970.71236022859,-29304.96982395289,-38024.877074346194,-35617.773010465266
-35009.98437523656,-29326.583960841177,-38062.47270852002,-35620.656385500006
-35027.2175702116,-29322.113611950117,-38061.24336257498,-35579.73034140233
-34997.333287874855,-29306.64620478704,-38039.36100475324,-35570.36496047556
-34982.983467934544,-29303.13698090756,-38023.67008014561,-35583.68660017093
-34986.53739530294,-29315.94453048045,-38021.54666442236,-35611.6039289956
-35018.567445107394,-29334.921161523005,-38058.04706311787,-35616.43190579795
-35013.761820049505,-29315.22927465788,-38057.130641595206,-35565.91696332896
-34995.63455529625,-29294.777428481277,-38025.81584761332,-35551.05305326618
-34990.40424709371,-29304.5674925527,-38012.00246953994,-35563.05594003868
-34983.139930145735,-29319.16318168201,-38007.39801018214,-35597.96936487786
-35019.52857011897,-29329.489687620367,-38043.09374607727,-35611.29100457323
-35018.05335498493,-29310.781277511272,-38049.016958357926,-35558.5408876587
-34988.102017414814,-29291.447018557432,-38017.79157135386,-35545.912152041456
-34973.52868002995,-29287.17783536647,-37998.47966414448,-35560.06080628167
-34976.79203472043,-29302.779352996276,-38001.89948104614,-35604.071391114165
-35013.91828226069,-29326.762774796814,-38038.33282450829,-35594.28132704274
-35019.72973581907,-29313.28467289027,-38042.22202804352,-35556.05984402417
-34996.72979077456,-29295.93971919295,-38020.33967022177,-35559.41260569246
-34984.97277319107,-29297.593748282645,-38009.5214259054,-35574.634143666524
-34980.50242430001,-29312.27884438978,-38011.24251022846,-35607.37944929355
-35013.13597120476,-29333.513001622323,-38042.06556583233,-35598.9528416339
-35024.13302947677,-29324.3711381401,-38045.28421703389,-35557.11037601357
-35004.19527342264,-29300.834751228664,-38019.46795218801,-35552.75178584478
-34984.65984876869,-29298.018431427296,-38007.487417159966,-35583.06075132618
-34977.39553182072,-29309.239007143857,-38011.46602767301,-35605.971289392866
-35004.41879086719,-29326.695719563453,-38042.98198735499,-35594.41543750947
-35020.73556431956,-29317.71031829242,-38041.12679256521,-35557.870335325046
-34997.534453574954,-29301.92998670697,-38014.46116143002,-35547.74499508679
-34978.379008576754,-29298.64428027204,-38006.66040261512,-35564.307637728176
-34980.6588865112,-29310.04366994425,-38006.12396074819,-35599.533986989736
-35015.728773561576,-29324.482896862377,-38043.16080131064,-35590.14625431851
-35023.70834633212,-29311.384774611568,-38043.92076062212,-35553.399986433986
-35006.67631705717,-29308.546103065742,-38024.25122550144,-35560.88782082651
-34981.59765977832,-29314.58107406868,-38012.40480094014,-35576.89166985651
-34981.41884582268,-29308.5684548102,-38010.50490266144,-35595.06363809868
-35014.879407272274,-29314.402260113035,-38049.68751069159,-35598.46110325588
-35006.1622269347,-29300.65593727302,-38044.65836818914,-35550.42720442143
-34993.421732595176,-29296.498512804334,-38017.05396378684,-35538.64783509348
-34991.09715117182,-29303.159332652016,-38007.95680379353,-35555.903381812976
-34984.682200513154,-29319.43140261548,-38009.87905381669,-35581.697294914404
-35011.817218281896,-29336.642245846066,-38040.63505418719,-35575.125882044544
-35014.83470378336,-29318.067946203704,-38041.41736524312,-35542.87231479553
-34997.26623264149,-29300.834751228664,-38015.08701027477,-35540.8383060501
-34992.97469770607,-29308.032012943277,-38007.621527626696,-35566.85573659608
-34985.44215982463,-29316.928007236485,-38007.196844482045,-35592.29202178622
-35017.89689277374,-29339.860897047627,-38045.55243796736,-35593.23079505334
-35023.59658760984,-29328.86383877562,-38045.5300862229,-35562.36303596056
-34995.83572099635,-29297.057306415714,-38014.41645794112,-35544.95102702988
-34961.57049674636,-29279.399428296023,-37990.45538788502,-35546.962684030856
-34974.98154341955,-29312.502361834333,-38001.60890836822,-35594.37073402056
-35022.23313119807,-29340.82202205921,-38044.54660946687,-35596.941184632924
-35013.49359911604,-29307.540274565254,-38032.81194362783,-35536.680881581415
-35003.904700744715,-29289.055381900715,-38013.38827769617,-35536.09973622557
-34995.76866576298,-29306.28857687576,-38013.85766432973,-35569.29207674171
-34985.933898202646,-29312.524713578787,-38008.49324566046,-35587.41934149496
-35017.33809916236,-29327.746251552853,-38044.881885633695,-35575.9976000783
-35012.711288060105,-29310.17778041098,-38043.65253968866,-35546.02391076373
-34986.89502321422,-29294.665669759,-38017.09866727575,-35542.58174211762
-34974.758025975,-29292.050515657727,-38008.04621077135,-35565.08994878411
-34983.98929643504,-29311.65299554503,-38013.701202118544,-35602.41736202447
-35018.45568638512,-29329.981425998383,-38045.95476936755,-35593.163739819975
-35015.281738672464,-29315.13986768006,-38045.44067924508,-35556.953913802376
-35000.618994309785,-29303.89694021904,-38027.67104240311,-35562.89947782749
-34986.53739530294,-29309.86485598861,-38017.05396378684,-35587.307582772686
-34982.42467432316,-29321.353652638634,-38014.10353351874,-35613.727344718856
-35014.47707587208,-29329.89201902056,-38048.61462695773,-35593.83429215363
-35010.49846535903,-29309.261358888318,-38038.91396986413,-35553.46704166735
-34991.8571104833,-29297.37023083809,-38019.98204231048,-35555.478698668325
-34981.75412198951,-29301.81822798469,-38008.42619042709,-35571.68371339842
-34980.94945918911,-29314.22344615739,-38012.96359455152,-35604.54077774772
-35004.61995656729,-29325.891056763063,-38044.30074027786,-35590.5485857187
-35015.147628205734,-29316.5703793252,-38043.76429841093,-35558.60794289207
-34993.287622128446,-29304.23221638587,-38016.31635621982,-35554.22700097883
-34980.94945918911,-29303.963995452406,-38005.16283573661,-35576.75755938978
-34983.49755805702,-29315.63160605808,-38010.639013128166,-35612.94503366292
-35018.25452068502,-29326.22633292989,-38050.49217349198,-35598.37169627806
-35008.95619499162,-29307.69673677644,-38043.6301879442,-35560.105509770576
-34989.17490114867,-29292.609309269108,-38018.126847520696,-35561.2454487378
-34982.49172955653,-29292.788123224756,-38005.386353181166,-35582.054922825686
-34989.62193603777,-29310.825981000184,-38014.48351317448,-35616.521312775774
-35013.471247371584,-29319.65492006003,-38051.81092641485,-35603.736114947336
-35012.219549682086,-29306.623853042587,-38047.273522290416,-35568.10743428558
-34988.102017414814,-29294.531559292267,-38021.56901616681,-35573.0471698102
-34969.97475266156,-29289.70358248992,-38006.14631249265,-35579.32801000214
-34971.51702302897,-29299.27012911679,-38004.693449103055,-35599.22106256736
-35011.593700837344,-29316.81624851421,-38045.64184494517,-35591.01797235227
-35015.16997995019,-29309.79780075524,-38044.36779551122,-35560.32902721513
-34986.87267146977,-29294.86683545909,-38015.8246178418,-35555.36693994605
-34964.76679620348,-29284.137998120543,-37997.0715042438,-35568.46506219686
-34972.4557962961,-29299.247777372337,-38007.26389971541,-35604.74194344782
-35010.52081710348,-29320.90661774953,-38047.94407462407,-35596.09181834362
-35010.967851992595,-29305.77448675329,-38040.45624023154,-35562.9441813164
-34993.19821515062,-29295.470332559387,-38016.76339110892,-35566.47575694034
-34974.98154341955,-29287.960146422407,-37999.97723102298,-35580.311486758175
-34983.98929643504,-29303.62871928557,-38010.84017882826,-35614.15202786351
-35010.63257582576,-29322.426536372488,-38048.63697870219,-35607.75942894929
-35014.320613660886,-29317.03976595876,-38038.22106578601,-35574.70119889989
-34994.44991284012,-29300.633585528565,-38013.14240850716,-35567.74980637429
-34968.387778805234,-29282.88630043105,-37993.27170768639,-35569.47089069735
-34969.88534568374,-29299.001908183327,-38004.76050433642,-35603.06556261368
-35011.63840432625,-29320.057251460228,-38043.697243177565,-35596.181225321445
-35003.54707283343,-29304.746306508343,-38039.4280599866,-35558.18325974742
-34985.33040110236,-29294.397448825534,-38015.48934167497,-35558.71970161435
-34969.61712475027,-29291.22350111288,-38002.32416419079,-35578.210422779375
-34976.412055064684,-29310.37894611108,-38008.94028054956,-35607.75942894929
-35015.4158491392,-29327.14275445256,-38049.57575196931,-35597.209405566384
-35011.75016304853,-29306.84737048714,-38040.25507453145,-35554.9422568014
-35008.2632909135,-29314.33520487967,-38027.38046972519,-35569.269724997255
-34991.09715117182,-29310.446001344444,-38010.12492300569,-35585.698257171905
-34994.42756109566,-29310.4683530889,-38012.38244919568,-35607.915891160475
-35019.86384628581,-29326.42749862999,-38048.70403393555,-35590.81680665217
-35014.879407272274,-29303.80753324122,-38039.31630126433,-35550.60601837707
-34984.21281387959,-29275.57727999417,-38012.62831838469,-35547.163849730954
-34966.82315669336,-29278.259489328804,-38000.200748467534,-35566.29694298469
-34975.36152307529,-29305.72978326437,-38014.7740858524,-35603.69141145842
-35020.333232919365,-29330.31670216521,-38052.25796130395,-35592.15791131949
-35006.564558334896,-29302.779352996276,-38035.04711807336,-35552.32710270013
-34971.29350558442,-29279.019448640283,-38004.31346944731,-35544.79456481869
-34965.99614214851,-29289.86004470111,-37994.702219331535,-35568.75563487478
-34977.39553182072,-29305.99800419784,-37995.70804783202,-35591.554414219194
-34991.54418606093,-29316.458620602923,-38026.66521390262,-35576.04230356721
-35001.49071234354,-29309.97661471088,-38024.31828073481,-35558.98792254781
-34986.53739530294,-29296.81143722671,-37996.579765865776,-35551.43303292192
-34981.172976633665,-29291.53642553525,-37980.933544747066,-35564.88878308401
-34974.24393585252,-29307.5179228208,-37993.495225130944,-35600.53981549023
-34982.87170921227,-29312.32354787869,-38021.34549872226,-35574.7459023888
-34973.9533631746,-29279.958221907407,-38004.00054502494,-35528.8354192776
-34954.73086294304,-29267.485948501344,-37981.29117265835,-35529.39421288898
-34941.610388947774,-29267.88827990154,-37962.5604108048,-35540.74889907228
-34944.02437734895,-29284.965012665398,-37967.27662888487,-35565.73814937331
-34992.84058723934,-29307.18264665397,-38022.01605105592,-35567.12395752954
-35008.799732780426,-29303.762829752308,-38016.42811494209,-35543.49816364028
-34986.33622960284,-29296.40910582651,-37994.88103328717,-35550.27074221024
-34966.82315669336,-29289.03303015626,-37978.31839064579,-35566.45340519588
-34958.5530112449,-29295.53738779276,-37985.33683840476,-35593.454312497895
-34989.82310173787,-29305.72978326437,-38019.71382137702,-35570.67788489794
-34994.964002962595,-29286.4625795439,-38001.34068743476,-35532.769326301735
-34980.07774115536,-29275.957259649906,-37981.9170215031,-35538.58077986012
-34974.1545288747,-29284.182701609458,-37973.49041384344,-35565.51463192876
-34982.46937781208,-29306.690908275952,-37989.22604193998,-35605.45719927039
-35010.29729965893,-29313.351728123635,-38022.35132722275,-35585.81001589418
-34999.90373848721,-29291.98346042436,-38008.29207996036,-35545.39806191898
-34984.481034813056,-29281.142864363537,-37984.8674517712,-35541.75472757277
-34984.30222085741,-29290.329431334667,-37977.24550691194,-35567.12395752954
-34987.45381682561,-29303.494608818844,-37989.04722798434,-35595.91300438798
-35019.12623871878,-29319.252588659838,-38024.36298422372,-35580.937335602925
-35017.382802651264,-29305.640376286552,-38008.33678344927,-35541.777079317224
-34997.80267450841,-29295.85031221513,-37984.8674517712,-35542.46998339534
-34977.261421353985,-29297.99607968284,-37972.03755045385,-35557.64681788049
-34982.49172955653,-29316.771545025294,-37988.98017275098,-35593.4990159868
-35014.83470378336,-29322.627702072587,-38022.41838245611,-35580.89263211401
-35010.49846535903,-29302.913463463006,-38013.29887071835,-35549.01904452074
-35001.15543617671,-29295.291518603743,-37990.16481520711,-35551.142460243995
-34988.236127881544,-29296.923195948984,-37976.48554760046,-35576.31052450067
-34978.33430508785,-29299.62775702808,-37988.42137913959,-35595.57772822115
-35012.51012236001,-29304.47808557488,-38024.07241154581,-35569.42618720844
-35003.39061062224,-29293.101047647127,-38010.28138521688,-35539.60896010506
-34986.291526113935,-29291.13409413506,-37996.512710632414,-35564.17352726144
-34998.74144777554,-29303.85223673013,-37999.8207688118,-35597.7011439444
-34992.63942153924,-29303.22638788538,-37999.99958276744,-35592.672001441955
-34997.22152915258,-29301.214730884403,-38016.20459749753,-35562.22892549383
-34998.584985564354,-29290.64235575704,-38006.48158865948,-35532.72462281283
-34982.55878478989,-29282.931003919963,-37984.08514071526,-35543.5875706181
-34976.34499983132,-29288.965974922896,-37976.41849236709,-35577.294001256705
-34970.08651138384,-29291.84934995763,-37995.17160596509,-35573.6953703994
-34995.25457564051,-29299.22542562788,-38031.96257733853,-35558.31737021415
-35004.86582575629,-29288.071905144683,-37993.9199082756,-35529.818896033634
-34984.90571795771,-29272.001000881315,-37961.24165788194,-35518.95594822836
-34968.655999738694,-29286.93196617746,-37966.516669573386,-35564.397044706
-34975.47328179757,-29306.4673908314,-37983.2134226815,-35589.85568164059
-35001.513064087994,-29305.305100119724,-38015.802266097344,-35562.31833247165
-35003.412962366696,-29288.74245747834,-37999.66430660061,-35536.8373437926
-34987.09618891432,-29284.69679173193,-37979.54773659083,-35542.46998339534
-34980.52477604446,-29296.051477915225,-37973.512765587904,-35565.11230052856
-34994.7628372625,-29315.22927465788,-37992.467044886,-35583.9995245933
-35004.44114261164,-29309.97661471088,-38022.41838245611,-35567.23571625182
-34992.52766281697,-29283.154521364515,-38003.95584153603,-35533.886913524504
-34973.551031774405,-29275.57727999417,-37979.57008833529,-35533.953968757865
-34968.030150893945,-29282.64043124204,-37972.41753010959,-35557.84798358059
-34983.25168886801,-29304.165161152505,-37990.72360881849,-35581.31731525866
-35012.04073572645,-29311.541236822755,-38015.601100397245,-35559.47966092583
-34997.15447391921,-29288.697753989432,-38005.00637352543,-35533.28341642421
-34978.311953343386,-29272.3586287926,-37986.02974248288,-35532.27758792372
-34967.15843286019,-29277.92421316197,-37970.45057659753,-35555.94808530189
-34976.21088936459,-29298.443114571943,-37994.970440265,-35612.69916447391
-35003.70353504462,-29308.14377166555,-38029.5262371929,-35594.88482414303
-34997.98148846406,-29285.79202721024,-38011.71189686202,-35521.05701220715
-34973.86395619678,-29271.911593903496,-37981.1123587027,-35529.57302684463
-34969.72888347255,-29281.768713208286,-37972.68575104306,-35561.08898652661
-34985.21864238008,-29306.75796350932,-37996.73622807697,-35604.74194344782
-35011.19136943715,-29317.55385608123,-38036.85760937424,-35577.51751870126
-35002.362430377296,-29298.42076282749,-38019.11032427673,-35546.7391665863
-34977.887270198735,-29282.77454170877,-37993.33876291976,-35542.11235548405
-34966.89021192673,-29289.927099934477,-37981.9170215031,-35566.00637030678
-34984.01164817949,-29316.793896769752,-37995.32806817628,-35587.12876881704
-35017.65102358473,-29320.48193460488,-38029.079202303794,-35573.67301865495
-35012.95715724911,-29312.435306600968,-38012.0248212844,-35544.97337877433
-34986.38093309176,-29297.124361649083,-37986.85675702772,-35538.58077986012
-34979.74246498853,-29287.98249816686,-37978.72072204599,-35558.630294636525
-34987.65498252571,-29298.107838405114,-37996.62446935469,-35587.84402463961
-35022.74722132054,-29314.22344615739,-38028.56511218132,-35573.15892853247
-35020.60145385283,-29325.533428851777,-38007.55447239333,-35541.642968850494
-35001.513064087994,-29335.14467896756,-37993.5175768754,-35550.89659105499
-34983.96694469058,-29291.62583251308,-37974.96562897749,-35574.52238494425
