 EXG Channel 0, EXG Channel 1, EXG Channel 2, EXG Channel 3
9326.444187932517,8944.29641298013,16991.39380352423,-1251.1835993747234
9615.787519906464,8947.20213975932,17311.47078412423,-934.504083931933
10085.062394745635,8929.43250291735,18536.21226980833,-373.4305946148151
10081.486115632786,8916.982581255745,18935.347370546744,-332.66101272833504
9668.068250187427,8925.520947637671,18064.054019934418,-794.090425263694
9323.94079255352,8942.597680401526,16991.013823868492,-1252.1670761307569
9620.213165308614,8953.34886948453,17310.37554864592,-928.893796073651
10088.325749436111,8931.824139574068,18533.932391873885,-371.46364110274806
10090.247999459269,8919.374217912462,18936.4202542806,-328.1906638372736
9679.713509048644,8923.777511570157,18070.178397915173,-785.1720792260265
9330.154577512096,8936.965040798788,16991.08087910186,-1244.232206849123
9621.37545602029,8944.922261824879,17304.80996427655,-928.022078039894
10088.705729091853,8924.358656925995,18523.695292913355,-374.7046440487676
10092.550229138164,8911.394645141918,18929.826489666284,-329.0623818710306
9682.753346294565,8922.995200514222,18069.39608685924,-783.7415675808868
9335.139016525629,8942.016535045688,16995.37241403728,-1245.550959771986
9623.007133365529,8948.096209537533,17308.252132922666,-934.5487874208436
10089.443336658876,8925.09626449302,18529.462042982825,-377.9679987392424
10096.148859995468,8912.221659686764,18936.174385091592,-330.3811347938937
9685.144982951282,8924.358656925995,18073.017069461,-787.3849019271019
9331.026295545851,8938.261441977196,16993.852495414318,-1251.1835993747234
9620.213165308614,8947.895043837434,17310.889638768393,-933.8782350871844
10096.685301862395,8939.66960187788,18541.084950099583,-365.29455963308334
10106.85534558956,8932.070008763076,18951.217109110014,-319.51818698861445
9688.810669041952,8934.52870065316,18077.308604396418,-787.0496257602723
9333.194414758018,8947.537415926148,16996.244132071035,-1250.066012151958
9621.6213252093,8952.63361366196,17302.75360378666,-939.5108746899218
10094.718348350329,8932.047657018622,18526.936295859374,-380.3819871404156
10102.787328098697,8919.217755701275,18945.070379384804,-326.9613178922317
9692.118727221336,8928.493729650227,18080.14727594224,-784.479175147912
9339.36349622768,8944.028192046666,16991.751431435518,-1247.2943958395
9627.164557834216,8949.616128160493,17295.690452538784,-933.3194414758016
10097.914647807438,8925.744465082225,18524.030569080183,-368.8931904903878
10101.66974087593,8906.320799150562,18940.309457815823,-324.3461637909608
9685.994349240584,8912.378121897951,18071.743020027046,-786.6472943600768
9330.020467045364,8927.15262498291,16982.922492375674,-1249.842494707405
9619.386150763768,8935.758046598203,17284.402821588854,-935.8004851103408
10095.2324384728,8917.407264400395,18510.97715031829,-371.9106759918542
10106.56477291164,8911.126424208454,18933.760396690417,-320.2110910667289
9689.503573120068,8915.663828332881,18066.065676935395,-782.1322419801047
9333.395580458116,8932.785264585646,16977.334556261845,-1245.0815731384246
9614.424063494693,8938.596718144026,17270.723553982207,-935.9345955770726
10084.90593253445,8918.614258600981,18496.89555131144,-376.5598388385581
10107.168270011936,8915.753235310702,18928.105405343224,-318.244137554662
9690.53175336501,8921.207060957797,18066.57976705787,-778.444204144979
9335.071961292262,8939.893119322434,16982.341347019836,-1242.242901592601
9627.186909578671,8955.896968352434,17284.358118099943,-926.6139181392095
10096.931171051405,8931.332401196052,18508.876086339485,-366.2780363891168
10112.555040425665,8922.369351669473,18935.816757180302,-311.4939107291592
9706.356788439369,8936.20508148731,18084.327052155382,-763.2897214042808
9346.940737598032,8949.034982804655,16991.863190157794,-1232.4751892656311
9628.28214505698,8952.67831715087,17276.46795230722,-925.8092553388184
10097.825240829616,8926.459720904795,18492.738126842756,-362.3217776205275
10113.67262764843,8914.210964943286,18918.717672671995,-311.67272468480166
9707.004989028572,8920.648267346414,18073.285290394462,-767.0895179616831
9352.95335685651,8937.926165810368,16991.97494888007,-1234.3974392887878
9636.48523527208,8949.504369438217,17283.88873146638,-928.2679472289024
10109.179927012912,8929.365447683984,18504.65160663743,-365.1380974218962
10116.064264305149,8909.606505585492,18924.864402397205,-318.7135241882234
9709.843660574395,8915.909697521889,18073.57586307238,-769.3917476405798
9353.780371401355,8929.477206406262,16986.990509866537,-1234.7103637111622
9631.90312765874,8939.691953622336,17277.540836041073,-928.6255751401872
10103.077900776614,8923.53164238115,18498.77309784569,-364.71341427724536
10115.751339882772,8913.607467842992,18927.63601870966,-309.34814326144976
9704.747462838586,8920.000066757211,18080.348441642334,-761.8145062702306
9346.85133062021,8938.194386743831,16991.59496922433,-1229.3682967863438
9624.012961866018,8945.0116688027,17274.433943561788,-931.084267030271
10094.897162305972,8925.409188915395,18492.13462974246,-370.435460857804
10108.777595612715,8910.299409663607,18929.155937332624,-313.1926433077626
9699.91948603624,8917.071988233565,18078.895578252745,-769.1682301960267
9346.404295731105,8933.411113430395,16988.912759889696,-1238.6889742242067
9625.734046189076,8937.993221043733,17271.662327249327,-935.4652089435112
10099.881601319505,8916.624953344459,18496.336757700057,-366.97094046723134
10117.137148039004,8906.18668868383,18934.252135068436,-308.09644557195253
9708.54725939599,8915.440310888329,18086.58457834537,-762.0827272036943
9353.020412089874,8932.67350586337,16997.071146615883,-1232.9445758991928
9633.043066625962,8938.216738488287,17278.077277908003,-933.6770693870866
10106.363607211544,8915.753235310702,18501.38825194696,-371.240123658195
10125.362589998556,8906.298447406107,18940.39886479364,-309.7728264061006
9715.72216936614,8913.38395039844,18090.47378188059,-762.9097417485407
9349.84646437722,8924.917450537378,16995.17124833718,-1232.5645962434526
9626.80692992293,8929.208985472796,17273.65163250585,-932.4477234420448
10102.496755420776,8905.963171239278,18502.19291474735,-368.3343968790051
10118.031217817212,8893.312083877574,18942.678742728083,-311.1809863067849
9706.78147158402,8903.392720626918,18091.323148169893,-762.9544452374513
9345.219653274971,8918.234278945241,16994.32188204788,-1233.749238699584
9622.448339754146,8925.923279037866,17272.154065627346,-933.855883342729
10100.66391237544,8908.75713929619,18502.72935661428,-364.0428619435861
10119.81935737364,8897.558915324082,18943.95279216204,-305.0342565815755
9713.710512365164,8906.276095661653,18093.33480517087,-756.5171428343228
9355.61321444669,8923.66575284788,16997.965216394095,-1226.0155351180476
9629.757360191032,8933.992258786233,17273.875149950403,-932.7159443755085
10102.787328098697,8916.423787644362,18498.929560056877,-367.59678931197993
10123.686209164409,8907.706607306793,18947.327905574788,-303.67080016980174
9715.521003666045,8914.09920622101,18101.470840152604,-759.6240353136105
9356.99902260292,8934.0593140196,17005.520106019987,-1230.105904353369
9631.120816602805,8943.67056413538,17276.065620907026,-932.2242059974916
10104.798985099673,8923.62104935897,18496.98495828926,-366.3450916224828
10124.222651031334,8910.254706174697,18945.38330380717,-305.213070537218
9715.096320521394,8911.171127697364,18105.516505899013,-759.221703913415
9350.98640334444,8918.994238256722,17005.3636438088,-1235.358564300366
9620.5707932199,8922.279944691652,17269.09187663697,-942.1036770467374
10090.449165159363,8897.76008102418,18488.334833185058,-377.8338882725106
10112.912668336949,8884.907827962379,18937.00139963644,-316.85832939843294
9718.359675211868,8892.686235032825,18107.55051464445,-760.7192707919206
9360.03885984884,8908.399511384907,17015.84661195834,-1230.3741252868326
9625.309363044424,8915.350903910507,17279.485437808686,-939.2203020120028
10100.932133308905,8898.09535719101,18500.47183042429,-369.0496527015749
10123.86502312005,8883.052633172589,18950.367742820712,-300.340390245961
9719.454910690178,8884.751365751192,18119.463994439127,-747.7552590078425
9360.150618571117,8903.213906671275,17024.94377195165,-1221.522834482531
9629.578546235389,8911.14877595291,17286.526237312108,-931.2183774970028
10108.218802001336,8893.625008299949,18510.91009508492,-363.5734753100247
10133.699790680384,8882.560894794571,18964.6281557832,-299.26750651210625
9732.843605618908,8893.33443562203,18131.60099167836,-742.8378752276749
9367.504342496914,8910.142947452421,17029.056492931424,-1219.332363525911
9638.876871928796,8918.14487196742,17289.09668792447,-926.6362698836648
10116.19837477188,8896.95541822379,18512.09473754105,-358.45492582975936
10137.611345960064,8883.879647717435,18965.6786877726,-296.09355879945264
9734.140006797315,8890.585171054026,18134.596125435368,-741.38501183808
9372.80170593282,8907.796014284613,17035.22557440109,-1214.392628001288
9642.587261508375,8915.14973821041,17290.057812936047,-925.8539588277292
10116.801871872172,8894.742595522714,18511.558295674124,-363.3276061210163
10143.355744285076,8887.120650663453,18969.277318629905,-300.7427216461565
9739.392666744312,8898.341226380018,18138.84295688188,-747.9117212190296
9374.925121656075,8917.206098700297,17034.17504241169,-1222.618069960841
9641.760246963531,8926.124444737965,17283.821676233016,-933.9899938094608
10117.38301722801,8905.225563672253,18512.362958474518,-363.7299375212118
10140.494720994797,8888.305293119585,18972.361859364733,-294.2383640096622
9739.191501044215,8896.843659501512,18137.010113836543,-741.9885089383732
9370.834752420757,8911.394645141918,17026.731911508075,-1227.490750252098
9637.401656794746,8913.607467842992,17274.143370883867,-941.7907526243632
10113.091482292592,8884.460793073273,18496.98495828926,-370.74838528017824
10131.129340068024,8863.13722886291,18958.593184780264,-308.2305560386844
9728.239146261114,8875.095412146498,18128.784671876987,-754.7066515334429
9370.365365787193,8896.70954903478,17029.682341776173,-1228.2507095635783
9644.10718013134,8910.366464896973,17283.687565766282,-932.2689094864024
10128.04479933319,8894.630836800437,18514.37461547549,-349.7377454921896
10156.76679095826,8885.690139018314,18981.6825368026,-275.84287832294444
9754.524797740556,8898.497688591206,18152.946907633177,-719.1226743605941
9386.928008428577,8915.082682977043,17044.680362305684,-1200.2886772499892
9649.471598800612,8921.274116191164,17291.37656585891,-915.9744877784834
10126.927212110426,8901.649284559404,18515.58160967608,-346.65320475735723
10151.402372288989,8887.500630319195,18977.79333326737,-282.6825121262684
9747.707515681686,8895.033168200633,18145.861404640844,-730.4326570549795
9382.547066515335,8912.892212020422,17034.17504241169,-1210.8387006328942
9650.745648234564,8924.068084248076,17277.071449407515,-924.7363716049638
10124.33440975361,8903.146851437908,18495.107411755016,-356.80089674006666
10152.2964420672,8891.881572232434,18962.70590576004,-284.04596853804213
9758.391649531324,8907.23722067323,18146.062570340942,-719.5473575052449
9393.789993976354,8925.655058104403,17039.427702358687,-1197.2935434929782
9659.552235549956,8934.752218097714,17284.55928380004,-914.4322174110672
10134.347991269588,8916.200270199808,18504.13751651496,-346.5861495239913
10165.260453851277,8903.727996793747,18972.71948727602,-274.18884923325174
9766.93001591325,8911.551107353105,18154.64564021178,-712.350095790636
9399.62379927919,8927.420845916373,17050.536519352976,-1191.6162004013302
9660.982747195096,8934.461645419795,17290.370737358422,-909.7383510754528
10133.90095638048,8910.9029067639,18502.550542658635,-344.0827541449969
10161.572416016152,8899.548220580606,18969.277318629905,-272.37835793237184
9763.443143778222,8912.176956197853,18149.4823872426,-709.064389355706
9400.09318591275,8938.44025593284,17044.03216171648,-1184.2401247310788
9664.87195073032,8950.666660149893,17280.826542476003,-899.2106794370031
10143.445151262898,8932.517043652182,18496.649682122432,-331.18579759428474
10171.63070102104,8924.872747048468,18963.53292030489,-260.1743054597742
9769.70163222571,8935.020439031177,18143.29095402848,-700.8612991406083
9403.177726647584,8952.00776481721,17035.18087091218,-1179.9038863067492
9668.828209498908,8956.612224175004,17273.60692901694,-895.8355660242518
10140.96410762836,8926.035037760144,18483.998594760727,-332.8398266839775
10170.58016903164,8914.948572510311,18952.49115854397,-261.3142444269949
9770.014556648082,8921.363523168984,18130.796328877965,-701.3083340297144
9404.898810970642,8933.880500063957,17023.55796379542,-1179.300389206456
9669.141133921285,8938.753180355214,17263.772161456607,-897.6237055806763
10146.976726886836,8907.684255562337,18485.652623850423,-331.275204572106
10182.001910448304,8889.087604175522,18964.359934849734,-256.57567460246975
9784.520838799575,8887.970016952755,18146.35314301886,-699.8778223845748
9419.20392742204,8904.040921216121,17037.79602501345,-1182.004950285548
9679.19941892617,8913.0039707427,17272.511693538632,-898.8083480368076
10166.020413162758,8896.62014205696,18500.27066472419,-318.82528291049994
10200.240933923831,8882.605598283482,18977.23453965599,-243.32109014047268
9798.64714129533,8890.607522798482,18156.299669301472,-688.5231362012787
9431.452683383546,8911.886383519934,17043.830996016382,-1171.0302437579924
9694.219791200136,8920.223584201764,17274.90333019535,-892.6392665671428
10172.457715565886,8900.799918270102,18496.403812933426,-322.60272772344683
10204.152489203512,8897.514211835172,18974.239405898978,-246.02565121956485
9805.17385067628,8913.339246909529,18154.936212889697,-687.3608454896028
9431.564442105824,8933.858148319501,17039.293591891957,-1172.6619211032298
9689.4365178867,8949.839645605045,17263.16866435631,-895.3661793906903
10168.501456797298,8935.556880898104,18481.94223427084,-324.36851553541607
10197.961055989392,8923.9563255258,18961.43185632609,-252.2170844336849
9797.641312794842,8933.969907041777,18143.000381350565,-691.965304847396
9430.223337438503,8958.042735820143,17031.17990865468,-1171.0302437579924
9686.01670098504,8970.939692370855,17258.206577087232,-897.0649119692937
10167.517980041264,8955.62874741897,18482.433972648854,-324.72614344670103
10199.190401934437,8941.837721090045,18964.002306938448,-246.91972099777712
9801.441109352245,8952.119523539486,18150.532919232,-684.7680431327872
9428.926936260095,8972.526666227182,17033.92917322268,-1169.0856419903805
9686.642549829789,8982.339082043061,17255.010277630125,-898.5177753588886
10165.595730018107,8961.954291099823,18466.85480676351,-334.7844284515892
10201.470279868876,8947.090381037044,18948.266678841912,-258.1626484587966
9802.17871691927,8951.896006094934,18143.87209938432,-693.127595559072
9430.8268345388,8971.409079004417,17028.207126642123,-1174.941799037671
9691.470526632134,8982.562599487615,17245.756655425626,-899.568307348288
10168.926139941948,8957.327479997573,18455.008382202195,-329.6658789713239
10202.274942669266,8942.95530831281,18936.487309513966,-251.72534605566813
9814.069844969494,8956.500465452727,18137.72536965911,-682.4434617094353
9443.00853526694,8974.314805783606,17021.322789349888,-1169.5103251350315
9703.16048898226,8986.094175111553,17243.052094346534,-894.2709439123803
10181.152544159002,8962.267215522197,18459.21051015979,-325.6425649693686
10217.295314943232,8945.458703691806,18946.70205673004,-245.91389249728832
9824.686923585765,8955.360526485507,18144.49794822907,-676.9672843178851
9451.39043943768,8970.939692370855,17029.123548164793,-1163.7659268100176
9709.128404751827,8978.136954085465,17248.148292082347,-890.0688159547825
10194.049500709712,8958.892102109445,18466.51953059668,-315.9419078757653
10230.169919749487,8945.928090325368,18949.85365269824,-234.55920631399232
9835.482816157675,8961.015517832699,18142.9333261172,-666.998406290818
9463.01334655444,8987.614093734515,17029.637638287262,-1150.0196039700036
9713.68816062071,8994.409024048928,17243.722646680195,-883.3632926181904
10189.243875651822,8971.230265048775,18455.611879302487,-314.44434099725976
10223.93378304646,8957.416886975394,18942.61168749472,-230.78176150104545
9825.84921429744,8968.212779547308,18135.758416147044,-664.159734744994
9446.96479403553,8990.519820513704,17016.07012940289,-1152.5677028379089
9700.321817436436,9007.127166643997,17230.51276570711,-880.636379794643
10175.944587700917,8989.223419335296,18451.09682692252,-307.20237579374026
10215.17189921998,8983.63548322147,18948.780768964385,-218.37654332835
9821.445920639744,8998.387634561972,18141.92749761671,-651.195722960916
9449.892872559176,9023.153367418452,17021.03221667197,-1137.837903241861
9700.902962792274,9035.111550702042,17231.987980841157,-871.5615715457883
10178.068003424169,9016.02316093721,18455.03073394665,-301.4803292131817
10214.54605037523,9004.713178242824,18949.58543176477,-219.9635171846768
9817.579068848976,9019.7782540057,18146.26373604104,-654.9508160294075
9445.668392857122,9045.259242684751,17025.61432428531,-1141.883568988272
9698.556029624466,9056.390411423494,17235.519556465097,-875.182554147548
10180.638454036529,9036.005620480257,18457.80235025911,-299.4910239566593
10221.45273941192,9023.175719162908,18955.955678934537,-212.43097930323836
9825.044551497049,9031.490568100282,18156.724352446123,-643.8867025240305
9449.19996848106,9048.008507252754,17038.310115135922,-1130.2606618715122
9700.992369770094,9054.64697535598,17247.723608937697,-863.9619784309839
10179.63262553604,9029.724780288314,18468.57589108657,-291.62320990839123
10224.78314933576,9019.55473656115,18971.110161675235,-205.2784210775401
9833.292345201058,9024.092140685576,18168.906053174265,-641.2268449338491
9460.934634320098,9044.11930371753,17050.2235949306,-1128.8077984819172
9714.87280307684,9059.497303902785,17256.79841718655,-862.5761702747549
10194.563590832186,9037.74905654777,18466.4077718744,-292.1820035197739
10232.762722106305,9019.510033072238,18962.99647843796,-207.73711296762383
9839.908461559828,9028.651896554458,18167.944928162688,-635.8847780090306
9466.20964601155,9052.8364840551,17045.865004761818,-1121.4317228116658
9714.604582143376,9061.441905670394,17246.002524614636,-854.797763204308
10194.071852454168,9041.347687405072,18459.858710749,-280.2014684917293
10235.221413996387,9035.178605935407,18960.13545514768,-191.55444998198152
9845.85402558494,9053.439981155394,18169.55425376347,-615.5893940436118
9465.986128566996,9073.265978487252,17039.76297852552,-1109.6747052281744
9711.900021064284,9085.827658871134,17234.22315528669,-850.2156555909701
10195.368253632576,9071.70135637538,18447.69936176531,-273.6524073663244
10241.323440232689,9061.531312648214,18951.32886783229,-184.1560225672749
9850.95022332075,9068.706222618368,18158.333678046904,-617.0199056887515
9469.696518146577,9085.268865259752,17037.88543199127,-1111.3063825734118
9717.890288578306,9098.925781121943,17237.978248355183,-846.1252863556489
10197.983407733847,9077.959844822866,18446.69353326482,-273.406538177316
10239.110617531613,9057.59740562408,18950.45714979853,-190.30275229248437
9848.4244761973,9066.51575166175,18161.194701337183,-615.4329318324246
9472.423430970124,9088.42046122795,17036.70078953514,-1104.1761760921688
9720.192518257203,9096.37768225404,17229.864565117903,-846.4158590335678
10199.056291467705,9073.333033720615,18442.491405307224,-272.9595032882099
10242.731600133371,9062.26892021524,18945.428007296086,-182.99373185559887
9852.917176832816,9073.780068609723,18152.49987274407,-611.4096178304694
9473.541018192893,9094.36602525306,17026.396635341243,-1103.192699336135
9717.15268101128,9105.0501591027,17220.07450104648,-844.8512369216963
10199.615085079084,9089.627455428536,18434.35537032549,-271.5289916430702
10249.75004789234,9086.408804226972,18945.31624857381,-173.87422011783363
9852.738362877177,9096.176516553942,18145.72729417411,-608.1239113955393
9472.043451314385,9118.058874375689,17021.255734116523,-1105.0925976148364
9716.705646122176,9134.353296083606,17211.960817809202,-845.0300508773388
10202.029073480258,9122.037484888731,18427.873364433453,-264.5775991174697
10249.057143814223,9113.879098162544,18937.806062436823,-169.24740901558508
9856.76167687913,9126.172557612965,18148.32009653093,-597.0597978901623
9476.69261416109,9152.726430025868,17019.914629449206,-1092.9332486311494
9719.007875801071,9168.372651144582,17207.02108228458,-832.6918879380094
10197.514021100284,9147.38436310105,18417.85978291748,-260.64369209333563
10245.391457723554,9139.293031608227,18930.29587629985,-168.3309874929175
9857.85691235744,9161.756534785813,18139.62526793781,-598.5573647686679
9472.87046585923,9183.080098996175,17002.50262051852,-1099.88464115675
9716.280962977526,9196.53584915827,17189.296148931524,-841.0290886198388
10202.699625813915,9179.995558261342,18411.668349703355,-260.71074732670155
10248.543053691752,9168.417354633491,18923.232725051967,-170.40969972726106
9862.99781358216,9181.224904206383,18136.29485801397,-597.7527019682768
9482.6381781862,9198.48045092588,17005.78832695345,-1096.0848445993477
9724.5958119149,9189.495049654848,17186.658643085797,-843.666594465565
10207.72876831636,9160.974223729876,18403.59936995499,-267.7068433412127
10257.416696240509,9155.833322505156,18923.50094598543,-169.0015398265767
9870.150371807858,9170.317252912197,18137.613610936834,-591.5165652652461
9488.561390466855,9196.669959625002,17006.59298975384,-1085.7806904054512
9728.105035794382,9216.11597730112,17187.12802971936,-831.5743007152439
10208.22050669438,9200.96149456042,18399.732518164223,-255.4357356352491
10259.093077074656,9198.189878247962,18920.14818431713,-155.67990013121369
9874.508961976644,9218.373503491104,18140.54168946048,-575.423309257425
9496.630370215222,9246.581404993702,17013.432623557168,-1066.5581901738872
9737.49276846561,9263.993413924389,17194.995843767625,-812.1729865280374
10222.011533023302,9250.470608528924,18408.583808968524,-233.2628051355845
10271.2747778028,9243.519216003326,18925.93728613106,-137.0385452554876
9884.38843302589,9261.467666800936,18148.58831746439,-561.2075997838497
9504.319370307849,9294.481193361426,17023.289742861958,-1053.4824196675324
9743.68420167973,9313.815452315266,17204.428279927764,-801.6229631451325
10222.92795454597,9296.716367806956,18411.824811914543,-229.32889811145048
10276.527437749795,9290.904914248576,18927.859536154217,-129.7518765630575
9891.831563929509,9308.875716790642,18152.701038444167,-550.6352246564895
9507.046283131396,9338.245909004916,17023.22268762859,-1056.5446086579095
9746.5005214811,9364.62096746218,17200.20380022571,-809.3119632377582
10232.78507385076,9356.172008058073,18413.21062007077,-232.88282547984429
10282.003615141346,9356.75315341391,18934.3191903018,-138.37964992280604
9889.596389483975,9386.771546217387,18153.013962866546,-561.4758207173135
9505.63812323071,9426.803520536843,17018.50646954852,-1058.109230769781
9750.07680059395,9459.772343608422,17196.1581344793,-800.639486389099
10234.014419795802,9452.306860960349,18408.516753735155,-224.61268003138068
10284.50701052034,9449.19996848106,18929.871193155195,-132.16586496423065
9897.374796554424,9465.717907633532,18145.21320405164,-560.7382131502883
9516.098739635794,9491.847096901787,17009.208143855114,-1057.1034022692922
9746.567576714466,9500.20664932807,17180.06487847148,-811.9494690834844
10226.347771447632,9475.664433916145,18387.528465691623,-242.82935176245596
10278.427336028495,9469.093021046285,18915.387262748158,-143.7440685920797
9889.61874122843,9489.678977689622,18137.25598302555,-567.3096260201486
9514.668227990654,9522.491338550011,17007.621169998787,-1059.6738528816525
9752.64725120631,9539.5010160805,17183.529398862054,-807.5461754257889
10241.949289077436,9524.905326951186,18406.616855456454,-226.40081958780524
10300.332045594698,9522.334876338826,18945.025675895893,-120.2747369140073
9910.696436249786,9540.484492836536,18165.50858801706,-542.0745065301069
9529.554489797889,9568.200655961116,17025.32375160739,-1034.617547347253
9768.606396747398,9579.689452611145,17192.224227455168,-783.7862710697974
10249.07949555868,9556.287176166436,18402.772355410143,-207.24537458960708
10298.856830460649,9544.396048116214,18938.387207792664,-104.7849780064795
9909.444738560289,9561.27161517997,18161.59703273738,-531.6138901250232
9521.93254493863,9583.288083468447,17016.517164292,-1038.953785771583
9761.319728054968,9592.09467078384,17183.037660484035,-794.4480531749789
10248.1183705471,9564.624376848267,18402.99587285469,-215.2025956156964
10298.253333360355,9549.045210962917,18931.97225713399,-116.1620159342308
9914.138604895905,9564.84789429282,18156.746704190577,-537.782971594688
9525.911155451677,9587.646673637231,17019.042911415447,-1034.0364019914152
9758.12342859786,9597.6155516643,17187.440954141734,-782.7133873359427
10245.994954823847,9577.633092121256,18403.711128677267,-201.45627277568252
10301.471984561918,9567.41834490518,18935.79440543585,-102.75096926104656
9919.212450887258,9588.741909115544,18161.77584669302,-524.8860150439757
9535.947088712108,9619.117929830303,17027.581277797377,-1024.0228204754378
9764.31486181198,9633.892432915263,17188.91616927578,-784.3003611922695
10244.49738794534,9619.877889141786,18401.69947167629,-208.96645891266573
10297.694539748973,9614.245249539048,18938.61072523722,-102.8627279833231
9915.30089560758,9634.294764315458,18174.31517533245,-520.1697969639059
9528.101626408295,9659.48518031659,17038.310115135922,-1022.5699570858428
9764.203103089703,9676.047822957971,17206.97637879567,-777.1478029665712
10247.626632169084,9656.422991326212,18415.93753289432,-199.3999122857943
10302.209592128944,9649.382191822791,18947.46201604152,-97.23008838058573
9926.25325039068,9672.180971167203,18182.898245203287,-510.31267765911554
9541.289155636923,9698.936009280207,17044.009809972027,-1010.1647389131474
9773.724946227663,9709.106053007372,17201.231980470657,-771.0010732413618
10259.65187068604,9692.63281734381,18407.287407790114,-193.23083081612955
10315.888859735593,9681.72516604962,18940.39886479364,-87.64119000925899
9928.019038202649,9690.4870498761,18168.92840491872,-507.9210410023977
9541.825597503854,9712.056483275472,17033.5715453114,-1008.466006334544
9776.809486962497,9719.566669412456,17192.760669322095,-764.2508464158591
10262.535245720774,9694.376253411325,18397.810268141064,-190.41451101476088
10316.313542880243,9677.277168903014,18930.69820770004,-94.16789939020866
9932.802311516083,9691.604637098866,18163.385172293805,-516.9287940178864
9551.638013319733,9716.996218800095,17028.251830131034,-1015.5291575824212
9785.280798111058,9724.3946462148,17186.949215763714,-772.833916286697
10266.737373678372,9698.466622646643,18396.78208789612,-197.67882796273565
10321.387388871595,9686.083756218404,18933.335713545766,-97.1406814027645
9938.345544141,9701.461756403656,18164.39100079429,-516.3700004065038
9553.336745898336,9730.966059084662,17025.971952196593,-1013.115169181248
9786.778364989565,9740.577309200444,17183.35058490641,-771.0010732413618
10271.542998736262,9717.35384671138,18399.486648975213,-189.8110139144676
10329.255202919863,9706.379140183824,18942.83520493927,-80.82390795039034
9941.564195342564,9719.186689756714,18171.364745064348,-501.3272763880821
9552.755600542498,9744.332402268936,17029.101196420335,-1004.5768027993206
9783.805582977007,9754.725963440653,17178.187331937235,-764.0720324602166
10269.643100457562,9732.933012596728,18391.529427949125,-182.926676622233
10334.28434542231,9731.860128862874,18946.165614863112,-70.36329154530664
9947.934442512327,9753.049582606503,18178.003213167576,-493.1912414063504
9555.773086043964,9782.93386494325,17033.683304033675,-995.8149189728402
9782.531533543057,9796.836649994451,17182.903550017305,-755.0866311891832
10271.855923158637,9775.93776892874,18393.87636111693,-174.52242070703755
10331.825653532223,9756.64821346381,18931.257001311424,-70.49740201203848
9947.174483200846,9749.40624826029,18166.804989195465,-488.9891134487526
9558.07531572286,9738.319783010458,17028.18477489767,-988.3941398136784
9787.001882434117,9678.707680548154,17180.176637193756,-747.5987967966553
10272.057088858735,9583.33278695736,18386.96967208024,-172.62252242833645
10334.798435544782,9489.142535822695,18929.96060013301,-69.69273921164742
9951.577776858545,9392.135964886662,18168.57077700744,-484.1611366464063
9566.18899896014,9277.247998386383,17028.43064408668,-983.9014391781616
9796.166097660793,9177.022776248788,17174.611052824384,-744.6707182730102
10283.881161675592,9070.382603452515,18387.48376220271,-169.24740901558508
10342.308621681765,8986.340044300561,18939.705960715528,-63.07662285287653
9962.507779897189,8929.991296528733,18187.63681502781,-477.3215028430823
9576.627263620769,8894.675540289349,17050.98355424208,-980.5933809987762
9803.60922856441,8846.529882732617,17198.683881602752,-743.7766484947978
10292.196010612966,8772.366794629908,18405.186343811318,-160.10554553336448
10357.686621867017,8712.44176774523,18952.13353063268,-48.70445116811409
9978.958663816293,8683.540962164518,18195.281111631528,-463.0387381361411
9585.187981747147,8668.073555001445,17050.290650163966,-972.2561803169466
9808.906592000318,8643.777208778525,17190.83841929894,-740.2003693819487
10297.42631881551,8590.021263363513,18393.183457038816,-159.1667722662416
10355.540854399307,8545.965975042101,18938.05193162584,-52.772468658979975
9978.01989054917,8540.065114505902,18186.40746908277,-466.74912771572207
9591.111194027806,8548.111742509811,17046.46850186211,-969.1492878376588
9815.410949636813,8532.666687091194,17185.675166329762,-738.5239885478006
10297.56042928224,8482.621131255763,18391.440020971306,-164.26297000205162
10359.899444568093,8451.060468084868,18944.69039972906,-53.73359367055818
9979.562160916586,8452.692145430106,18191.61542554086,-466.68207248235615
9587.08788002585,8459.129447833235,17050.156539697236,-973.5525814953544
9811.365283890402,8449.540549461908,17193.140648977835,-741.317956604714
10295.347606581165,8406.669903596629,18399.620759441943,-159.74791762207957
10360.480589923927,8378.529057327398,18954.100484144747,-43.787067387946536
9982.93727432934,8379.199609661056,18200.55612332298,-452.4216595198703
9593.771051617989,8387.51445859843,17058.024353745503,-953.9053981191396
9820.66360958381,8379.1772579166,17195.621692612374,-721.7601802063203
10307.350493353664,8341.402809787132,18406.84037290101,-143.6770133587138
10368.214293505464,8315.228917029968,18960.26956561441,-34.153465527709194
9982.512591184688,8310.713864649995,18198.85739074437,-453.203970575806
9590.150069016228,8321.889736877649,17050.08948446387,-957.2581597874356
9814.047493225038,8318.984010098458,17186.88216053035,-724.3306308186807
10305.51765030833,8283.578846881253,18401.051271087083,-139.45253365666076
10369.734212128427,8252.465218599466,18954.74868473395,-29.07961953635449
9985.150097030411,8246.542006318808,18190.140210406807,-450.074726352063
9598.800194120431,8260.78006753684,17041.662876804217,-954.9335783640836
9822.69761832924,8255.01331746737,17173.940500490728,-724.867072685608
10310.837365488693,8214.377846047622,18389.5401226926,-145.2416354705853
10373.019918563356,8188.76274690184,18950.41244630962,-37.19330277363096
9995.387195990945,8190.975569602915,18198.47741108864,-450.7452786857222
9607.360912246811,8200.542116229786,17053.33048740989,-954.732412663986
9831.504205644633,8193.94835161547,17186.837457041438,-725.0235348967952
10321.096816193678,8155.033964518781,18401.11832632045,-144.8169523259345
10383.279369268344,8127.630725816575,18954.860443456226,-36.81332311789073
10006.205440307313,8128.055408961226,18202.344262879404,-453.2263223202613
9610.445452981648,8135.699705564941,17050.84944377535,-962.7343371789858
9832.37592367839,8133.822159030696,17178.388497637334,-732.9137006895186
10322.348513883177,8102.529716793266,18394.144582050398,-148.54969364997075
10385.983930347436,8079.797992682218,18955.262774856423,-38.19913127411977
10009.960533375805,8085.02830088476,18208.93802749372,-448.3312902845491
9619.989647864062,8105.256629616813,17061.89120553627,-951.0443748288602
9836.28747895807,8101.4121295705,17181.98712849464,-723.1459883625494
10321.789720271794,8066.163428564481,18381.67230864433,-142.1123912468423
10392.242418794922,8048.058515555682,18947.819643952804,-23.89401482272325
10018.364789291,8054.898149359006,18206.85931525937,-430.3157842535716
9623.47651999909,8071.237274555836,17056.079751977893,-935.442857199056
9841.94247030526,8071.237274555836,17178.232035426146,-705.7339794318652
10327.355304641163,8037.016753794761,18381.64995689988,-123.7616090490352
10392.555343217296,8032.009963036771,18944.869213684706,-6.526709380949662
10017.26955381269,8054.138190047525,18202.388966368315,-418.24584224770575
9626.069322355905,8072.958358878895,17053.91163276573,-927.9103193176174
9843.887072072874,8070.700832688908,17175.25925341359,-702.8282526526752
10328.986981986402,8039.028410795738,18373.893901573887,-123.7169055601246
10399.350273531709,8026.913765300962,18942.65639098363,-2.6598575901815407
10025.338533561056,8043.945794575906,18207.529867593035,-409.37219969894886
9630.450264269146,8065.448172741912,17059.09723747936,-925.18340649407
9849.072676786504,8072.153696078503,17176.73446854764,-703.1635288195049
10336.631278590115,8044.571643420654,18378.52071267613,-119.89475725826708
10407.955695147002,8028.076056012637,18947.327905574788,-1.8998982787011005
10032.155815619924,8029.864195569062,18206.16641118126,-415.6530398908901
9635.501758516046,8038.000230550794,17051.832920531382,-936.0687060438044
9855.08529604498,8059.681422672442,17167.503198087597,-712.3724475350914
10346.890729295104,8108.832908729662,18375.54793066358,-126.42146663921676
10410.704959715003,8141.578214356687,18943.46105378402,-8.51601463747199
10030.524138274686,8163.549979156253,18199.147963422296,-423.0961707945074
9642.34139231937,8183.152459043558,17047.295516406957,-930.3690112077012
9860.740287392176,8181.47607820941,17166.765590520572,-701.9788863633736
10340.833406547716,8145.310955680723,18371.949299806274,-127.38259165079496
10410.324980059264,8131.564632840709,18942.38817005017,-12.226404217052965
10036.290888344156,8144.059257991226,18200.6455303008,-419.6316504039348
9645.135360376282,8166.500409424354,17052.056437975938,-924.9375373050616
9861.164970536824,8177.788040374285,17167.905529487794,-706.9409736324518
10349.505883396374,8147.054391748237,18371.971651550728,-130.1318562187977
10415.309419072795,8125.864938004606,18941.09176887176,-13.791026328924458
10041.632955268977,8132.928089252483,18199.282073889022,-423.9902405727197
9649.6280610118,8152.061182506226,17046.870833262306,-932.6488891421424
9865.121229305414,8153.111714495625,17165.49154108662,-707.8797468995747
10358.446581178498,8124.724999037386,18380.822942355037,-121.01234448103244
10430.39684658013,8106.061292417204,18955.64275451216,-3.822148301857508
10050.819522240106,8114.376141354578,18212.87193451785,-418.91639458136495
9650.76799997902,8132.391647385556,17058.873720034804,-932.7159443755085
9866.507037461644,8135.677353820486,17173.35935513489,-707.2762497992813
10355.697316610494,8105.614257528098,18380.59942491048,-121.97346949261065
10425.166538377587,8089.833925942651,18955.866271956715,-2.2351744455307063
10052.160626907424,8100.518059792288,18223.623123600857,-407.3605426979712
9664.447267585669,8123.540356581254,17073.335298697388,-914.27575519988
9877.884075389396,8127.362504883112,17185.563407607486,-693.0605403257061
10364.883883581626,8096.181821367958,18387.97550058073,-113.9491932331554
10430.866233213692,8074.724146690864,18957.65441151314,-0.0447034889106141
10057.793266510162,8081.988463638839,18218.526925865048,-414.13312126792925
9659.552235549956,8099.914562691994,17055.69977232215,-928.022078039894
9878.889903889883,8104.69783600543,17160.261232884077,-701.1518718185273
10367.029651049335,8074.590036224132,18364.975555536217,-111.55755657643756
10437.370590850183,8052.171236535459,18941.40469329413,5.900860536201065
10068.2762346597,8062.028355840249,18207.08283270393,-400.5656123835579
9675.690195046687,8079.127440348559,17052.95050775415,-913.18051972157
9887.920008649828,8078.121611848071,17161.557634062487,-695.675694426977
10371.343537729208,8049.846655112106,18361.06400025654,-113.6362688107811
10441.2150908965,8034.289840971213,18934.587411235265,6.23613670303067
10072.031327728191,8044.1469602760035,18207.7980885265,-398.3080861935719
9673.835000256897,8060.799009895207,17058.00200200105,-913.4487406550336
9883.874342903417,8071.773716422763,17165.402134108797,-697.352075261125
10369.66715689506,8058.362669749578,18365.333183447503,-116.83256826789
10437.258832127907,8038.8048933511855,18941.002361893938,3.531575623938516
10068.74562129326,8046.359782977079,18210.70381530569,-397.7939960710998
9675.489029346589,8065.202303552903,17058.60549910134,-914.8345488112628
9887.987063883194,8064.509399474789,17162.339945118423,-701.8224241521865
10376.104459298189,8030.847672325096,18360.929889789808,-119.17950143569726
10446.713620032504,8007.735968558308,18936.017922880405,-0.9164215226675896
10070.779630038694,8011.826337793629,18203.528905335537,-409.7521793546891
9675.86900900233,8031.227651980836,17049.1730629412,-925.5410344053548
9890.490459262188,8037.284974728224,17150.985258935125,-708.9749823778848
10383.748755901905,8006.372512146535,18357.510072888144,-120.9005857587559
10457.151884693132,7987.127660170515,18942.634039239176,6.638468103226198
10081.28494993269,7988.155840415459,18212.17903043974,-398.3080861935719
9680.406413126757,7998.102366698071,17053.933984510182,-914.0298860108716
9891.183363340302,7996.291875397191,17155.746180504106,-698.0673310836949
10387.570904203762,7969.939168684384,18364.953203791763,-108.897698986256
10462.69511731805,7946.358078284035,18948.08786488627,13.99219202902222
10088.750432580762,7950.917834152918,18213.05074847349,-394.88826929190986
9693.660997588757,7967.994566916772,17054.582185099385,-911.4817871429668
9905.95786642526,7973.850723964063,17156.26027062658,-697.0615025832061
10392.018901350368,7946.156912583937,18357.621831610424,-116.31847814541796
10467.88072203168,7929.571918198099,18944.958620662524,12.293459450418885
10097.735833851795,7932.991735099761,18219.443347387714,-386.1487372098848
9692.878686532818,7942.938261382373,17056.593842100363,-899.0542172258159
9899.3864535554,7945.508711994734,17156.550843304496,-685.1703745329827
10395.930456630049,7919.625391915488,18369.75882884965,-97.90064071424491
10468.283053431876,7899.978208539273,18954.078132400293,28.587881158337733
10090.605627370553,7903.107452763016,18218.191649698216,-379.5549725955692
9693.795108055489,7913.3669034680015,17055.81153104443,-899.3224381592796
9907.991875170694,7911.154080766926,17155.92499445975,-687.8525838676195
10391.683625183538,7874.65368207141,18359.45467465576,-104.65086753974768
10463.030393484878,7849.284452114636,18943.95279216204,18.753113598002624
10085.352967423554,7852.592510294022,18211.530829850537,-388.5850773555133
9690.196477198182,7868.953987235307,17057.532615367487,-899.9706387484836
9907.321322837037,7877.402946639413,17162.67522128525,-677.9060575850079
10403.373587533664,7851.765495749176,18370.49643641668,-86.23303010857465
10484.912751306623,7837.214510108771,18963.64467902716,43.89882611022307
10117.71829339484,7844.210606123282,18244.253783733104,-355.7727164951225
9719.745483368097,7857.688708029832,17082.566569157432,-874.0426151803274
9924.040427689604,7855.051202184106,17173.806390023994,-662.6398161220332
10414.102424872211,7822.238841323715,18374.54210216309,-79.14752711624232
10489.003120541944,7795.774375888632,18955.709809745527,39.85316036381249
10115.058435804658,7799.060082323562,18222.88551603383,-366.99329221168665
9718.91846882325,7819.489576755712,17064.19343521517,-882.9386094735396
9933.472863849744,7826.217451836759,17156.10380841539,-671.4240516929689
10423.44545405453,7795.841431121998,18349.217575695227,-89.38462607677295
10497.183859012588,7771.321567454525,18931.32405654479,34.5110934389941
10126.279011521225,7773.467334922235,18209.161544938277,-366.5462573225805
9729.40143697279,7786.811326362053,17053.241080432068,-879.2505716384139
9938.502006352188,7790.54406768609,17144.927936187738,-667.870124324575
10426.597050022729,7762.135000483394,18343.696694814767,-87.12709988678694
10502.615332915228,7742.733686296187,18930.385283277665,37.46152370709464
10132.805720902172,7746.846407275964,18209.429765871737,-360.26541713063926
9737.850396376896,7764.906616795853,17054.448074632655,-869.2369901224364
9945.654564577886,7768.192323230783,17147.96777343366,-660.8516765656086
10435.850672227223,7740.900843250853,18349.999886751164,-79.23693409406354
10515.489937721484,7722.594764541956,18941.04706538285,46.80455288941299
10143.467503007354,7728.182700655783,18218.03518748703,-352.4646583157371
9741.583137700933,7741.10200895095,17053.91163276573,-866.3312633432464
9952.449494892298,7745.661764819833,17149.53239554553,-649.4522868934021
10443.047933941834,7714.078749904484,18352.32446817452,-64.52948624247149
10516.406359244153,7690.520011248591,18942.07524562779,59.27682629547433
10146.507340253274,7697.672569474289,18216.872896775352,-345.02152741211984
9749.920338382764,7711.038912658562,17055.006868244036,-865.2360278649364
9955.623442604952,7712.000037670141,17139.76468321856,-661.097545754617
10445.663088043106,7679.388842509848,18342.69086631428,-79.16987886069762
10518.37331275622,7652.812618352487,18930.36293153321,48.413878490195096
10145.43445651942,7656.165380020783,18204.400623369293,-348.84367571397735
9743.080704579435,7667.475362715169,17042.445187860154,-868.4993825554112
9949.58847160202,7667.274197015071,17131.33807555891,-660.6505108655108
10441.773884507882,7636.048810011007,18339.181642434796,-75.05715788092111
10520.474376735016,7612.311257399471,18930.13941408866,48.816209890390624
10146.44028501991,7613.920583000253,18202.903056490788,-358.5219810631253
9747.282832537036,7623.732998816133,17036.209051157126,-882.9609612179948
9958.551521128598,7626.817539550965,17122.129156843326,-674.486240683346
10451.698059046035,7595.659207780267,18332.63258130939,-87.95411443163329
10526.039961104389,7572.078117379919,18923.970332618992,33.16998877167568
10157.81732294766,7582.471678551636,18201.31608263446,-370.3013503910721
9760.35860304339,7605.203402662683,17041.729932037586,-882.4021676066122
9965.614672376476,7607.9526672306865,17126.018360378548,-673.6815778829549
10457.040125970856,7580.571780272935,18333.101967942952,-89.11640514330927
10538.311068810352,7565.864332421343,18927.79248092085,39.71904989708065
10169.842561464617,7572.189876102195,18207.55221933749,-360.5783415530136
9768.762858958586,7591.099451911385,17048.256641418535,-873.4167663355788
9971.336718957034,7598.02849269253,17129.57228774694,-663.1986097334159
10457.64362307115,7567.093678366385,18331.35853187544,-74.6995299696362
10533.46074026355,7545.568948455924,18931.234649566966,56.19228556064196
10166.847427707604,7555.247253805072,18218.437518887225,-342.4510767997595
9768.852265936406,7573.26275983605,17061.064190991427,-857.3011585833024
9972.275492224157,7575.967320915141,17148.3477530894,-646.4571531363908
10457.800085282335,7544.92074786672,18343.96491574823,-63.27778855297429
10535.405342031165,7524.088922034374,18940.46592002701,64.52948624247149
10165.416916062464,7527.888718591776,18226.730016080142,-337.44428604177074
9766.371222301868,7545.837169389388,17063.656993348242,-857.0776411387493
9972.208436990792,7554.7778671715105,17146.559613532976,-651.419240405469
10461.465771373008,7530.056837803941,18344.97074424872,-70.49740201203848
10542.803769445867,7510.9237445501985,18942.209356094525,60.37206177378437
10176.101049912102,7517.293991719961,18226.238277702127,-336.84078894147746
9775.513085784089,7534.080151805896,17061.354763669344,-855.4459637935119
9984.88187609695,7541.344468753871,17145.419674565754,-647.6864990814328
10476.441440158063,7513.047160273452,18343.696694814767,-61.93668388565587
10556.415981819153,7493.511735619514,18940.778844449385,66.85406766582342
10191.009663463792,7500.731349078578,18225.56772536847,-336.01377439663105
9790.913437713794,7516.802253341944,17059.85719679084,-857.5470277723108
9996.773004147171,7522.099616777852,17144.033866409525,-648.4464583929132
10484.622178628704,7490.382491395771,18345.77540704911,-65.24474206504132
10562.741525500003,7468.298967873928,18945.11508287371,65.44590776513908
10192.239009408831,7473.037537698453,18222.639646844826,-336.1925883522735
9792.098080169926,7491.276561173983,17053.576356598896,-856.831771949741
9997.93529485885,7496.439814143159,17137.127177372837,-646.9488915144076
10489.941893809068,7469.841238241343,18344.188433192783,-56.95224487212239
10573.068031438355,7456.161970634695,18947.59612650825,78.61108524931494
10206.052387482214,7462.33105210436,18229.41222541478,-319.18291082178484
9802.424586108278,7472.836371998355,17060.974784013604,-840.380888030635
9998.44938498132,7467.181380651162,17134.48967152711,-642.8361705346312
10490.299521720352,7437.542967503425,18342.601459336456,-54.40414600421739
10563.412077833662,7415.571202703858,18936.733178702973,70.78797468995747
10198.273980411766,7426.322391786861,18220.0021409991,-328.7047539597457
9794.93675171575,7441.499226272014,17049.03895247447,-851.0426701358164
10003.545582717132,7449.858778698299,17128.007665635072,-646.613615347578
10498.144984024166,7427.283516798439,18335.605363321945,-55.02999484896599
10576.309034384374,7411.145557301707,18936.08497811377,76.28650382596301
10207.773471805272,7419.549813216903,18220.87385903285,-325.6425649693686
9807.498432099634,7436.447732025115,17055.073923477405,-848.6957369680092
10014.341475289044,7442.974441406065,17130.086377869415,-645.4513246359021
10513.41122548714,7416.84525213781,18340.545098846567,-52.236026792052606
10595.419775893664,7395.8793158387325,18945.852690440737,78.70049222713617
10226.615992381096,7402.294266497406,18228.13817598083,-325.6425649693686
9831.23598471117,7424.131920830241,17061.53357762499,-845.8570654221852
10031.194690608349,7429.585746477336,17133.90852617127,-645.2948624247149
10522.977772114013,7403.054225808886,18338.82401452351,-56.12523032727604
10603.28758994193,7382.289455209906,18943.46105378402,76.84529743734568
10229.186442993456,7383.7870220884115,18224.02545500105,-325.82137892501106
9828.531423632076,7399.1650222736625,17056.079751977893,-848.4051642900902
10031.641725497451,7404.931772343132,17129.237011580113,-649.3181764266702
10523.80478665886,7377.260312707462,18331.20206966425,-62.11549784129833
10603.19818296411,7357.881350264711,18936.46495776951,68.15046884423123
10234.953193062924,7365.279777679418,18224.584248612435,-331.49872201665903
9834.56639463501,7381.417737176149,17058.38198165679,-847.1311148561376
10033.541623776153,7386.111603511764,17129.01349413556,-644.7807723022428
10523.961248870046,7361.010594488453,18327.648142295857,-54.18062855966432
10602.885258541735,7337.45185583256,18929.20064082153,76.17474510368648
10241.07757104368,7346.861940248244,18222.77375731156,-319.7640561776228
9842.85889182793,7366.375013157727,17059.141940968268,-834.9717658724506
10043.756370992229,7376.813277818356,17128.991142391103,-630.3638971285698
10531.762007684947,7350.013536216443,18321.38965384837,-48.682099423658784
10617.615058137782,7331.238070873985,18930.56409723331,85.07073939689867
10256.50027471784,7340.581100056303,18223.332550922936,-310.62219269540225
9848.290365730569,7358.6636613206465,17053.621060087808,-833.0048123603837
10043.152873891937,7366.509123624459,17120.408072520266,-630.2968418952039
10531.449083262574,7342.235129145995,18317.120470657406,-43.02710807646609
10613.502337158006,7326.20892837154,18923.344483774243,96.8724604693008
10245.324402490189,7332.7803412414,18213.006044984584,-301.1897565352627
9839.75199934864,7344.515007080437,17042.780464026986,-826.3886960016127
10044.248109370244,7345.878463492211,17114.082528839415,-625.7817895152318
10540.389781044696,7313.736654965479,18316.494621812657,-36.14277078423152
10624.365284963284,7284.813497640312,18928.08305359877,97.58771629187063
10255.896777617549,7282.600674939236,18215.755309552587,-305.45893972622633
9853.073639044003,7296.078776845787,17045.395618128256,-831.6637076930651
10050.998336195747,7297.44223325756,17112.026168349526,-638.678746065944
10543.18374910161,7268.764945121401,18310.05731940953,-54.00181460402187
10629.886165843744,7246.971994277477,18924.03738785236,83.97550391858863
10264.189274810467,7250.771790834879,18213.877763018343,-311.113931073419
9864.80830488304,7269.703718388524,17046.356743139833,-830.3896582591127
10061.146028178457,7272.162410278608,17109.098089825882,-635.2142256753714
10548.525816026427,7238.299517428818,18306.7716129746,-46.93866335614483
10627.896860587223,7215.008999706388,18918.114175571704,88.31174234291821
10262.825818398693,7227.593031834725,18215.08475721893,-306.4200647378045
9865.434153727789,7250.660032112602,17048.36840014081,-830.054382092283
10066.219874169812,7257.834942082756,17111.132098571314,-632.643775063011
10558.740563242503,7231.459883625494,18314.997054934152,-43.720012154580616
10638.1116078033,7208.974028703455,18927.79248092085,87.23885860906347
10271.788867925272,7216.953601474,18220.35976891038,-309.99634385065366
9873.659595687344,7244.267433198385,17054.917461266217,-826.2545855348809
10071.003147483249,7251.643508868637,17120.92216264274,-626.452341848891
10555.790132974404,7222.027447465354,18318.774499747095,-37.17095102917565
10637.39635198073,7200.480365810438,18929.98295187747,99.95700120413318
10275.611016227129,7209.309304870285,18226.841774802426,-295.49006169915936
9878.219351556225,7231.772808047868,17059.834845046385,-817.0456668192944
10075.18292369639,7238.031296495355,17123.805537677472,-621.4008476019917
10565.915473212655,7211.52212757136,18320.96497070372,-33.90759633870081
10649.958032364611,7191.763185472869,18934.296838557344,104.31559137291806
10290.251408845355,7200.055682665788,18233.882574305844,-289.72331162969016
9890.088127861993,7217.802967763301,17065.24396720457,-813.8046638732749
10087.409327913443,7229.2917644133295,17122.889116154805,-619.0092109452738
10578.0971739408,7212.036217693832,18322.753110260142,-31.158331770698044
10658.228177813076,7192.746662228902,18934.296838557344,101.05223668244324
10299.214458371933,7201.575601288749,18233.5025946501,-292.2267070086845
9902.04631114558,7223.122682943665,17065.288670693477,-816.0845418077162
10100.172173997424,7235.282031927351,17124.453738266675,-618.293955122704
10590.390633391218,7213.913764228077,18317.679264268787,-28.118494524776285
10675.975462910588,7197.909915198078,18933.80510017933,111.4010943652504
10319.37573187062,7213.33261887224,18239.492862164123,-277.69807311273496
9916.798462486084,7234.4550173825055,17072.396525430268,-799.6783613775208
10109.3363892241,7243.440418653538,17126.934781901215,-606.1569578834723
10591.105889213788,7215.076054939754,18314.08063341149,-25.27982297895229
10675.103744876831,7198.42400532055,18931.435815267065,113.34569613286212
10312.893725978582,7206.984723446933,18233.033208016543,-280.29087546955054
9906.941343181294,7225.559023089293,17064.305193937445,-805.4004079580794
10099.948656552871,7233.00215399291,17119.603409719875,-613.8236062316425
10594.57040960436,7215.388979362128,18317.299284613047,-20.94358455462272
10678.769430967504,7194.75831922988,18935.593239735757,113.6139170663258
10321.56620282724,7204.526031556849,18239.604620886403,-280.76026210311204
9923.883965478415,7225.29080215583,17068.3285079394,-805.5345184248113
10118.14297653949,7232.041028981332,17118.888153897304,-613.0189434312515
10607.266200454977,7207.297647869307,18316.226400879197,-25.27982297895229
10695.108556164332,7192.925476184545,18937.582544992278,115.67027755621405
10330.484548864908,7200.010979176877,18235.827176073453,-281.6543318813243
9929.695419036796,7220.686342798036,17066.965051527626,-802.6287916456213
10129.29649702269,7233.270374926374,17123.649075466285,-605.4193503164471
10618.442072682628,7213.600839805704,18321.948447459752,-15.936793796633935
10700.920009722711,7199.85451696569,18940.24240258245,121.97346949261065
10338.128845468622,7214.003171205899,18238.7552545971,-271.9983782766316
9933.428160360832,7233.873872026667,17063.455827648144,-801.220631744937
10130.324677267632,7243.283956442351,17116.608275962863,-610.001457929785
10626.265183241983,7221.066322453777,18319.355645102936,-18.57429964236017
10715.001608729555,7205.844784479712,18942.74579796145,121.81700728142349
10355.339688699209,7222.072150954265,18241.169242998272,-271.8419160654445
9949.409657646378,7241.38405816365,17064.57341487091,-795.9232683090291
10148.943680398905,7253.498703658427,17117.77056667454,-596.5010042787795
10644.258337528508,7229.671744069069,18321.590819548463,-4.783273313435712
10731.050161248466,7216.573621818259,18946.679704985585,134.69161208768037
10369.845970850703,7230.923441758567,18246.019571545075,-257.69326182523514
9965.055878765092,7250.548273390326,17072.19535973017,-784.546230381278
10159.940738670915,7258.147866505131,17128.946438902192,-593.3717600550366
10649.62275619778,7233.426837137561,18329.43628185228,-7.621944859259709
10734.782902572502,7218.473520096961,18949.18310036458,133.10463823135356
10366.917892327056,7227.213052178986,18244.589059899936,-258.1402967143413
9963.2006839753,7248.357802433706,17071.033069018493,-781.6628553465433
10157.929081669938,7256.784410093357,17122.084453354415,-592.4106350434583
10655.68007894517,7233.203319693008,18316.96400844622,-7.2643169479747955
10745.869367822334,7213.198508405508,18935.01209437992,125.81796953892344
10388.174401304055,7225.961354489488,18239.381103441847,-265.8069450625116
9990.469812210777,7249.900072801122,17067.23327246109,-787.4743089049231
10189.53444832974,7259.801895594824,17117.591752718898,-594.712864722355
10680.848143201843,7236.779598805857,18309.498525798143,-9.924174538156336
10770.121010556342,7220.596935820215,18933.626286223687,135.54097837698205
10411.889602171135,7233.315078415285,18239.44815867521,-255.0781077239642
10011.726321187774,7253.677517614069,17065.512188138033,-781.9981315133729
10194.429480365454,7251.308232701806,17106.549990957974,-600.0549316471734
10674.58965475436,7219.456996852994,18291.460668022715,-20.72006711006965
10753.781885359513,7196.635865764126,18910.693396412546,118.10661770184252
10389.537857715828,7199.541592543315,18218.86220203188,-270.9254945427769
9984.83717260804,7220.328714886751,17045.350914639344,-795.8115095867527
10184.192381404922,7233.136264459642,17097.34107224239,-602.2677543482488
10686.458431060128,7219.121720686165,18301.94363617225,-6.23613670303067
10782.012138606566,7212.796177005312,18936.68847521406,142.55942613594846
10428.765169234894,7230.208185935997,18251.965135570183,-244.5951395744252
10028.534833018164,7250.81649432379,17080.19728424517,-769.8387825296859
10216.44594865393,7256.180912993063,17119.178726575225,-586.7556436962657
10703.669274290714,7228.800026035313,18310.99609267665,0.3799796557402201
10790.03641486602,7205.263639123874,18934.006265879427,141.08421100189818
10430.508605302406,7215.388979362128,18237.816481329977,-250.76422104408996
10026.27730682818,7236.667840083581,17061.95826076964,-776.1643262105378
10216.915335287493,7246.882587299656,17108.00285434757,-587.1803268409166
10704.585695813385,7226.833072523245,18300.803697205032,2.481043634539084
10794.506763757085,7213.422025850061,18925.713768686503,144.638138370292
10433.436683826052,7221.736874787435,18231.781510327044,-249.66898556577988
10024.824443438583,7239.014773251388,17054.783350799484,-779.5617913677444
10215.104843986612,7250.078886756764,17103.308988011955,-589.102576864073
10703.132832423787,7228.442398124028,18298.27795008158,4.380941913240184
10794.171487590253,7211.633886293636,18930.832318166773,155.85871408685614
10429.68159075756,7216.595973562715,18235.98363828464,-237.7555057711012
10026.120844616991,7234.834997038245,17061.064190991427,-768.5870848401887
10219.955172533417,7243.418066909083,17106.818211891437,-580.9441901378858
10718.130852953298,7224.597898077714,18310.034967665077,11.153520483198225
10815.025665167052,7211.186851404531,18945.00332415144,153.8694088303338
10455.900187003635,7225.491967855927,18249.774664613567,-240.28125289455093
10053.077048430092,7249.497741400927,17070.608385873842,-768.9447127514736
10248.431294969476,7265.72510787548,17117.05531085197,-577.8596494030535
10744.17063524373,7249.698907101025,18318.61803753591,12.85225306180156
10835.8574909994,7240.959375019,18950.211280609525,154.53996116399304
10474.049803501344,7257.566721149293,18255.921394338777,-236.3920493593275
10069.483228860288,7279.002044081932,17081.270167979023,-763.9155702490294
10259.0707253302,7290.244971542951,17123.134985343815,-579.8936581484865
10747.255175978564,7262.685270629558,18319.98149394769,7.957221026089314
10836.393932866327,7243.060438997798,18948.28903058637,153.57883615241482
10477.69313784756,7249.609500123203,18256.27902225006,-234.8050755030007
10075.339385907577,7264.987500308454,17082.18658950169,-761.3004161477586
10260.79180965326,7266.529770675871,17119.11167134186,-579.7818994262099
10751.926690569722,7237.830130795256,18308.11271764192,4.425645402150798
10847.659212071803,7220.753398031402,18936.800233936337,151.03073728450985
10491.327701965298,7226.877776012156,18250.668734391777,-235.87795923685545
10083.028386000204,7241.048781996821,17073.84938881986,-769.7717272963199
10271.83357141418,7248.089581500242,17115.445985251186,-584.9451523953858
10767.684670410714,7228.822377779767,18310.10202289844,6.750226825502733
10858.097476732431,7211.656238038092,18937.0684548698,149.734336106102
10501.721263137017,7224.329677144251,18248.165339012783,-239.6107005608917
10103.435528687898,7235.170273205075,17078.81147608894,-762.0156719703284
10291.234885601389,7231.124607458664,17120.631589964818,-575.6021232130674
10779.08406008292,7199.742758243413,18305.877543196388,10.080636749343483
10871.709689105714,7178.329787055229,18935.19090833556,156.9539495651662
10514.729978410003,7185.169420858553,18244.924336066764,-231.7205347681683
10110.275162491222,7203.833127478734,17072.86591206383,-760.1381254360825
10301.762557239836,7212.416197349572,17116.42946200722,-575.0880330905954
10785.968397375154,7184.252999335886,18299.84257219345,5.09619773581001
10880.9186078213,7172.026595118832,18930.899373400134,154.3611472083506
10525.727036682014,7183.873019680145,18245.75135061161,-229.37360160036107
10121.361627741057,7201.419139077561,17072.709449852642,-756.3606806231357
10309.160984654543,7205.733025757436,17114.976598617628,-568.9413033653859
10798.284208570029,7179.603836489182,18310.63846476537,21.524729910460703
10888.317035236008,7161.856551391667,18943.617515995207,169.314464248951
10528.900984394668,7169.120868339643,18253.32859198196,-222.1763398857522
10126.077845821124,7186.287008081318,17080.085525522893,-750.2586543868368
10323.220231916934,7195.831202963735,17129.706398213675,-559.262998016238
10801.860487682878,7165.701051437981,18319.109775913927,23.49168342252772
10890.462802703716,7145.472722705928,18948.221975353,167.81689737044542
10538.42282753263,7157.989699600899,18261.93401359725,-218.3318398394394
10136.091427337102,7177.838048677212,17091.551970428463,-744.0448694282614
10328.070560463735,7192.076109895243,17136.76954946155,-555.0832218030956
10818.870165213368,7168.316205539251,18333.25843015414,35.00283181701086
10905.170250555308,7145.092743050188,18963.1752923936,180.91501962125537
10547.877615437224,7153.69816466548,18273.53456896956,-207.55829901198135
10149.3460117991,7172.697147452492,17097.363423986844,-734.6571367570325
10337.078313479224,7174.015900375355,17134.713188971662,-550.7916868676766
10828.637877540335,7146.74677213988,18333.325485387504,37.95326208511139
10921.01763737412,7127.278402719307,18967.265661628924,181.58557195491457
10565.647252279194,7138.521330180327,18277.490827738147,-206.39600830030545
10164.232273606334,7156.492132722394,17099.933874599206,-731.6843547444767
10352.411610175564,7161.342461269196,17133.61795349335,-547.2154077548275
10844.14998819232,7132.799283599768,18331.649104553355,41.99892783152197
10932.97582065771,7112.906231034545,18967.3774203512,189.85571740337815
10573.738583772014,7117.331876436696,18278.89898763883,-198.46113901867145
10170.133134142534,7135.436789445495,17101.3867379888,-725.9176046750075
10356.43492417752,7137.828426102213,17135.271982583046,-546.0754687876068
10843.09945620292,7109.173489710509,18325.904706228343,38.9143870966896
10937.267355593129,7091.493259846361,18958.727295246998,186.2347348016185
10589.116583957266,7103.697312318959,18277.33436552696,-195.4883570061156
10184.952340716403,7127.099588763665,17098.48101120961,-723.6153749961109
10371.611758662671,7138.431923202506,17128.96879064665,-539.9510908068527
10859.438581399749,7112.88387929009,18317.74631950216,49.91144536870067
10948.934966198798,7095.538925592772,18951.239460854467,195.3095430504731
10594.369243904262,7109.061730988233,18273.80278990302,-189.20751681417428
10192.48487859784,7130.050019031766,17100.58207518841,-714.4958632583456
10380.91008435608,7138.320164480229,17128.432348779723,-531.9938697807634
10869.34040419345,7115.655495602548,18317.34398810196,56.25934079400788
10959.350879114972,7101.015102984322,18953.452283555544,204.7196274661574
10603.086424241832,7112.50389963435,18268.84070263394,-179.61861844284755
10198.653960067506,7131.301716721263,17089.316795982933,-707.1644910770049
10388.755546659891,7144.690411649992,17121.927991143228,-525.0424772551629
10874.324843206983,7120.6399346160815,18310.86198220992,61.19907631863074
10959.708507026256,7096.768271537813,18940.778844449385,208.92175542375512
10600.33715967383,7096.6341610710815,18254.13325478235,-177.71872016414645
10198.11751820058,7109.844042044168,17085.76286861454,-703.8340811531641
10385.715709413971,7111.945106022967,17121.235087065113,-525.1765877218947
10877.096459519442,7085.480640587884,18310.63846476537,62.18255307466425
10974.639472322402,7069.722660746892,18951.217109110014,211.2239851026517
10615.312828458886,7076.204666638932,18265.867920621386,-180.6467986877917
10213.54022187474,7096.097719204155,17091.842543106384,-708.8185201666976
10401.67485495506,7102.959704751934,17127.270058068047,-526.7412098337662
10891.043948059554,7077.724585261892,18323.37895910489,66.74230894354689
10982.976673004232,7059.753782719825,18962.23651912648,219.4047235732941
10627.740398376036,7067.621596768093,18276.507350982112,-167.03458631450968
10226.638344125551,7084.295998131753,17098.86099086535,-698.8943456285413
10418.01398015189,7093.773137780802,17133.30502907098,-521.0862184865736
10899.336445252471,7063.218303110398,18318.461575324724,60.32735828487376
10989.212809707262,7046.521550002283,18946.903222430137,207.0442088895093
10639.25154677052,7058.077401885677,18264.37035374288,-177.45049923068277
10237.389533208554,7076.964625950412,17090.94847332817,-703.8117294087087
10422.931363932055,7087.224076655398,17122.643246965796,-521.7120673313221
10913.328637281496,7065.341718833652,18316.785194490574,73.24666658004125
11007.764757605168,7050.880140171068,18955.530995789886,224.9032527092997
10647.655802685716,7059.977300164378,18269.53360671206,-164.5535426799706
10242.865710600105,7078.104564917632,17089.3838512163,-696.6591711830106
10431.87206171418,7088.274608644797,17119.11167134186,-516.3700004065038
10918.246021061665,7061.474867042884,18309.409118820324,74.18543984716415
11007.407129693882,7041.0453726107335,18942.49992877244,220.74582824061252
10644.995945095534,7045.58277673516,18250.51227218059,-172.17548753923032
10251.2699665153,7069.320329346697,17078.76677260003,-694.9380868599519
10437.728218761473,7075.176486393987,17107.041729335993,-515.0288957391854
10925.86796592092,7049.516683759294,18304.827011206988,76.577076503882
11024.997952580208,7037.714962686892,18955.08396090078,233.95570921369904
10670.655747730225,7045.694535457437,18273.37810675837,-151.36601345133943
10264.613957955118,7058.613843752604,17092.557798928952,-685.0139123217956
10449.30642238932,7064.984090922367,17119.938685886704,-509.0386282251631
10941.871814950922,7041.939442388945,18315.555848545533,80.95801841712218
11036.576156208055,7025.019171836278,18956.156844634635,228.61364228888064
10682.792744969458,7034.920994629979,18279.8154091615,-156.35045246487292
10279.03083312879,7052.6682797274925,17102.929008356215,-687.9643425898961
10465.891416775155,7061.117239131599,17127.806499934974,-510.6032503370345
10951.438361577792,7034.518663229784,18314.371206089403,75.25832358101889
11046.768551679676,7019.654753167004,18958.14614989116,224.79149398702316
10694.415652086218,7028.886023627046,18282.542321985045,-160.23965600009635
10291.03371990129,7045.113390101599,17106.974674102625,-688.8584123681084
10470.205303455032,7044.644003468037,17128.566459246453,-516.1464829619507
10953.450018578773,7018.917145599979,18310.52670604309,66.85406766582342
11050.210720325797,7005.327284971152,18954.1228358892,221.84106371892256
10702.372873112306,7016.011418820789,18282.341156284947,-157.15511526526396
10301.784908984291,7037.20087256442,17107.980502603114,-684.7009878994213
10485.426841429096,7047.706192458415,17132.25449708158,-507.943392746853
10961.809571005057,7020.638229923038,18311.532534543578,74.61012299181498
11056.782133195657,7005.349636715608,18951.731199232483,225.0597149204868
10709.324265637906,7014.3350379866415,18278.787228916557,-156.21634199814105
10310.032702688302,7029.690686427437,17104.136002556803,-687.4055489785134
10497.273265990409,7037.402038264518,17131.67335172574,-507.5410613466575
10987.961112017763,7016.301991498708,18321.68022652629,85.27190509699645
11082.754860252722,6997.794747089714,18960.49308305897,236.16853191477443
10727.272716435518,7007.33894197213,18279.033098105563,-150.56135065094838
10328.986981986402,7029.91420387199,17102.95136010067,-674.1509645165163
10513.768853398426,7037.491445242339,17128.320590057443,-493.59357280654586
11002.04271102461,7012.189270518932,18318.461575324724,94.50317555703826
11095.785927270166,6993.726729598848,18961.163635392622,243.23168316265145
10738.783864830002,7000.029921535244,18278.563711472,-145.3757459373171
10336.05013323428,7015.653790909504,17100.179743788212,-676.743766873332
10522.79895815837,7021.5546514457055,17126.219526078647,-499.5391368316575
11009.105862272483,6997.839450578625,18316.271104368105,91.66450401121426
11104.927790752386,6984.204886460887,18958.995516180457,246.13740994184136
10748.976260301622,6994.57609588815,18282.00588011812,-136.54680687747086
10346.689563595006,7015.162052531488,17101.543200199987,-666.6854818684437
10528.23043206101,7019.140663044533,17116.027130607024,-493.50416582872464
11017.04073155412,6994.4419854214175,18309.275008353598,100.85107098234546
11112.415625144917,6977.678177079938,18956.04508591236,256.53097111355913
10753.84894059288,6979.198095702898,18271.27704277957,-136.18917896618592
10357.597214889194,7001.14750875801,17093.541275684987,-659.0858887536393
10545.195406102588,7010.132910029043,17117.032959107513,-475.913342942398
11033.111635817486,6984.830735305636,18309.56558103151,116.85492001234532
11123.032703761186,6961.562569327662,18956.760341734927,264.19761946172946
10768.109353555365,6970.167990942954,18275.52387422608,-124.27569917150728
10370.561226673271,6994.017302276767,17098.458659465156,-651.6427578500221
10553.018516661945,6997.593581389616,17121.503307998577,-478.77436623267727
11041.6052987105,6971.374985143541,18308.71621474221,108.94240247516662
11137.58368940159,6947.0115836872565,18948.758417219928,256.5086193691038
10783.286188040518,6953.940624468401,18267.27608052207,-132.6128998533368
10389.023767593357,6978.013453246767,17086.56753141493,-662.8186300776756
10578.208932663076,6990.642188864016,17109.1874968037,-487.6703605258895
11062.750048965225,6965.541179840706,18298.81439194851,96.2019081356416
11152.134675041994,6944.0388016747,18940.89060317166,245.48920935263743
10801.167583604763,6953.694755279393,18268.192502044734,-135.85390279935632
10406.480480012951,6976.739403812815,17093.451868707165,-664.9867492898404
10591.61997933626,6984.674273094449,17112.875534638828,-494.24177339574976
11075.28937760465,6961.51786583875,18298.00972914812,92.62562902279248
11169.479628739313,6946.318679609142,18946.098559629747,249.020784976576
10822.960534448688,6981.14269747051,18276.75322017112,-129.93069051869995
10420.45032029752,7018.984200833345,17094.971787330127,-664.0479760227175
10604.80750856489,7034.742180674337,17114.99895036208,-489.52555531568
11083.939502708854,7010.445834451418,18297.316825070004,91.68685575566955
11173.637053208,6994.084357510133,18940.063588626814,244.0363459630425
10821.194746636718,6998.554706401194,18265.733810154656,-138.49140864508257
10419.980933663956,7013.440968208429,17092.401336717765,-667.8477725801197
10599.443089895618,7022.091093312632,17112.562610216453,-493.7723867621883
11091.62850280148,7006.95896231639,18298.546171015045,100.73931226006891
11195.40765230747,6996.699511611404,18954.1228358892,261.18013396026305
10851.034325484554,7013.262154252787,18284.59868247493,-113.23393741058558
10453.665012558104,7034.071628340677,17108.896924125784,-639.2822431662373
10635.764674635491,7043.191140078443,17126.420691778745,-464.7151189702892
11124.731436339787,7017.844261866125,18313.119508399905,123.67220207121396
11215.725388017345,6995.3807586885405,18955.30747834533,273.5630003885032
10863.439543657249,7003.762662859281,18280.888292895357,-113.3233443884068
10466.986652253468,7022.873404368568,17106.035900835504,-646.8371327921311
10652.30496553242,7032.954041117912,17128.164127846256,-473.1417266299399
11136.10847426754,7011.049331551712,18316.89695321285,111.445797854161
11232.399789381005,6997.459470922884,18963.89054821617,260.5319333710591
10879.264578731609,7005.059064037689,18284.12929584137,-129.61776609632565
10478.520152392406,7022.895756113024,17104.806554890463,-661.7457463438209
10662.519712748492,7033.512834729295,17124.520793500044,-489.6596657824118
11146.434980205891,7011.317552485175,18309.58793277597,97.36419884731755
11241.541652863223,6993.7937848322135,18958.123798146706,253.4464303787268
10888.495849191648,7002.399206447507,18280.28479579506,-131.58471960839267
10486.186800740576,7022.940459601934,17097.408127475755,-665.2996737122147
10673.673233231691,7031.747046917325,17113.233162550114,-486.5080698142135
11164.338727514592,7006.556630916194,18305.83283970748,110.52937633149342
11256.427914670458,6987.021206262256,18955.732161489985,265.89635204033283
10897.168326040308,6988.563476629673,18277.826103904976,-123.33692590438436
10500.044882302867,7008.635343150538,17100.559723443952,-650.1898944604271
10682.9715589251,7015.497328698317,17114.931895128717,-479.4672703107918
11169.323166528126,6990.91040979748,18299.99903440464,108.16009141923088
11263.714583362887,6971.442040376907,18949.116045131213,262.6777008387686
10912.456919247736,6976.270017179253,18275.166246314795,-120.76647529202404
10519.17797555661,6996.677159866948,17097.76575538704,-649.6534525934998
10709.88305924929,7006.824851849658,17117.703511441174,-471.5547527736131
11194.245361595791,6983.735499827326,18303.4188513063,117.57017583491516
11287.89917086353,6965.004737973779,18952.066475399315,272.2218957211847
10937.468521293224,6973.297235166698,18283.14581908534,-112.3622193768286
10540.233318833509,6990.597485375105,17107.667578180743,-645.8536560360976
10722.534146610991,6990.731595841837,17118.508174241564,-480.42839532237
11210.159803647972,6958.94741522639,18306.704557741232,106.41665535171693
11306.7193396949,6936.170987626432,18955.08396090078,258.8779042813664
10958.903844225866,6941.870682462536,18285.58215923097,-123.85101602685644
10559.209949876064,6953.784162257214,17102.683139167206,-657.4989148973126
10742.762475343046,6956.533426825217,17110.081566581914,-487.1339186589621
11231.595126580612,6929.264298589743,18292.89117966785,97.4759575695941
11326.321819582205,6911.181737325399,18945.539766018363,247.90319775381064
10976.293501412094,6921.910574663946,18278.608414960912,-131.78588530849044
10579.460630352572,6943.927042952424,17099.933874599206,-657.0518800082065
10762.968452330644,6953.337127368108,17109.61217994835,-485.7928139916437
11243.732123819844,6926.045647388179,18288.152609843328,98.37002734780638
11338.078837165694,6906.554926223151,18935.90616415813,250.697165810724
10993.549048131592,6918.356647295553,18271.56761545749,-127.27083292851842
10592.894028770212,6938.89790044998,17095.150601285768,-656.8507143081086
10775.865408881356,6952.934795967913,17108.226371792123,-482.9317907013644
11260.719449605876,6929.778388712214,18289.38195578837,104.1367774172756
11361.637575821587,6916.993190883779,18943.41635029511,264.8458200509334
11011.855126840488,6926.380923555008,18275.70268818172,-114.1950624221638
10612.09417725732,6948.553854054672,17093.831848362905,-644.356089157592
10794.015025379063,6960.109705938066,17107.645226436285,-472.6946917408338
11278.667900403489,6937.333278338108,18292.310034312017,114.2174141666191
11376.389727162092,6918.334295551097,18942.49992877244,272.84774456593334
11026.98725783673,6924.212804342843,18272.43933349125,-110.17174842020852
10630.355552477307,6939.27788010572,17094.94943558567,-643.3726124015585
10812.410511065784,6944.061153419156,17109.455717737164,-473.7452237302332
11293.352996510625,6912.254621059254,18291.90770291182,109.90352748674482
11386.470363911434,6885.879562601992,18937.448434525544,258.36381415889434
11045.583909223546,6898.284780774687,18268.59483344493,-119.26890841351847
10653.780180666468,6916.143824594477,17087.752173871064,-651.2180747053712
10836.259822399596,6921.284725819198,17096.156429786257,-484.8540407245208
11322.14204336906,6900.788176153681,18286.47622900918,109.90352748674482
11419.97562884994,6882.4373939558745,18940.488271771464,264.5552473730144
11075.62465377148,6892.249809771754,18269.62301368988,-115.58087057839282
10673.427364042684,6908.3877692684855,17084.3323569694,-647.5970921036115
10858.320994176984,6919.0719031181225,17095.463525708143,-475.8462877090321
11347.95830821494,6897.390710996475,18284.71044119721,116.25142291205204
11438.237004069926,6878.145859020456,18936.2190885805,268.24328520814004
11091.293226634649,6889.589952181573,18264.75033339862,-116.83256826789
10698.461317832627,6907.873679146013,17081.493685423575,-649.4522868934021
10881.924436321788,6916.210879827843,17091.19434251718,-476.8744679539762
11364.878578767608,6888.002978325246,18281.335327784454,110.55172807594872
11459.381754324646,6868.109925760023,18932.17342283409,267.23745670765123
11117.891802536466,6877.989396809268,18267.18667354425,-110.73054203159118
10725.730446068104,6894.306170261642,17084.891150580785,-643.5737781016562
10916.279067549594,6906.532574478695,17098.65982516525,-474.7957557196326
11403.21182050846,6885.3207689906085,18289.7172319552,112.09399844336492
11495.32335940878,6861.627919867983,18944.31042007332,265.8516485514222
11148.133712784494,6864.220722224799,18280.68712719525,-117.92780374620008
10754.005402804063,6879.643425898961,17097.09520305338,-655.2637404517818
10936.529748026103,6885.253713757243,17101.63260717781,-490.08434892706265
11424.781253907831,6861.605568123528,18285.64921446433,103.33211461688455
11523.106577766726,6848.418038894897,18941.739969460963,264.15291597281885
11178.06269861015,6861.40440242343,18274.987432359158,-115.5138153450269
10783.08502234042,6879.397556709952,17096.67051990873,-645.160751957983
10965.631719306914,6889.880524859492,17109.34395901489,-472.67233999637847
11448.6529169861,6860.979719278779,18291.684185467268,117.123140945809
11546.95588910054,6817.125596657467,18944.31042007332,274.6135323779026
11199.520373287249,6810.196555876321,18279.010746361106,-107.2883733854739
10807.13549937433,6826.490977584241,17100.403261232765,-641.4727141228574
10991.492687641705,6835.834006766559,17109.835697392904,-472.3147120850936
11475.117382421182,6811.247087865721,18293.76289770161,116.29612640096263
11572.459229524044,6792.985712645736,18952.222937610502,275.14997424482993
11230.388132380023,6801.054692394101,18293.65113897933,-98.16886164770862
10834.494034587626,6817.751445502216,17114.931895128717,-628.2851848942262
11016.70545538729,6823.719361271783,17122.307970798967,-458.2554648227054
11501.17951645607,6800.697064482816,18305.318749585003,129.34954516286197
11596.017968179938,6783.955607885791,18959.95664119204,287.309323228517
11254.729182091854,6790.929352155848,18294.85813317992,-89.38462607677295
10858.499808132628,6802.395797061419,17108.829868892415,-628.2628331497709
11039.258365542695,6807.91667794188,17112.562610216453,-463.1504968584176
11521.497252165944,6781.72043344026,18297.138011114363,121.99582123706595
11618.97320973554,6763.749630898194,18954.03342891138,281.3190557144947
11277.95264458092,6773.651453691895,18286.878560409372,-98.1018064143427
10886.886523590869,6791.711663211783,17102.750194400574,-631.2132634178714
11069.656738001911,6797.8583929369925,17109.455717737164,-464.33513931454894
11550.688630424576,6771.751555413193,18295.8192581915,121.43702762568329
11646.01882052646,6753.937215082314,18951.865309699217,281.2296487366735
11305.869973405595,6766.297729766099,18283.682260952268,-95.97839069108852
10915.78732917158,6785.453174764297,17098.458659465156,-628.1287226830391
11101.373863383991,6793.119823112467,17103.86778162334,-460.4906392682361
11582.159886617648,6766.744764655205,18292.08651686746,128.29901317346253
11667.141219036725,6742.806046343571,18945.76328346292,279.7991370915338
11321.04680789075,6753.333717982021,18277.490827738147,-101.9686582051108
10930.293611323072,6769.739898412216,17095.128249541314,-634.5883768306228
11118.785872314676,6780.491087495218,17106.751156658072,-463.7316422142556
11606.992674707491,6756.2394447612105,18296.132182613877,131.47296088611614
11708.201373601123,6735.586432884506,18953.899318444648,286.0576255390198
11363.5821775892,6739.676802119828,18283.19052257425,-101.38751284927284
10969.297405397583,6757.960529084269,17097.989272831594,-631.3473738846033
11152.20173027536,6767.236503033221,17100.492668210587,-463.57518000306845
11635.06646574336,6742.850749832482,18290.43248777777,127.36023990633964
11733.391789602256,6725.796368813082,18948.669010242105,284.180079004774
11393.444108181491,6732.121912493934,18280.105981839417,-98.37002734780638
11004.926086059342,6747.85754059047,17096.46935420863,-630.4756558508464
11184.701166713376,6752.57375867054,17095.24000826359,-468.3584533165042
11664.570768424364,6726.109293235457,18271.500560224125,114.06095195543196
11763.074906238904,6707.579697082007,18928.977123376982,272.7136340992015
11425.608268452675,6718.263830931644,18266.694935166237,-102.63921053877004
11042.18644406634,6738.246290474688,17084.220598247124,-632.7555337852876
11226.968315478363,6748.52809292413,17081.963072057137,-467.9114184273981
11708.782518956965,6724.745836823683,18260.503501952116,120.5653095919263
11798.971807834128,6702.774072024116,18918.471803482986,276.4240236787824
11461.013431669884,6713.748778551671,18261.5093304526,-100.82871923789016
11073.702403748322,6729.417351414842,17083.61710114683,-636.2871094092261
11253.835112313642,6736.838130574004,17080.19728424517,-474.3487208305265
11740.074961194392,6716.542746608585,18260.10117055192,117.25725141254084
11837.796787952995,6696.381473109898,18912.436832480053,277.7651283461009
11505.60516185822,6704.025769713613,18261.28581300805,-93.63145752328128
11115.589572857569,6719.068493732035,17082.074830779413,-626.5641005711676
11297.532772723767,6725.148168223878,17077.42566793271,-464.8268776925657
11775.077793011404,6696.448528343264,18251.272231492072,119.09009445787603
11867.904587734294,6673.269769343111,18907.675910911075,276.51343065660365
11532.248441248948,6678.880057201392,18251.89808033682,-101.253402382541
11150.01125931874,6698.191964410778,17072.888263808283,-637.8517315210977
11338.883499966085,6707.736159293194,17069.04376376197,-474.9298661863645
11818.976619121626,6682.881019458892,18248.70178087971,117.14549269026432
11918.508937181108,6665.357251805932,18911.1627830461,278.0780527684752
11580.237636594493,6669.022937896602,18250.445216947224,-103.04154193896557
11195.765280218757,6687.7984032390605,17070.630737618296,-634.4319146194357
11382.089421998196,6695.867382987426,17075.52576965401,-465.00569164820814
11864.373012110354,6672.576865264996,18258.08951355094,126.37676315030612
11961.446638279753,6651.387411521365,18914.604951692218,282.9954365486427
11623.287096415414,6653.734344689173,18249.23822274664,-100.3369808598734
11243.486254630836,6675.147315877356,17069.557853884442,-635.2812809087374
11424.088349829715,6683.126888647901,17069.870778306817,-476.7403574872444
11900.135803238843,6659.568149992007,18253.641516404336,110.68583854268056
11988.872228726415,6638.333992759466,18911.78863189085,266.4104421628049
11647.225814727046,6641.664402683306,18244.4549494332,-116.22907116759671
11270.263644488294,6660.238702325667,17059.03018224599,-646.5465601142121
11456.900710690106,6670.788725708571,17049.66480131922,-485.010502935708
11941.352420014431,6648.8840161423705,18233.055559761,103.71209427262475
12033.28514495911,6624.431207708265,18891.24737873642,257.4026891473161
11691.102289092814,6631.136731044857,18222.97492301165,-122.8451875263676
11307.099319350638,6648.191112064256,17039.2712401475,-657.3201009416701
11488.707243050008,6653.264958055611,17038.08659769137,-493.4371105953587
11959.36792604541,6621.212556506701,18224.114861978876,91.59744877784834
12051.52416843464,6599.419605662776,18885.57003564477,250.6077588329028
11712.93994342565,6607.466233666687,18220.98561775513,-127.89668177326702
11330.5239475398,6626.621678664885,17037.594859313354,-661.7904498327315
11516.646923619142,6636.098818313935,17039.405350614234,-496.2087269078168
11994.37075786242,6613.12122501388,18228.518155636568,93.56440228991536
12087.62223572996,6595.530402127552,18892.32026247028,252.06062222249776
11748.143940942758,6603.040588264536,18230.619219615368,-127.5390538619821
11366.599663090668,6624.0512280525245,17048.077827462894,-657.454211408402
11547.827607134295,6627.225175765178,17040.56764132591,-497.5721833195905
12016.007246495155,6593.854021293405,18218.9516090097,85.85305045283442
12101.145041125425,6565.668471535262,18881.77023908737,243.7457732851235
11762.80668530544,6569.691785537218,18226.30533293549,-131.3388504193843
11381.01653826434,6587.260256679089,17044.18862392767,-666.8866475685415
11564.323194542312,6596.200954461212,17047.4743303626,-501.17081417689496
12043.23167124172,6580.420622875765,18241.437463931736,97.18538489167511
12143.143968956943,6571.211704160179,18914.828469136773,264.3764334173719
11819.066026099448,6586.276779923056,18266.359658999405,-105.88021348478956
11441.612117482677,6604.649913865318,17084.622929647318,-638.2987664102038
11619.576706835833,6606.706274355206,17075.346955698365,-483.0211976791856
12089.790354942126,6582.164058943279,18252.56863267048,106.03667569597673
12177.498600184752,6559.3652795988655,18910.04519582333,263.43766015024903
11839.96490716516,6565.355547112888,18252.546280926024,-113.18923392167495
11461.482818303444,6580.420622875765,17069.08846725088,-650.3016531827037
11648.097532760805,6588.556657857497,17064.349897426357,-487.0892151700515
12113.326741853563,6561.466343577665,18240.99042904263,99.88994597076726
12200.967931862824,6537.885253177316,18899.986910818447,255.68160482425748
11866.094096433411,6541.081552634425,18241.95155405421,-123.20281543765252
11482.001719713417,6554.894930707805,17059.05253399045,-658.5941503756226
11668.795248126418,6566.137858168824,17055.453903133144,-492.6771512838783
12141.512291611709,6545.238977103112,18234.262553961584,95.79957673544608
12232.349781078075,6523.110750092358,18897.863495095196,252.01591873358717
11900.69459685023,6532.096151363391,18242.532699410047,-125.03565848298771
11518.680932364576,6550.379878327833,17059.276051435,-659.4882201538348
11696.801983928915,6558.0688784204585,17052.726990309595,-497.3039623861269
12168.200274491344,6535.493616520598,18235.35778943989,97.52066105850471
12256.959051723368,6515.309991277456,18902.84793410873,260.5766368599697
11923.895707594838,6523.289564048,18245.32666746696,-118.91128050223357
11541.859691364729,6542.445009046199,17059.65603109074,-657.5212666417679
11725.300458109434,6554.4925993076085,17054.13515021028,-493.9735524622861
12195.22353353781,6530.57623274043,18242.443292432225,102.68391402768064
12281.85889504658,6512.203098798168,18912.481535968964,267.34921542992777
11947.074466594991,6523.200157070179,18256.36842922788,-111.26698389851856
11565.753706187452,6540.075724133936,17071.256586463045,-651.0169090052735
11743.51712984051,6546.870654448349,17060.930080524693,-491.8724884834873
12207.85226915506,6518.752159923573,18239.89519356432,98.05710292543208
12301.14845051151,6499.104976547358,18914.180268547567,265.1140409843971
11970.141466872868,6509.923220863727,18260.39174322984,-110.90935598723364
11593.58162803431,6523.781302426017,17072.44122891918,-647.7312025703434
11773.647281366264,6523.870709403838,17061.600632858353,-488.0950436705404
12240.105836404067,6490.030168298504,18242.62210638787,97.7888819919684
12327.29999152422,6462.068135984914,18909.6652161676,254.00522399010947
11993.633150295396,6468.930121532693,18254.870862349377,-129.1483794627642
11615.82161376734,6487.504421175054,17067.61325211683,-664.5844178896449
11797.67540665572,6492.466508444132,17060.23717644658,-500.5226135876911
12265.877397761036,6460.145885961758,18238.911716808285,88.04352140945451
12353.87621568158,6438.9117287292165,18903.3620242312,249.601930332414
12020.119967474937,6444.007926465026,18248.21004250169,-123.78396079349052
11644.387143181222,6465.733822075585,17064.41695265972,-654.9284642849523
11824.184575579711,6473.825153568406,17057.04087698947,-495.5828780630682
12289.749060839304,6448.791199778462,18234.46371966168,93.96673369011089
12371.332928101174,6430.03808618046,18894.77895436036,256.2851019245508
12038.224880483733,6439.336411873867,18239.001123786107,-120.2076816806414
11664.101381790804,6461.978729007093,17055.163330455223,-655.2190369628712
11847.139817135314,6475.054499513448,17049.66480131922,-492.16306116140623
12309.083319793144,6450.311118401422,18230.596867870918,97.63241978078123
12398.043262725269,6433.301440870934,18898.422288706577,263.214142705696
12064.018793585155,6446.444266610654,18243.35971395489,-111.60226006534816
11689.381204769756,6473.601636123853,17062.070019491915,-643.484371123835
11867.614015056375,6482.430575183699,17053.352839154344,-485.7704622471884
12330.518642725783,6457.687194071674,18229.03224575904,100.04640818195442
12413.108338488144,6436.967126961605,18889.95097755801,257.2015234472184
12079.016814114668,6440.6775165411855,18233.167318483276,-120.96764099212184
11699.55124849692,6454.870874270306,17049.70950480813,-654.3473189291143
11874.677166304253,6458.245987683057,17041.61817331531,-494.7558635182218
12334.564308472194,6429.211071635613,18218.07989097594,89.8763644547897
12419.277419957809,6405.629981235264,18883.11134375469,251.09949721091957
12083.665976961373,6407.88750742525,18230.37335042636,-124.14158870477544
11705.072129377382,6422.863176210306,17049.083655963383,-662.0810225106505
11885.2048379427,6432.60853679282,17046.80377802894,-500.6567240544229
12348.578852245671,6407.149899858225,18229.43457715924,87.48472779807184
12433.783702109302,6389.559076971898,18897.818791606285,250.3618896438944
12098.39577655742,6400.042045121437,18237.637667374333,-126.75674280604636
11720.427777818177,6417.409350563211,17049.083655963383,-666.3725574460694
11898.414718915788,6425.232461122569,17039.159481425224,-507.8986892579424
12364.292128597752,6402.7019027116185,18222.572591611457,81.27094283949648
12450.525158706329,6390.497850239021,18886.665271123085,246.1597616862967
12111.292733108132,6401.293742810934,18224.740710823626,-130.62359459681448
11730.37430410079,6418.07990289687,17039.427702358687,-667.7583656022985
11908.473003920675,6427.668801268197,17036.85725174633,-506.4681776128027
12365.83439896517,6401.271391066479,18218.348111909403,83.72963472958025
12449.496978461382,6383.814678646884,18887.17936124556,246.8526657644112
12117.148890155422,6396.577524730865,18235.06721676197,-130.154207963253
11738.756208271529,6416.358818573812,17046.37909488429,-668.3618627025918
11916.810204602503,6423.801949477429,17034.711484278618,-507.4293026243809
12378.485486326872,6397.270428808979,18221.499707877603,88.06587315390982
12461.253996044874,6375.4551262206,18893.84018109324,251.6359390778469
12122.669771035884,6382.339463512834,18235.804824329,-127.60610909534802
11741.28195539498,6402.903068411716,17051.60940308683,-664.1150312560834
11924.298038995032,6413.408388305711,17049.821263530404,-500.0755786985849
12389.460192854429,6386.049853092415,18234.97780978415,91.28452435547403
12468.384202526118,6362.513466180977,18899.182248018056,253.33467165645024
12127.45304434932,6368.548437183909,18240.0069522866,-121.5264346035045
11751.384943888776,6387.435661248644,17054.671592077208,-653.6320631065445
11927.49433845214,6392.576562473365,17041.081731448383,-493.3924071064481
12389.102564943145,6371.789440129929,18212.96134149568,95.33019010188464
12481.079993376732,6361.395878958211,18877.74692508542,259.1461252148301
12144.999163746736,6364.9498063266055,18219.286885176527,-121.8840625147894
11765.80181906245,6380.394861745222,17033.012751700015,-662.0139672772846
11945.68865843876,6388.821469404873,17023.602667284333,-506.60228807953456
12406.69338782947,6361.574692913854,18197.382175610324,79.57221026089314
12490.132449881132,6341.547529881898,18857.697410309007,241.37648837286096
12156.331498185576,6346.420210173155,18198.522114577547,-138.84903655636748
11782.878551826305,6363.966329570571,17012.13622237876,-678.129575029561
11959.03264987858,6371.342405240823,16998.79223093894,-521.6003086090457
12418.964495535434,6345.526140394944,18181.870064958344,67.83754442185693
12503.14116515412,6326.169529696647,18852.4000468731,232.54754931301468
12171.106001270531,6334.104398978281,18200.667882045254,-143.4087924252501
11792.601560664363,6350.3988206862,17017.478289303577,-680.029473308262
11967.638071493871,6356.92553006715,17007.621169998787,-519.1639684634172
12426.184108994496,6332.91975652215,18184.57462603744,71.27971306797423
12512.86417399218,6316.401817369678,18850.63425906113,234.60390980290293
12181.477210697796,6321.743884294497,18194.722318020144,-139.76545807903506
11805.76673814854,6337.323050179845,17013.119699134793,-676.743766873332
11983.08312691249,6345.190864228113,17007.01767289849,-519.4545411413361
12444.534891192305,6322.369733139245,18187.63681502781,71.70439621262506
12525.895241009624,6298.118090405237,18849.36020962718,231.8993487238108
12187.64629216746,6304.667151530642,18189.581416795423,-152.59535939638133
11814.14864231928,6325.409570385167,17007.241190343047,-688.5231362012787
11996.024786952114,6334.3726199117455,17002.03323388496,-527.0094307672299
12459.33174602172,6311.864413245251,18185.245178371093,65.60236997632623
12543.374305173673,6296.508764804455,18854.00937247388,231.47466557915996
12207.248772054763,6306.231773642514,18194.387041853315,-148.08030701640928
11829.169014593246,6323.934355251116,17008.22466709908,-686.4220722224799
12010.32990340351,6334.305564678379,17002.12264086278,-524.2378144547719
12478.733060208924,6314.948953980083,18185.40164058228,71.72674795708036
12554.416066934597,6290.518497290433,18846.67800029254,227.94308995522144
12216.256525070254,6299.0345119279045,18186.385117338315,-150.9636820511439
11842.848282199891,6321.699180805586,17002.189696096146,-682.1752407759716
12018.37653140742,6329.187015198114,16994.523047747978,-521.8685295425093
12478.263673575364,6303.996599196983,18182.272396358538,68.46339326660554
12560.67455538208,6282.605979753253,18850.23192766093,226.71374401017957
12227.924135675925,6288.752709478464,18194.49880057559,-152.7965250964791
11849.620860769852,6303.124881163226,17004.044890885936,-694.8710316265859
12033.866290314949,6316.424169114133,16997.115850104794,-532.7314773477885
12501.509487808882,6292.887782202695,18191.391908096302,66.63055022127035
12581.215808536508,6269.664319713631,18860.200805688,228.7924562445231
12238.451807314374,6272.078308114804,18198.07507968844,-156.0375280424986
11860.752029508594,6290.630256012709,17009.5657717664,-696.7932816497424
12039.677743873328,6297.738110749497,16996.087669859848,-538.3417652060706
12502.671778520558,6276.302787816857,18178.87493120133,58.42746000617266
12583.138058559663,6258.264930041424,18843.16877641306,221.37167708536117
12245.514958562251,6264.478715,18185.245178371093,-155.88106583131145
11866.898759233804,6279.789659951885,16998.03227162746,-693.8875548705524
12046.2938602321,6288.618599011731,16990.566788979388,-529.9375092908751
12504.86224947718,6256.588549207277,18169.755419463567,62.45077400812794
12588.658939440124,6234.594432663254,18837.334971110224,224.27740386455108
12255.148560422487,6239.6906303990645,18185.06636441545,-155.16581000874163
11877.58289308344,6257.795543407863,17001.183867595657,-695.4298252379687
12051.032430056624,6267.026813867905,16992.82431516937,-535.7266111047996
12509.42200534606,6242.9763368339945,18172.035297398008,53.86770413729002
12593.285750542373,6224.022057535894,18836.910287965573,215.02378166005397
12256.601423812082,6228.626516893687,18181.11010564686,-162.81010661245665
11883.662567575284,6246.6196711802095,16997.853457671816,-700.548374718234
12062.76709589566,6258.756668419442,16989.80682966791,-538.587634395079
12526.56579334328,6242.752819389441,18171.63296599781,57.19811406113077
12614.072872885808,6229.1853105050695,18843.124072924147,221.95282244119915
12281.903598535491,6237.455455953534,18191.16839065175,-153.06474602994277
11908.048320776024,6258.153171319148,17006.6153414983,-688.9925228348402
12082.526037994152,6266.244502811969,16994.053661114416,-532.9773465367969
12540.110950483198,6241.94815658905,18168.79429445199,57.75690767251345
12622.767701478924,6223.70913311352,18835.882107720627,222.7574852415902
12290.643130617516,6231.018153550405,18187.68151851672,-151.07544077342044
11915.558506913008,6249.368935748213,17008.3140740769,-689.4172059794911
12089.745651453217,6252.654642183143,16998.635768727752,-534.3408029485706
12547.419970920084,6227.486577926466,18180.93129169122,59.36623327329556
12625.226393369006,6204.464281137501,18845.515709580864,219.85175846240023
12292.654787618494,6211.080397496271,18191.436611585214,-156.70808037615782
11921.16879477129,6232.225147750992,17010.437489800155,-687.51730770079
12096.004139900702,6242.931633345084,17003.240228085546,-526.070657500107
12549.074000009776,6219.484653411467,18181.043050413497,64.10480309782065
12630.25553587145,6197.959923501006,18840.598325800696,225.84202597642252
12290.307854450686,6204.75485381542,18178.89728294579,-156.81983909843436
11912.719835367185,6224.044409280349,16996.13237334876,-693.8204996371866
12088.806878186091,6231.353429717235,16988.17515232267,-533.5361401481796
12546.43649416405,6205.313647426802,18169.442495041192,59.50034374002741
12633.36242835074,6184.906504739107,18839.704256022484,225.19382538721865
12299.695587121914,6189.957998986006,18181.199512624684,-148.3932314387836
11923.895707594838,6202.363217158701,16996.668815215686,-685.5950576776336
12098.127555623956,6205.023074748883,16984.59887320982,-532.5526633921461
12561.367459460194,6183.341882627236,18167.564948506948,62.38371877476201
12648.427504113615,6167.718013252976,18838.47491007744,231.54172081252585
12317.979314086357,6176.5916558017325,18184.328756848427,-146.76155409354618
11942.157082814823,6196.261190922402,16998.03227162746,-686.1762030334716
12120.099320423524,6202.94436251454,16988.957463378603,-523.8578347990316
12582.311044014818,6176.479897079456,18175.72333523313,70.34093980085133
12663.470228132035,6154.4634287909785,18840.82184324525,227.5407585550259
12327.255288035309,6160.498399793912,18181.534788791512,-152.61771114083663
11955.545777743551,6185.018263461383,17000.178039095168,-686.5561826892117
12132.92922174087,6196.931743256062,16996.80292568242,-524.9977737662523
12587.362538261716,6170.020242931872,18174.71750673265,62.16020133020894
12668.834646801311,6150.618928744666,18840.01718044486,223.02570617505387
12332.575003215672,6155.379850313646,18183.9934806816,-156.0151762980433
11957.020992877602,6173.976501700462,16999.351024550324,-695.0498455822284
12138.517157854696,6185.197077417026,16991.147934335226,-534.3855064374812
12597.845506411257,6156.229216602947,18170.984765408608,57.30987278340731
12681.75395509648,6131.5081872353785,18838.564317055265,217.39306657231649
12347.39420978954,6137.632565216132,18183.92642544823,-164.64294965779183
11972.13077212939,6157.011527658883,16998.23343732756,-703.1858805639602
12144.507425368718,6160.207827115993,16983.056602842404,-546.746021121266
12593.755137175936,6127.529576722333,18151.69520994368,38.80262837441306
12673.304995692371,6103.724968877432,18818.53715402331,201.6797902202356
12334.609011961104,6103.724968877432,18164.994497894582,-176.73524340811295
11953.690582953765,6121.002867341384,16979.525027218464,-713.870014413597
12136.103169453523,6139.331297794735,16971.25488177,-546.231930998794
12600.751233190444,6122.723951664442,18152.231651810605,52.81717214789059
12686.537228409914,6110.341085236202,18822.87339244764,222.98100268614328
12360.648794251538,6126.076713332738,18181.758306236068,-144.9063593037557
11987.978158948205,6145.969765897962,16999.485135017054,-682.8457931096308
12165.339251201063,6156.653899747598,16984.442410998632,-524.2378144547719
12625.315800346829,6133.676306447543,18158.668954213736,62.875457152778765
12710.23007753254,6112.330390492724,18824.77329072634,224.18799688672985
12373.568102546706,6116.085483561216,18169.889529930297,-153.22120824112991
11996.829449752504,6133.184568069526,16987.638710455743,-694.0887205706503
12167.954405302336,6138.236062316426,16967.723306146065,-540.9345675628862
12621.873631700711,6110.139919536105,18141.43575923869,48.50328546801632
12709.425414732148,6087.296436702781,18814.692653977,216.72251423865728
12380.474791583394,6095.387768195602,18166.96145140665,-156.46221118714945
12005.81485102354,6114.856137616174,16987.571655222375,-692.9487816034296
12178.616187407515,6120.086445818716,16972.037192825937,-539.0346692841852
12633.921221962122,6094.046663528284,18151.091712843387,50.22436979107497
12719.014313103477,6078.400442409568,18821.08525289121,214.33087758193943
12385.727451530392,6083.161363978549,18167.47554152913,-163.25714150156278
12005.256057412154,6094.896029817585,16979.435620240645,-706.6280492100775
12179.420850207907,6098.941695563995,16963.387067721735,-551.0599078011403
12637.095169674776,6072.298416173269,18140.49698597157,40.25549176400802
12721.025970104452,6054.43937235348,18809.171773096536,202.4173977872608
12393.751727789848,6068.744488804876,18157.01492512404,-173.24837127308504
12022.869232042936,6089.4869076594005,16972.037192825937,-710.3607905341138
12205.594742965071,6099.746358364387,16958.268518241468,-550.0987827895622
12661.92795776462,6072.857209784653,18137.79242489248,42.62477667627057
12742.930679670657,6055.959290976441,18811.317540564247,209.05586589048696
12405.59815235116,6062.15072419056,18158.154864091262,-170.29794100498452
12027.987781523205,6079.540381376789,16971.053716069902,-712.1936335794489
12204.521859231218,6087.095271002683,16959.58727116433,-549.9646723228303
12660.832722286312,6056.942767732474,18144.74381741808,43.16121854319794
12744.942336671633,6033.093456398661,18814.33502606571,206.3289530669395
12414.047111755266,6039.95544194644,18157.93134664671,-171.41552822774986
12038.537804906107,6055.489904342879,16973.3559457488,-710.5843079786669
12217.79879543767,6063.894160258074,16964.191730522125,-549.7635066227325
12675.27194920444,6036.177997133494,18147.001343608063,43.54119819893816
12755.917043199188,6014.072121867195,18818.760671467862,205.4125315442719
12422.384312437096,6020.509424270324,18166.35795430636,-174.94710385168838
12048.730200377728,6040.9389187024735,16982.02842259746,-716.6863342149657
12226.381865308507,6050.237244395882,16972.148951548214,-558.9500735938637
12682.670376619146,6024.935069672474,18153.483349500104,29.14667476972041
12761.169703146184,6003.075063595184,18818.179526112024,189.54279298100388
12430.69916137447,6014.832081178675,18165.06155312795,-184.31248477846205
12055.659241158872,6033.942822687963,16978.74271616253,-721.6484214840439
12222.313847817642,6041.542415802767,16959.766085119973,-567.846067887076
12677.015385271954,6022.319915571203,18134.7302359021,23.84931133381264
12760.029764178964,6007.679522952977,18803.941464893996,191.88972614881112
12425.424149683018,6016.799034690743,18158.624250724824,-181.60792369936988
12049.91484283386,6035.3062790997365,16979.569730707375,-719.5920609941555
12226.1359961195,6045.878654227096,16965.085800300338,-558.8830183604978
12678.580007383824,6021.090569626162,18139.11117781534,31.6500701487148
12755.581767032358,5999.610543204612,18810.848153930685,197.56706924045912
12425.737074105393,6009.110034598117,18169.129570618818,-172.4213567282387
12048.685496888816,6026.052656895239,16986.230550555058,-710.0925696006501
12219.519879760728,6032.735828487376,16967.41038172369,-555.9102363479419
12670.287510190909,6003.812671162209,18140.25111678256,32.45473294910585
12756.408781577204,5988.680540165966,18814.715005721453,202.05976987597583
12422.719588603924,5993.106185568116,18161.373515292828,-176.1988015411856
12047.322040477044,6006.941915385952,16976.284024272445,-717.4239417819908
12222.582068751106,6014.80972943422,16963.655288655198,-559.9335503498972
12676.769516082944,5986.311255253703,18141.39105574978,28.96786081407795
12762.53315955796,5966.194685243927,18816.3913865556,195.44365351720492
12434.07427478722,5977.102336538117,18166.67087872873,-177.96458935315482
12062.85650287348,6000.6163717051,16981.469628986077,-711.3889707790579
12240.686981759904,6012.149871844038,16966.963346834582,-552.4680677018247
12695.634388403225,5990.066348322195,18145.6825906852,34.93577658364494
12777.352366131829,5972.676691135966,18815.899648177583,196.60594422888093
12447.75354239387,5984.5901709306445,18168.861349685358,-177.47285097513807
12076.513418735674,6013.37921778908,16986.476419744067,-712.8865376575635
12251.885205732013,6024.756255716831,16967.097457301315,-558.7712596382213
12711.347664755303,6004.974961873885,18155.07032335643,35.807494617401915
12800.10644198733,5991.586266945156,18834.33983735321,202.35034255389485
12469.010051370866,6001.6669036945,18182.31709984745,-174.9694555961437
12089.566837497574,6019.391837047558,16987.035213355448,-718.5191772603008
12257.540197079206,6024.33157257218,16962.001259565506,-563.0404428291849
12708.933676354132,5996.771871658787,18145.839052896383,30.040744547932693
12795.904314029733,5980.589208673145,18831.143537896103,199.3999122857943
12466.37254552514,5992.703854167921,18185.669861515744,-177.18227829721909
12094.81949744457,6009.244145064848,17000.490963517543,-718.0274388822841
12271.018298985757,6015.6367439790665,16986.789344166442,-560.939378850386
12726.055112606897,5992.323874512181,18169.621308996837,33.90759633870081
12809.337712447372,5973.391946958536,18846.655648548087,203.8255576879451
12476.050850874288,5979.002234816818,18197.091602932407,-170.0073683270655
12103.73784348224,5997.174203058983,17009.99045491105,-708.4385405109573
12274.885150776525,6005.109072340617,16987.75046917802,-558.3242247491152
12726.27863005145,5976.476487693369,18166.40265779527,28.811398602890804
12807.169593235209,5952.358955426092,18841.939430468017,193.83432791642284
12473.70391770648,5958.371574684569,18191.83894298541,-181.2949992769956
12100.742709725228,5982.399699974025,17002.592027496343,-719.3685435496025
12275.66746183246,5988.859354121609,16983.570692964877,-563.5768846961123
12728.446749263616,5961.70198460841,18164.68157347221,29.683116636647775
12814.076282271895,5944.8487692891085,18838.787834499817,198.46113901867145
12481.28115907683,5950.615519358578,18188.86616097285,-180.75855741006825
12100.988578914235,5965.546484654723,16997.920512905184,-725.3364593191695
12275.846275788104,5976.565894671189,16980.016765596483,-568.2260475428161
12732.00067663201,5953.968281026874,18156.523186746024,25.70450612360312
12818.814852096422,5942.054801232195,18828.684846006017,200.04811287499825
12487.271426590853,5950.950795525408,18186.251006871586,-170.186182282708
12111.96328544179,5964.764173598787,17004.290760074946,-712.4395027684573
12278.327319422642,5974.08485103665,16985.202370310115,-559.2853497606933
12729.318467297371,5950.324946680659,18154.28801230049,29.414895703184094
12820.379474208294,5935.706905806888,18828.64014251711,200.80807218647865
12494.647502261105,5945.228748944849,18184.909902204265,-169.6944439046912
12122.535660569152,5964.3394904541365,17002.815544940895,-707.4774154993792
12295.269941719764,5970.463868434891,16984.93414937665,-553.8538758580537
12746.462255294591,5942.7924087992205,18161.59703273738,37.88620685174547
12831.220070269115,5922.675838789444,18836.664418776563,206.9324501672328
12500.123679652654,5928.442588858913,18190.386079595813,-166.7216618921354
12123.49678558073,5943.753533810799,17002.279103073968,-710.4725492563903
12296.991026042822,5954.929406038453,16984.59887320982,-554.5244281917129
12746.104627383307,5927.325001636148,18161.84290192639,35.15929402819801
12825.274506244006,5904.950905436386,18834.16102339757,201.90330766478868
12495.250999361397,5916.484405575324,18184.284053359515,-172.22019102814093
12126.35780887101,5939.663164575478,16998.65812047221,-710.4278457674797
12304.881191835546,5953.230673459849,16983.101306331315,-551.3504804790593
12762.734325258056,5932.5776615831455,18166.335602561903,46.35751800030685
12845.97222160962,5915.590335797112,18843.057017690782,212.81095895897852
12514.026464703857,5924.799254512698,18189.51436156206,-164.19591476868567
12138.360695643509,5940.646641331511,16997.74169894954,-705.3763515205803
12307.988084314837,5947.866254790575,16978.27332952897,-548.48945718878
12757.258147866503,5919.881870732531,18159.093637358383,42.62477667627057
12838.77495989501,5902.916896690953,18835.16685189806,211.33574382492827
12501.397729086606,5911.611725284068,18182.31709984745,-164.5758944244259
12131.49871009573,5937.718562807866,16998.501658261022,-701.7106654299099
12307.38458721454,5946.189873956428,16984.285948787445,-547.5059804327465
12760.253281623518,5918.31724862066,18165.106256616866,43.02710807646609
12843.82645414191,5899.228858855827,18837.513785065865,208.45236879019367
12516.172232171564,5910.270620616749,18182.339451591903,-167.056938058965
12146.675544580885,5926.855615002587,16993.22664656957,-703.4317497529686
12321.48853796584,5934.142283695017,16976.440486483632,-543.3485559640594
12773.48551434106,5906.6943415039,18155.673820456723,47.20688428960852
12853.862387402343,5881.123945847028,18827.09787214969,210.0840461354311
12525.96229624299,5886.711881960855,18180.97599518013,-167.056938058965
12153.73869582876,5907.07432115964,16999.239265828048,-705.1975375649379
12326.96471535739,5914.36098985207,16977.803942895407,-550.3670037230258
12780.034575466463,5887.628303483522,18156.27731755701,41.32837549786276
12858.220977571127,5869.165762563439,18836.843232732204,208.67588623474677
12528.823319533269,5881.347463291581,18191.436611585214,-163.637121157303
12160.064239509613,5903.743911235799,17004.626036241774,-702.4482729969351
12337.134759084554,5914.36098985207,16987.214027311093,-549.1600095224392
12796.619569852302,5892.16570760795,18162.513454260046,43.94352959913368
12879.16456212575,5868.294044529682,18837.290267621316,208.96645891266573
12549.856311065712,5877.368852778537,18194.722318020144,-165.31350199145103
12177.766821118215,5899.161803622461,17008.98462641056,-703.9458398754406
12349.651735979529,5903.922725191442,16985.82821915486,-550.9928525677744
12798.497116386548,5877.8158876676425,18155.60676522336,37.39446847372872
12878.426954558725,5859.308643258649,18826.404968071576,205.2784210775401
12543.307249940306,5862.370832249026,18180.484256802112,-167.66043515925827
12170.45780068133,5882.330940047615,17000.356853050813,-703.1188253305943
12342.543881242738,5889.818774440143,16981.804905152905,-547.7518496217549
12796.44075589666,5863.466067727336,18155.62911696781,41.30602375340745
12880.237445859606,5842.075448283607,18826.38261632712,207.0442088895093
12553.365534945196,5848.356288475548,18183.099410903385,-162.1172025343421
12178.88440834098,5862.2590735267495,16999.485135017054,-701.0624648407061
12353.362125559108,5871.0656608421405,16980.530855718953,-546.2989862321599
12809.717692103111,5848.400991964459,18157.171387335227,45.2622825219968
12889.848695975388,5828.753808588244,18825.645008760097,208.67588623474677
12555.287784968352,5835.057000524641,18170.247157841583,-166.29697874748456
12182.103059542544,5850.949090832364,16983.03425109795,-707.5891742216556
12355.798465704736,5856.693489157377,16966.628070667753,-550.5458176786683
12807.929552546688,5836.286346469682,18149.951773876164,44.79289588843535
12894.162582655264,5824.596384119557,18825.600305271186,214.5320432820372
12565.949567073532,5834.4982069132575,18174.046954398986,-159.92673157772202
12196.475231227309,5848.848026853565,16989.78447792345,-699.5872497066557
12376.809105492724,5861.186189792895,16977.960405106594,-540.1746082514057
12826.794424866966,5839.236776737783,18155.91968964573,50.42553549117273
12908.35594038438,5823.747017830256,18830.160061140068,218.2871363505288
12578.24302652395,5832.575956890101,18179.545483534992,-158.0044815545656
12206.824088910114,5850.658518154445,16991.103230846315,-699.0284560952731
12379.893646227556,5860.783858392699,16968.46091371309,-547.4165734549252
12834.841052870876,5836.845140081065,18148.767131420034,45.08346856635435
12917.944838755708,5818.650820094445,18821.420529058043,212.83331070343385
12584.792087649355,5824.886956797476,18166.760285706558,-166.1628682807527
12209.9309813894,5836.15223600295,16976.082858572347,-709.2432033113485
12386.800335264246,5844.847064596065,16954.893404828716,-555.1726287809169
12842.954736108151,5821.243622451261,18140.228765038108,40.09902955282087
12919.084777722928,5797.3943111174485,18814.98322665492,203.28911582101773
12587.787221406368,5810.179508945884,18166.69323047319,-170.40969972726106
12219.206955338354,5829.670230110912,16981.491980730534,-708.0138573663065
12395.45046036845,5842.6565936394445,16967.83506486834,-547.7518496217549
12849.481445489104,5817.622639849501,18151.024657610014,43.787067387946536
12936.541490142525,5799.584782074068,18824.99680817089,211.6263165028473
12610.228372839496,5805.060959465619,18172.102352631373,-164.8888188468002
12237.602441025072,5818.963744516819,16981.246111541524,-705.1751858204825
12411.946047776468,5826.362171931526,16957.665021141176,-552.1774950239056
12869.106277120862,5801.909363497421,18140.117006315828,41.7754103869689
12951.114827527384,5781.502220809725,18811.04931963078,210.1287496243417
12627.528623047903,5789.213572646806,18162.26758507104,-160.8655048448449
12261.407048869974,5807.564354844613,16977.3569080063,-699.5648979622005
12439.103417289663,5817.890860782964,16959.631974653243,-544.1979222533611
12895.637797789312,5795.829689005576,18137.36774174783,48.279768023463255
12978.942749374242,5778.864714963998,18811.58576149771,211.2910403360177
12652.294355904383,5789.012406946708,18168.59312875189,-160.50787693356003
12276.472124632852,5805.060959465619,16982.341347019836,-699.8331188956641
12449.586385439205,5815.745093315255,16964.25878575549,-543.1250385195063
12900.063443191462,5792.298113381638,18141.45811098315,47.63156743425935
12983.658967454312,5776.830706218566,18816.279627833323,216.32018283846176
12661.92795776462,5791.918133725898,18177.06443990045,-147.8567895718562
12288.609121872085,5809.888936267965,16995.059489614905,-684.5668774326894
12458.482379732415,5814.5380991146685,16970.78549513644,-537.6488611279561
12906.992483972608,5789.973531958286,18137.032465581,44.09999181032084
12985.156534332817,5767.085345636052,18805.170810839038,206.88774667832217
12655.691821061591,5769.588741015046,18162.60286123787,-166.25227525857397
12276.986214755325,5782.306883610116,16976.708707417096,-710.9419358899518
12445.9877545819,5790.375863358482,16957.597965907808,-558.7042044048553
12893.73789951061,5768.314691581094,18131.5786399339,35.53927368393823
12985.62592096638,5756.825894931066,18813.84328768769,210.57578451344784
12668.722888079035,5774.372014328482,18177.64558525629,-158.27270248802932
12307.67515989246,5804.144537942951,17001.27327457348,-692.0547118252173
12485.61739750116,5815.096892726051,16981.469628986077,-536.911253560931
12935.580365130943,5789.168869157895,18153.93038438921,52.61600644779283
13010.279895100584,5764.7607642127,18821.755805224875,216.18607237172992
12683.139763252708,5772.203895116317,18170.06834388594,-158.8091443549567
12320.281543765252,5796.612000061513,16982.654271442207,-698.8496421396306
12496.32388309525,5808.525479856191,16961.487169443033,-547.327166477104
12945.549243158011,5784.475002822281,18134.64082892428,40.1884365306421
13023.757997007133,5761.564464755591,18807.495392262383,202.99854314309877
12698.003673315488,5770.728679982267,18164.346297305383,-169.09094680439793
12332.887927638048,5791.00171220323,16982.944844120128,-703.8340811531641
12508.57263905676,5801.596439075046,16958.872015341763,-546.0531170431516
12963.452990466714,5778.99882543073,18138.30651501495,51.02903259146603
13043.874567016908,5757.317633309082,18817.397215056088,218.13067413934164
12715.393330501716,5766.101868880019,18165.21801533914,-157.959778065655
12348.601203990129,5788.945351713343,16977.178094050658,-691.1382903025496
12519.390883373128,5796.120261683495,16957.3520967188,-534.2066924818388
12968.862112624898,5769.186409614851,18138.462977226136,56.661672194203405
13052.927023521308,5751.260310561695,18813.798584198783,222.19869163020752
12727.105644596297,5763.129086867462,18166.156788606266,-152.34949020737295
12363.77803847528,5787.559543557113,16983.481285987054,-686.7126449003989
12537.495796381929,5797.818994262099,16958.69320138612,-528.685811601378
12983.971891876685,5773.634406761456,18135.624305680318,64.2389135645525
13062.158293981349,5753.85311291851,18811.205781841967,231.3629068568834
12734.816996433376,5760.670394977378,18164.279242072014,-144.66049011474732
12368.628367022082,5781.077537665074,16978.69801267362,-685.8409268666419
12542.48023539546,5790.711139525311,16952.41236119418,-536.1512942494505
12998.008787394618,5769.611092759502,18131.489232956083,55.67819543816989
13079.324433723026,5751.707345450801,18807.16011609556,224.9032527092997
12752.117246641785,5763.196142100828,18157.73018094661,-150.5837023954037
12386.129782930588,5781.122241153985,16967.4550852126,-692.3676362475916
12563.624985650182,5786.754880756722,16945.59507913531,-540.7110501183331
13014.727892247189,5756.80354318661,18118.05583453844,48.346823256829175
13097.988140343206,5734.541205709124,18788.451705986467,213.92854618174388
12776.547703331436,5737.893967377421,18141.771035405523,-158.74208912159077
12411.54371637627,5749.069839605074,16953.440541439122,-699.4307874954686
12594.001006364942,5755.753011197211,16934.64272435221,-544.2873292311823
13046.690886818276,5730.048505073608,18106.00824427703,40.23314001955272
13129.437044791825,5707.674408873846,18776.068839558226,203.33381930992837
12804.77795657849,5717.777397367644,18135.44549172467,-167.1016415478756
12440.600984168172,5736.217586543273,16957.843835096817,-705.063427098206
12619.102015388253,5745.493560492225,16944.79041633492,-549.2047130113498
13065.689869605289,5720.616068913469,18116.33475021538,36.63450916224828
13150.335925857536,5706.646228628902,18796.453630501463,206.21719434466297
12825.453320199647,5719.99022006872,18150.9352506322,-166.02875781402085
12457.767123909847,5741.13497032344,16964.482303200042,-703.90113638653
12630.434349827094,5750.7909239281325,16947.4502739251,-549.1376577779839
13077.335128466502,5730.048505073608,18124.560192174937,45.306986010907416
13160.79654226262,5721.867766602965,18802.309787548755,222.5786712859477
12835.265736015528,5736.41875224337,18153.371590777828,-150.80721983995676
12471.17817058303,5759.105772865507,16964.839931111328,-690.0877583131503
12649.053352958364,5774.103793395018,16946.556204146887,-528.2164249678165
13099.776279899632,5757.451743775814,18124.671950897213,68.46339326660554
13181.85188553952,5743.884234891443,18798.53234273581,235.43092434774928
12856.58930022589,5754.478961763259,18150.979954121107,-140.7936383239792
12493.596970271705,5777.165982385395,16965.197559022614,-680.4988599418235
12674.288472448408,5790.2417528917495,16945.41626517967,-523.0531719986406
13124.206736589282,5766.1689241133845,18120.93920957317,66.89877115473404
13203.37661544998,5745.202987814306,18792.69853743297,229.28419462253984
12882.15969588276,5751.528531495158,18148.118930830828,-143.3864406807948
12518.0050752169,5770.505162537714,16960.280175242446,-686.0420925667397
12691.901647079188,5780.205819631317,16937.5484511314,-535.4807419157913
13141.618745519969,5756.557673997602,18120.648636895257,57.42163150568384
13223.917868604409,5738.452760988804,18803.74029919389,229.7982847450119
12894.721376266643,5745.404153514404,18156.65729721276,-144.8840075593004
12529.225650933464,5763.7102322233,16967.36567823478,-685.8185751221866
12707.637275175724,5773.0979648945295,16943.11403550077,-533.9831750372857
13164.529283586657,5754.590720485535,18130.796328877965,66.4517362656279
13249.354153794546,5735.211758042784,18811.47400277543,234.827427247456
12928.718379583166,5746.722906437267,18161.50762575956,-139.2290162121077
12568.140038030151,5766.459496791304,16974.07120157137,-676.743766873332
12745.14350237173,5771.019252660186,16954.44636993961,-522.8967097874535
13193.430089167368,5744.867711647476,18135.44549172467,70.05036712293233
13272.219988372326,5724.415865470871,18808.09888936268,237.66609879328
12944.789283846532,5724.326458493049,18153.036314611,-142.62648136931438
12580.366442247208,5740.173845311862,16963.02943981045,-682.1975925204268
12762.041421179942,5751.908511150898,16945.1480442462,-522.9637650208193
13211.400891709434,5729.333249251038,18125.789538119978,72.57611424638203
13289.63199730301,5709.373141452449,18801.795697426285,239.81186626098943
12973.555978960512,5722.046580558608,18157.08198035741,-130.6906498301804
12614.49755603046,5738.452760988804,16969.533797446944,-673.0557290382063
12789.735232560068,5744.264214547184,16947.83025358084,-519.3427824190596
13238.111226333527,5725.242880015717,18124.269619497016,74.92304741418927
13317.616381361056,5709.03786528562,18794.754897922863,243.47755235165985
13000.6686449848,5723.074760803552,18148.8341866534,-126.98026025059944
12642.236070899497,5746.655851203901,16961.64363165422,-670.485278425846
12818.01018929603,5758.23405483175,16939.671866854653,-519.588651608068
13264.553340024157,5734.496502220214,18112.557305402435,69.53627700046027
13343.633811907031,5716.145720022407,18787.267063530333,239.18601741624087
13023.266258629115,5726.718095149768,18141.771035405523,-133.03758299798764
12662.665565331648,5744.912415136388,16956.12275077376,-675.6038279061113
12836.562137193936,5751.841455917533,16933.279267940434,-526.8753203004981
13285.049889689672,5731.702534163301,18110.59035189037,68.0387101219547
13366.566701718177,5718.045618301108,18786.44004898549,239.5883488164364
