 EXG Channel 0, EXG Channel 1, EXG Channel 2, EXG Channel 3
-19544.45475869832,-19084.947596186117,-69756.59814555623,-20430.99199902916
-19184.36815552332,-19061.187691830124,-69858.03036189442,-20484.949110144276
-19170.80064663895,-19102.02432894997,-69826.71556791253,-20494.3368428155
-19525.43342416685,-19142.726855603083,-69717.61670322617,-20443.33016196849
-19647.116320981542,-19121.80562279292,-69708.56424672178,-20418.072690733992
-19531.803671336613,-19098.984491704046,-69764.75653228242,-20436.57993514299
-19176.857969386336,-19082.041869406923,-69859.46087353956,-20490.224121835723
-19157.34489647685,-19118.3634541468,-69827.94491385757,-20500.26005509616
-19509.72014781477,-19145.766692849003,-69715.53799099184,-20450.080388793995
-19634.845213275577,-19127.25944844001,-69700.27174952887,-20423.884144292373
-19518.39262466343,-19082.980642674047,-69747.70215126302,-20435.75292059814
-19160.94352733416,-19043.708627666078,-69844.14992858768,-20486.983118889704
-19135.50724214402,-19094.33532885734,-69823.85454462226,-20498.561322517555
-19489.268301638163,-19145.766692849003,-69714.956845636,-20447.934621326283
-19617.54496306717,-19118.09523321333,-69703.35629026369,-20424.018254759107
-19505.0039297347,-19074.10700012529,-69753.87123273268,-20435.66351362032
-19145.83374808237,-19037.494842707496,-69845.37927453271,-20478.04242110758
-19115.34596864533,-19078.085610638336,-69821.48525971,-20482.490418254187
-19468.19060661681,-19124.10785247181,-69715.202714825,-20435.21647873121
-19600.8258582146,-19110.65210230972,-69704.71974667546,-20413.155306953824
-19492.77752551765,-19081.39366881772,-69751.94898270952,-20427.5721821275
-19139.955239290623,-19050.794130658403,-69842.1829750756,-20474.264976294635
-19109.936846487148,-19091.04962242241,-69821.01587307642,-20488.16776134584
-19463.608499003472,-19135.64135261075,-69714.17453458006,-20443.71014162423
-19598.613035513525,-19116.93294250166,-69699.55649370629,-20415.077556976983
-19493.42572610685,-19086.243997364523,-69749.2667733749,-20431.059054262525
-19143.46446317011,-19059.37720052924,-69847.16741408914,-20484.166799088336
-19106.427622607665,-19097.039889936437,-69822.24521902147,-20494.403898048866
-19459.406371045872,-19138.48002415657,-69708.81011591079,-20441.743188112163
-19599.060070402636,-19127.102986228823,-69699.42238323955,-20418.45267038973
-19499.170124431865,-19109.15453543121,-69755.52526182237,-20433.38363568588
-19148.046570783445,-19076.85626469329,-69853.22473683652,-20479.87526415292
-19109.556866831408,-19113.02138722198,-69841.51242274194,-20495.677947482814
-19463.58614725901,-19143.352704447832,-69727.47382253097,-20440.51384216712
-19604.223323371807,-19124.57723910537,-69717.706110204,-20417.51389712261
-19501.58411283304,-19085.93107294215,-69770.94796549654,-20431.550792640544
-19144.582050392877,-19040.35586599777,-69857.67273398313,-20466.218348290724
-19101.77845976096,-19077.3032995824,-69837.89144014019,-20475.24845305067
-19461.015696646657,-19127.527669373478,-69733.01705515588,-20429.4720804062
-19604.648006516454,-19116.754128546017,-69722.86936317317,-20402.314710893
-19500.935912243836,-19066.61916573276,-69763.6165933152,-20408.550847596038
-19145.58787889336,-19025.938990824103,-69850.47547226852,-20451.868528350416
-19099.409174848697,-19072.117694868768,-69835.99154186148,-20470.174607059314
-19455.785388444117,-19124.711349572102,-69727.96556090898,-20427.862754805417
-19595.79671571216,-19106.06999469638,-69716.56617123677,-20407.56737084
-19495.37032787446,-19075.91749142617,-69760.6661630471,-20420.55373436853
-19144.626753881785,-19042.635743932216,-69853.20238509207,-20468.699391925264
-19086.57927353135,-19072.944709413616,-69830.06832958083,-20478.422400763324
-19435.11002482296,-19119.92807625867,-69716.96850263697,-20424.688807092763
-19581.178674838386,-19107.142878430237,-69707.69252868803,-20405.667472561297
-19481.936929456824,-19072.609433246784,-69751.45724433151,-20416.776289555582
-19130.23223045257,-19043.21688928805,-69841.19949831958,-20462.61971743342
-19073.235282091533,-19091.54136080043,-69828.45900398004,-20481.75281068716
-19425.25290551817,-19146.079617271374,-69721.48355501695,-20439.530365411087
-19571.947404378345,-19125.58306760586,-69703.17747630805,-20413.11060346492
-19474.42674331984,-19091.78722998944,-69752.70894202101,-20429.29326645056
-19125.694826328137,-19056.78439817243,-69851.61541123575,-20479.450581008263
-19063.15464534219,-19086.40045957571,-69836.05859709485,-20491.274653825123
-19416.08869029149,-19121.3138844149,-69722.53408700635,-20440.75971135613
-19568.05820084312,-19117.82701227987,-69713.5039822464,-20416.016330244103
-19475.9466619428,-19087.182770631644,-69758.25217464592,-20424.554696626037
-19130.209878708112,-19050.39179925821,-69852.82240543632,-20472.879168138406
-19060.42773251864,-19071.76006695748,-69837.35499827325,-20484.81499967754
-19410.74662336667,-19115.03304422296,-69728.43494754254,-20440.35737995593
-19562.73848566276,-19101.219666149576,-69713.74985143541,-20415.65870233282
-19469.53171128413,-19065.59098548782,-69756.53109032287,-20423.079481491983
-19119.19046869165,-19032.33158973832,-69847.74855944498,-20469.124075069914
-19045.943802111604,-19068.42965703364,-69835.00806510544,-20484.09974385497
-19395.480381903697,-19121.962085004103,-69729.66429348759,-20438.23396423268
-19548.880404100462,-19109.78038427596,-69719.09191836022,-20417.312731422517
-19455.9418506553,-19077.59387226032,-69762.85663400372,-20427.683940849776
-19101.420831849675,-19045.04973233339,-69856.57749850482,-20472.499188482667
-19021.312179721856,-19083.271215351968,-69849.84962342377,-20490.20177009127
-19367.31718389001,-19125.247791439037,-69738.3591220807,-20442.883127079385
-19523.01943576568,-19110.45093660962,-69720.94711315002,-20417.759766311618
-19434.640638189398,-19079.002032161003,-69766.25409916093,-20427.616885616408
-19088.21095087659,-19047.508424223477,-69861.9419171741,-20477.81890366303
-19006.91765629264,-19076.766857715476,-69850.49782401299,-20492.839275937
-19357.795340752047,-19130.947486275138,-69745.01994192839,-20447.800510859557
-19519.44315665283,-19126.432433895163,-69736.10159589072,-20427.28160944958
-19429.052702075565,-19085.841665964326,-69782.48146563547,-20436.57993514299
-19081.103096139803,-19052.224642303543,-69879.95742320508,-20485.463200266742
-18997.552275365862,-19093.575369545862,-69870.90496670068,-20508.753717989173
-19345.77010223509,-19149.70059987314,-69759.88385199117,-20465.90542386835
-19499.61715932097,-19117.58114309086,-69731.98887491094,-20430.41085367332
-19411.573637911515,-19065.99331688801,-69769.49510210694,-20431.819013574008
-19067.02149713296,-19031.996313571493,-69865.02645790893,-20478.176531574318
-18978.17331292311,-19076.520988526463,-69864.78058871992,-20499.902427184872
-19327.575782248477,-19128.332332173864,-69754.45237808852,-20456.115359796928
-19487.52486557065,-19106.53938132994,-69734.13464237865,-20422.43128090278
-19401.135373250887,-19070.53072101244,-69774.52424460939,-20426.074615248992
-19055.510348738477,-19038.85829911927,-69870.81555972285,-20471.13573207089
-18962.79531273786,-19078.376183316253,-69875.59883303629,-20494.11332537095
-19309.984959362147,-19131.93096303117,-69764.86829100469,-20447.085255036985
-19474.404391575383,-19119.43633788065,-69744.9081832061,-20422.788908814066
-19387.612567855427,-19081.50542754,-69781.85561679074,-20429.09210075046
-19038.3442089968,-19045.161491055667,-69870.99437367849,-20474.264976294635
-18944.042199139854,-19080.097267639318,-69867.35103933228,-20496.86258993895
-19287.81202886248,-19122.07384372638,-69751.27843037587,-20445.677095136296
-19452.097350608987,-19107.388747619243,-69727.13854636413,-20418.89970527884
-19376.324936905497,-19079.76199147248,-69773.78663704236,-20435.19412698676
-19035.12555779524,-19040.981714842525,-69860.80197820687,-20476.410743762342
-18934.16272809061,-19074.73284897004,-69860.55610901787,-20501.86938069694
-19281.330022970444,-19130.29928568593,-69749.42323558607,-20456.89767085286
-19448.74458894069,-19119.279875669465,-69723.51756376238,-20424.532344881576
-19369.373544379898,-19092.435430578644,-69771.59616608574,-20437.742225854665
-19028.95647632557,-19068.72022971156,-69872.9389754461,-20486.357270044955
-18923.143318074148,-19081.21485486208,-69868.46862655504,-20500.34946207398
-19264.96854602916,-19120.620980336786,-69750.54082280885,-20449.70040913825
-19435.89233587889,-19104.035985950948,-69731.07245338827,-20420.06199599052
-19361.058695442523,-19069.234319834035,-69780.62627084569,-20431.19316472926
-19019.434633187608,-19033.89621185019,-69870.12265564474,-20472.320374527026
-18907.251227766425,-19064.518101753965,-69868.82625446633,-20489.10653461296
-19256.72075232515,-19117.491736113043,-69761.85080550323,-20447.42053120381
-19428.493908464185,-19096.74931725852,-69733.12881387817,-20411.65774007532
-19353.392047094352,-19062.05940986388,-69777.00528824393,-20417.938580267262
-19012.34913019528,-19028.040054802903,-69870.36852483374,-20465.234871534693
-18897.68468113955,-19057.52200573945,-69875.6435365252,-20491.05113638057
-19237.40884511576,-19117.17881169067,-69764.68947704906,-20450.035685305083
-19410.634864644395,-19106.91936098568,-69736.63803775764,-20417.916228522805
-19336.87410794188,-19069.077857622848,-69774.25602367593,-20423.548868125545
-19005.10716499176,-19040.15470029768,-69866.41226606516,-20470.398124503867
-18886.441753678533,-19064.00401163149,-69862.83598695231,-20486.5360840006
-19232.37970261332,-19113.177849433167,-69749.04325593034,-20439.48566192218
-19410.724271622214,-19103.92422722867,-69726.69151147503,-20409.914304007805
-19340.53979403255,-19076.85626469329,-69773.60782308673,-20426.34283618245
-19005.174220225123,-19050.905889380683,-69875.75529524748,-20482.333956043
-18882.88782631014,-19078.86792169427,-69871.08378065632,-20503.29989234208
-19219.393339084785,-19109.3109976424,-69747.79155824085,-20448.53811842657
-19400.95655929525,-19103.007805706,-69719.11427010468,-20414.831687787973
-19333.498994529127,-19081.14779962871,-69759.95090722453,-20421.716025080208
-18996.72526082102,-19047.039037589915,-69857.24805083848,-20466.598327946464
-18871.5554918713,-19065.3004128099,-69861.76310321846,-20490.469991024733
-19211.52552503652,-19113.1107941998,-69748.99855244142,-20448.873394593407
-19390.94297777927,-19104.95240747361,-69724.23281958495,-20418.16209771181
-19327.64283748184,-19074.57638675885,-69766.3658578832,-20425.38171117088
-18995.78648755389,-19036.846642118293,-69853.22473683652,-20467.402990746858
-18863.508863867388,-19065.188654087626,-69854.47643452602,-20490.559398002555
-19201.82486794292,-19117.938771002147,-69740.6613517596,-20445.90061258085
-19389.579521367494,-19116.240038423544,-69719.3601392937,-20422.3195221805
-19321.11612810089,-19075.80573270389,-69757.73808452346,-20424.50999313712
-18992.4337258856,-19044.222717788543,-69853.67177172563,-20475.650784450863
-18860.156102199093,-19063.57932848684,-69858.43269329461,-20501.377642318923
-19199.388527797288,-19112.775518032973,-69737.84503195823,-20447.532289926086
-19389.35600392294,-19113.177849433167,-69714.91214214709,-20419.65966459032
-19322.948971146223,-19082.958290929597,-69757.67102929008,-20426.7228158382
-18991.96433925204,-19047.44136899011,-69849.91667865714,-20466.933604113296
-18852.288288150823,-19069.59194774532,-69861.58428926281,-20491.98990964769
-19188.011489869536,-19115.815355278894,-69752.48542457646,-20450.99681031666
-19375.98966073867,-19101.89021848324,-69723.45050852901,-20419.5702576125
-19315.03645360905,-19079.2031978611,-69764.24244215994,-20430.030874017582
-18985.48233336,-19046.45789223408,-69858.90207992817,-20479.33882228599
-18844.26401189137,-19074.62109024776,-69870.7932079784,-20509.670139511843
-19178.623757198307,-19119.771614047484,-69754.94411646655,-20464.58667094549
-19365.01495421111,-19100.54911381592,-69720.6118369832,-20427.102795493935
-19304.53113371505,-19069.68135472314,-69754.09475017725,-20429.13680423937
-18975.31228963283,-19039.90883110867,-69851.90598391366,-20473.6838309388
-18833.803395486284,-19070.68718322363,-69869.56386203335,-20504.417479564843
-19169.59365243836,-19123.146727460236,-69760.08501769126,-20464.117284311928
-19362.913890232317,-19123.30318967142,-69738.00149416942,-20436.17760374279
-19297.98207258965,-19082.80182871841,-69768.80219802883,-20437.22813573219
-18970.79723725286,-19038.545374696896,-69856.62220199373,-20475.85195015096
-18822.046377902792,-19065.121598854257,-69870.97202193404,-20502.271712097136
-19154.863852842314,-19122.3644164043,-69761.94021248106,-20459.155197042848
-19353.12382616089,-19120.73273905906,-69734.33580807874,-20429.20385947273
-19297.400927233808,-19093.575369545862,-69768.89160500665,-20434.009484530627
-18967.019792439914,-19052.895194637204,-69857.04688513838,-20473.19209256078
-18809.01531088535,-19067.78145644444,-69869.29564109989,-20495.3873748049
-19139.888184057258,-19120.44216638114,-69757.22399440098,-20454.327220240502
-19334.34836081843,-19111.613227321297,-69722.48938351743,-20419.52555412359
-19280.01127004758,-19083.45002930761,-69758.98978221296,-20426.16402222681
-18956.64858301265,-19058.50548249549,-69848.8884984122,-20472.90151988286
-18799.716985191943,-19079.82904670585,-69865.02645790893,-20500.05888939606
-19129.472271141087,-19131.573335119883,-69753.9159362216,-20457.2776505086
-19326.83817468145,-19121.06801522589,-69719.2036770825,-20422.543039625056
-19271.71877285466,-19097.419869592177,-69759.28035489087,-20426.7228158382
-18941.739969460963,-19052.314049281365,-69844.8875361547,-20459.915156354327
-18781.90264486106,-19065.72509595455,-69858.3879898057,-20487.87718866792
-19108.707500542107,-19114.608361078303,-69744.75172099491,-20448.068731793017
-19309.515572728586,-19106.405270863208,-69716.36500553667,-20420.687844835265
-19260.54290062701,-19090.155552644203,-69761.78375026987,-20434.94825779775
-18932.50869900092,-19046.793168400905,-69843.38996927619,-20470.308717526044
-18762.210757995934,-19060.07010460736,-69855.16933860414,-20490.559398002555
-19088.97091018807,-19126.3653786618,-69752.99951469892,-20454.57308942951
-19295.83630512193,-19123.191430949144,-69721.21533408348,-20424.15236522584
-19242.885022507315,-19088.523875298964,-69751.1666716536,-20423.146536725348
-18917.08599532676,-19046.63670618972,-69840.12661458572,-20466.933604113296
-18742.65298159754,-19059.53366274043,-69854.76700720395,-20495.365023060443
-19066.06037212138,-19111.30030289892,-69742.47184306048,-20455.10953129644
-19277.686688624228,-19111.16619243219,-69717.63905497063,-20426.678112349287
-19225.540068809994,-19073.324689069355,-69751.7701687539,-20423.3700541699
-18904.0102248204,-19041.831081131822,-69847.94972514507,-20467.313583769035
-18727.722016301395,-19061.61237497477,-69870.97202193404,-20499.72361322923
-19047.195499801102,-19110.11566044279,-69757.9168984791,-20455.10953129644
-19251.691609822705,-19102.627826050262,-69720.03069162735,-20422.833612302973
-19206.831658700903,-19076.07395363736,-69753.40184609912,-20427.39336817185
-18887.17936124556,-19045.228546289032,-69846.87684141121,-20474.80141816156
-18703.760946245307,-19071.670659979663,-69869.40739982217,-20504.462183053754
-19020.842793088294,-19120.553925103417,-69759.90620373562,-20463.379676744906
-19228.959885711654,-19104.19244816213,-69725.97625565247,-20429.695597850758
-19177.819094397917,-19071.60360474629,-69760.75557002492,-20431.059054262525
-18857.987982986928,-19032.085720549312,-69844.32874254331,-20465.50309246816
-18677.98938488834,-19058.3490202843,-69871.39670507869,-20501.10942138546
-18994.646548586672,-19110.227419165065,-69760.39794211363,-20458.976383087207
-19202.1824958542,-19103.566599317382,-69722.28821781733,-20420.4196239018
-19158.283669743974,-19082.935939185136,-69765.13651193817,-20428.913286794817
-18841.44769209,-19055.890328394216,-69859.68439098411,-20477.10364784046
-18649.066227563173,-19067.960270400083,-69883.06431568436,-20508.396090077887
-18955.262774856423,-19104.505372584503,-69761.51552933641,-20456.741208641677
-19163.40221922424,-19091.25078812251,-69721.2600375724,-20420.03964424606
-19118.721082058084,-19062.64055521972,-69759.36976186869,-20422.07365299149
-18800.320482292234,-19028.732958881017,-69849.9837338905,-20462.73147615569
-18608.96719801035,-19050.72707542504,-69874.81652198035,-20494.359194559955
-18925.2667337974,-19103.276026639465,-69762.38724737016,-20452.74024638417
-19139.50820440152,-19092.68129976765,-69719.71776720497,-20413.08825172046
-19090.356718344297,-19054.616278960264,-69751.32313386477,-20413.490583120656
-18771.59849066717,-19024.821403601338,-69846.9886001335,-20463.267918022622
-18573.87495921552,-19050.324744024845,-69875.46472256955,-20497.466087039244
-18882.64195712113,-19100.280892882456,-69764.13068343767,-20455.24364176317
-19096.92813121416,-19094.134163157247,-69729.10549987621,-20420.15140296834
-19056.4491220056,-19068.72022971156,-69765.91882299409,-20425.784042571075
-18743.85997579813,-19027.794185613893,-69847.56974548934,-20461.323316255013
-18538.80507216514,-19032.935086838614,-69875.17414989164,-20485.574958989026
-18850.14252068311,-19093.374203845764,-69768.2657561619,-20445.81120560303
-19067.356773299787,-19092.211913134088,-69728.45729928701,-20408.014405729104
-19023.927333823125,-19065.76979944346,-69760.17442466908,-20410.830725530475
-18710.265303881803,-19032.979790327525,-69845.11105359925,-20449.163967271325
-18504.495144426244,-19054.16924407116,-69875.77764699193,-20488.14540960138
-18806.10958410616,-19101.01850044948,-69758.94507872403,-20446.86173759243
-19021.82626984433,-19099.364471359782,-69719.06956661577,-20412.30594066452
-18982.91188274764,-19081.371317073263,-69763.30366889283,-20420.08434773497
-18668.84752140612,-19044.17801429964,-69852.9341641586,-20459.19990053176
-18452.952021712303,-19048.73777016852,-69878.23633888201,-20489.44181077979
-18753.76179859183,-19102.717233028085,-69765.20356717153,-20449.40983646033
-18970.394905852667,-19102.516067327982,-69726.46799403048,-20412.685920320266
-18931.681684456074,-19075.336346070333,-69766.7681892834,-20421.31369368001
-18616.67854984743,-19040.802900886883,-69850.5872309908,-20466.464217479734
-18401.788878654108,-19045.228546289032,-69872.98367893502,-20494.11332537095
-18703.068042167197,-19104.95240747361,-69771.95379399703,-20462.507958711143
-18916.59425694874,-19101.13025917176,-69730.78188071035,-20422.900667536334
-18877.992794274425,-19078.1526658717,-69767.99753522844,-20425.247600704148
-18565.62716551151,-19036.243145018,-69854.1411583592,-20465.32427851251
-18349.798721051066,-19055.890328394216,-69886.57353956385,-20502.405822563866
-18653.178948542947,-19117.692901813138,-69777.42997138858,-20468.74409541417
-18882.5078466544,-19113.80369827792,-69733.9111249341,-20435.037664775573
-18847.616773559665,-19076.029250148447,-69762.49900609243,-20428.667417605808
-18541.82255766661,-19035.661999662163,-69847.92737340061,-20466.263051779635
-18323.982456205184,-19048.08956957931,-69883.22077789555,-20497.93547367281
-18625.90982030747,-19105.533552829453,-69776.11121846571,-20457.076484808505
-18852.847081762207,-19101.197314405123,-69725.46216552999,-20416.128088966383
-18819.09594763469,-19068.60847098929,-69748.10448266321,-20410.69661506374
-18517.95089458834,-19031.23635426001,-69836.17035581713,-20452.36026672844
-18295.99807214714,-19046.25672653398,-69872.0896091568,-20485.172627588825
-18592.605721069067,-19101.13025917176,-69759.6156310577,-20443.7771968576
-18824.147441881592,-19092.54718930092,-69709.59242696672,-20405.153382438824
-18796.408927012555,-19063.825197675847,-69743.67883726106,-20408.640254573853
-18497.94608330084,-19031.772796126937,-69831.02945459241,-20448.202842259747
-18267.320784010983,-19036.936049096115,-69857.69508572758,-20475.49432223968
-18569.181092879902,-19092.83776197884,-69754.00534319942,-20440.871470078408
-18809.775270196827,-19096.63755853624,-69714.77803168035,-20406.874466761885
-18777.946386092477,-19057.253784805987,-69741.89069770464,-20403.812277771507
-18474.297937667125,-19023.994389056494,-69833.59990520477,-20442.77136835711
-18249.662905891288,-19044.55799395537,-69874.72711500253,-20481.484589753694
-18550.96442114883,-19104.795945262427,-69765.13651193817,-20449.789816116077
-18790.664528687543,-19103.92422722867,-69716.83439217025,-20413.20001044273
-18767.19519700947,-19071.469494279565,-69745.86930821769,-20406.13685919486
-18470.56519634309,-19031.72809263803,-69827.49787896847,-20435.39529268685
-18242.152719754307,-19036.690179907106,-69865.04880965338,-20471.426304748813
-18538.693313442865,-19080.991337417527,-69755.18998565555,-20435.104720008934
-18782.90847336155,-19082.10892464029,-69701.97048210747,-20400.101888191926
-18761.13787426208,-19059.265441806965,-69739.25319185891,-20403.052318460028
-18465.13372244045,-19027.86124084726,-69827.00614059046,-20440.692656122763
-18230.84273705992,-19040.2441072755,-69862.92539393013,-20473.88499663889
-18516.498031198746,-19090.714346255583,-69745.04229367284,-20433.94242929726
-18756.89104281557,-19096.59285504733,-69697.76835414987,-20400.951254481228
-18733.488766370865,-19069.144912856213,-69734.71578773449,-20405.913341750307
-18434.93651568133,-19027.078929791325,-69823.58632368878,-20440.871470078408
-18194.945835464696,-19033.2927147499,-69865.20527186457,-20474.68965943929
-18485.13853372795,-19095.676433524663,-69761.82845375878,-20443.71014162423
-18723.98927497736,-19093.39655559022,-69710.7994211673,-20404.03579521606
-18696.98836767535,-19061.165340085667,-69743.23180237196,-20404.28166440507
-18404.06875658855,-19032.555107182878,-69832.52702147092,-20445.274763736103
-18163.765151949545,-19045.11678756676,-69871.01672542295,-20485.083220611003
-18449.442797832824,-19096.97283470307,-69756.10640717822,-20446.05707479204
-18692.27214959528,-19100.0573754379,-69710.03946185583,-20413.37882439838
-18676.357707543106,-19074.5540350144,-69746.69632276254,-20421.42545240229
-18387.93079709182,-19029.62702865923,-69829.01779759143,-20456.94237434177
-18149.795311664977,-19052.67167719265,-69880.6950307721,-20504.663348753853
-18432.902506935898,-19105.511201084995,-69783.80021855835,-20475.87430189542
-18677.43059127696,-19091.45195382261,-69733.12881387817,-20434.680036864287
-18662.007887602795,-19069.748409956504,-69766.3658578832,-20433.249525219147
-18371.56932015053,-19029.850546103786,-69847.56974548934,-20462.932641855798
-18127.465918954127,-19033.449176961087,-69889.7474872765,-20497.086107383504
-18409.63434095792,-19097.97866320356,-69791.44451516206,-20466.508920968645
-18653.044838076217,-19104.371262117776,-69738.8061569698,-20419.45849889022
-18636.5492506682,-19079.314956583377,-69772.17731144158,-20415.79281279955
-18353.97849726421,-19044.66975267765,-69860.8913851847,-20454.170758029315
-18104.309511698422,-19039.1935752861,-69898.62112982526,-20488.83831367949
-18379.88416908791,-19093.575369545862,-69793.90320705214,-20455.86949060792
-18629.12847150904,-19098.716270770583,-69742.74006399394,-20414.965798254707
-18613.30343643468,-19070.28485182343,-69770.21035792952,-20409.89195226335
-18326.88818298437,-19027.168336769144,-69851.77187344694,-20443.866603835417
-18076.168665429195,-19033.784453127915,-69893.97196697856,-20481.75281068716
-18347.00475299415,-19095.743488758028,-69792.472695407,-20451.33208648349
-18592.02457571323,-19095.676433524663,-69739.96844768149,-20410.02606273008
-18577.02655518372,-19072.72119196906,-69771.0150207299,-20406.650949317333
-18296.176886102785,-19034.47735720603,-69853.9399926591,-20441.94435381226
-18040.8082057009,-19038.92535435264,-69900.47632461504,-20484.2338543217
-18310.906685698832,-19096.4587445806,-69794.35024194125,-20452.56143242853
-18563.928432932906,-19094.84941897981,-69736.07924414627,-20412.14947845333
-18548.66219146993,-19058.21490981757,-69763.28131714837,-20413.11060346492
-18264.48211246516,-19017.0877000198,-69842.47354775353,-20449.40983646033
-18006.520629706458,-19023.43559544511,-69887.17703666414,-20486.759601445152
-18276.172074815284,-19087.026308420456,-69783.12966622469,-20451.890880094878
-18533.99944710725,-19093.91064571269,-69726.44564228602,-20409.131992951872
-18528.09858657105,-19075.179883859146,-69752.19485189854,-20409.24375167415
-18250.713437880688,-19038.47831946353,-69837.06442559534,-20448.09108353747
-17996.663510401668,-19043.32864801033,-69891.17799892164,-20491.609929991955
-18262.20223453072,-19094.558846301898,-69779.19575920055,-20454.327220240502
-18514.218153264304,-19097.531628314453,-69720.07539511626,-20413.222362187196
-18505.65743513792,-19075.135180370235,-69750.94315420905,-20414.33994940996
-18233.636705116834,-19043.32864801033,-69832.21409704853,-20450.929755083296
-17970.51196938896,-19050.86118589177,-69887.89229248671,-20488.368927045933
-18239.22464123066,-19113.98251223356,-69794.5737593858,-20456.13771154138
-18500.114202513007,-19109.489811598043,-69730.44660454353,-20410.69661506374
-18489.877103552477,-19076.36452631528,-69754.5194333219,-20405.242789416647
-18219.84567878791,-19042.94866835459,-69841.02068436393,-20442.34668521246
-17950.037771467898,-19040.512328208963,-69890.64155705471,-20479.584691475
-18213.14015545132,-19099.364471359782,-69795.80310533084,-20454.41662721832
-18477.203664446315,-19115.569486089884,-69742.82947097176,-20417.08921397796
-18474.54380685613,-19089.23913112153,-69773.00432598643,-20422.65479834733
-18199.058556444477,-19035.99727582899,-69845.0887018548,-20451.734417883687
-17930.077663669308,-19031.929258338125,-69896.05067921289,-20491.118191613936
-18191.682480774223,-19088.903854954704,-69794.12672449669,-20457.054133064048
-18459.21051015979,-19094.49179106853,-69737.68856974704,-20414.98814999916
-18458.472902592766,-19066.52975875494,-69764.84593926024,-20413.222362187196
-18191.637777285312,-19034.32089499484,-69844.64166696569,-20447.24171724817
-17918.298294341363,-19038.16539504116,-69897.30237690239,-20485.10557235546
-18180.417201568747,-19096.034061435945,-69800.18404724408,-20460.13867379888
-18447.967582698773,-19099.520933570973,-69739.76728198139,-20415.211667443717
-18448.638135032437,-19069.41313378968,-69767.14816893914,-20410.92013250829
-18184.01583242605,-19031.10224379328,-69848.79909143437,-20450.7285893832
-17916.331340829296,-19044.20036604409,-69905.12548746174,-20499.99183416269
-18175.812742210957,-19104.415965606688,-69803.78267810139,-20471.158083815342
-18444.65952451939,-19095.69878526912,-69735.94513367953,-20421.09017623546
-18446.201794886805,-19070.55307275689,-69762.40959911462,-20416.28455117757
-18181.870064958344,-19029.17999377012,-69845.5357367439,-20448.314600982023
-17909.469355281515,-19028.35297922528,-69897.70470830258,-20488.301871812568
-18166.514416517548,-19091.34019510033,-69801.79337284487,-20461.882109866398
-18440.7032657508,-19107.232285408056,-69745.4669768175,-20418.877353534383
-18443.4525303188,-19073.950537914105,-69771.8196835303,-20412.104774964428
-18181.4900853026,-19027.57066816934,-69854.65524848166,-20442.7266648682
-17901.95916914453,-19020.01577854345,-69911.8533625428,-20480.4340577643
-18150.085884342898,-19066.86503492177,-69806.88957058068,-20442.48079567919
-18427.69455047781,-19076.029250148447,-69741.957752938,-20398.649024802333
-18435.16003312588,-19048.380142257232,-69767.30463115033,-20397.68789979075
-18176.03625965551,-19015.12074650773,-69844.99929487698,-20432.578972885487
-17901.266265066417,-19025.51430767945,-69899.06816471436,-20478.04242110758
-18153.036314611,-19083.45002930761,-69796.63011987568,-20446.749978870157
-18433.19307961381,-19088.0544886654,-69726.33388356376,-20395.720946278685
-18440.54680353961,-19054.90685163818,-69744.79642448384,-20387.22728338567
-18186.76509699405,-19018.361749453758,-69821.79818413236,-20423.28064719208
-17912.755061716445,-19019.255819231967,-69881.36558310575,-20472.6332989494
-18160.099465858875,-19073.279985580444,-69781.49798887945,-20444.157176513338
-18444.36895184147,-19086.087535153336,-69717.34848229271,-20400.481867847662
-18457.444722347824,-19057.54435748391,-69744.57290703928,-20402.80644927102
-18201.09256518991,-19016.215981986046,-69824.45804172255,-20434.61298163092
-17921.94162868758,-19023.12267102273,-69884.91951047415,-20473.43796174979
-18173.845788698887,-19084.12058164127,-69785.90128253715,-20440.871470078408
-18461.021001460675,-19082.80182871841,-69719.2036770825,-20396.01151895661
-18476.309594668102,-19054.01278185997,-69745.64579077314,-20388.344870608435
-18225.56772536847,-19019.993426798992,-69828.88368712469,-20414.33994940996
-17943.55576557586,-19020.105185521268,-69888.13816167571,-20456.71885689722
-18189.67082377325,-19068.474360522552,-69788.53878838287,-20430.835536817973
-18477.605995846512,-19072.877654180247,-69726.62445624167,-20385.886178718352
-18495.21917047729,-19044.245069533,-69753.0665699323,-20382.04167867204
-18250.020533802573,-19011.27624646142,-69831.45413773706,-20418.005635500627
-17965.8404547978,-19009.175182482624,-69891.13329543272,-20459.401066231854
-18208.423937371248,-19064.29458430941,-69792.6738611071,-20432.44486241876
-18494.79448733264,-19067.4014767887,-69723.00347363991,-20386.668489774285
-18511.4688886963,-19040.10999680877,-69740.14726163713,-20377.884254203356
-18273.42281024728,-19004.548371380373,-69820.2782655094,-20412.32829240898
-17987.812219597366,-18998.356938166256,-69882.03613543941,-20455.62362141891
-18227.646437602813,-19060.87476740775,-69791.39981167315,-20433.94242929726
-18517.705025399333,-19072.96706115807,-69720.94711315002,-20392.4128880993
-18535.586420963577,-19048.29073527941,-69745.3105146063,-20391.51881832109
-18291.594778489445,-19008.57168538233,-69815.71850964052,-20417.245676189148
-18002.452612215595,-19004.257798702456,-69876.58230979233,-20462.127979055404
-18242.80092034351,-19067.289718066422,-69781.45328539054,-20440.603249144944
-18540.324990788104,-19082.891235696225,-69716.27559855886,-20398.98430096916
-18561.00035440926,-19055.35388652729,-69738.26971510288,-20390.75885900961
-18323.78129050509,-19021.043958788392,-69811.58343691629,-20420.441975646256
-18039.08712137784,-19024.396720456687,-69877.61049003726,-20460.6304121769
-18274.518045725592,-19077.48211353804,-69787.10827673772,-20437.161080498827
-18571.952709192363,-19085.05935490839,-69719.67306371607,-20397.84436200194
-18598.081898460616,-19056.91850863916,-69738.49323254744,-20387.18257989676
-18359.92406128932,-19009.532810393903,-69815.11501254023,-20421.268990191104
-18065.59629030184,-19000.793278311885,-69874.21302488005,-20468.47587448071
-18292.6676622233,-19053.90102313769,-69773.69723006454,-20439.150385755347
-18594.617378070045,-19078.510293782987,-69708.56424672178,-20402.04648995954
-18617.50556439228,-19048.15662481268,-69732.77118596688,-20394.7151177782
-18384.64509065689,-19010.203362727567,-69819.13832654219,-20432.33310369648
-18088.64093883526,-18998.08871723279,-69873.81069347987,-20472.365078015933
-18311.04079616556,-19049.16245331317,-69775.30655566533,-20442.43609219028
-18612.409366656462,-19065.188654087626,-69710.12886883365,-20400.75008878113
-18634.470538433856,-19036.131386295725,-69727.92085742007,-20393.10579217741
-18400.51482922016,-18995.5853218538,-69804.4755821795,-20420.06199599052
-18107.95284604464,-18990.93615900709,-69872.15666439018,-20463.826711634007
-18329.235116152184,-19053.47633999304,-69788.00234651595,-20442.14551951236
-18629.35198895359,-19068.4520087781,-69714.17453458006,-20391.3623561099
-18659.705657923896,-19049.631839946727,-69737.08507264675,-20387.249635130123
-18429.16976561186,-19009.309292949358,-69810.84582934926,-20415.524591866088
-18129.276410255006,-18990.51147586244,-69872.04490566789,-20454.66249640733
-18351.54215711858,-19045.496767222496,-69778.90518652264,-20432.780138585586
-18653.64833517651,-19061.701781952597,-69708.76541242188,-20386.288510118546
-18686.30423382571,-19041.38404624272,-69731.72065397748,-20381.549940294022
-18459.322268882068,-19002.89434229068,-69806.48723918048,-20409.981359241174
-18158.55719549146,-19001.508534134453,-69877.83400748183,-20454.95306908525
-18376.754924864166,-19059.48895925152,-69786.30361393734,-20430.634371117874
-18681.342146556635,-19069.72605821205,-69708.8995228886,-20382.488713561143
-18713.08162368317,-19046.122616067245,-69731.00539815491,-20377.99601292563
-18487.820743062584,-19007.498801648475,-69807.15779151414,-20416.70923432222
-18185.06636441545,-19001.68734809009,-69876.4929028145,-20467.090066324483
-18395.709204162267,-19056.35971502778,-69784.98486101447,-20440.46913867821
-18698.84356246514,-19080.65606125069,-69718.22020032647,-20399.81131551401
-18736.685065827976,-19064.138122098226,-69743.05298841631,-20400.92890273677
-18514.352263731034,-19020.216944243544,-69812.2316375055,-20425.761690826617
-18205.22763791414,-19005.75536558096,-69870.54733878939,-20457.925851097807
-18416.183402083327,-19059.01957261796,-69784.18019821409,-20437.272839221103
-18725.643304067053,-19069.88252042324,-69711.42527001206,-20395.65389104532
-18762.121351018115,-19041.31699100936,-69728.14437486463,-20388.858960730908
-18539.676790198897,-18998.893380033183,-69796.80893383133,-20415.18931569926
-18229.546335881518,-18985.124705448718,-69862.63482125221,-20453.54490918457
-18436.881117448946,-19042.702799165585,-69774.39013414265,-20429.98617052867
-18748.442083411468,-19055.73386618303,-69694.43794422603,-20384.81329498449
-18787.24471178588,-19035.14790953969,-69713.99572062441,-20379.068896659483
-18569.538720791188,-19010.583342383303,-69791.31040469532,-20412.842382531453
-18261.9116618528,-18997.90990327715,-69861.51723402945,-20461.50213021065
-18462.295050894627,-19049.67654343564,-69775.8206457878,-20439.955048555737
-18772.29139474528,-19075.0010699035,-69706.41847925408,-20395.83270500096
-18809.0376626298,-19045.04973233339,-69727.94320916453,-20387.07082117448
-18587.420116355435,-19003.29667369088,-69793.45617216303,-20411.14364995285
-18277.177903315773,-18996.27822593191,-69864.84764395328,-20457.94820284226
-18477.74010631324,-19058.796055173403,-69778.8157795448,-20437.80928108803
-18794.19610431148,-19082.600663018307,-69700.87524662915,-20393.485771833155
-18834.406892586576,-19059.846587162803,-69718.01903462637,-20383.69570776173
-18611.82822130063,-19015.43367093011,-69786.5271313819,-20408.84142027395
-18298.05443263703,-18996.166467209638,-69855.32580081532,-20455.556566185543
-18493.408679176413,-19055.06331384937,-69775.97710799899,-20441.877298578896
-18804.90258990557,-19069.971927401057,-69695.24260702642,-20390.736507265152
-18851.103645694693,-19044.401531744188,-69712.76637467937,-20380.678222260263
-18641.6007449151,-19021.75921461096,-69788.56114012732,-20414.630522087875
-18331.15736617534,-19026.609543157763,-69864.19944336408,-20465.90542386835
-18526.735130159275,-19081.661889751183,-69783.75551506944,-20451.75676962814
-18843.995790957902,-19087.272177609462,-69700.0482320843,-20402.85115275993
-18886.59821588972,-19053.833967904327,-69710.44179325603,-20384.768591495587
-18674.23429181985,-19012.974979040024,-69781.02860224589,-20408.46144061821
-18360.639317111887,-19009.599865627275,-69861.0925508848,-20458.23877552018
-18554.160720605934,-19075.738677470526,-69782.95085226904,-20447.42053120381
-18868.359192414187,-19089.932035199647,-69699.8023628953,-20395.94446372324
-18912.861515624707,-19054.72803768254,-69717.63905497063,-20378.13012339236
-18704.722071256885,-19014.11491800725,-69786.10244823724,-20402.09119344845
-18387.57316918053,-19006.94000803709,-69858.49974852797,-20447.956973070737
-18572.69031675939,-19067.848511677803,-69775.32890740978,-20428.890935050364
-18893.97429155997,-19087.87567470976,-69692.42628722504,-20378.621861770374
-18942.812853194817,-19056.40441851669,-69712.453450257,-20370.97756516666
-18729.46545236891,-19016.506554663963,-69787.66707034911,-20399.453687602723
-18412.674178203844,-19014.785470340907,-69859.57263226183,-20446.973496314706
-18598.59598858309,-19072.96706115807,-69778.21228244451,-20434.300057208548
-18922.673931440582,-19091.07197416687,-69697.2989675163,-20389.484809575657
-18969.67965003009,-19067.06620062187,-69716.6555782146,-20382.22049262768
-18768.96098482144,-19037.00310432948,-69791.39981167315,-20411.7694987976
-18448.14639665441,-19028.643551903195,-69869.67562075563,-20461.6809441663
-18627.429738930437,-19082.44420080712,-69792.80797157383,-20448.135787026386
-18949.630135253687,-19102.136087672247,-69711.71584268998,-20399.632501558364
-18999.67569108912,-19070.55307275689,-69727.94320916453,-20387.18257989676
-18800.409889270057,-19020.306351221367,-69796.85363732024,-20413.669397076297
-18476.376649901467,-19003.833115557805,-69865.65230675368,-20456.69650515276
-18649.088579307627,-19060.42773251864,-69787.19768371555,-20441.027932289595
-18976.586339066787,-19083.338270585333,-69713.12400259066,-20403.879333004872
-19028.19651701409,-19053.141063826213,-69725.39511029662,-20390.93767296525
-18823.38748257011,-19017.445327931087,-69793.5232273964,-20412.484754620167
-18499.4660019238,-19008.81755457134,-69867.30633584337,-20461.368019743924
-18667.998155116817,-19058.706648195584,-69783.6214046027,-20438.81510958852
-18995.205342198056,-19084.67937525265,-69701.63520594063,-20393.016385199597
-19052.604621959286,-19062.28292730843,-69719.78482243835,-20387.85313223042
-18854.344648640712,-19024.06144428986,-69789.23169246098,-20416.84334478895
-18527.42803423739,-19007.588208626297,-69862.81363520786,-20463.156159300343
-18692.51801878429,-19055.622107460757,-69783.35318366924,-20446.34764746996
-19021.043958788392,-19080.276081594955,-69701.83637164073,-20397.8667137464
-19076.11865712627,-19057.52200573945,-69717.39318578162,-20385.819123484984
-18877.523407640863,-19018.38410119821,-69785.0742679923,-20412.216533686704
-18551.254993826748,-19006.090641747796,-69858.7903212059,-20458.75286564265
-18719.27305689729,-19067.87086342226,-69783.39788715815,-20445.945316069763
-19049.45302599109,-19093.68712826814,-69704.0044908529,-20404.438126616256
-19108.662797053195,-19068.407305289187,-69717.3037788038,-20393.932806722263
-18914.627303436675,-19030.92342983764,-69780.89449177915,-20417.312731422517
-18586.72721227732,-19026.363673968757,-69862.56776601884,-20465.614851190432
-18747.838586311173,-19078.30912808289,-69792.29388145136,-20453.90253709585
-19074.57638675885,-19091.384898589244,-69706.88786588763,-20403.365242882403
-19136.0660357554,-19079.2031978611,-69726.87032543067,-20399.252521902625
-18946.05385614084,-19029.98465657052,-69790.05870700582,-20422.38657741387
-18612.16349746746,-19003.207266713056,-69866.32285908733,-20460.45159822125
-18765.09413303067,-19060.025401118448,-69793.41146867412,-20443.732493368687
-19091.80958173389,-19078.510293782987,-69707.02197635436,-20393.41871659979
-19150.572317906892,-19054.504520237984,-69717.92962764855,-20384.03098392856
-18958.548481291356,-19009.398699927176,-69778.79342780035,-20405.399251627838
-18624.613419129066,-19000.458002145053,-69864.35590557527,-20459.266955765124
-18782.014403583336,-19069.59194774532,-69799.11116351023,-20457.52351969761
-19106.964064474592,-19080.074915894857,-69707.4019560101,-20404.28166440507
-19166.240890770063,-19051.44233124761,-69711.13469733414,-20388.613091541894
-18976.67574604461,-19018.182935498116,-69773.63017483118,-20410.338987152456
-18647.032218817734,-19007.56585688184,-69851.1907280911,-20455.75773188564
-18794.66549094504,-19062.327630797343,-69779.88866327866,-20443.7771968576
-19126.07480598388,-19086.98160493155,-69692.89567385861,-20394.201027655727
-19187.27388230251,-19061.545319741406,-69709.16774382206,-20383.67335601728
-18996.591150354285,-19024.553182667874,-69774.3677823982,-20404.840458016453
-18663.3042887812,-19013.220848229037,-69859.70674272857,-20450.70623763874
-18808.25535157387,-19071.223625090555,-69795.66899486411,-20444.49245268017
-19143.24094572556,-19092.278968367456,-69709.61477871118,-20402.538228337555
-19208.50803953505,-19069.3013750674,-69725.28335157436,-20394.04456544454
-19020.239295988,-19031.929258338125,-69793.76909658541,-20416.37395815539
-18681.78918144574,-19018.04882503138,-69875.50942605847,-20462.70912441124
-18819.207706356967,-19080.477247295054,-69805.14613451315,-20450.885051594385
-19220.95796119666,-19069.86016867878,-69733.68760748954,-20390.75885900961
-19030.43169145962,-19011.410356928154,-69791.04218376186,-20410.338987152456
-18690.84163795014,-18989.95268225106,-69872.04490566789,-20463.223214533715
-18825.019159915348,-19045.72028466705,-69800.00523328844,-20453.835481862483
-19164.139826791263,-19071.089514623825,-69706.61964495416,-20402.359414381917
-19228.915182222747,-19049.900060880194,-69714.68862470254,-20386.02028918508
-19047.48607247902,-19023.3908919562,-69778.03346848888,-20405.93569349476
-18708.477164325377,-18998.245179443977,-69853.26944032544,-20450.25920274964
-18837.82670948824,-19052.80578765938,-69785.09661973675,-20439.083330521986
-19170.84535012786,-19077.213892604577,-69694.72851690394,-20390.69180377624
-19237.542955582496,-19057.63376446173,-69706.17261006506,-20379.89591120433
-19059.712476696077,-19029.2917524924,-69774.07720972029,-20409.400213885336
-18717.954303974428,-19012.594999384284,-69858.3432863168,-20460.09397030997
-18847.236793903925,-19070.48601752353,-69801.56985540032,-20455.735380141185
-19184.32345203441,-19099.230360893056,-69716.29795030331,-20407.85794351792
-19251.55749935597,-19079.4043635612,-69720.99181663893,-20388.613091541894
-19076.319822826365,-19050.034171346924,-69783.6214046027,-20414.541115110056
-18732.12530995909,-19023.90498207867,-69865.56289977586,-20457.657630164344
-18852.82473001775,-19066.239186077026,-69792.29388145136,-20440.33502821148
-19192.124210849317,-19092.033099178447,-69703.49040073043,-20393.41871659979
-19261.10169423839,-19070.48601752353,-69716.36500553667,-20384.478018817663
-19084.74643048601,-19040.780549142422,-69787.68942209356,-20414.496411621145
-18739.724903073897,-19023.81557510085,-69871.19553937859,-20462.172682544315
-18858.993811487417,-19073.905834425197,-69809.79529735986,-20452.315563239525
-19197.55568475195,-19101.39848010522,-69717.3037788038,-20401.711213792707
-19273.059877521977,-19072.609433246784,-69730.93834292154,-20387.40609734131
-19096.123468413767,-19031.52692693793,-69794.41729717462,-20407.634426073364
-18752.93478404698,-19006.403566170164,-69871.19553937859,-20453.43315046229
-18867.912157525083,-19051.554089969886,-69807.26955023641,-20442.011409045623
-19204.551780766466,-19075.44810479261,-69719.89658116062,-20395.31861487849
-19277.28435722403,-19047.91075562367,-69727.18324985306,-20384.835646728952
-19101.331424871853,-19017.53473490891,-69793.41146867412,-20407.61207432891
-18758.14274050507,-19002.02262425693,-69880.0468301829,-20454.774255129607
-18873.83536980574,-19062.72996219754,-69824.01100683345,-20453.6790196513
-19212.41959481473,-19089.306186354897,-69727.98791265344,-20402.47117310419
-19288.19200851822,-19069.748409956504,-69739.29789534783,-20387.00376594112
-19114.92128550068,-19030.275229248437,-69802.24040773397,-20405.33219639447
-18770.704420888957,-19010.42688017212,-69886.01474595246,-20453.746074884664
-18870.54966337081,-19057.365543528264,-69824.50274521146,-20446.749978870157
-19209.55857152445,-19091.317843355875,-69739.0073226699,-20400.12423993638
-19290.091906796923,-19076.36452631528,-69748.84209023025,-20390.04360318704
-19118.475212869074,-19040.132348553223,-69799.28997746587,-20411.03189123057
-18771.37497322261,-19026.3413222243,-69885.992394208,-20463.60319418945
-18871.890768038127,-19071.380087301743,-69829.77775690291,-20460.36219124344
-19217.04640591698,-19095.45291608011,-69738.1579563806,-20412.976492998183
-19293.310557998488,-19077.839741449327,-69746.7633779959,-20399.520742836088
-19121.26918092599,-19040.26645901996,-69803.29093972337,-20417.737414567164
-18770.257385999845,-19012.93027555112,-69885.32184187435,-20464.407856989845
-18868.359192414187,-19060.986526130026,-69825.57562894531,-20458.127016797906
-19213.626589015315,-19093.68712826814,-69733.97818016747,-20411.344815652945
-19292.52824694255,-19075.559863514885,-69739.74493023694,-20395.340966622945
-19120.553925103417,-19033.873860105738,-69803.84973333475,-20416.6198273444
-18771.978470322905,-19006.090641747796,-69889.99335646551,-20468.989964603184
-18864.671154579064,-19050.324744024845,-69828.57076270232,-20459.71399065423
-19207.949245923668,-19081.617186262272,-69732.57002026678,-20407.94735049574
-19288.52728468505,-19057.45495050609,-69737.59916276923,-20390.848265987428
-19120.86684952579,-19032.10807229377,-69805.16848625762,-20417.37978665588
-18768.42454295451,-19019.255819231967,-69895.69305130161,-20470.934566370797
-18858.278555664845,-19071.670659979663,-69840.79716691938,-20467.62650819141
-19198.22623708561,-19101.77845976096,-69745.57873553976,-20417.4691936337
-19271.91993855476,-19070.44131403462,-69744.23763087245,-20397.196161412736
-19101.510238827497,-19037.33838049631,-69806.44253569157,-20419.03381574557
-18754.342943947668,-19016.90888606416,-69899.62695832574,-20471.493359982174
-18836.083273420725,-19065.41217153217,-69843.38996927619,-20466.508920968645
-19183.4293822562,-19103.074860939367,-69753.6700670326,-20420.46432739071
-19269.52830189804,-19081.19250311762,-69762.90133749263,-20406.3156731505
-19108.193410419637,-19038.36656074125,-69819.74182364247,-20423.168888469805
-18754.43235092549,-19007.275284203923,-69904.05260372789,-20472.543891971574
-18835.5468315538,-19058.86311040677,-69846.47451001103,-20469.4817029812
-19180.41189675473,-19098.26923588148,-69749.13266290816,-20418.47502213419
-19265.236766962626,-19075.179883859146,-69754.89941297763,-20404.304016149523
-19104.483020840053,-19028.218868758544,-69808.40948920364,-20417.6703593338
-18748.218565966912,-19004.36955742473,-69896.05067921289,-20466.39716224637
-18829.221287872948,-19059.086627851324,-69847.16741408914,-20469.749923914664
-19176.67915543069,-19095.83289573585,-69749.37853209717,-20420.75490006863
-19262.48750239462,-19077.705630982597,-69758.05100894583,-20405.980396983672
-19103.38778536174,-19035.661999662163,-69816.34435848526,-20424.04060650356
-18746.229260710392,-19003.833115557805,-69900.47632461504,-20472.119208826927
-18817.28545633381,-19048.96128761307,-69840.6854081971,-20466.95595585775
-19161.79289362346,-19077.01272690448,-69741.35425583771,-20417.558600611523
-19248.830586532426,-19054.86214814927,-69746.62926752916,-20396.391498612345
-19089.909683455197,-19028.19651701409,-69808.96828281503,-20413.93761800976
-18731.27594366979,-19005.33068243631,-69898.95640599208,-20461.6809441663
-18794.66549094504,-19056.40441851669,-69851.68246646911,-20462.03857207758
-19139.910535801715,-19093.68712826814,-69759.14624442413,-20415.12226046589
-19224.936571709703,-19067.133255855235,-69763.10250319273,-20395.676242789777
-19067.937918655625,-19027.3918542137,-69827.54258245738,-20416.79864130004
-18715.428556850977,-19009.24223771599,-69915.67551084465,-20463.29026976708
-18777.074668058714,-19057.96904062856,-69861.20430960707,-20460.943336599277
-19119.324579158376,-19089.68616601064,-69760.77792176938,-20410.56250459701
-19206.630493000805,-19064.40634303169,-69765.5164915939,-20396.01151895661
-19052.00112485899,-19032.53275543842,-69822.35697774375,-20420.978417513183
-18692.76388797329,-19010.628045872218,-69906.55599910689,-20472.52154022712
-18750.23022296789,-19057.56670922836,-69859.68439098411,-20477.66244145184
-19098.82802949286,-19093.39655559022,-69758.47569209048,-20426.27578094909
-19191.073678859917,-19078.48794203853,-69760.48734909146,-20409.4672691187
-19039.081816563823,-19045.563822455864,-69813.43863170609,-20428.913286794817
-18677.94468139943,-19007.945836537583,-69899.06816471436,-20475.74019142869
-18730.046597724748,-19047.06138933437,-69853.58236474781,-20477.77420017412
-19075.850436192803,-19073.34704081381,-69756.19581415603,-20427.058092005027
-19163.51397794652,-19050.3470957693,-69754.13945366615,-20401.80062077053
-19009.62221737173,-19027.749482124986,-69812.2763409944,-20423.526516381087
-18653.06718982067,-19013.33260695131,-69904.99137699502,-20478.444752507778
-18701.235199121857,-19055.800921416398,-69857.42686479412,-20480.38935427539
-19044.26742127745,-19082.62301476276,-69757.98395371246,-20432.24369671866
-19135.46253865511,-19057.41024701717,-69761.87315724768,-20414.42935638778
-18982.93423449209,-19020.887496577205,-69813.1257072837,-20425.448766404246
-18621.41711967196,-18997.61933059923,-69906.89127527372,-20474.57790071701
-18660.5550242132,-19041.92048810965,-69862.18778636311,-20475.85195015096
-18999.340414922288,-19076.610395504285,-69764.4659596045,-20425.582876870976
-19088.81444797688,-19059.57836622934,-69768.6680875621,-20407.433260373266
-18935.973219391493,-19026.117804779748,-69828.57076270232,-20429.98617052867
-18573.427924326414,-19002.38025216821,-69920.1011562468,-20479.405877519355
-18609.525991621733,-19047.86605213476,-69874.90592895818,-20479.51763624163
-18951.19475736556,-19076.11865712627,-69767.17052068359,-20424.532344881576
-19044.043903832902,-19056.35971502778,-69769.5174538514,-20402.80644927102
-18894.197809004523,-19024.26260998996,-69829.75540515846,-20421.648969846843
-18534.33472327408,-19005.218923714037,-69924.28093245995,-20471.560415215543
-18576.356002850054,-19057.79022667292,-69878.34809760429,-20473.57207221652
-18922.56217271831,-19091.6084160338,-69770.65739281863,-20421.98424601367
-19016.215981986046,-19071.134218112733,-69773.09373296425,-20405.265141161104
-18872.673079094064,-19035.550240939887,-69832.30350402636,-20430.679074606785
-18517.213287021317,-19016.506554663963,-69926.73962435003,-20490.559398002555
-18555.948860162363,-19058.3490202843,-69878.86218772676,-20491.00643289166
-18907.05006206633,-19080.857226950797,-69774.39013414265,-20439.820938089008
-19004.28015044691,-19051.419979503156,-69771.84203527475,-20420.643141346354
-18861.318392910765,-19025.51430767945,-69828.6825214246,-20438.25631597713
-18505.143345015447,-18999.7874498114,-69918.64829285721,-20486.692546211787
-18539.00623786524,-19042.76985439895,-69871.79903647889,-20485.999642133676
-18888.632224635152,-19079.89610193921,-69768.60103232873,-20439.39625494436
-18991.04791772937,-19060.83006391884,-69770.65739281863,-20424.80056581504
-18847.92969798204,-19024.888458834703,-69822.64755042167,-20440.4244351893
-18487.261949451204,-19000.56976086733,-69914.17794396615,-20488.83831367949
-18519.42610972239,-19051.30822078088,-69868.66979225514,-20494.96269166025
-18868.225081947458,-19089.88733171073,-69760.44264560254,-20440.91617356732
-18972.83124599829,-19069.05550587839,-69757.84984324573,-20422.81126055852
-18836.21738388746,-19030.63285715972,-69813.483335195,-20439.59742064445
-18479.55059761412,-19006.82824931481,-69915.0496619999,-20496.281444583117
-18502.259969980714,-19049.38597075772,-69867.61926026574,-20492.90633117036
-18850.58955557222,-19085.61814851977,-69761.78375026987,-20440.4244351893
-18950.65831549863,-19057.276136550445,-69759.54857582433,-20416.28455117757
-18812.502183020377,-19021.71451112205,-69808.45419269254,-20426.16402222681
-18449.88983272193,-18996.211170698545,-69901.03511822643,-20474.57790071701
-18474.454399878312,-19051.710552181077,-69866.43461780962,-20485.73142120021
-18828.88601170612,-19090.580235788853,-69760.10736943572,-20434.99296128666
-18939.482443270976,-19071.044811134914,-69760.37559036918,-20411.65774007532
-18805.796659683783,-19035.34907523979,-69813.59509391726,-20424.37588267039
-18443.40782682989,-19009.01872027144,-69904.83491478383,-20476.366040273435
-18463.010306717195,-19054.392761515708,-69866.34521083179,-20484.81499967754
-18819.207706356967,-19090.26731136648,-69760.50970083592,-20430.634371117874
-18929.915896644103,-19069.569596000863,-69759.52622407988,-20408.304978407024
-18793.793772911285,-19012.75146159547,-69810.59996016025,-20417.558600611523
-18436.74700698221,-18982.062516458336,-69902.84560952731,-20465.77131340162
-18447.20762338729,-19026.117804779748,-69862.34424857429,-20467.85002563596
-18799.20289506947,-19070.329555312343,-69754.58648855526,-20415.636350588364
-18912.50388771342,-19048.022514345947,-69754.07239843278,-20399.520742836088
-18779.66747041553,-19002.201438212567,-69803.80502984584,-20409.51197260761
-18424.23003008724,-18977.122780933714,-69897.95057749159,-20459.71399065423
-18434.422425558856,-19024.4414239456,-69857.3374578163,-20465.257223279143
-18788.11642981964,-19064.78632268743,-69751.2113751425,-20412.99884474264
-18904.971349831983,-19048.46954923505,-69745.69049426205,-20394.91628347829
-18777.275833758813,-19014.874877318725,-69795.84780881976,-20409.19904818524
-18419.625570729444,-18987.024603727416,-69887.2440918975,-20456.13771154138
-18426.64401848841,-19028.91177283666,-69852.0400943804,-20464.117284311928
-18783.24374952838,-19068.697877967104,-69743.76824423889,-20415.569295355
-18900.16572477409,-19050.637668447216,-69735.92278193508,-20391.965853210197
-18778.23695877039,-19015.344263952287,-69786.19185521506,-20403.02996671557
-18420.8996201634,-18987.449286872063,-69879.46568482705,-20451.19797601676
-18427.53808826662,-19039.774720641937,-69850.81074843535,-20461.926813355305
-18786.61886294113,-19085.86401770878,-69743.50002330543,-20416.128088966383
-18907.11711729969,-19056.694991194607,-69736.459223802,-20395.117449178397
-18783.64608092857,-19015.85835407476,-69786.54948312635,-20410.964835997205
-18426.12992836594,-18984.767077537428,-69877.49873131499,-20457.456464464245
-18431.963733668774,-19042.993371843502,-69852.46477752505,-20474.95788037275
-18789.301072275768,-19078.175017616155,-69741.957752938,-20428.868583305903
-18907.94413184454,-19043.99920034399,-69724.72455796297,-20397.732603279663
-18787.95996760845,-19010.560990638853,-69779.6204423452,-20411.47892611968
-18435.09297789252,-18982.308385647342,-69876.15762664768,-20464.161987800835
-18438.043408160614,-19026.83306060232,-69843.34526578728,-20471.225139048714
-18796.632444457107,-19061.23239531903,-69729.15020336512,-20416.820993044497
-18922.472765740487,-19041.495804965,-69721.48355501695,-20394.98333871166
-18809.48469751891,-19014.38313894071,-69778.10052372224,-20412.820030787
-18455.589527558037,-18986.510513604942,-69870.97202193404,-20463.75965640064
-18448.772245499164,-19030.07406354833,-69842.69706519808,-20469.52640647011
-18810.78109869732,-19066.73092445504,-69733.32997957827,-20415.144612210348
-18943.88573692867,-19042.166357298654,-69722.71290096198,-20388.72485026417
-18833.624581530643,-19012.505592406465,-69773.74193355345,-20402.292359148545
-18486.14436222844,-18991.070269473825,-69867.48514979902,-20452.270859750613
-18480.77994355917,-19030.901078093186,-69838.76315817394,-20458.90932785384
-18842.900555479595,-19075.895139681717,-69732.88294468915,-20409.86960051889
-18973.0771151873,-19057.432598761632,-69720.32126430527,-20383.65100427282
-18861.765427799877,-19014.986636041,-69769.49510210694,-20398.626673057875
-18512.765289874707,-18992.344318907777,-69866.5910800208,-20453.05317080655
-18500.650644379934,-19038.746540396995,-69839.50076574097,-20464.072580823016
-18856.53511959733,-19073.99524140301,-69729.15020336512,-20410.56250459701
-18989.036260728397,-19053.05165684839,-69722.1094038617,-20384.388611839844
-18881.233797220444,-19015.746595352484,-69771.68557306357,-20395.430373600768
-18526.84688888155,-18987.00225198296,-69857.2927543274,-20435.462347920224
-18513.748766630742,-19036.511365951465,-69835.16452731664,-20449.298077738054
-18874.34945992821,-19065.56863374336,-69727.85380218671,-20399.632501558364
-19012.95262729557,-19047.039037589915,-69717.99668288192,-20379.89591120433
-18907.139469044145,-19010.315121449843,-69763.68364854857,-20393.08344043296
-18560.19569160887,-18986.28699616039,-69863.05950439686,-20447.10760678144
-18542.47075825581,-19026.184860013112,-69844.5299082434,-20462.66442092233
-18903.22791376447,-19059.690124951616,-69733.9111249341,-20408.394385384847
-19046.837871889817,-19050.5482614694,-69722.15410735061,-20381.907568205308
-18943.43870203957,-19020.887496577205,-69768.466921862,-20393.016385199597
-18592.58336932461,-18984.767077537428,-69863.03715265241,-20435.66351362032
-18568.845816713078,-19017.22181048653,-69837.60086746227,-20442.793720101563
-18932.016960622903,-19067.647345977708,-69727.74204346443,-20392.72581252168
-19071.894177424216,-19052.224642303543,-69719.2036770825,-20371.312841333493
-18967.75740000694,-19015.456022674563,-69765.40473287163,-20383.583949039454
-18620.59010512711,-18982.241330413977,-69854.5434897594,-20428.53330713908
-18595.77966878172,-19018.741729109493,-69830.47066098102,-20438.90451656634
-18959.867234214216,-19069.86016867878,-69723.67402597357,-20393.306957877518
-19102.627826050262,-19049.58713645782,-69715.1580113361,-20371.290489589035
-18999.98861551149,-19012.81851682884,-69763.6165933152,-20383.60630078391
-18650.429683974944,-18981.056687957847,-69852.6435914807,-20430.34379843996
-18619.98660802682,-19020.842793088294,-69829.62129469172,-20441.586725900976
-18985.2811676599,-19072.2518053355,-69723.02582538436,-20396.637367801355
-19132.109776986814,-19054.72803768254,-69713.36987177967,-20377.79484722553
-19034.16443278365,-19013.75729009596,-69762.23078515897,-20390.9153212208
-18689.500533282822,-18983.895359503676,-69851.79422519139,-20436.468176420716
-18656.10702706659,-19024.32966522332,-69830.60477144776,-20445.4759294362
-19021.043958788392,-19073.950537914105,-69725.21629634098,-20396.12327767888
-19163.201053524142,-19058.46077900657,-69712.78872642384,-20374.442085557235
-19059.77953192944,-19014.00315928497,-69754.05004668832,-20381.147608893825
-18720.591809820155,-18984.700022304063,-69851.45894902456,-20431.081406006982
-18679.77752444476,-19020.12753726573,-69828.90603886916,-20441.117339267414
-19046.86022363427,-19069.144912856213,-69724.8586684297,-20397.12910617937
-19194.918178906224,-19055.48799699402,-69712.22993281245,-20373.70447799021
-19094.84941897981,-19018.42880468712,-69758.5650990683,-20389.88714097585
-18754.23118522539,-18984.14122869268,-69854.67760022612,-20445.677095136296
-18712.41107134951,-19015.925409308125,-69837.39970176217,-20463.782008145092
-19074.285814080933,-19066.64151747722,-69727.96556090898,-20419.19027795676
-19222.56728679744,-19053.76691267096,-69713.77220317986,-20395.340966622945
-19124.17490770518,-19020.12753726573,-69760.26383164691,-20403.588760326955
-18778.52753144831,-18997.2840544324,-69862.34424857429,-20452.963763828728
-18735.09809197165,-19036.42195897364,-69850.45312052406,-20468.207653547248
-19092.34602360082,-19076.72215422656,-69740.39313082614,-20417.29037967806
-19242.37093238484,-19057.857281906283,-69727.31736031978,-20393.821047999983
-19147.53248066097,-19025.11197627926,-69770.90326200763,-20403.61111207141
-18802.421546271034,-18993.32779566381,-69865.94287943159,-20453.634316162388
-18750.90077530155,-19023.502650678474,-69847.27917281141,-20465.4807407237
-19109.15453543121,-19061.25474706349,-69731.89946793312,-20412.685920320266
-19258.33007792593,-19040.15470029768,-69716.99085438142,-20386.02028918508
-19167.35847799283,-19002.693176590583,-69765.91882299409,-20397.75495502412
-18828.751901239382,-18973.926481476603,-69861.0925508848,-20444.24658349116
-18775.15241803556,-19015.500726163475,-69842.20532682005,-20460.026915076603
-19132.668570598194,-19059.354848784787,-69722.15410735061,-20407.85794351792
-19286.29211023952,-19042.00989508747,-69704.36211876418,-20377.392515825333
-19203.411841799243,-19015.791298841395,-69754.78765425536,-20390.200065398225
-18859.999639987906,-18985.124705448718,-69844.37344603223,-20436.781100843087
-18801.05808985926,-19022.92150532264,-69826.87203012372,-20451.600307416957
-19158.864815099816,-19072.69884022461,-69717.59435148172,-20402.493524848644
-19315.08115709796,-19053.72220918205,-69702.70808967449,-20375.17969312426
-19225.3389031099,-19015.165449996646,-69743.54472679434,-20380.857036215908
-18876.942262285025,-18982.82247576981,-69837.95849537355,-20420.352568668437
-18815.38555805511,-19024.776700112427,-69832.43761449309,-20440.111510766925
-19173.25933852903,-19068.139084355724,-69726.44564228602,-20395.430373600768
-19325.76529094759,-19041.31699100936,-69708.18426706604,-20362.7074197182
-19239.644019561296,-19010.113955749744,-69752.73129376546,-20373.995050668127
-18891.82852409226,-18984.18593218159,-69844.19463207659,-20416.86569653341
-18826.51672679385,-19032.823328116338,-69838.11495758474,-20438.077502021493
-19188.81615266993,-19078.30912808289,-69730.42425279907,-20398.35845212441
-19339.936296932257,-19039.52885145293,-69708.0054531104,-20365.92607091976
-19250.462263877664,-19007.7893743264,-69754.29591587733,-20378.84537921493
-18906.98300683296,-18972.18304540909,-69849.69316121259,-20424.398234414846
-18833.06578791926,-18999.85450504476,-69840.17131807463,-20438.34572295496
-19186.08923984638,-19051.643496947705,-69734.69343599003,-20395.788001512054
-19350.665134270803,-19041.696970665096,-69723.94224690703,-20374.106809390403
-19264.47680765114,-19012.01385402845,-69770.43387537407,-20386.73554500765
-18919.83525989476,-18983.98476648149,-69861.02549565143,-20434.322408953
-18848.376732871144,-19023.21207800056,-69855.41520779315,-20448.94044982677
-19201.757812709548,-19067.02149713296,-69745.44462507304,-20398.38080386887
-19362.82448325449,-19045.921450367143,-69729.01609289838,-20371.84928320042
-19277.84315083541,-19009.91279004965,-69772.15495969713,-20381.92991994976
-18936.532013002878,-18979.60382456825,-69868.80390272188,-20432.2213449742
-18858.099741709204,-19019.85931633226,-69864.28885034191,-20451.086217294484
-19210.1844203692,-19067.043848877413,-69751.50194782042,-20402.04648995954
-19372.50278860364,-19047.95545911258,-69731.47478478847,-20372.810408212
-19289.82368586346,-19017.177106997624,-69777.22880568849,-20380.812332727
-18945.18213810708,-18993.0819264748,-69876.00116443649,-20431.215516473712
-18859.306735909788,-19031.68338914912,-69871.79903647889,-20449.298077738054
-19208.23981860159,-19068.809636689384,-69758.25217464592,-20399.74426028064
-19364.702029788736,-19048.76012191297,-69734.9616569235,-20371.134027377848
-19276.81497059047,-19014.986636041,-69776.37943939918,-20381.70640250521
-18935.63794322466,-18983.202455425555,-69870.70380100058,-20432.198993229747
-18844.30871538028,-19023.27913323392,-69866.14404513169,-20456.47298770821
-19191.878341660304,-19064.518101753965,-69747.92566870757,-20404.25931266061
-19356.901270973834,-19056.180901072134,-69731.05010164382,-20377.61603326989
-19270.15415074279,-19019.14406050969,-69779.1734074561,-20389.75303050912
-18925.15497507513,-18989.058612472847,-69876.4929028145,-20439.776234600096
-18833.08813966372,-19013.71258660705,-69864.66882999764,-20456.405932474845
-19183.004699111545,-19055.935031883124,-69748.48446231896,-20406.56154233951
-19350.106340659426,-19038.992409586004,-69727.09384287523,-20377.280757103057
-19268.41071467528,-18998.91573177764,-69767.48344510597,-20381.482885060657
-18930.094710599747,-18970.864292486225,-69866.30050734288,-20430.075577506494
-18832.3952355856,-19001.66499634564,-69861.58428926281,-20450.95210682775
-19180.389545010275,-19046.3461335118,-69749.55734605281,-20408.66260631831
-19347.78175923607,-19034.05267406138,-69724.72455796297,-20380.36529783789
-19269.3494879424,-19004.07898474681,-69767.28227940587,-20388.858960730908
-18926.719597186995,-18977.972147223016,-69865.62995500922,-20438.63629563288
-18823.566296525754,-19013.86904881824,-69868.64744051069,-20461.23390927719
-19172.611137939828,-19065.45687502109,-69762.49900609243,-20416.731586066675
-19340.048055654534,-19047.597831201296,-69738.06854940279,-20384.768591495587
-19256.161958713765,-19018.115880264748,-69776.24532893245,-20389.17188515328
-18910.827506879272,-18990.198551440066,-69868.15570213267,-20433.316580452512
-18806.13193585061,-19026.408377457665,-69871.01672542295,-20454.081351051493
-19150.12528301779,-19072.29650882441,-69762.61076481472,-20410.406042385825
-19315.327026286963,-19053.87867139324,-69740.95192443751,-20382.7122310057
-19240.22516491713,-19028.442386203096,-69783.64375634716,-20391.965853210197
-18897.0588322948,-18992.38902239669,-69875.82235048084,-20438.032798532586
-18785.657737929552,-19017.0877000198,-69877.83400748183,-20461.390371488375
-19130.053416496925,-19073.190578602625,-69769.87508176269,-20419.03381574557
-19300.73133715765,-19058.5501859844,-69748.39505534114,-20391.541170065542
-19220.0862431629,-19014.517249407443,-69783.0179075024,-20392.591702054942
-18873.83536980574,-18978.329775134294,-69871.8437399678,-20435.28353396458
-18757.80746433824,-19007.275284203923,-69876.06821966985,-20457.076484808505
-19101.89021848324,-19062.43938951962,-69769.74097129595,-20415.010501743614
-19275.697383367704,-19059.24309006251,-69742.82947097176,-20384.12039090638
-19204.88705693329,-19025.67076989064,-69788.58349187177,-20397.732603279663
-18861.608965588686,-18983.69419380357,-69875.241205125,-20442.369036956912
-18739.25551644033,-19007.297635948376,-69877.00699293698,-20466.39716224637
-19079.76199147248,-19060.20421507409,-69768.44457011754,-20425.739339082163
-19252.56332785646,-19046.994334101004,-69739.99079942594,-20395.00569045612
-19182.75882992254,-19021.893325077694,-69789.5222651389,-20406.5168388506
-18843.057017690782,-18988.47746711701,-69887.08762968631,-20451.890880094878
-18712.27696088278,-19012.438537173097,-69887.0429261974,-20470.308717526044
-19053.05165684839,-19067.02149713296,-69779.77690455639,-20429.874411806395
-19231.46328109065,-19053.163415570667,-69757.20164265652,-20400.03483295856
-19159.60242266684,-19027.503612935976,-69803.4250501901,-20408.32733015148
-18816.05611038877,-18992.54548460788,-69896.52006584646,-20453.723723140207
-18684.627852991565,-19017.0877000198,-69901.14687694871,-20475.069639095025
-19021.356883210767,-19064.316936053867,-69789.5222651389,-20428.95799028373
-19202.495420276573,-19055.95738362758,-69764.68947704906,-20400.347757380936
-19134.903745043724,-19034.991447328503,-69802.86625657872,-20413.51293486511
-18797.39240376859,-18997.976958510517,-69891.71444078856,-20459.04343832057
-18666.36647777158,-19026.363673968757,-69894.3966501232,-20480.99285137568
-19004.883647547205,-19081.036040906434,-69780.55921561232,-20434.791795586563
-19181.864760144326,-19060.85241566329,-69748.43975883005,-20400.19129516975
-19109.869791253783,-19019.81461284335,-69790.88572155067,-20406.673301061783
-18775.3312319912,-18980.788467024384,-69884.33836511831,-20455.355400485445
-18642.18189027094,-19009.376348182723,-69890.5968535658,-20481.506941498155
-18980.18496992409,-19061.65707846369,-69776.37943939918,-20435.7752723426
-19164.58686168037,-19056.51617723896,-69749.98202919746,-20404.54988533853
-19098.40334634821,-19026.453080946576,-69792.85267506274,-20413.781155798573
-18760.08734227268,-18988.05278397236,-69886.88646398621,-20458.596403431464
-18619.249000459797,-19018.115880264748,-69895.35777513478,-20480.90344439786
-18954.3240015893,-19068.787284944927,-69780.29099467886,-20430.47790890669
-19138.770596834493,-19057.901985395198,-69756.10640717822,-20399.565446325
-19075.51516002597,-19032.86803160525,-69800.04993677734,-20412.194181942246
-18736.08156872768,-18995.562970109346,-69891.08859194382,-20455.04247606307
-18592.40455536897,-19020.52986866592,-69903.38205139423,-20476.455447251254
-18925.84787915324,-19073.928186169647,-69794.41729717462,-20433.76361534162
-19109.847439509325,-19061.05358136339,-69759.88385199117,-20399.81131551401
-19042.38987474321,-19034.5444124394,-69793.50087565195,-20403.432298115767
-18707.04665268024,-18989.304481661857,-69891.08859194382,-20446.124130025404
-18563.61550851053,-19014.76311859645,-69905.81839153987,-20476.38839201789
-18899.226951506967,-19071.670659979663,-69799.51349491042,-20438.41277818832
-19084.88054095275,-19054.325706282343,-69764.84593926024,-20399.87837074737
-19018.04882503138,-19001.24031320099,-69791.44451516206,-20390.69180377624
-18685.857198936606,-18967.66799302912,-69886.12650467474,-20435.171775242303
-18537.08398784208,-19008.214057471047,-69903.29264441642,-20467.42534249131
-18867.912157525083,-19062.506444752988,-69787.04122150436,-20422.43128090278
-19056.96321212807,-19056.694991194607,-69757.11223567871,-20393.306957877518
-18992.880760774704,-19014.00315928497,-69791.55627388433,-20393.150495666327
-18660.800893402207,-18971.84776924226,-69879.37627784924,-20432.44486241876
-18505.210400248816,-18994.400679397662,-69892.11677218876,-20459.62458367641
-18832.21642162996,-19046.614354445264,-69774.90422426513,-20416.28455117757
-19026.81070885786,-19041.987543343013,-69743.38826458315,-20388.970719453184
-18967.623289540206,-19012.505592406465,-69779.79925630084,-20396.615016056898
-18639.87966059204,-18982.978937981003,-69871.91079520117,-20441.05028403405
-18482.501027882223,-19004.436612658097,-69890.90977798817,-20468.028839591603
-18814.670302232546,-19056.851453405798,-69778.03346848888,-20422.028949502583
-19008.839906315792,-19052.984601615022,-69742.9635814385,-20386.84730372993
-18957.09561790176,-19034.16443278365,-69787.10827673772,-20400.12423993638
-18632.660047132977,-19005.10716499176,-69879.86801622725,-20451.108569038937
-18473.13564695545,-19025.38019721272,-69893.92726348963,-20480.16583683084
-18799.98520612541,-19060.80771217438,-69779.59809060075,-20433.584801385976
-18996.121763720723,-19049.31891552436,-69745.42227332859,-20398.73843178015
-18939.683608971078,-19021.088662277303,-69781.1180092237,-20403.20878067121
-18614.041044001704,-18981.436667613587,-69871.6425742677,-20444.53715616908
-18447.74406525422,-19002.71552833504,-69884.8971587297,-20467.514749469134
-18776.3817639806,-19061.455912763588,-69776.69236382155,-20427.348664682944
-18971.24427214197,-19044.893270122204,-69734.44756680103,-20386.7131932632
-18920.438756995056,-19024.91081057916,-69775.75359055444,-20390.870617731885
-18595.82437227063,-18986.488161860485,-69871.79903647889,-20433.11541475241
-18425.906410921387,-19002.871990546228,-69893.39082162271,-20460.38454298789
-18747.65977235553,-19050.660020191677,-69778.972241756,-20412.775327298084
-18948.17727186409,-19040.86995612025,-69747.8586134742,-20376.297280347026
-18897.550570672815,-19008.795202826885,-69781.90032027964,-20379.113600148397
-18572.60090978157,-18979.402658868155,-69867.55220503238,-20420.12905122388
-18397.676157674334,-19006.56002838135,-69883.86897848475,-20446.504109681144
-18722.447004609945,-19056.78439817243,-69773.58547134227,-20404.88516150536
-18928.88771639916,-19041.629915431728,-69736.59333426873,-20370.53053027756
-18876.651689607108,-19015.21015348556,-69776.31238416581,-20378.80067572602
-18553.177243849903,-18980.60965306874,-69868.78155097742,-20420.821955301995
-18380.55472142157,-18994.870066031228,-69883.75721976247,-20446.28059223659
-18703.47037356739,-19048.08956957931,-69769.40569512913,-20405.13103069437
-18907.653559166614,-19041.741674154007,-69731.83241269975,-20372.98922216764
-18860.200805688,-19019.14406050969,-69770.07624746278,-20383.18161763926
-18542.940144889373,-18988.298653161368,-69871.82138822334,-20438.27866772159
-18364.72968634721,-19017.445327931087,-69896.92239724666,-20473.23679604969
-18681.16333260099,-19063.176997086644,-69776.11121846571,-20424.264123948116
-18884.54185539983,-19046.770816656448,-69734.64873250113,-20384.12039090638
-18838.541965310807,-19019.12170876524,-69779.75455281194,-20392.90462647732
-18520.029606822685,-18985.2811676599,-69875.33061210283,-20438.882164821884
-18338.287572656584,-19003.5872463688,-69897.07885945783,-20469.14642681437
-18651.45786421989,-19048.424845746144,-69783.08496273577,-20425.13584198187
-18858.3009074093,-19042.1440055542,-69745.3105146063,-20391.3623561099
-18813.06097663176,-19014.293731962887,-69779.70984932302,-20396.95029222373
-18496.761440844708,-18975.33464137729,-69868.24510911049,-20435.104720008934
-18314.550020045044,-18995.250045686967,-69891.73679253302,-20462.08327556649
-18629.553154653688,-19050.77177891395,-69779.88866327866,-20418.296208178548
-18840.71008452297,-19051.844662647803,-69746.45045357352,-20389.8647892314
-18798.286473546803,-19025.51430767945,-69775.46301787651,-20388.858960730908
-18486.90432153992,-18998.066365488336,-69865.67465849813,-20429.963818784217
-18308.738566486667,-19030.297580992887,-69900.34221414832,-20470.19695880377
-18627.519145908256,-19079.11379088328,-69790.5727971283,-20431.953124040738
-18840.21834614496,-19065.926261654648,-69751.2113751425,-20392.435239843755
-18792.98911011089,-19025.53665942391,-69788.24821570495,-20391.652928787826
-18479.50589412521,-18985.79525778237,-69874.14596964669,-20424.50999313712
-18292.93588315676,-19012.37148193973,-69901.25863567098,-20456.65180166385
-18612.38701491201,-19074.174055358657,-69796.76423034242,-20425.158193726325
-18826.38261632712,-19057.119674339257,-69752.28425887636,-20387.78607699705
-18781.70147916096,-19015.43367093011,-69782.30265167984,-20388.03194618606
-18466.720696296776,-18970.953699464048,-69869.36269633326,-20431.640199618363
-18276.4626474932,-18986.354051393755,-69896.40830712418,-20465.50309246816
-18593.63390131401,-19046.502595722985,-69789.70107909455,-20429.829708317484
-18808.031834129317,-19043.5968689438,-69749.5126425639,-20393.6645857888
-18767.64223189857,-19010.940970294592,-69778.8157795448,-20392.97168171068
-18458.33879212604,-18975.08877218828,-69865.49584454249,-20427.90745829433
-18263.56569094249,-18995.205342198056,-69891.2003506661,-20458.305830753547
-18579.217026140337,-19057.253784805987,-69788.2258639605,-20426.119318737903
-18793.950235122476,-19051.1964620586,-69742.1589186381,-20390.08830667595
-18752.621859624607,-19022.496822177985,-69775.46301787651,-20397.68789979075
-18449.621611788465,-18995.87589453172,-69864.17709161963,-20441.363208456423
-18249.37233321337,-19011.05272901687,-69886.50648433047,-20470.55458671505
-18561.76031372074,-19069.033154133936,-69781.40858190162,-20435.28353396458
-18784.33898500669,-19069.323726811854,-69743.6564855166,-20402.202952170726
-18748.66560085602,-19037.40543572968,-69774.47954112048,-20404.28166440507
-18438.758663983182,-18999.22865620001,-69862.90304218567,-20445.81120560303
-18235.447196417717,-19016.10422326377,-69892.13912393322,-20472.94622337177
-18549.24333682577,-19076.85626469329,-69783.28612843587,-20435.730568853687
-18774.548920935264,-19077.079782137847,-69744.08116866126,-20399.81131551401
-18741.311876930224,-19045.787339900417,-69777.54173011085,-20397.576141068475
-18436.63524825993,-19006.850601059272,-69863.01480090796,-20439.016275288617
-18230.328646937447,-19013.80199358487,-69884.13719941821,-20468.54292971408
-18538.55920297613,-19059.176034829143,-69773.22784343098,-20426.56635362701
-18761.897833573563,-19050.81648240286,-69732.23474409994,-20384.03098392856
-18729.89013551356,-19019.680502376617,-69765.80706427182,-20387.383745596857
-18423.40301554239,-18977.122780933714,-69850.92250715764,-20426.5216501381
-18215.867068274863,-18994.691252075583,-69887.1993884086,-20463.75965640064
-18525.19285979186,-19059.91364239617,-69790.3716314282,-20434.389464186366
-18751.303106701747,-19064.048715120403,-69749.22206988599,-20399.520742836088
-18723.36342613261,-19037.85247061878,-69779.06164873381,-20398.00082421313
-18420.11730910746,-18992.769002052428,-69863.21596660806,-20432.780138585586
-18212.626065328845,-19011.656226117164,-69896.05067921289,-20465.97247910172
-18520.029606822685,-19069.48018902304,-69787.06357324882,-20427.885106549875
-18747.637420611078,-19055.443293505108,-69743.23180237196,-20387.629614785867
-18716.836716751663,-19019.367577954243,-69773.45136087554,-20387.428449085768
-18417.03276837263,-18985.750554293463,-69859.86320493976,-20432.51191765212
-18201.31608263446,-18998.93808352209,-69886.26061514147,-20466.44186573528
-18505.344510715546,-19055.331534782832,-69780.40275340114,-20430.924943795795
-18740.954249018934,-19066.57446224385,-69738.20265986952,-20398.783135269063
-18716.05440569573,-19035.95257234008,-69764.86829100469,-20401.353585881425
-18419.11148060697,-18984.4318013706,-69846.16158558865,-20439.99975204465
-18204.467678602658,-18999.63098760021,-69876.24703362549,-20471.91804312683
-18503.19874324784,-19059.80188367389,-69768.55632883983,-20431.43903391827
-18736.10392047214,-19054.392761515708,-69721.23768582793,-20387.629614785867
-18712.254609138323,-19018.3393977093,-69754.54178506635,-20389.529513064565
-18417.85978291748,-18983.47067635902,-69846.04982686638,-20431.66255136282
-18203.953588480188,-19001.150906223167,-69884.18190290712,-20467.537101213587
-18509.39017646196,-19060.58419472983,-69782.54852086885,-20433.607153130437
-18746.31866768821,-19053.25282254849,-69735.4086918126,-20393.932806722263
-18718.55780107472,-19011.119784250237,-69760.55440432482,-20387.428449085768
-18418.373873039945,-18971.870120986718,-69845.75925418845,-20425.605228615437
-18203.573608824445,-18996.76996430993,-69887.8475889978,-20465.95012735726
-18510.083080540076,-19058.684296451127,-69780.00042200094,-20432.109586251925
-18747.95034503345,-19051.50938648097,-69730.06662488778,-20391.3623561099
-18722.245838909846,-19018.182935498116,-69762.45430260352,-20389.730678764663
-18429.281524334136,-18982.889531003184,-69849.69316121259,-20426.56635362701
-18210.972036239156,-18998.1334207217,-69885.23243489652,-20460.876281365905
-18512.407661963425,-19050.972944614048,-69776.468846377,-20421.31369368001
-18754.052371269747,-19048.313087023867,-69734.8051947123,-20382.7122310057
-18737.668542584008,-19021.96038031106,-69771.59616608574,-20385.059164173505
-18446.69353326482,-18972.85359774275,-69854.45408278157,-20418.25150468964
-18227.6017341139,-18985.2811676599,-69898.68818505862,-20454.796606874064
-18525.841060381063,-19043.57451719934,-69796.16073324213,-20413.93761800976
-18771.48673194489,-19042.613392187763,-69748.52916580786,-20371.245786100124
-18754.49940615885,-19011.56681913934,-69777.38526789966,-20370.35171632191
-18466.094847452023,-18959.12962664719,-69859.28205958391,-20404.66164406081
-18247.405379701304,-18972.987708209483,-69898.5987780808,-20438.56924039951
-18546.516424002224,-19035.840813617804,-69796.65247162014,-20402.27000740409
-18797.504162490863,-19036.35490374028,-69749.13266290816,-20362.282736573547
-18787.579987952708,-19014.07021451833,-69781.56504411281,-20364.69672497472
-18504.22692349278,-18980.85552225775,-69865.51819628694,-20406.3156731505
-18272.32757476897,-18979.961452479536,-69901.77272579346,-20437.675170621296
-18567.661174256944,-19036.109034551268,-69796.58541638678,-20402.91820799329
-18816.7937179558,-19035.57259268434,-69750.04908443082,-20366.395457553324
-18805.48373526141,-19008.14700223768,-69782.19089295756,-20369.234129099143
-18525.10345281404,-18972.85359774275,-69866.27815559843,-20408.573199340488
-18298.121487870398,-18985.68349906009,-69908.96998750806,-20447.532289926086
-18595.31028214816,-19053.34222952631,-69803.6262158902,-20416.06103373301
-18846.25331714789,-19055.15272082719,-69751.99368619845,-20376.49844604712
-18833.91515420856,-19011.455060417065,-69779.35222141174,-20371.201082611213
-18554.85362468405,-18976.89926348916,-69864.31120208636,-20407.23209467317
-18321.83668873748,-18975.446400099565,-69899.51519960347,-20440.24562123366
-18617.393805670003,-19035.81846187335,-69797.83711407628,-20412.55180985353
-18876.07054425127,-19038.63478167472,-69741.0636831598,-20371.40224831131
-18868.6050616032,-19006.224752214523,-69769.02571547338,-20367.46834128718
-18590.39289836799,-18962.48238831549,-69851.79422519139,-20404.683995805262
-18356.61600310993,-18966.43864708408,-69891.93795823312,-20440.91617356732
-18651.16729154197,-19022.876801833725,-69784.40371565864,-20407.500315606638
-18911.341597001745,-19027.3918542137,-69734.5593255233,-20367.043658142527
-18901.6632916526,-18999.92156027813,-69758.67685779058,-20366.864844186886
-18628.055587775183,-18967.265661628924,-69841.17714657512,-20408.37203364039
-18393.85400937248,-18975.200530910555,-69886.28296688592,-20449.029856804595
-18676.46946626538,-19030.208174015068,-69781.87796853519,-20409.4672691187
-18943.12577761719,-19040.91465960916,-69730.87128768818,-20371.3575448224
-18936.599068236243,-19020.06048203236,-69762.94604098154,-20367.62480349837
-18660.152692813004,-18975.71462103303,-69849.11201585675,-20405.8686382614
-18425.97346615475,-18984.92353974861,-69894.84368501231,-20448.247545748654
-18709.2147718924,-19039.081816563823,-69782.74968656895,-20401.86767600389
-18975.1781791661,-19043.5968689438,-69741.46601455999,-20367.89302443183
-18973.211225654035,-19008.57168538233,-69774.5689480983,-20373.525664034565
-18696.67544325297,-18963.13058890469,-69856.66690548265,-20408.03675747356
-18457.265908392183,-18976.54163557788,-69904.499638617,-20445.945316069763
-18742.04948449725,-19024.17320301213,-69799.33468095478,-20410.09311796345
-19007.00706327046,-19021.915676822147,-69750.74198850895,-20375.403210568813
-19007.92348479313,-19000.882685289704,-69787.5776633713,-20376.49844604712
-18735.70158907194,-18967.48917907348,-69866.23345210952,-20409.981359241174
-18491.620539619988,-18975.044068699368,-69911.92041777616,-20452.71789463972
-18773.788961623784,-19032.86803160525,-69809.9741113155,-20422.38657741387
-19032.86803160525,-19031.10224379328,-69755.05587518882,-20382.46636181669
-19031.61633391575,-19009.95749353856,-69788.20351221605,-20386.757896752108
-18765.876444086607,-18975.647565799663,-69865.02645790893,-20425.29230419306
-18517.503859699234,-18979.268548401426,-69909.26056018598,-20462.99969708916
-18801.81804917074,-19041.47345322054,-69810.89053283818,-20432.869545563408
-19064.96513664307,-19043.038075332413,-69755.3687996112,-20391.585873554453
-19069.90487216769,-19013.466717418043,-69781.60974760172,-20389.50716132011
-18798.264121802345,-18972.227748898,-69860.84668169578,-20419.592609356954
-18545.71176120183,-18980.98963272448,-69913.21681895458,-20455.84713886346
-18825.06386340426,-19043.10513056578,-69817.59605617476,-20427.14749898285
-19093.79888699041,-19051.5987934588,-69767.52814859488,-20388.25546363061
-19089.529703799453,-19017.266513975443,-69794.08202100778,-20382.17578913877
-18820.749976724383,-18977.972147223016,-69877.43167608163,-20420.37492041289
-18569.181092879902,-18984.655318815152,-69930.58412439634,-20464.96665060123
-18847.236793903925,-19048.022514345947,-69833.73401567149,-20439.5750689
-19120.330407658865,-19057.231433061534,-69772.5125876084,-20398.961949224707
-19124.37607340528,-19045.72028466705,-69803.84973333475,-20400.683033547764
-18858.725590553957,-19012.19266798409,-69886.28296688592,-20435.28353396458
-18598.81950602764,-18988.27630141691,-69927.63369412825,-20465.50309246816
-18862.391276644623,-19019.591095398795,-69816.83609686329,-20421.872487291395
-19133.003846765023,-19021.356883210767,-69755.52526182237,-20378.17482688127
-19139.2176317236,-18998.647510844174,-69788.13645698267,-20382.22049262768
-18873.76831457237,-18965.52222556141,-69867.52985328792,-20418.47502213419
-18611.671759089444,-18960.694248759064,-69913.5520951214,-20450.817996361016
-18886.1064775117,-19016.014816285948,-69814.15388752865,-20420.24080994616
-19155.489701687064,-19023.3908919562,-69760.75557002492,-20378.823027470477
-19158.596594166356,-19000.92738877861,-69789.94694828356,-20376.051411158016
-18894.510733426898,-18966.75157150645,-69870.01089692247,-20405.51101035011
-18633.50941342228,-18975.111123932737,-69919.81058356889,-20447.688752137277
-18901.95386433052,-19041.853432876283,-69820.97116958752,-20421.492507635656
-19176.74621066406,-19049.475377735544,-69759.8167967578,-20382.354603094413
-19184.301100289955,-19018.92054306514,-69786.1247999817,-20383.27102461708
-18924.730291930475,-18984.834132770797,-69870.16735913364,-20422.632446602875
-18660.84559689112,-18991.114972962736,-69928.14778425072,-20468.47587448071
-18922.293951784846,-19047.35196201229,-69830.80593714786,-20438.926868310795
-19191.61012072684,-19046.81552014536,-69764.06362820431,-20387.18257989676
-19198.96384465264,-19016.66301687515,-69794.61846287471,-20382.80163798352
-18940.085940371267,-18976.2287111555,-69877.90106271519,-20417.335083166967
-18675.53069299825,-18981.88370250269,-69929.48888891803,-20460.026915076603
-18935.88381241367,-19045.563822455864,-69827.65434117966,-20430.18733622877
-19210.117365135837,-19054.68333419363,-69767.14816893914,-20386.95906245221
-19219.32628385142,-19034.76792988395,-69795.73605009748,-20388.143704908336
-18959.97899293649,-18997.0828887323,-69878.03517318191,-20423.817089059008
-18690.372251316578,-18992.120801463225,-69934.07099653137,-20470.5322349706
-18949.29485908685,-19045.653229433683,-69834.42691974962,-20446.25824049213
-19226.590600799394,-19053.38693301522,-69767.77401778389,-20398.537266080057
-19233.43023460272,-19020.01577854345,-69795.06549776382,-20392.479943332663
-18986.66697581613,-18973.03241169839,-69867.46279805456,-20426.007560015627
-18714.89211498405,-18960.71660050352,-69912.72508057655,-20460.00456333215
-18968.159731407133,-19017.691197120097,-69815.2267712625,-20429.539135639567
-19248.651772576784,-19027.794185613893,-69755.63702054466,-20391.40705959881
-19260.00645876008,-18998.91573177764,-69778.07817197779,-20384.92505370677
-19005.062461502846,-18962.03535342638,-69858.29858282788,-20421.783080313573
-18731.76768204781,-18969.120856418715,-69917.03896725643,-20469.23583379219
-18988.388060139187,-19032.845679860795,-69815.11501254023,-20440.15621425584
-19269.975336787145,-19042.032246831925,-69748.28329661886,-20392.97168171068
-19284.548674172005,-19019.233467487516,-69774.32307890929,-20389.01542294209
-19031.23635426001,-18981.414315869133,-69852.86710892525,-20421.537211124567
-18757.785112593785,-18989.10331596176,-69909.86405728628,-20466.084237823998
-19008.884609804703,-19047.86605213476,-69812.58926541678,-20438.032798532586
-19290.650700408307,-19064.74161919852,-69755.59231705575,-20398.80548701352
-19303.614712192382,-19040.46762472005,-69780.49216037896,-20393.642234044342
-19049.363619013264,-18986.264644415933,-69855.37050430424,-20419.25733319013
-18772.827836612207,-18986.73403104949,-69912.61332185428,-20460.13867379888
-19026.229563502024,-19051.82231090335,-69820.36767248722,-20435.55175489804
-19307.414508749785,-19062.64055521972,-69759.72738977998,-20393.642234044342
-19323.48541301315,-19025.53665942391,-69782.05678249082,-20385.237978129146
-19075.44810479261,-18970.886644230683,-69857.31510607185,-20413.93761800976
-18797.794735168784,-18966.170426150613,-69917.37424342326,-20456.316525497023
-19041.741674154007,-19035.170261284144,-69823.13928879968,-20429.13680423937
-19323.999503135623,-19033.15860428317,-69753.87123273268,-20381.952271694216
-19341.299753344032,-18997.90990327715,-69778.68166907808,-20378.21953037018
-19090.423773577662,-18957.6767632576,-69848.66498096765,-20404.482830105168
-18805.662549217053,-18958.392019080165,-69905.52781886194,-20442.972534057204
-19052.090531836813,-19024.21790650105,-69813.34922472826,-20421.648969846843
-19340.15981437681,-19037.80776712987,-69747.65744777411,-20380.76762923809
-19357.124788418387,-19013.533772651408,-69770.67974456308,-20374.82206521297
-19112.01555872149,-18976.876911744705,-69846.51921349994,-20409.400213885336
-18830.22711637344,-18971.311327375333,-69905.66192932868,-20453.321391740013
-19072.20710184659,-19031.48222344902,-69811.58343691629,-20428.51095539462
-19360.54460532005,-19039.014761330454,-69747.88096521866,-20384.03098392856
-19378.895387517856,-19008.72814759352,-69772.7137533085,-20378.66656525929
-19137.585954378363,-18977.83803675628,-69851.48130076901,-20414.65287383233
-18850.76836952786,-18974.775847765904,-69905.93015026214,-20453.61196441793
-19085.238168864034,-19037.919525852147,-69812.2316375055,-20427.32631293849
-19378.493056117662,-19044.848566633293,-69744.99759018394,-20383.427486828263
-19396.776783082103,-19023.14502276719,-69770.29976490734,-20376.90077744732
-19155.0203150535,-18981.14609493567,-69843.6358384652,-20406.56154233951
-18871.622547104664,-18977.2792431449,-69904.43258338363,-20449.81216786053
-19104.795945262427,-19040.35586599777,-69812.79043111688,-20421.38074891338
-19394.25103595865,-19041.31699100936,-69746.1598808956,-20374.732658235152
-19416.31220773604,-19020.686330877103,-69769.7186195515,-20371.40224831131
-19174.913367618727,-18977.56981582282,-69844.5299082434,-20405.37689988338
-18883.670137366076,-18973.74766752096,-69906.55599910689,-20448.962801571222
-19116.463555868097,-19037.070159562845,-69817.0819660523,-20425.40406291533
-19409.584332654995,-19047.016685845458,-69749.60204954172,-20381.594643782933
-19430.974952098724,-19019.34522620979,-69770.54563409634,-20373.168036123283
-19194.09116436138,-18980.07321120181,-69841.7359401865,-20402.60528357092
-18900.6127596632,-18969.50083607445,-69901.41509788217,-20442.10081602345
-19128.89112578525,-19025.313141979357,-69812.0751752943,-20418.56442911201
-19422.41423397234,-19034.499708950487,-69741.22014537099,-20371.7598762226
-19443.24605980469,-19007.3870429262,-69765.85176776073,-20367.11071337589
-19204.976463911116,-18974.306461132343,-69843.34526578728,-20401.822972514987
-18909.55345744532,-18970.73018201949,-69904.72315606155,-20445.364170713925
-19135.753111333022,-19027.95064782508,-69810.84582934926,-20419.637312845865
-19430.438510231797,-19040.73584565352,-69747.32217160729,-20382.86869321689
-19455.606574488476,-19020.596923899284,-69772.33377365278,-20383.98628043965
-19219.12511815132,-18977.65922280064,-69842.67471345363,-20413.31176916501
-18922.584524462764,-18975.289937888378,-69911.47338288705,-20461.03274357709
-19144.2691259705,-19031.638685660208,-69821.9322945991,-20438.211612488227
-19437.680475435314,-19037.76306364096,-69746.94219195154,-20390.69180377624
-19463.541443770104,-19021.938028566605,-69774.3677823982,-20387.383745596857
-19228.98223745611,-19000.346243422777,-69855.75048395997,-20423.03477800307
-18927.65837045412,-18981.213150169035,-69917.91068529019,-20463.223214533715
-19146.30313471593,-19026.408377457665,-69826.3802917457,-20441.09498752296
-19441.860251648457,-19039.12652005273,-69757.31340137881,-20396.391498612345
-19468.63764150592,-19019.255819231967,-69779.1734074561,-20389.238940386647
-19235.933629981715,-18982.37544088071,-69854.09645487028,-20421.648969846843
-18936.911992658617,-18982.64366181417,-69918.31301669039,-20465.234871534693
-19150.28174522898,-19036.86899386275,-69827.67669292411,-20440.80441484504
-19445.213013316752,-19045.653229433683,-69756.91106997861,-20398.581969568964
-19473.309156097075,-19021.98273205552,-69777.1170469662,-20395.00569045612
-19238.52643233853,-18971.333679119787,-69843.233507065,-20417.446841889247
-18935.12385310219,-18971.49014133097,-69911.83101079834,-20465.14546455687
-19146.437245182664,-19036.4443107181,-69826.64851267917,-20444.112473024423
-19440.45209174777,-19041.20523228708,-69749.15501465261,-20388.613091541894
-19467.00596416068,-19015.1878017411,-69774.72541030949,-20381.84051297194
-19233.69845553618,-18979.693231546076,-69848.35205654526,-20412.797679042545
-18927.613666965208,-18975.200530910555,-69912.99330151001,-20459.021086576115
-19142.995076536547,-19030.789319370902,-69825.5309254564,-20442.413740445823
-19443.648391204883,-19043.26159277697,-69750.83139548676,-20395.877408489872
-19472.929176441336,-19016.61831338624,-69769.42804687358,-20385.260329873603
-19243.44381611869,-18975.535807077387,-69842.87587915373,-20412.14947845333
-18936.867289169702,-18967.220958140013,-69915.49669688901,-20457.59057493097
-19143.576221892385,-19027.503612935976,-69826.49205046798,-20435.99878978715
-19445.481234250212,-19043.57451719934,-69750.69728502003,-20390.17771365377
-19477.176007887843,-19018.451156431576,-69767.84107301725,-20384.656832773308
-19251.55749935597,-18979.447362357067,-69841.64653320868,-20416.083385477472
-18943.908088673128,-18965.99161219497,-69913.9544265216,-20458.23877552018
-19147.666591127705,-19022.899153578182,-69827.96726560203,-20430.120280995405
-19445.905917394863,-19032.4433484606,-69747.63509602965,-20379.7618007376
-19469.978746173238,-18997.172295710123,-69761.44847410303,-20364.45085578571
-19245.455473119677,-18970.79723725286,-69835.38804476119,-20397.8667137464
-18938.94600140405,-18979.246196656968,-69907.80769679639,-20446.83938584797
-19140.715198602105,-19040.2441072755,-69827.65434117966,-20432.176641485294
-19445.950620883777,-19044.513290466464,-69749.75851175291,-20383.226321128168
-19474.829074720037,-19006.537676636897,-69765.29297414934,-20373.525664034565
-19251.915127267257,-18975.222882655013,-69843.45702450955,-20411.7694987976
-18931.99460887845,-18966.1257226617,-69907.83004854084,-20451.95793532824
-19131.23805895305,-19023.033264044912,-69824.70391091156,-20436.55758339853
-19437.56871671304,-19036.556069440376,-69743.45531981651,-20384.96975719568
-19470.202263617783,-19006.87295280373,-69760.24147990246,-20370.642288999832
-19246.99774348709,-18968.36089710723,-69833.08581508229,-20404.974568483183
-18932.39694027864,-18960.627193525692,-69906.3995368957,-20457.56822318652
-19128.980532763067,-19021.62510414423,-69822.24521902147,-20437.09402526546
-19436.40642600136,-19035.86316536226,-69742.74006399394,-20386.489675818644
-19466.55892927157,-19013.846697073783,-69755.90524147812,-20370.66464074429
-19242.37093238484,-18981.190798424577,-69829.06250108033,-20399.3642806249
-18923.255076796424,-18965.52222556141,-69903.85143802779,-20447.554641670544
-19114.18367793365,-19020.12753726573,-69820.41237597614,-20424.398234414846
-19420.112004293445,-19039.998238086493,-69748.23859312995,-20374.06210590149
-19456.61240298896,-19012.483240662008,-69770.8138550298,-20367.445989542724
-19236.827699759924,-18973.211225654035,-69840.0819110968,-20394.67041428929
-18914.89552437014,-18966.393943595165,-69910.86988578676,-20442.99488580166
-19097.1069451698,-19022.00508379997,-69829.35307375826,-20424.733510581675
-19405.1810389973,-19036.01962757345,-69749.15501465261,-20375.26910010208
-19445.59299297249,-19014.025511029424,-69765.94117473855,-20369.6588122438
-19230.1892316567,-18981.794295524876,-69838.27141979593,-20401.89002774835
-18909.061719067304,-18973.792371009877,-69912.99330151001,-20450.035685305083
-19093.73183175705,-19030.498746692985,-69829.86716388073,-20431.03670251807
-19399.36958543892,-19033.20330777208,-69751.99368619845,-20384.478018817663
-19436.764053912648,-19009.19753422708,-69771.55146259684,-20378.778323981565
-19220.890905963293,-18981.503722846952,-69847.07800711131,-20418.22915294518
-18893.95193981552,-18971.13251341969,-69914.13324047724,-20464.787836645584
-19072.497674524508,-19028.91177283666,-69828.4813557245,-20444.693618380265
-19377.375468894897,-19042.926316610137,-69748.6185727857,-20399.27487364708
-19410.83603034449,-19009.77867958292,-69766.74583753894,-20390.46828633169
-19193.73353645009,-18973.23357739849,-69840.23837330799,-20416.75393781113
-18865.92285226856,-18962.59414703776,-69918.62594111275,-20466.39716224637
-19042.59104044331,-19022.273304733437,-69836.52798372842,-20448.44871144876
-19351.69331451575,-19035.37142698424,-69758.78861651286,-20400.90655099232
-19389.043079500567,-19002.29084519039,-69771.99849748594,-20388.970719453184
-19174.399277496253,-18970.014926196924,-69845.31221929935,-20416.46336513321
-18854.948145741004,-18971.80306575335,-69921.59872312531,-20466.24070003518
-19035.21496477305,-19031.079892048823,-69844.66401871014,-20455.89184235237
-19349.614602281406,-19055.57740397184,-69771.21618643,-20416.86569653341
-19387.00907075513,-19030.76696762645,-69776.35708765473,-20398.06787944649
-19173.50520771804,-18993.05957473035,-69845.3345710438,-20426.052263504534
-18846.67800029254,-18966.88568197318,-69919.2517899575,-20469.86168263694
-19017.71354886455,-19014.405490685163,-69835.99154186148,-20445.967667814217
-19328.000465393125,-19032.599810671785,-69750.65258153112,-20389.216588642197
-19371.519311847605,-19018.629970387217,-69771.79733178584,-20382.93574845025
-19159.669477900206,-18974.70879253254,-69846.87684141121,-20411.300112164037
-18827.63431401662,-18950.166577120614,-69923.31980744837,-20453.924888840305
-18995.540618364885,-19007.23058071501,-69843.97111463203,-20434.389464186366
-19310.16377331779,-19024.19555475659,-69759.72738977998,-20380.141780393336
-19352.855605227425,-19000.793278311885,-69775.70888706553,-20364.339097063435
-19144.716160859607,-18968.56206280733,-69852.71064671405,-20395.31861487849
-18813.48565977641,-18956.26860335691,-69928.41600518418,-20441.89965032335
-18980.72141179102,-19018.67467387613,-69854.92346941512,-20431.751958340643
-19297.356223744897,-19043.663924177163,-69769.83037827378,-20385.97558569617
-19341.25504985512,-19022.47447043353,-69786.88475929317,-20378.331289092457
-19136.244849711045,-18990.75734505145,-69856.62220199373,-20409.19904818524
-18803.76265093835,-18984.163580437136,-69928.75128135101,-20451.33208648349
-18961.208338881534,-19042.56868869885,-69855.07993162631,-20434.34476069746
-19275.518569412063,-19057.499653995,-69775.2171486875,-20381.974623438677
-19315.97522687617,-19021.647455888684,-69787.44355290456,-20363.333268562947
-19107.34404413033,-18969.344373863267,-69852.46477752505,-20386.98141419666
-18774.660679657543,-18957.58735627977,-69931.76876685247,-20442.056112534538
-18936.15203334713,-19027.078929791325,-69862.90304218567,-20436.17760374279
-19253.94913601269,-19049.49772948,-69779.10635222273,-20387.741373508143
-19300.843095879925,-19027.72713038053,-69793.05384076283,-20377.347812336426
-19098.04571843692,-18991.96433925204,-69861.49488228498,-20402.784097526564
-18763.41775219652,-18973.926481476603,-69935.36739770978,-20448.247545748654
-18916.79542264884,-19021.490993677497,-69852.6435914807,-20431.819013574008
-19237.23003116012,-19039.21592703056,-69766.11998869419,-20383.09221066144
-19286.023889306056,-19008.348167937776,-69771.73027655248,-20368.78709421004
-19086.802790975904,-18972.65243204265,-69840.84187040829,-20397.17380966828
-18754.074723014204,-18956.6262312682,-69921.03992951392,-20444.738321869176
-18906.915951599596,-19013.846697073783,-69849.17907109011,-20434.121243252903
-19230.97154271264,-19042.3451712543,-69764.75653228242,-20392.8152194995
-19281.64294739281,-19022.452118689074,-69781.25211969044,-20383.583949039454
-19079.806694961397,-18989.88562701769,-69852.97886764751,-20410.987187741663
-18741.133062974583,-18973.926481476603,-69932.10404301931,-20457.791740631077
-18894.64484389363,-19037.62895317423,-69861.69604798508,-20448.180490515293
-19214.721824493627,-19059.980697629537,-69777.60878534423,-20400.92890273677
-19266.354354185387,-19026.31897047984,-69788.53878838287,-20384.36626009539
-19068.4520087781,-18989.304481661857,-69856.80101594937,-20412.88708602036
-18731.857089025627,-18982.889531003184,-69936.68615063264,-20464.161987800835
-18877.590462874232,-19033.20330777208,-69863.93122243062,-20450.303906238547
-19199.679100475205,-19044.58034569983,-69774.25602367593,-20394.312786378003
-19251.33398191142,-19006.403566170164,-69783.97903251399,-20380.03002167106
-19058.1478545842,-18980.47554260201,-69855.66107698216,-20410.070766218996
-18720.569458075697,-18970.75253376395,-69935.12152852077,-20459.088141809483
-18860.67019232156,-19021.893325077694,-69863.17126311913,-20443.464272435223
-19182.26709154452,-19036.39960722919,-69779.64279408965,-20395.922111978784
-19238.504080594077,-19011.253894716967,-69796.71952685351,-20389.596568297933
-19039.23827877501,-18970.976051208505,-69860.22083285103,-20410.42839413028
-18706.33139685767,-18968.53971106288,-69950.74539789504,-20468.09589482497
-18847.147386926103,-19026.07310129084,-69881.43263833913,-20459.04343832057
-19170.80064663895,-19049.788302157915,-69790.39398317266,-20408.819068529498
-19226.858821732854,-19024.06144428986,-69801.39104144467,-20398.98430096916
-19032.0410170604,-18988.030432227904,-69868.78155097742,-20419.90553377933
-18693.12151588458,-18977.301594889355,-69953.06997931839,-20468.54292971408
-18827.991941927903,-19034.365598483757,-69880.6950307721,-20453.99194407367
-19150.058227784422,-19057.14202608371,-69786.974166271,-20404.99692022764
-19210.832620958405,-19024.53083092342,-69796.58541638678,-20395.139800922847
-19022.60858090026,-18992.880760774704,-69867.37339107673,-20422.028949502583
-18686.036012892248,-18987.22576942751,-69953.3605519963,-20476.030764106603
-18821.93461918052,-19041.696970665096,-69886.77470526395,-20463.11145581144
-19150.013524295515,-19059.80188367389,-69807.18014325859,-20416.99980700014
-19209.24564710208,-19041.495804965,-69822.80401263286,-20409.51197260761
-19019.52404016543,-19010.560990638853,-69888.02640295344,-20433.003656030138
-18675.731858698357,-18992.299615418862,-69971.84544466084,-20484.367964788435
-18805.260217816856,-19032.46570020505,-69899.96223449257,-20471.180435559803
-19133.78615782096,-19061.72413369705,-69809.5717799153,-20418.765594812103
-19191.16308583773,-19029.470566448043,-69825.26270452293,-20408.394385384847
-19002.648473101675,-18984.61061532624,-69894.03902221192,-20436.44582467625
-18655.525881710757,-18964.53874880537,-69965.3634387688,-20479.3835257749
-18782.662604172543,-19018.5405634094,-69894.7989815234,-20465.52544421261
-19118.721082058084,-19049.2965637799,-69808.8788758372,-20421.716025080208
-19183.295271789462,-19021.58040065532,-69818.1772015306,-20408.349681895936
-18995.65237708716,-18981.57077808032,-69875.30826035838,-20427.169850727303
-18653.558928198687,-18967.109199417737,-69954.99222934154,-20477.2824617961
-18778.460476214943,-19025.067272790347,-69885.92533897464,-20468.45352273625
-19114.608361078303,-19056.024438860943,-69802.73214611199,-20426.61105711592
-19175.002774596545,-19029.06823504785,-69809.1247450262,-20409.310806907517
-18987.024603727416,-18992.18785669659,-69869.36269633326,-20430.500260651144
-18643.522994938256,-18974.977013466003,-69944.15163328072,-20473.70618268325
-18765.65292664205,-19030.67756064863,-69884.38306860722,-20467.917080869327
-19106.02529120747,-19056.225604561045,-69802.41922168962,-20426.633408860376
-19176.343879263863,-19034.924392095138,-69813.70685263955,-20410.808373786014
-18996.233522443,-19003.34137717979,-69874.4365423246,-20433.003656030138
-18652.709561909385,-18987.71750780553,-69959.97666835507,-20480.612871719943
-18771.82200811172,-19031.459871704563,-69891.87090299976,-20467.917080869327
-19104.68418654015,-19055.376238271743,-69798.19474198757,-20417.04451048905
-19169.526597205,-19031.951610082582,-69815.4279369626,-20406.203914428224
-18990.57853109581,-19001.70969983455,-69883.6454610402,-20432.04253101856
-18642.15953852648,-18985.057650215345,-69964.02233410148,-20477.640089707387
-18758.790941094278,-19045.027380588937,-69904.99137699502,-20474.063810594536
-19093.48596256804,-19058.21490981757,-69809.75059387095,-20424.15236522584
-19160.630602911784,-19016.774775597427,-69814.08683229529,-20409.19904818524
-18981.99546122497,-18978.59799606776,-69881.85732148378,-20432.37780718539
-18636.146919268005,-18971.870120986718,-69968.82795915937,-20484.01033687715
-18749.09028400067,-19025.626066401728,-69903.4491066276,-20477.125999584918
-19084.88054095275,-19053.945726626604,-69814.95855032904,-20432.824842074497
-19154.036838297467,-19024.06144428986,-69814.5338671844,-20412.55180985353
-18973.814722754327,-18982.15192343616,-69872.82721672383,-20428.95799028373
-18628.30145696419,-18963.935251705083,-69950.94656359513,-20471.33689777099
-18738.495557128856,-19020.552220410376,-69887.37820236424,-20465.19016804578
-19078.242072849524,-19049.989467858013,-69793.43382041858,-20421.09017623546
-19151.667553385207,-19029.694083892595,-69800.38521294418,-20408.394385384847
-18978.575644323308,-19000.86033354525,-69862.99244916349,-20429.89676355085
-18632.3471227106,-18991.22673168501,-69948.93490659415,-20480.52346474212
-18741.64715309705,-19043.932145110623,-69881.38793485021,-20474.55554897256
-19083.91941594117,-19064.40634303169,-69785.40954415912,-20427.035740260573
-19156.69669588765,-19035.43848221761,-69797.05480302034,-20411.814202286507
-18985.2811676599,-18998.647510844174,-69857.18099560511,-20431.23786821817
-18638.717369880364,-18989.416240384133,-69946.4091594707,-20482.62452872092
-18745.20108046545,-19044.4462352331,-69890.12746693224,-20478.936490885797
-19088.523875298964,-19063.847549420305,-69792.36093668472,-20426.47694664919
-19162.329335490387,-19048.35779051277,-69797.12185825371,-20412.641216831355
-18991.070269473825,-19000.301539933866,-69859.30441132837,-20432.310751952024
-18640.036122803227,-18959.50960630293,-69939.97185706758,-20470.19695880377
-18736.618010594608,-19007.87878130421,-69875.0400394249,-20456.227118519204
-19080.70076473961,-19041.40639798717,-69788.2258639605,-20411.18835344176
-19158.417780210708,-19017.892362820192,-69795.95956754203,-20394.7151177782
-18989.840923528784,-18985.79525778237,-69856.488091527,-20414.18348719877
-18639.276163491748,-18966.37159185071,-69941.5588309239,-20465.436037234787
-18739.970772262903,-19014.04786277388,-69879.39862959369,-20460.09397030997
-19083.382974074244,-19044.513290466464,-69780.84978829024,-20407.9697022402
-19164.676268658197,-19022.60858090026,-69786.7730005709,-20392.03290844356
-18998.1334207217,-18989.19272293958,-69849.89432691269,-20411.411870886317
-18652.106064809093,-18969.634946541184,-69940.21772625658,-20462.73147615569
-18746.89981304405,-19019.90401982117,-69886.3500221193,-20463.13380755589
-19089.730869499548,-19048.134273068223,-69795.57958788628,-20419.27968493458
-19169.392486738263,-19025.2907902349,-69804.25206473494,-20406.80741152852
-19008.325816193323,-18995.04887998687,-69864.33355383082,-20425.96285652672
-18661.73966666933,-18976.31811813332,-69950.6112874283,-20473.10268558296
-18753.00183928035,-19028.19651701409,-69897.21296992457,-20469.52640647011
-19093.329500356853,-19048.871880635248,-69798.73118385448,-20415.010501743614
-19176.61210019733,-19026.453080946576,-69806.53194266939,-20398.3137486355
-19016.551258152875,-18998.781621310907,-69868.98271667752,-20418.586780856465
-18665.58416671564,-18979.112086190235,-69954.63460143025,-20465.77131340162
-18751.593679379665,-19033.47152870554,-69898.44231586962,-20459.445769720765
-19096.369337602777,-19045.87674687824,-69800.04993677734,-20410.964835997205
-19179.2272542986,-19014.56195289635,-69799.84877107725,-20389.01542294209
-19016.66301687515,-18977.212187911533,-69854.94582115959,-20405.779231283574
-18666.58999521613,-18958.481426057988,-69945.78331062595,-20457.657630164344
-18752.13012124659,-19007.63291211521,-69890.52979833243,-20451.5779556725
-19099.11860217078,-19037.070159562845,-69795.53488439738,-20401.59945507043
-19182.31179503343,-19004.123688235723,-69793.99261402996,-20376.81137046949
-19026.497784435487,-18976.653394300152,-69852.37537054722,-20399.99012946965
-18675.46363776489,-18950.3230393318,-69936.75320586601,-20446.81703410352
-18756.48871141537,-19000.122725978224,-69881.85732148378,-20446.81703410352
-19100.705576027107,-19032.935086838614,-69778.72637256699,-20394.84922824493
-19189.84433291487,-19013.220848229037,-69780.96154701251,-20376.386687324844
-19035.43848221761,-18982.75542053645,-69841.69123669759,-20401.822972514987
-18685.656033236508,-18961.856539470737,-69929.5559441514,-20455.91419409683
-18764.33417371919,-19012.483240662008,-69873.83304522432,-20452.941412084278
-19111.009730221,-19043.082778821325,-69773.25019517544,-20400.481867847662
-19199.61204524184,-19021.938028566605,-69775.4183143876,-20385.79677174053
-19043.61922068825,-18989.036260728397,-69829.84481213627,-20405.667472561297
-18695.13317288556,-18967.1762546511,-69915.8543248003,-20453.6790196513
-18772.783133123296,-19019.166412254144,-69866.45696955407,-20455.221290018715
-19120.17394544768,-19051.039999847413,-69768.13164569518,-20403.85698126042
-19211.413766314243,-19025.71547337955,-69772.7137533085,-20384.388611839844
-19062.797017430905,-18992.54548460788,-69834.65043719417,-20410.13782145236
-18710.62293179309,-18965.052838927848,-69923.72213884856,-20459.021086576115
-18775.37593548011,-19006.671787103627,-69863.10420788577,-20446.95114457025
-19119.59280009184,-19026.07310129084,-69760.59910781373,-20389.17188515328
-19211.57022852543,-19006.515324892443,-69772.17731144158,-20376.833722213956
-19060.80771217438,-18970.3278506193,-69832.07998658181,-20399.252521902625
-18710.734690515364,-18942.87990842818,-69923.0515865149,-20448.582821915486
-18775.264176757835,-18993.23838868599,-69873.38601033522,-20445.744150369665
-19122.632637337763,-19027.14598502469,-69771.68557306357,-20393.530475322063
-19216.554667538963,-18999.87685678921,-69773.00432598643,-20374.732658235152
-19068.20613958909,-18969.120856418715,-69830.18008830311,-20393.329309621968
-18715.540315573253,-18948.55725151983,-69915.80962131139,-20441.542022412064
-18773.788961623784,-18994.177161953117,-69863.14891137468,-20437.161080498827
-19124.97957050557,-19029.470566448043,-69768.75749453992,-20389.95419620921
-19219.773318740525,-19008.705795849062,-69769.67391606259,-20374.62089951288
-19070.128389612244,-18975.42404835511,-69827.27436152392,-20395.00569045612
-18715.13798417306,-18947.506719530436,-69915.29553118891,-20445.721798625207
-18773.788961623784,-18993.752478808463,-69864.66882999764,-20443.061941035023
-19120.24100068104,-19028.978828070027,-69767.19287242804,-20394.446896844733
-19217.15816463925,-19014.874877318725,-69774.52424460939,-20383.718059506187
-19075.80573270389,-18990.82440028481,-69832.21409704853,-20405.622769072383
-18717.708434785414,-18955.79921672335,-69916.77074632296,-20449.655705649344
-18770.346792977667,-18989.013908983936,-69864.66882999764,-20444.4253974468
-19117.692901813138,-19015.947761052583,-69762.87898574818,-20390.69180377624
-19212.57605702592,-18998.51340037744,-69766.38820962766,-20372.430428556258
-19062.77466568645,-18968.4279523406,-69824.4356899781,-20393.329309621968
-18710.667635282,-18945.98680090747,-69911.54043812043,-20438.63629563288
-18761.361391706632,-18995.361804409244,-69865.54054803141,-20441.45261543425
-19110.24977090952,-19023.077967533824,-69764.10833169322,-20392.65875728831
-19208.061004645944,-19004.32485393582,-69766.74583753894,-20372.87746344536
-19063.981659887035,-18965.254004627943,-69824.39098648918,-20391.474114832177
-18708.343053858647,-18935.83910892476,-69913.23917069903,-20442.413740445823
-18755.05819977024,-18986.46581011603,-69868.08864689931,-20442.860775334928
-19105.73471852955,-19022.47447043353,-69768.48927360645,-20396.07857418997
-19202.69658597667,-18996.233522443,-69768.89160500665,-20379.873559459877
-19058.706648195584,-18967.288013373374,-69821.731128899,-20397.151457923825
-18702.21867587789,-18944.69039972906,-69914.71438583308,-20443.50897592413
-18745.51400488782,-18993.350147408262,-69871.17318763414,-20441.2738014786
-19095.94465445813,-19031.43751996011,-69768.44457011754,-20386.668489774285
-19197.30981556294,-19005.33068243631,-69769.94213699605,-20370.821102955477
-19057.186729572622,-18967.288013373374,-69827.27436152392,-20392.591702054942
-18696.89896069753,-18935.74970194694,-69912.21099045408,-20438.43512993278
-18731.14183320306,-18980.81081876884,-69866.72519048753,-20434.43416767528
-19083.6064915188,-19022.586229155808,-69768.44457011754,-20388.27781537507
-19188.994966625567,-19012.237371473,-69772.82551203079,-20375.447914057724
-19049.76595041346,-18979.246196656968,-69827.27436152392,-20395.89976023433
-18690.21578910539,-18955.88862370117,-69919.49765914651,-20447.822862604007
-18728.21375467941,-19000.681519589605,-69877.5881382928,-20452.33791498398
-19078.53264552744,-19024.396720456687,-69764.48831134896,-20397.732603279663
-19180.76952466601,-18996.88172303221,-69760.21912815799,-20379.493579804133
-19040.71349390906,-18968.293841873867,-69814.15388752865,-20394.871579989383
-18685.03018439176,-18952.222937610502,-69905.3490049063,-20440.75971135613
-18721.418824365,-18999.85450504476,-69864.98175442002,-20446.884089336883
-19071.91652916867,-19020.82044134384,-69761.44847410303,-20394.40219335582
-19178.154370564745,-19001.46383064554,-69765.47178810499,-20380.03002167106
-19037.986581085515,-18968.71852501852,-69819.07127130881,-20398.55961782451
-18676.93885289894,-18933.738044945963,-69907.33831016283,-20438.61394388842
-18708.387757347555,-18983.94006299258,-69867.06046665437,-20441.631429389887
-19059.53366274043,-19026.16250826865,-69766.14234043864,-20395.40802185631
-19165.41387622522,-19006.515324892443,-69762.18608167006,-20373.436257056743
-19024.843755345795,-18974.50762683244,-69811.60578866075,-20386.89200721884
-18662.052591091702,-18937.22491708099,-69900.20810368158,-20430.79083332906
-18683.242044835337,-18977.41335361163,-69858.81267295036,-20428.645065861358
-19039.70766540857,-19018.697025620582,-69759.74974152443,-20383.539245550543
-19156.98726856557,-19018.85348783177,-69767.08111370578,-20376.90077744732
-19023.033264044912,-18980.90022574666,-69821.46290796553,-20394.737469522654
-18659.83976839063,-18953.65344925564,-69908.63471134123,-20437.451653176744
-18682.01269889029,-19005.062461502846,-69871.0390771674,-20445.833557347483
-19032.33158973832,-19038.41126423017,-69769.83037827378,-20398.246693402136
-19137.384788678264,-19003.96722602453,-69762.05197120333,-20367.960079665198
-19004.615426613746,-18967.600937795756,-69818.51247769744,-20383.159265894803
-18645.936983339427,-18935.32501880229,-69910.17698170865,-20432.981304285684
-18665.11478008208,-18987.94102525008,-69873.9448039466,-20446.28059223659
-19019.34522620979,-19033.15860428317,-69777.67584057759,-20401.42064111479
-19130.567506619394,-19011.56681913934,-69775.12774170969,-20379.918262948784
-18996.88172303221,-18968.159731407133,-69823.29575101087,-20391.31765262099
-18636.43749194592,-18940.957658405023,-69916.41311841168,-20442.816071846017
-18648.060399062684,-18991.98669099649,-69884.53953081841,-20448.6275254044
-19000.525057378414,-19030.141118781703,-69786.63889010416,-20399.81131551401
-19114.094270955837,-19004.99540626948,-69785.70011683705,-20376.54314953603
-18984.85648451525,-18965.94690870606,-69839.41135876314,-20391.049431687527
-18624.59106738461,-18940.55532700483,-69930.58412439634,-20441.251449734147
-18632.391826199517,-18984.00711822595,-69886.70765003057,-20445.341818969468
-18987.248121171968,-19026.587191413302,-69776.42414288809,-20396.95029222373
-19103.83482025085,-19011.81268832835,-69770.65739281863,-20377.83955071444
-18981.03433621339,-18983.47067635902,-69819.04891956436,-20393.55282706652
-18623.54053539521,-18963.957603449537,-69905.90779851768,-20441.6761328788
-18628.25675347528,-19011.47741216152,-69873.83304522432,-20451.39914171685
-18979.916748990625,-19037.070159562845,-69770.43387537407,-20400.481867847662
-19094.804715490904,-19011.85739181726,-69766.27645090538,-20379.7618007376
-18965.61163253923,-18977.122780933714,-69817.26078000794,-20393.150495666327
-18608.184886954416,-18955.28512660088,-69914.28970268843,-20441.34085671197
-18611.73881432281,-18996.76996430993,-69882.1925976506,-20447.509938181636
-18967.75740000694,-19041.361694498264,-69775.8653492767,-20396.36914686789
-19086.95925318709,-19021.915676822147,-69772.24436667495,-20375.49261754663
-18962.34827784876,-18970.19374015257,-69820.6358934207,-20390.80356249852
-18605.94971250889,-18935.74970194694,-69909.97581600855,-20441.162042756325
-18605.34621540859,-18980.85552225775,-69876.00116443649,-20446.682923636785
-18962.37062959321,-19019.03230178741,-69769.87508176269,-20397.218513157197
-19083.472381052063,-18995.250045686967,-69761.71669503649,-20374.486789046143
-18959.80017898085,-18967.265661628924,-69816.0314340629,-20390.870617731885
-18601.591122340094,-18937.09080661426,-69907.47242062955,-20438.077502021493
-18599.4900583613,-18976.116952433225,-69878.07987667083,-20445.4759294362
-18955.28512660088,-19017.691197120097,-69775.53007310988,-20393.97751021117
-19077.48211353804,-18997.731089321507,-69768.69043930655,-20369.524701777067
-18956.380362079188,-18963.912899960626,-69818.5348294419,-20386.333213607457
-18601.769936295743,-18940.957658405023,-69916.86015330079,-20438.323371210503
-18596.3384623931,-18997.70873757705,-69893.1002489448,-20449.72276088271
-18950.725370731994,-19045.563822455864,-69797.09950650924,-20407.09798420644
-19067.736752955527,-19005.777717325414,-69785.61070985922,-20376.94548093623
-18943.818681695306,-18969.50083607445,-69834.42691974962,-20386.333213607457
-18591.041098957197,-18946.500891029944,-69929.5559441514,-20434.836499075474
-18582.74860176428,-18994.5347898644,-69900.38691763722,-20444.60421140244
-18938.655428726128,-19033.53858393891,-69794.5737593858,-20394.536303822555
-19060.07010460736,-19008.16935398213,-69783.75551506944,-20368.11654187638
-18942.49992877244,-18981.615481569228,-69834.3822162607,-20384.343908350937
-18589.14120067849,-18950.859481198728,-69928.34894995081,-20432.66837986331
-18573.67379351542,-18988.008080483447,-69901.30333915989,-20440.08915902247
-18927.63601870966,-19019.993426798992,-69794.41729717462,-20393.530475322063
-19050.57061321385,-18998.222827699523,-69783.4202389026,-20366.82014069797
-18933.17925133458,-18965.23165288349,-69831.11886157023,-20381.147608893825
-18575.14900864947,-18934.78857693536,-69920.54819113591,-20424.46528964821
-18558.876938686008,-18976.63104255569,-69895.62599606824,-20437.00461828764
-18915.186097048056,-19022.42976694462,-69791.26570120642,-20394.24573114464
-19046.52494746744,-19010.82921157232,-69785.23073020348,-20374.665603001788
-18934.498004257443,-18979.84969375726,-69834.27045753843,-20390.22241714268
-18581.519255819232,-18946.277373585388,-69926.58316213885,-20437.36224619892
-18562.49792128777,-18977.055725700346,-69898.50937110298,-20445.252411991645
-18917.711844171507,-19019.233467487516,-69793.90320705214,-20398.447859102234
-19047.173148056645,-19004.95070278057,-69784.24725344745,-20376.6102047694
-18933.69334145705,-18972.764190764927,-69833.73401567149,-20390.26712063159
-18580.60283429657,-18944.15395786213,-69925.28676096043,-20438.56924039951
-18558.65342124145,-18988.119839205723,-69900.52102810396,-20448.26989749311
-18913.17444004708,-19030.63285715972,-69787.86823604921,-20395.877408489872
-19044.66975267765,-19008.0352435154,-69776.64766033264,-20370.97756516666
-18935.32501880229,-18979.84969375726,-69832.25880053744,-20388.635443286355
-18583.217988397835,-18955.62040276771,-69926.29258946092,-20435.30588570904
-18553.13254036099,-18998.17812421061,-69902.64444382722,-20441.20674624524
-18903.78670737585,-19028.93412458112,-69797.09950650924,-20389.238940386647
-19032.800976371884,-19003.497839390977,-69785.54365462586,-20363.5567860075
-18920.84108839525,-18965.052838927848,-69833.71166392704,-20376.72196349168
-18566.72240098982,-18933.067492612303,-69929.46653717358,-20426.074615248992
-18534.2229645518,-18962.81766448232,-69904.2984729169,-20437.29519096556
-18889.95097755801,-19009.62221737173,-69795.53488439738,-20386.26615837409
-19024.754348367973,-18997.82049629933,-69786.10244823724,-20362.37214355137
-18915.94605635954,-18967.93621396258,-69836.37152151723,-20375.716134991188
-18561.80501720965,-18932.687512956563,-69928.46070867308,-20420.687844835265
-18527.29392377066,-18962.70590576004,-69903.6502723277,-20429.20385947273
-18880.675003609063,-19002.648473101675,-69797.59124488727,-20381.527588549565
-19013.645531373684,-18984.051821714856,-69788.65054710515,-20360.762817950585
