 EXG Channel 0, EXG Channel 1, EXG Channel 2, EXG Channel 3
-1150.0866592033697,15872.8454557473,-24538.348560136383,-50898.29723814693
-1342.3116615190104,15809.254742771953,-25301.213598396014,-50794.04870200738
-1554.317957677598,15693.182133815544,-24842.10876728401,-51175.257703692645
-1384.8917347063702,15740.45607333852,-23954.74451240832,-51380.24555209227
-1166.3587291668332,15857.310993350864,-24038.675312838,-51133.61640377241
-1147.0021184685372,15904.517877640472,-24544.472938117146,-50892.03874969944
-1351.6546907013287,15834.489862261997,-25305.885112987176,-50796.708559597566
-1556.3966699119414,15716.271485837877,-24823.60152287501,-51177.582285116
-1379.1473363813564,15758.091599713756,-23948.3519134941,-51374.9258369119
-1165.487011133076,15868.889196978713,-24047.03486526428,-51129.23546185916
-1149.2596446585233,15909.14468874272,-24569.28337446253,-50885.28852287395
-1359.5672082385074,15835.026304128922,-25323.319473662315,-50796.75326308647
-1566.9019898059355,15714.840974192735,-24811.44217389133,-51191.10509051145
-1379.6837782482835,15764.238329438966,-23944.03802681423,-51376.28929332367
-1166.5822466113862,15877.76283952747,-24047.99599027586,-51122.95462166722
-1151.9195022487047,15918.308903969397,-24582.58266241344,-50879.63353152675
-1356.4379640147645,15838.535528008406,-25333.84714530077,-50799.23430672101
-1545.7572395512152,15718.439605050042,-24792.24202540422,-51195.0837010245
-1355.2309698141778,15773.78252432138,-23939.768843623264,-51368.77910718669
-1143.5152463335094,15890.995072245012,-24057.8307578362,-51113.38807504036
-1132.2946706169453,15929.976514575066,-24598.0053660876,-50872.77154597897
-1347.5643214660074,15843.967001911044,-25340.664427359632,-50805.93983005761
-1538.7834952811595,15721.747663229426,-24779.501531064696,-51208.9864860757
-1342.5575307080187,15774.542483632862,-23946.78729138223,-51371.43896477687
-1143.93992947816,15880.28858665092,-24071.62178416512,-51117.00905764211
-1134.9321764626714,15917.079558024356,-24613.45042150622,-50879.03003442646
-1353.3757750243874,15836.523871007428,-25345.850032073264,-50810.90191732668
-1539.3646406369974,15721.144166129134,-24766.09048439151,-51212.96509658875
-1340.7693911515942,15779.862198813224,-23947.21197452688,-51369.71788045381
-1139.3354701203668,15889.72102281106,-24092.87829314212,-51118.03723788706
-1133.3899060952551,15922.91336332719,-24652.141291158357,-50885.02030194048
-1352.6605192018176,15838.021437885936,-25369.16290154015,-50828.35862974628
-1535.4307336128634,15720.96535217349,-24763.408275056878,-51239.72013470175
-1333.035687570058,15778.901073801646,-23963.148768323517,-51387.08518589559
-1135.7815427519731,15884.624825075249,-24118.783964965816,-51135.69511600675
-1133.881644473272,15914.9561423011,-24688.529931131598,-50904.33220914986
-1356.482667503675,15827.270248802932,-25381.568119712847,-50850.71037420158
-1531.8544545000143,15711.845840435726,-24750.243097572697,-51261.96012043478
-1322.5303676760636,15772.93315803208,-23961.137111322536,-51394.70713075485
-1123.912766446205,15881.607339573782,-24124.930694691026,-51131.425932815786
-1128.360763592811,15911.089290510332,-24699.88461731489,-50896.240877657045
-1361.0424233725576,15816.474356231018,-25398.778962943437,-50851.93972014663
-1527.7417335202376,15706.950808400014,-24743.112891091456,-51265.55875129208
-1316.45069318422,15779.325756946297,-23975.196358584926,-51392.06962490912
-1123.465731557099,15889.966892000068,-24142.946200722006,-51132.56587178301
-1127.7796182369732,15918.174793502663,-24719.4870972022,-50899.32541839188
-1356.2815018035772,15826.219716813532,-25400.343585055303,-50861.48391502904
-1518.2645938711876,15720.607724262203,-24719.88942860239,-51278.232190398245
-1300.8938790433265,15795.061385042834,-23961.04770434472,-51386.25817135074
-1108.110083116303,15905.993092774524,-24141.2474681434,-51121.72527572218
-1118.391885565744,15930.40119771972,-24725.834992627504,-50885.89201997424
-1355.678004703284,15827.56082148085,-25402.399945545192,-50857.505304516
-1505.3676373204753,15719.601895761716,-24696.64361436887,-51280.26619914368
-1284.9347335022371,15787.797068094858,-23960.377152011057,-51390.16972663042
-1098.141205089236,15891.933845512134,-24147.170680424057,-51131.11300839341
-1101.7398359465403,15918.085386524845,-24735.714463676748,-50899.30306664742
-1339.1153620619014,15818.106033576256,-25389.860616905764,-50882.11457516129
-1488.7826429346376,15714.371587559175,-24671.989640234668,-51304.42843489986
-1271.4789833401423,15788.713489617528,-23950.76590189528,-51396.76349124474
-1086.5630014613869,15892.626749590248,-24145.76252052337,-51129.48133104818
-1100.622248723775,15915.984322546044,-24745.146899836887,-50891.479956088064
-1347.6537284438286,15815.289713774886,-25393.526302996437,-50879.4100140822
-1495.4211110378635,15714.326884070264,-24647.64859052284,-51300.53923136464
-1270.450803095198,15794.480239686996,-23953.78338739674,-51376.1775346014
-1096.7330451885516,15897.544133370417,-24162.79454979832,-51113.23161282917
-1111.1499203622247,15919.761767358992,-24769.24208035971,-50881.37696759427
-1351.8558564014263,15818.486013231995,-25394.152151841183,-50876.325473347366
-1487.4191865228638,15720.495965539929,-24619.306578553507,-51299.53340286415
-1253.843456964905,15799.151754278157,-23934.40442495399,-51369.539066498175
-1080.572733947365,15898.415851404174,-24152.64685781561,-51105.05087435852
-1103.304458058412,15910.754014343504,-24769.443246059807,-50873.509153546
-1351.095897089946,15798.74942287796,-25383.26685229145,-50876.92897044766
-1481.048939353101,15698.077165851257,-24593.087982307432,-51301.92503952087
-1246.422677805743,15785.159562249131,-23926.849535328096,-51360.55366522714
-1076.3482542453116,15889.318691410865,-24148.86941300266,-51091.438661985245
-1102.7456644470292,15904.58493287384,-24776.394638585407,-50855.82892368185
-1357.5108477486192,15787.84177158377,-25376.851901632777,-50867.69769998762
-1478.545543974107,15686.38720350113,-24576.12300826585,-51298.2593534302
-1244.969814416148,15763.1207422162,-23929.107061518083,-51349.91423486641
-1079.5669054468758,15858.741504996004,-24165.700276577507,-51081.78270838055
-1115.17323436418,15867.52574056694,-24796.8017812731,-50854.53252250344
-1371.1454118663564,15749.352067631731,-25377.053067332872,-50883.8580112288
-1490.9731138912575,15652.591365884706,-24565.595336627404,-51322.60040314202
-1261.7783262465389,15734.689323269047,-23932.772747608757,-51363.59350247306
-1096.26365855499,15831.338266293797,-24163.219232942967,-51091.48336547415
-1123.1528071347243,15844.771664711436,-24807.552970356104,-50866.71422323158
-1378.0744526475016,15732.029465678868,-25369.721695151533,-50901.09120620385
-1491.509555758185,15637.928621522024,-24530.391339110294,-51332.25635674672
-1249.8201429629496,15722.507622540908,-23920.79221258071,-51361.559493727626
-1086.987684606038,15817.681350431603,-24160.514671863875,-51088.37647299487
-1129.0313159264704,15826.622048213729,-24808.022356989663,-50859.181685350144
-1389.2950283640655,15710.951770657512,-25348.465186174537,-50896.88907824625
-1494.0129511371797,15624.450519615477,-24495.45556252665,-51327.24956598873
-1256.100983154891,15712.561096258296,-23906.129468218027,-51346.38265924248
-1099.9740481345711,15803.622103169217,-24166.39318065562,-51076.44064145573
-1144.6104818118197,15805.164373536632,-24834.933857313856,-50850.01747012347
-1410.126854196412,15678.094706308211,-25357.74116012349,-50898.8113282694
-1510.7767594786596,15587.436030797486,-24484.19028332118,-51329.77531311218
-1263.968797203159,15682.073316821256,-23910.53276187572,-51337.15138878243
-1112.1333971182582,15774.810704566326,-24172.11522723618,-51063.99071979412
-1159.0497087299475,15781.583283136284,-24849.350732487528,-50833.61128969328
-1419.6263455899175,15664.974232312949,-25355.01424729994,-50893.40220611122
-1508.3180675885758,15585.044394140768,-24463.760788889027,-51324.612060143
-1265.5781228039411,15673.87022660616,-23920.099308502595,-51327.67424913338
-1117.4084088097106,15761.824341037793,-24192.45531469051,-51063.29781571601
-1166.1128599778249,15763.098390471743,-24859.766645403703,-50839.51215022948
-1423.2026247027666,15644.43297915852,-25338.80923256984,-50907.95319175163
-1505.0323611536458,15565.866597398115,-24438.54802114344,-51338.693659149845
-1259.207875634179,15657.374639198142,-23907.13529671852,-51327.3166212221
-1110.9711064065823,15748.323887386789,-24179.133674995148,-51056.279367957046
-1162.8271535428946,15751.922518244091,-24870.09315134205,-50834.527711215946
-1427.292993938088,15634.575859853729,-25333.48951738948,-50917.40797965622
-1500.5173087736737,15561.08332408468,-24425.516954126,-51349.198979043846
-1246.8920644393045,15655.631203130628,-23905.50361937328,-51327.92011832239
-1097.6047632223083,15744.524090829384,-24179.93833779554,-51055.09472550091
-1151.3383568928668,15740.523128571884,-24871.18838682037,-50832.069019325856
-1417.8158542890376,15615.845098000182,-25318.11151720423,-50920.58192736888
-1486.1004336000008,15536.474053439386,-24399.030136946458,-51348.12609530999
-1236.967889901148,15625.076368460224,-23917.953541034884,-51317.0124670282
-1106.1654813486912,15707.934285156049,-24209.822620132283,-51051.18317022124
-1169.6444356017632,15707.464898522485,-24906.995881437768,-50831.1973012921
-1432.6127091184508,15592.643987255571,-25322.425403884103,-50924.04644775944
-1486.4804132557408,15522.861841066104,-24383.92035769467,-51345.2203685308
-1234.2856805665112,15615.889801489093,-23915.718366589357,-51304.71900757778
-1101.0245801239705,15700.714671696982,-24220.0150156039,-51038.06269622597
-1168.973883268104,15696.736061183938,-24927.51478284774,-50822.39071397671
-1436.256043464666,15567.61003346563,-25316.524543347903,-50930.43904667367
-1493.1188813589672,15493.91633199648,-24370.86693893277,-51357.49147623676
-1232.7881136880058,15595.773231479316,-23917.50650614578,-51308.8093768131
-1102.008056880004,15679.234645275432,-24214.62824519017,-51040.879016027335
-1168.750365823551,15668.52815968134,-24925.145497935475,-50826.21286227857
-1435.741953342194,15535.98231506137,-25295.156275648627,-50944.69945963615
-1478.545543974107,15466.334279338633,-24331.79608962489,-51363.79466817316
-1221.6569449492629,15563.877292141591,-23900.563883848656,-51306.68596108985
-1093.3132282868896,15643.315391935754,-24207.296873008832,-51042.15306546129
-1166.2246187001012,15630.91017376306,-24929.88406776,-50829.58797569132
-1429.1481887278785,15504.265189679289,-25280.202958608028,-50952.857846362334
-1463.5698751890511,15436.315886535156,-24312.931217304616,-51372.28833106618
-1207.463587220143,15534.55180341623,-23906.241226940303,-51306.41774015639
-1089.915763129683,15616.1356706781,-24225.893524395648,-51038.91206251527
-1169.331511179389,15610.681845031006,-24952.16875698194,-50821.27312675394
-1438.4241626768307,15487.501381337808,-25282.594595264745,-50952.74608764006
-1461.8264391215373,15422.368397995044,-24308.237350969,-51367.81798217511
-1201.1156917948356,15519.30791369771,-23918.48998290181,-51293.6548940724
-1083.143184559725,15601.22705712641,-24238.3210943128,-51028.96553623266
-1159.9884819970707,15594.99092042338,-24967.680867633924,-50815.774597617936
-1430.489293395197,15466.244872360812,-25274.92794691657,-50961.21739878862
-1454.964453573758,15405.112851275546,-24289.75245830446,-51371.37190954351
-1198.7687586270283,15506.321550169176,-23917.50650614578,-51284.22245791226
-1078.5163734574764,15583.524475517808,-24241.42798679209,-51017.56614656045
-1167.8115925564282,15566.35833577613,-24988.713859166368,-50813.22649875003
-1445.1743895023335,15430.48208123232,-25271.351667803727,-50973.354396027855
-1461.5582181880736,15374.267443927223,-24276.408466864643,-51380.446717792365
-1194.6783893917072,15482.896921980016,-23919.674625357944,-51285.563562579584
-1076.0576815673926,15564.145513075056,-24248.580545017787,-51020.80714950647
-1163.9894442545706,15552.612012936115,-25005.321205296663,-50812.86887083875
-1437.9771277877246,15419.865002616049,-25266.94837414603,-50979.59053273089
-1445.9790523027243,15365.103228700547,-24252.06741715281,-51382.61483700453
-1183.6589793752407,15469.307061351188,-23905.861247284563,-51276.1534781639
-1074.3589489887893,15542.12904478658,-24244.87015543821,-51013.31931511394
-1162.0895459758694,15526.438120178953,-24997.028708103742,-50808.55498415887
-1432.6574126073615,15393.04290926968,-25226.357606215195,-50983.2338670771
-1438.8935493103922,15338.303487098634,-24225.737062184464,-51385.90054343946
-1180.6638456182295,15442.417912771454,-23916.098346245093,-51281.182620666346
-1070.1791727756467,15518.50325089732,-24264.629097536697,-51022.05884719597
-1170.85142980235,15495.838582019638,-25028.634074763548,-50820.66962965365
-1442.6262906344284,15366.623147323508,-25234.694806897023,-51002.74693998658
-1430.1093137394564,15319.237449078257,-24222.67487319409,-51394.0812819101
-1169.845601301861,15422.05547357267,-23933.71152087588,-51274.164172907374
-1064.5912366618202,15496.97852098686,-24286.198530936068,-51013.29696336949
-1172.751328081051,15473.911520708982,-25051.790482019245,-50816.91453658516
-1446.426087191831,15339.75635048823,-25230.29151323933,-51010.972381946136
-1431.383363173409,15290.224884775267,-24221.043195848848,-51401.27854362471
-1174.8076885709393,15394.94280754838,-23927.36362545057,-51276.66756828637
-1072.59316117682,15470.335241596133,-24277.61546106523,-51016.38150410432
-1182.6978543636626,15442.395561027,-25055.34440938764,-50816.66866739615
-1448.9071308263697,15310.65437920742,-25209.43733566253,-51017.1414634158
-1417.6146885889398,15270.242425232223,-24187.202654743516,-51400.47388082432
-1159.586150596875,15373.015746237726,-23933.957390064883,-51266.87750421495
-1064.3006639839011,15443.826072672138,-24288.791333292884,-51005.56325978795
-1174.695929848663,15419.887354360504,-25066.274412426283,-50811.6395248937
-1446.4931424251963,15287.810896374094,-25194.08168722173,-51019.62250705034
-1418.195833944778,15246.773093554151,-24170.841177802227,-51398.84220347908
-1156.2557406730343,15350.485187826776,-23922.4462416704,-51260.01551866717
-1064.5912366618202,15418.993284582291,-24290.08773447129,-50998.8353847069
-1185.5812293983972,15390.181885979402,-25074.38809566356,-50806.27510622444
-1453.66805239535,15257.479579148245,-25177.40728585807,-51025.165739675256
-1417.547633355574,15222.454395586778,-24155.10554970569,-51403.22314539232
-1162.0001389980482,15325.27242008119,-23933.97974180934,-51258.18267562183
-1067.7204808855631,15396.887409315994,-24306.113935245747,-50996.22023060564
-1186.005912543048,15368.590100835574,-25096.561026163225,-50809.38199870372
-1452.5281134281297,15233.25028815869,-25165.203233385477,-51036.52042585855
-1414.9995344876688,15197.398090052378,-24137.090043674714,-51402.2843721252
-1162.8271535428946,15300.193762802335,-23929.419985940454,-51248.5490737616
-1067.943998330116,15368.344231646566,-24308.55027539137,-50986.13959385629
-1187.3693689548218,15338.102321398535,-25097.5221511748,-50802.05062652238
-1451.3434709719982,15205.310607589558,-25146.852451187668,-51041.72838231664
-1397.967505212725,15177.10270608696,-24124.170735379543,-51398.529279056704
-1143.6046533113306,15287.654434162909,-23936.863116844077,-51234.0427916101
-1058.6456726367085,15360.476417598298,-24319.05559528537,-50975.12018383983
-1186.7658718545283,15324.89244042545,-25114.50947696084,-50798.16142298716
-1447.677784881328,15191.229008582714,-25133.284942303293,-51046.17637946324
-1389.742063253172,15166.440923981778,-24112.45842128497,-51403.17844190341
-1138.7990282534397,15271.628233388452,-23940.238230256826,-51238.71430620126
-1054.6894138681191,15333.251992851734,-24326.230505255524,-50981.44572752067
-1180.5520868959532,15299.970245357785,-25126.132384077595,-50801.58123988882
-1447.163694758856,15162.28349951309,-25122.06436658673,-51058.62630112485
-1380.8460689599597,15135.059074766526,-24097.90743564456,-51404.74306401528
-1128.003135681526,15235.261945159667,-23950.140053050527,-51230.86884389745
-1049.5485126433985,15294.82934413306,-24342.94961010809,-50972.169753571725
-1178.428671172699,15267.224939730757,-25139.096395861678,-50794.741606085496
-1438.6253283769286,15136.914269556317,-25098.48327618638,-51061.44262092622
-1364.3281298074878,15121.737435071163,-24075.309822000247,-51402.39613084748
-1117.430760554166,15229.87517474594,-23941.333465735133,-51225.14679731689
-1046.2181027195577,15292.147134798424,-24347.10703457678,-50971.61095996034
-1188.1740317552128,15257.479579148245,-25150.831061700712,-50799.346065443286
-1446.2025697472775,15125.09019673946,-25082.39002017856,-51071.12092627537
-1361.6682722173064,15102.716100539696,-24072.96288883244,-51405.19009890439
-1113.7874262079508,15202.181363365811,-23957.98551535434,-51223.58217520502
-1039.4455241495996,15266.085000763536,-24370.889290677227,-50970.29220703748
-1180.395624684766,15233.518509092157,-25177.384934113616,-50803.50348991198
-1441.2404824781995,15098.290455137549,-25083.932290545978,-51086.811850882994
-1355.2756733030883,15077.816257216486,-24071.979412076405,-51410.845090251576
-1108.6465249832304,15183.741174190183,-23962.03118110075,-51217.94953560228
-1041.3454224283007,15241.96746849626,-24375.82902620185,-50962.46909647812
-1188.464604433132,15202.784860466109,-25178.658983547568,-50797.96025728706
-1442.246310978688,15070.328422823955,-25059.367723389598,-51091.0586823295
-1352.057022101524,15049.563652224975,-24051.348751944155,-51414.5331280867
-1112.692190729641,15150.23590925168,-23963.72991367935,-51222.75516066017
-1049.0344225209265,15207.76929947964,-24388.27894786345,-50974.53903848399
-1199.6404766607857,15168.743153660676,-25192.31589940976,-50818.27799299693
-1453.958625073269,15038.365428252868,-25041.64279003653,-51115.84676693044
-1360.036594872069,15024.619105412854,-24038.921182027007,-51424.14437820249
-1114.2568128415123,15130.655781108831,-23964.73574217984,-51221.79403564859
-1058.332748214334,15186.512790502644,-24404.01457595999,-50972.95206462766
-1211.196328544179,15147.129016772393,-25199.535512868824,-50815.66283889566
-1456.864351852459,15019.142928021303,-25017.94994091391,-51121.59116525545
-1354.9851006251697,15007.229448226626,-24025.688949309464,-51425.86546252554
-1117.3860570652553,15107.70053955323,-23977.163312096996,-51218.50832921366
-1059.0256522924487,15159.3777727339,-24415.481020865565,-50966.000672102055
-1209.4081889877546,15115.61305709041,-25219.47326892296,-50814.47819643953
-1446.3590319584648,14988.811610795452,-25016.027690890754,-51125.63683100186
-1333.5944811814406,14982.687232814698,-24028.818193533207,-51415.11427344255
-1099.012923122993,15084.36531834189,-23995.37998382807,-51204.35967497345
-1044.0052800184824,15141.116397513915,-24429.294398938942,-50957.79758188696
-1204.0214185740256,15098.84924874893,-25233.86779235217,-50814.05351329488
-1451.47758143873,14967.19747390717,-24999.956786627383,-51137.75147649664
-1329.7052776462172,14966.236348895593,-24009.75215551283,-51422.28918341269
-1087.50177472851,15071.758934469097,-23982.728896466364,-51207.10893954145
-1034.9304717696275,15125.492528139655,-24431.998960018034,-50958.043451075966
-1203.3732179848216,15076.877483949362,-25232.43728070704,-50813.7405888725
-1448.6165581484506,14946.879738197296,-24981.80717012968,-51142.51239806562
-1322.0162775535916,14948.10908414234,-24006.2652833778,-51420.90337525647
-1091.2568677970014,15051.128274336848,-23997.011661173303,-51208.807672120056
-1047.559207386876,15105.353606385424,-24450.26033523802,-50961.530323211
-1225.792017673495,15052.69289644872,-25249.96104836,-50825.13997854472
-1465.3580147454757,14921.219935562603,-24963.098760020588,-51159.74559304066
-1335.7626003936057,14923.455110008135,-23991.20020761493,-51421.8868520125
-1106.9701441490822,15029.447082215202,-23994.10593439412,-51196.31304696954
-1070.1344692867362,15080.587873528944,-24463.96195458913,-50947.784000370986
-1252.2788348530337,15030.050579315492,-25276.201996350526,-50819.66380115316
-1485.3181225440649,14901.304531252925,-24957.30965820666,-51164.193590187264
-1348.2795772885772,14905.640769677257,-23999.783277485763,-51420.25517466726
-1120.403542566722,15007.721186604642,-24015.5189055823,-51190.8815730669
-1086.1159665722807,15054.79396042752,-24485.307870543944,-50943.91714858021
-1268.5062013275865,15003.697872602686,-25276.15729286162,-50818.3450482303
-1495.376407548953,14870.928510538162,-24933.79562303968,-51169.35684315644
-1356.4379640147645,14873.118981494785,-23986.75221046832,-51420.52339560073
-1134.9992316960374,14972.15956117625,-24015.3177398822,-51194.27903822411
-1101.851594668817,15014.87374483034,-24498.98713815059,-50953.99778532956
-1283.191297434723,14958.033258680494,-25288.026069167387,-50837.23227229504
-1506.1723001208663,14833.668152531169,-24920.094003688577,-51194.413148690845
-1352.705222690728,14846.31923989287,-23975.397524285025,-51431.29693642818
-1122.7057722456184,14953.6299650228,-24010.959149713417,-51193.787299846095
-1085.7806904054512,15007.229448226626,-24495.120286359823,-50947.4263724597
-1280.7549572890946,14948.5784707759,-25288.67426975659,-50833.61128969328
-1512.6319542684505,14814.73622497752,-24898.47986680029,-51200.42576794932
-1364.8198681855044,14819.184222124128,-23972.9611841394,-51431.22988119482
-1147.359746379822,14918.582429716878,-24021.218600418404,-51190.90392481136
-1116.5813942648642,14968.20330240766,-24515.058042413955,-50946.08526779238
-1303.6431436113292,14914.29089478146,-25297.39145009416,-50838.081638584335
-1515.7164950032825,14791.669224699644,-24873.13298858797,-51210.34994248748
-1356.5050192481303,14802.68863471611,-23960.93594562244,-51432.45922713986
-1132.8758159727831,14903.852630120831,-24026.717129554407,-51189.89809631087
-1103.9973621365264,14952.28886035548,-24533.52058333404,-50947.6275381598
-1309.6110593808962,14893.168496271192,-25307.6732525436,-50847.44701951111
-1532.569710322584,14761.516721429434,-24861.08539832657,-51225.07974208352
-1363.2775978180885,14771.172675034128,-23958.20903279889,-51437.95775627586
-1145.817476012406,14868.805094814908,-24038.205926204435,-51190.05455852205
-1117.8330919543614,14916.347255271348,-24545.72463580664,-50943.13483752428
-1317.6576873848066,14855.595213841823,-25320.324339905303,-50850.531560245945
-1524.9477654633245,14729.978410002996,-24846.445005708338,-51238.11080910097
-1353.7557546801277,14749.558538145846,-23955.34800950861,-51440.55055863268
-1140.6318712987747,14854.164702196682,-24046.14079548607,-51195.2848667246
-1123.979821679571,14898.622321918288,-24558.57688886844,-50952.76843938452
-1334.3097370040105,14836.775045010454,-25317.79859278185,-50861.282749328944
-1543.6338238279611,14709.86183999322,-24816.67248209387,-51248.75023946169
-1368.0385193870688,14727.76558730192,-23939.947657578905,-51439.27650919873
-1158.8708947743053,14829.153100151194,-24045.112615241127,-51187.70762535425
-1136.4073915967217,14880.115077509294,-24569.417484929265,-50942.12900902379
-1342.870455130393,14819.452443057591,-25321.10665096124,-50858.53348476094
-1548.7523733082264,14692.405127573626,-24802.59088308703,-51257.15449537689
-1367.3679670534095,14715.181555173584,-23941.445224457413,-51435.9908027638
-1158.6473773297523,14815.943219178109,-24057.04844678026,-51180.95739852875
-1141.4588858436211,14858.456237132104,-24591.2551392621,-50938.23980548856
-1352.1017255904349,14792.11625958875,-25338.988046525486,-50865.484877286544
-1539.7222685482825,14674.210807587006,-24788.57633931355,-51266.72104200376
-1345.2173882982,14701.81521198931,-23938.718311633864,-51435.20849170786
-1134.6639555292077,14803.247428327491,-24060.848243337663,-51177.69404383827
-1126.2596996140123,14842.430036357646,-24602.073383578467,-50936.74223861006
-1344.8821121313706,14769.384535477702,-25332.528392377902,-50871.296330844925
-1528.8369689985475,14647.835749129745,-24756.211013342265,-51276.689920030825
-1333.8627021149043,14677.027127388374,-23918.981721279823,-51437.51072138676
-1132.160560150213,14776.7382594035,-24050.342923443663,-51178.40929966084
-1129.143074648747,14816.792585467409,-24608.376575514863,-50939.312689222425
-1354.1804378247784,14746.54105264438,-25333.645979600667,-50871.94453143413
-1537.8223702695811,14628.076807031252,-24734.55217296507,-51277.22636189775
-1338.8471411284377,14659.27984229086,-23919.47345965785,-51430.89460502799
-1134.3063276179228,14756.800503349365,-24068.42548470801,-51172.19551470227
-1129.7018682601297,14793.92675088963,-24627.64377923534,-50928.0697617614
-1356.2144465702113,14721.529450598891,-25340.35150293726,-50867.6082930098
-1532.055620200112,14606.663835843068,-24717.721309390225,-51276.689920030825
-1326.754847378117,14646.964031095986,-23918.981721279823,-51420.61280257855
-1133.4569613286212,14747.032791022397,-24079.62370868012,-51161.95841574173
-1135.1109904183138,14786.6400821972,-24648.9673434457,-50925.45460766013
-1360.9083129058258,14720.322456398304,-25347.593468140774,-50878.78416523745
-1532.346192878031,14607.379091665638,-24701.85157082696,-51293.92311500587
-1327.5595101785077,14646.22642352896,-23913.97493052184,-51422.57975609061
-1138.2849381309677,14744.887023554687,-24081.031868580805,-51161.198456430255
-1138.8884352312607,14784.851942640777,-24654.55527955953,-50921.45364540263
-1365.9151036638143,14715.427424362591,-25339.92681979261,-50879.36531059329
-1531.966213222291,14598.013710738864,-24669.463893111217,-51299.80162379761
-1318.0153152960916,14631.8542518442,-23896.24999716878,-51417.50591009926
-1131.758228750018,14720.098938953752,-24072.80642662125,-51152.99536621516
-1142.4200108551993,14751.01140153544,-24659.204442406237,-50915.821005799895
-1378.2979700920548,14674.970766898488,-25342.11729074923,-50885.28852287395
-1530.4015911104193,14565.827198723222,-24649.63789577936,-51309.748150080224
-1312.6956001157284,14605.903876531587,-23901.770878049243,-51419.67402931143
-1121.3646675783,14703.849220734744,-24081.881234870107,-51155.25289240514
-1137.4132200972106,14735.812215305832,-24671.810826279027,-50915.53043312197
-1377.9179904363143,14659.70452543551,-25344.10659600575,-50893.513964833495
-1537.8447220140365,14550.87388168262,-24634.84104094995,-51324.20972874281
-1321.7927601090385,14593.856286270176,-23904.7436600618,-51423.36206714656
-1139.6930980316515,14685.587845514758,-24103.316557802744,-51159.29855815155
-1153.9311592496824,14717.036749963374,-24697.850608569457,-50923.51000589252
-1395.6876272782836,14641.890185104632,-25349.24749723047,-50907.19323244014
-1542.9185680053913,14531.8301954067,-24620.088889609444,-51335.832635859566
-1313.4108559382985,14573.27032962684,-23908.096421730093,-51426.714828814846
-1135.8262462408836,14660.598595213723,-24113.665415485557,-51159.05268896255
-1154.5793598388864,14689.43234556107,-24719.84472511348,-50926.75100883854
-1398.3698366129204,14613.816394068766,-25364.35727648226,-50919.4196366572
-1549.1323529639667,14504.181087515484,-24620.312407054,-51353.82579014609
-1326.0172398110917,14549.845701437676,-23915.539552633712,-51436.03550625271
-1145.3704411232998,14647.634583429646,-24132.30677036128,-51169.312139667534
-1167.588075111875,14679.374060556182,-24758.893222676903,-50937.144570010256
-1416.2959356660767,14598.214876438962,-25386.17257907064,-50943.73833462457
-1554.2956059331425,14491.842924576154,-24610.52234298257,-51382.77129921571
-1317.5235769180747,14544.59304149068,-23928.16828825096,-51451.90524481598
-1142.8893974887608,14638.8056443698,-24150.97047698146,-51183.61725611893
-1176.2829037049894,14667.080601105765,-24772.37132458345,-50951.78496262848
-1422.7555898136604,14589.609454823669,-25368.26883176194,-50958.78105864299
-1550.9204925203912,14480.48823839286,-24577.553519910995,-51393.38837783199
-1319.7587513636056,14523.20242204695,-23919.205238724386,-51451.949948304886
-1151.718336548607,14608.74254807741,-24146.85775600168,-51180.30919793954
-1181.557915396442,14631.94365882202,-24785.84942649,-50950.779134128
-1424.5213776256296,14551.253861338362,-25381.098733079285,-50971.4321460047
-1543.052678472123,14451.609784556602,-24562.689609848218,-51404.96658145984
-1307.264126213089,14507.15386952804,-23918.69114860191,-51443.45628541187
-1145.102220189836,14599.734795061922,-24148.89176474712,-51168.08279372249
-1179.590961884375,14627.18273725304,-24792.733763782235,-50935.64700313175
-1434.1102759969565,14542.804901934256,-25368.984087584508,-50963.51962846752
-1550.249940186732,14440.456264073404,-24537.90152524728,-51395.19886913287
-1315.5342716615526,14489.272473963794,-23915.51720088925,-51426.06662822564
-1148.4102783692215,14579.21589365195,-24155.776102039352,-51154.44822960475
-1182.3402264523777,14605.993283509408,-24808.33528141204,-50923.17472972569
-1445.353203457976,14516.20632603244,-25363.418503215136,-50960.61390168833
-1556.7542978232264,14412.0024933818,-24514.76746973604,-51400.54093605768
-1313.7014286162173,14463.43385737346,-23908.610511852567,-51424.92668925842
-1155.361670894822,14553.801960206269,-24159.531195107844,-51153.1741801708
-1194.5219271805202,14581.36166111966,-24817.16422047189,-50924.56053788192
-1447.2978052255876,14497.34145371216,-25351.43796818709,-50967.60999770284
-1548.7076698193157,14405.18521132293,-24485.933719388693,-51402.01615119173
-1307.487643657642,14462.696249806437,-23905.861247284563,-51418.0870554551
-1149.9972522255484,14550.158625860053,-24168.69541033452,-51150.98370921418
-1191.4373864456877,14578.008899451364,-24837.169031759386,-50925.56636638241
-1449.7788488601268,14496.045052533753,-25351.817947842832,-50976.08130885141
-1541.1974836823326,14397.719728674858,-24473.66261168273,-51412.07443619662
-1291.841422538927,14455.230767158362,-23902.93316876092,-51415.40484612046
-1134.4851415735652,14538.82629142121,-24168.471892889964,-51142.93708121027
-1191.2585724900453,14555.791265462787,-24854.290468012157,-50919.84431980185
-1458.4513257087858,14462.606842828614,-25359.64105840219,-50987.838326434896
-1548.1265244634778,14365.197940492386,-24461.190338276665,-51422.78092179071
-1302.7043703442062,14424.742987721324,-23910.48805838681,-51416.99181997679
-1149.5055138475316,14516.8768783661,-24177.01025927189,-51141.88654922087
-1200.221622016623,14536.30054429776,-24859.07374132559,-50915.28456393297
-1457.9372355863138,14447.564118810193,-25340.30679944835,-50987.05601537896
-1536.593024324539,14354.737324087302,-24431.641332106752,-51422.78092179071
-1286.1417277028238,14417.098691117608,-23903.42490713893,-51411.51564258524
-1141.2130166546126,14501.387119458572,-24183.335802952744,-51139.98665094217
-1194.9689620696263,14520.96724760142,-24875.189349077864,-50910.47893887507
-1464.8215728785483,14430.554441279704,-25340.55266863736,-50989.17943110221
-1542.180960438366,14337.884108768,-24423.907628525216,-51422.78092179071
-1293.6519138398069,14396.915065874466,-23917.35004393459,-51400.45152907986
-1148.8573132583276,14483.393965172048,-24199.45141070502,-51131.69415374925
-1203.8426046183831,14504.449308448948,-24898.323404589108,-50910.09895921934
-1472.3988142488977,14410.415519525472,-25337.758700580445,-51000.80233821897
-1537.800018525126,14321.746149271268,-24397.957253212604,-51425.17255844743
-1287.7063498146952,14381.13473428902,-23911.270369442747,-51385.83348820609
-1152.590054582364,14463.567967840192,-24208.92855035407,-51113.946868651736
-1219.9805641151147,14478.029546502776,-24915.131916419497,-50895.4138631122
-1487.7768144341487,14379.190132521408,-25329.063871987328,-51000.15413762977
-1548.4618006303074,14289.336119811072,-24385.954366440103,-51431.09577072809
-1297.4740621416645,14353.41857116444,-23921.17219223645,-51388.06866265162
-1160.3461099083556,14435.874156460066,-24219.88090513717,-51116.74083670865
-1218.4382937476987,14454.515511335792,-24934.30971316215,-50894.78801426745
-1490.5037272576965,14358.89474855599,-25330.38262491019,-51005.7420737436
-1539.4540476148186,14279.367241784006,-24372.051581388903,-51431.20752945037
-1281.2466956671117,14348.92587052892,-23922.893276559505,-51379.30677882514
-1151.6065778263303,14427.626362756058,-24227.815774418807,-51113.38807504036
-1222.3051455384668,14444.747799008825,-24941.104643476563,-50895.8161945124
-1493.5212127591626,14346.713047827849,-25306.309796131827,-51016.24739363759
-1534.8048847681148,14266.872616633487,-24336.177031538133,-51437.46601789785
-1282.96777999017,14333.704332554858,-23904.76601180625,-51375.618740990016
-1162.5365808649756,14410.236705569829,-24217.17634405808,-51108.18011858227
-1241.2594248365672,14423.826566198655,-24949.218326713843,-50893.33515087786
-1514.3083351025982,14327.937582485389,-25300.118362917707,-51022.57293731844
-1550.2946436756426,14249.460607702806,-24318.116822018244,-51440.23763421031
-1302.033818010547,14319.22040214782,-23911.4938868873,-51369.874342665
-1177.9816362835927,14402.815926410669,-24226.631131962677,-51098.23359229966
-1260.548980301497,14416.785766695237,-24966.27270773324,-50882.06987167238
-1541.1974836823326,14315.30884686814,-25289.925967446088,-51022.796454763
-1570.567675896606,14234.887270317946,-24308.796144580385,-51443.45628541187
-1310.8851088148483,14305.83170721909,-23917.193581723404,-51362.11828733901
-1191.817366101428,14381.80528662268,-24242.5232222704,-51091.88569687435
-1277.804527020994,14388.75667914828,-24988.75856265528,-50883.2098106396
-1551.0769547315783,14283.859942419524,-25291.15531339113,-51038.777952048535
-1571.7970218416478,14209.696854316817,-24293.39579265068,-51453.58162565013
-1314.237870483145,14287.078593621089,-23924.793174838207,-51364.46522050682
-1200.1545667832577,14364.907367814469,-24259.10821665624,-51102.18985106824
-1291.550849861008,14372.417553951447,-25009.545684998717,-50894.94447647864
-1563.8174490711033,14272.281738791677,-25280.985269663965,-51050.13263823184
-1571.5958561415505,14202.834868769036,-24272.89924298516,-51455.01213729526
-1311.0862745149464,14277.48969524976,-23923.4967736598,-51360.88894139397
-1195.0136655585368,14357.263071210751,-24257.61064977773,-51092.37743525236
-1286.58876259193,14369.355364961071,-25014.66423447898,-50881.33226410535
-1564.5774083825838,14264.413924743409,-25264.93671714505,-51050.57967312094
-1571.0147107857122,14188.70856627328,-24264.96437370353,-51458.9460443194
-1313.6567251273068,14258.691878162846,-23934.49383193181,-51358.9219878819
-1204.1331772963022,14332.40793137645,-24272.18398716259,-51091.34925500742
-1300.44684415422,14336.990038989788,-25034.266714366284,-50883.67919727316
-1569.2712747181984,14233.836738328546,-25249.17873730406,-51062.47080117116
-1560.5764461250835,14168.61434800796,-24226.586428473765,-51462.723489132346
-1303.35257093341,14243.827968100068,-23923.429718426432,-51351.277691278185
-1197.3382469818887,14318.661608536437,-24270.61936505072,-51085.716615404686
-1299.418663909276,14322.55081207166,-25033.886734710544,-50879.14179314874
-1581.2965132351535,14215.173031708364,-25232.392577218125,-51063.94601630521
-1567.1702107393994,14148.60953672046,-24214.158858556613,-51459.37072746405
-1299.9104022872928,14226.348903936016,-23924.100270760093,-51340.39239172845
-1193.2478777465676,14303.618884518017,-24276.52022558692,-51079.30166474601
-1301.0279895100582,14309.430338076394,-25057.110197199607,-50882.00281643902
-1576.893219577458,14203.259551913688,-25221.104946268195,-51083.19086828124
-1559.7717833246927,14137.27720228162,-24200.4125357166,-51475.307521260685
-1301.5420796325302,14215.776528808658,-23924.88258181603,-51348.10374356553
-1205.004895330059,14288.240884332765,-24287.00319373646,-51087.4600514722
-1313.388504193843,14291.325425067596,-25057.356066388616,-50887.54604906393
-1585.1633650259216,14186.33928136102,-25205.27991119384,-51092.35508350791
-1554.2956059331425,14124.201431775266,-24179.200730228516,-51477.45328872839
-1295.842384796427,14193.491839586715,-23926.134279505528,-51340.25828126172
-1195.61716265883,14262.558729953616,-24292.702888572563,-51075.83714435544
-1307.9793820356588,14266.939671866856,-25080.15484573303,-50877.510115803496
-1577.1614405109217,14164.479275283727,-25196.36156515617,-51089.9634468512
-1544.5502453506288,14104.196620487764,-24176.69733484952,-51470.27837875824
-1290.2991521715107,14180.70664175828,-23939.32180873416,-51327.40602819992
-1192.2196975016234,14251.449912959328,-24311.232484726013,-51066.114135517375
-1305.4312831677537,14256.34494499504,-25096.96335756342,-50870.91635118918
-1577.40730969993,14145.36853377444,-25183.308146394276,-51099.08295858896
-1535.0284022126675,14087.723384824203,-24154.03266597184,-51475.55339044969
-1276.1504979313015,14166.446228795796,-23937.8018901112,-51326.958993310815
-1185.357711953844,14234.86491857349,-24319.48027843002,-51067.94697856272
-1305.833614567949,14235.021380784678,-25110.754383892345,-50881.33226410535
-1575.1944869988547,14124.380245730908,-25175.14975966809,-51122.462883289205
-1529.0381346986455,14065.25988164662,-24144.64493330061,-51493.34537903612
-1276.485774098131,14144.40740876286,-23941.579334924143,-51331.63050790197
-1192.554973668453,14215.843584042024,-24322.967150565048,-51069.422193696766
-1317.7917978515386,14217.251743942708,-25121.058538086243,-50884.50621181801
-1587.4879464492735,14107.594085644972,-25162.45396881747,-51132.49881654964
-1528.1664166648886,14059.560186810517,-24134.430186084533,-51489.0538441007
-1271.8589629958824,14139.780597660614,-23948.329561749648,-51322.80156884212
-1190.006874800548,14206.254685670698,-24337.74165365001,-51060.25797847009
-1320.3398967194437,14204.980636236744,-25134.93897139299,-50872.74919423452
-1590.6395424174718,14097.960483784736,-25144.460814530947,-51129.74955198164
-1530.5580533216064,14046.30560234852,-24123.477831301432,-51490.12672783456
-1280.710253800184,14125.050798064569,-23957.96316360988,-51319.06882751809
-1206.0777790639138,14188.23917963972,-24352.02441835695,-51062.02376628206
-1343.2727865305883,14181.66776676986,-25153.31210533525,-50882.31574086139
-1603.6482576904605,14071.674832305293,-25128.814593412237,-51146.15573241183
-1532.4132481113968,14022.612753225894,-24106.691671215496,-51496.31816104867
-1281.4702131116644,14102.542591398073,-23952.95637285189,-51321.68398161936
-1204.9601918411483,14170.983632920224,-24355.466587003066,-51061.50967615959
-1341.4622952297086,14167.13913287391,-25157.40247457057,-50881.04169142744
-1595.176946541899,14060.9683467112,-25110.44145946997,-51149.039107446566
-1521.930279961858,14014.610828710896,-24092.36420301965,-51490.35024527911
-1277.513954343075,14096.664082606329,-23961.69590493392,-51307.244754701234
-1213.297392522978,14157.32671705803,-24368.34119180932,-51052.7477923331
-1353.9792721246806,14144.385057018408,-25172.847529989187,-50883.43332808415
-1610.2196705603208,14031.44169228574,-25095.06345928472,-51162.38309888639
-1522.3549631065086,13986.559389419484,-24072.71701964343,-51496.27345755976
-1269.8920094838154,14069.484361348674,-23963.21582355688,-51309.97166752478
-1203.663790662741,14134.818510391537,-24379.248843103516,-51054.15595223379
-1359.4778012606862,14118.166460772332,-25188.73962029691,-50887.59075255284
-1612.3877897724856,14003.591418694428,-25076.802084064733,-51176.68821533778
-1510.8438147120255,13961.43602865172,-24060.602374148653,-51498.53098374975
-1272.6412740518183,14040.740017979148,-23965.22748055786,-51307.803548312615
-1212.2915640224892,14105.917704810823,-24385.77555248446,-51049.73030683164
-1364.6634059743174,14091.992568015166,-25197.65796633458,-50885.1097089183
-1616.791083430181,13978.691575371216,-25055.83614776565,-51181.60559911795
-1516.3870473369418,13941.364162130852,-24046.31960944171,-51497.97219013837
-1276.1281461868462,14022.188070081243,-23972.760018439298,-51299.46634763078
-1211.106921566358,14087.522219124106,-24398.40428810171,-51043.2483009396
-1365.6245309858955,14076.435753874272,-25201.94950127,-50882.04751992792
-1609.1020833375555,13971.740182845617,-25037.95475220141,-51185.31598869753
-1497.2092505942885,13937.586717317909,-24034.80846104723,-51493.43478601394
-1254.491657554109,14018.455328757207,-23971.55302423871,-51291.375016137965
-1200.758063883551,14077.285120163577,-24411.59181733034,-51040.90136777179
-1363.1211356069011,14062.510617078617,-25216.478135165948,-50885.66850252968
-1612.5889554725834,13948.226147678632,-25023.67198749447,-51199.17407025982
-1504.6523814979057,13911.457528049652,-24029.26522842231,-51500.654399473
-1259.6772622677402,13995.790659879523,-23981.16427435449,-51288.357530636495
-1202.6132586733413,14055.514521064106,-24422.767689557997,-51034.86639676886
-1366.4962490196526,14040.605907512416,-25229.12922252765,-50884.4615083291
-1613.438321761885,13925.248554378575,-25007.981062886844,-51207.4889191972
-1491.7777766916486,13895.811306930937,-24015.809478260217,-51499.96149539489
-1251.7647447305617,13980.39030794982,-23984.159408111504,-51288.223420169765
-1200.199270272168,14040.315334834497,-24439.77736708848,-51039.58261484893
-1372.017129900113,14024.378541037864,-25239.053397065807,-50895.88324974576
-1616.5228624967174,13914.251496106566,-24990.144370811508,-51225.90675662837
-1490.414320279875,13891.743289440072,-24010.93679796896,-51505.37061755308
-1254.9386924432151,13979.13861026032,-23995.670556505986,-51285.54121083513
-1203.8873081072936,14038.996581911637,-24443.84538457935,-51033.07825721244
-1377.9179904363143,14020.712854947193,-25239.27691451036,-50894.00570321152
-1620.5461764986726,13910.809327460447,-24965.08806527711,-51234.892157899405
-1487.2627243116767,13885.3283387814,-23996.40816407301,-51507.27051583178
-1249.9542534296816,13967.359240932376,-23992.09427739314,-51282.81429801158
-1202.52385169552,14031.039360885545,-24449.41096894872,-51028.85377751038
-1379.482612548186,14015.77311942257,-25248.17290880357,-50894.1621654227
-1616.567565985628,13904.41672854623,-24944.03272200021,-51242.4470475253
-1477.9420468738135,13885.440097503675,-23977.52094000828,-51499.82738492816
-1247.383802817321,13969.549711888994,-23989.16619886949,-51267.34689084851
-1208.7599883985506,14024.289134060042,-24465.3254110009,-51019.28723088351
-1387.551592296552,14005.513668717584,-25263.707371200013,-50892.99987471102
-1616.2993450521644,13894.045519118969,-24931.940428249887,-51248.5490737616
-1473.2928840271095,13869.615062429317,-23979.33143130916,-51505.10239661961
-1248.3672795733548,13949.008458734568,-24004.85712347712,-51274.52180081866
-1208.938802354193,14006.96653210718,-24475.04841983896,-51025.61277456436
-1395.6205720449177,13981.977281806146,-25271.262260825904,-50902.3652556378
-1626.245871334776,13869.816228129415,-24916.58477980909,-51259.3002628446
-1479.573724219051,13852.44892268764,-23964.3557625241,-51499.11212910559
-1252.8152767199608,13933.585755060409,-24003.35955659861,-51261.49073380122
-1216.4042850022656,13984.994767307611,-24484.19028332118,-51015.643896537294
-1409.7692262851272,13955.155188459776,-25273.497435271434,-50902.745235293536
-1632.2584905932536,13845.966916795602,-24892.35548881954,-51269.02327168266
-1476.2433142952102,13835.483948646064,-23958.58901245463,-51499.3579982946
-1256.2574453660782,13917.671313008228,-24009.662748535007,-51260.66371925637
-1228.362468285855,13969.505008400083,-24508.285463844,-51018.8401959944
-1422.6438310913838,13944.694572054694,-25290.976499435485,-50914.12227322129
-1649.022298934734,13834.791044567948,-24876.30693630063,-51290.65976031539
-1482.7923754206151,13825.470367130089,-23958.477253732355,-51517.41820781448
-1254.2457883651005,13913.156260628257,-24017.865838750105,-51276.04171944162
-1227.2448810630897,13965.884025798325,-24517.315568603943,-51025.32220188644
-1426.287165437599,13940.85007200838,-25296.09504891575,-50919.397284912746
-1642.8755692095244,13832.846442800335,-24860.884232626468,-51296.18064119585
-1475.997445106202,13825.49271887454,-23957.873756632063,-51511.38323681155
-1252.457648808676,13911.479879794108,-24024.14667894205,-51266.58693153703
-1222.7968839164837,13963.782961819526,-24532.80532751147,-51023.26584139656
-1419.5369386120965,13935.262135894554,-25304.611063553224,-50925.34284893786
-1625.441208534385,13823.056378728912,-24839.471261438284,-51308.33999017954
-1450.6282151494283,13807.87954424376,-23949.02246582776,-51511.29382983373
-1233.4586660216648,13887.89878939376,-24034.4731848804,-51264.70938500278
-1211.4645494776428,13940.738313286103,-24550.306743419977,-51017.16381516025
-1420.9227467683252,13909.669388493228,-25315.295197402866,-50920.60427911333
-1631.923214426424,13799.944674962126,-24823.19919147482,-51305.38955991144
-1456.1937995187998,13795.563733048884,-23946.541422193222,-51494.82059417017
-1242.0193841480475,13880.612120701328,-24045.604353619143,-51239.40721027937
-1221.6122414603522,13934.479824838618,-24569.015153529068,-50993.09098638189
-1428.097656738479,13903.120327367822,-25325.66640683012,-50908.64609582974
-1629.665688236438,13799.028253439456,-24808.00000524521,-51305.47896688926
-1439.8546743219704,13804.169154664178,-23934.67264588745,-51488.60680921159
-1225.0097066175588,13889.619873716818,-24046.74429258636,-51238.02140212314
-1211.0845698219025,13942.548804586984,-24572.792598342014,-50997.38252131731
-1427.8741392939255,13907.769490214529,-25321.039595727874,-50919.57609886838
-1628.0340108912003,13796.01076793799,-24778.115722908464,-51319.49351066274
-1439.675860366328,13794.289683614932,-23926.089576016617,-51494.08298660314
-1232.631651476819,13878.153428811243,-24051.86284206663,-51239.56367249056
-1224.070933350436,13926.097920667878,-24588.662336905283,-50999.72945448512
-1443.252139479177,13887.943492882669,-25327.78982255337,-50930.61786062931
-1634.2701475942313,13777.257654339988,-24762.536557023115,-51334.22331025879
-1442.4027731898757,13776.698860728606,-23932.169250508457,-51494.61942847007
-1236.8561311788717,13856.852216345336,-24061.116464271126,-51233.34988753199
-1228.965965386148,13899.633455232795,-24614.25508430661,-50993.18039335971
-1449.3988692043863,13854.684097133171,-25339.546840136867,-50928.2709274615
-1640.4615808083513,13745.048790579893,-24751.51714700665,-51333.77627536968
-1445.66612788035,13752.894252883703,-23931.543401663712,-51485.87989638805
-1245.7968289609944,13833.919326534193,-24079.3331360022,-51227.56078571806
-1242.846398692894,13880.500361979051,-24636.60682876192,-50987.77127120153
-1471.214171792766,13840.82601557088,-25353.00259029896,-50930.72961935159
-1654.6549385374713,13735.28107825292,-24740.22951605672,-51343.9686708413
-1455.4561919517746,13742.321877756343,-23937.53366917773,-51487.399815011006
-1260.3701663458546,13822.005846739514,-24089.547883218274,-51225.66088743936
-1254.0893261539134,13865.815265871915,-24647.805052734024,-50985.42433803372
-1477.539715473618,13824.129262462768,-25351.8850030762,-50935.4234856872
-1649.8716652240355,13715.365673943244,-24717.52014369013,-51351.65767093393
-1441.7769243451269,13725.133386270212,-23925.955465549883,-51484.583495209634
-1246.9814714171257,13806.627846554262,-24086.843322139182,-51219.20123329177
-1249.3954598182988,13851.89012907626,-24660.67965754028,-50979.367015286334
-1490.8837069134363,13808.460689599597,-25361.45154970307,-50941.77138111251
-1659.3264531286304,13703.47454589302,-24692.79911432256,-51360.1736855714
-1440.8157993335485,13719.56780190084,-23918.69114860191,-51477.833268384136
-1249.194294118201,13807.074881443368,-24097.505104244367,-51209.3888174759
-1253.843456964905,13854.192358755156,-24670.15679718933,-50974.53903848399
-1488.4920702567183,13807.074881443368,-25346.29706696237,-50946.91228233722
-1654.7666972597478,13697.528981867908,-24661.886651740868,-51371.66248222143
-1440.2123022332553,13709.867144807238,-23911.382128165023,-51482.72830041985
-1257.777363989039,13793.797945236916,-24096.16399957705,-51217.56955594654
-1270.3390443729215,13840.490739404053,-24689.20048346525,-50984.61967523333
-1505.993486165224,13797.597741794318,-25354.388398455198,-50961.21739878862
-1654.409069348463,13697.506630123453,-24644.519346299094,-51381.98898815978
-1434.222034719233,13714.650418120673,-23907.224703696334,-51481.744823663816
-1252.904683697782,13799.050605183911,-24100.47788625692,-51216.51902395714
-1270.2719891395557,13838.367323680795,-24692.910873044835,-50981.49043100959
-1513.414265324386,13788.992320179024,-25344.330113450305,-50963.47492497861
-1657.7394792723037,13685.302577650857,-24623.55341000002,-51390.81792721962
-1433.5961858744845,13698.46775513503,-23908.07406998564,-51481.118974819066
-1252.1894278752122,13778.263482840475,-24105.931711904017,-51212.585116933005
-1272.3507013738993,13816.97670423707,-24713.250960499165,-50979.16584958624
-1511.5143670456848,13761.96906113256,-25349.694532119574,-50970.47102099312
-1651.7492117582813,13656.312365092324,-24594.02675557456,-51397.85872672305
-1428.6564503498614,13676.428935102098,-23887.510465086754,-51473.80995438218
-1256.0786314104355,13751.329630771832,-24097.16982807753,-51205.92429708532
-1283.0124834790806,13784.38786082123,-24717.63190241241,-50974.91901813973
-1534.1343324344557,13730.676618895128,-25349.96275305304,-50978.71881469713
-1672.4022236349851,13628.50679498992,-24576.547691410506,-51410.39805536247
-1437.4630376652526,13653.920728435603,-23892.226683166824,-51471.86535261456
-1263.611169291874,13731.660095651165,-24112.927807918528,-51200.068140038034
-1288.9803992486477,13768.741639702515,-24735.356835765466,-50964.6819191792
-1534.8495882570253,13718.76313910045,-25343.056064016357,-50971.45449774915
-1662.366290374552,13622.382417009168,-24556.6993423342,-51403.714883770335
-1429.863444550448,13646.589356254264,-23900.36271814856,-51463.46109669937
-1258.2243988781452,13729.67079039464,-24121.890857445105,-51195.91071556935
-1286.1193759583684,13767.400535035198,-24749.77371093913,-50966.000672102055
-1534.44725685683,13713.354016942263,-25341.513793648934,-50985.1337653558
-1655.5713600601389,13612.637056426653,-24535.17461242373,-51420.23282292281
-1419.447531634275,13637.000457882938,-23889.67858429892,-51470.36778573606
-1251.7200412416507,13717.399682688676,-24110.11148811716,-51197.45298593676
-1286.2758381695555,13750.636726693718,-24752.97001039625,-50967.38648025829
-1542.2033121828215,13691.583417842796,-25334.987084267985,-50997.04724515048
-1653.8726274815356,13598.711919630996,-24510.811210967448,-51434.22501495183
-1411.8926420083812,13627.389207767155,-23885.923491230427,-51474.70402416039
-1248.836666206916,13703.340435426288,-24128.95400869298,-51204.1361575289
-1283.191297434723,13740.980773089024,-24773.10893215048,-50966.73827966908
-1542.0692017160895,13683.536789838889,-25330.87436328821,-50998.589515517895
-1648.955243701368,13585.747907846917,-24488.4818182566,-51432.68274458442
-1408.6516390623617,13608.703149402518,-23885.945842974885,-51457.18025650743
-1249.551922029486,13684.073231705814,-24130.02689242684,-51186.47827940921
-1290.7238353161615,13715.991522787992,-24781.535539810127,-50955.40594523024
-1552.7086320768158,13647.483426032475,-25324.39235739617,-51000.62352426333
-1654.409069348463,13548.48754983992,-24468.521710458008,-51437.55542487568
-1410.3056681520543,13579.198846721512,-23888.985680220805,-51457.09084952961
-1250.1777708742347,13660.51449304992,-24134.89957271809,-51188.55699164355
-1288.712178315184,13697.931313268104,-24799.86397026348,-50960.12216331031
-1546.83012328507,13631.904260147126,-25319.027938726897,-51012.648762780285
-1639.1651796299434,13533.400122332589,-24446.482890425075,-51449.78182909272
-1394.4582813332418,13567.307718671287,-23877.83215973761,-51462.36586122106
-1246.4450295501983,13646.254080087434,-24136.620657041152,-51192.736767856695
-1295.194184207223,13687.828324774306,-24805.943644755323,-50957.03762257548
-1555.4578966448184,13634.295896803844,-25304.566360064317,-51011.732341257615
-1643.6131767765496,13542.653744537083,-24415.68218656566,-51446.160846490966
-1392.446624332264,13580.092916499723,-23865.449293309368,-51442.18223597792
-1239.7842097025168,13656.446475559054,-24133.379654095133,-51166.76404079963
-1290.008579493592,13687.89538000767,-24818.930008283856,-50940.94436656766
-1555.726117578282,13620.326056519278,-25309.48374384448,-51015.19686164819
-1630.2468335922758,13529.689732753008,-24400.50535208051,-51447.25608196927
-1381.2036968712446,13567.039497737826,-23873.942956202383,-51432.68274458442
-1234.6880119667069,13645.292955075856,-24145.047264700803,-51159.43266861828
-1288.6674748262733,13676.160714168636,-24828.74242409973,-50934.79763684245
-1557.5589606236174,13608.859611613703,-25287.534330789367,-51018.95195471668
-1632.1020283820665,13520.346703570687,-24380.56759602637,-51456.80027685169
-1382.9471329387586,13562.949128502503,-23875.217005636336,-51434.80616030767
-1242.9581574151705,13638.967411395004,-24156.02197122836,-51166.18289544379
-1297.4293586527538,13672.092696677768,-24843.58398241806,-50942.35252646834
-1563.0351380151676,13606.356216234712,-25283.734534231968,-51029.21140542167
-1635.1642173724435,13516.412796546556,-24351.487976490014,-51456.46500068486
-1383.3718160834094,13558.858759267185,-23867.840929966085,-51426.04427648119
-1248.8590179513717,13634.251193314934,-24159.82176778576,-51161.55608434154
-1315.35545770591,13659.955699438537,-24864.236994294763,-50945.07943929189
-1583.3528737250415,13590.330015460257,-25278.1689498626,-51041.90719627228
-1639.2545866077646,13500.72187193893,-24335.64058967121,-51469.27255025775
-1381.0472346600577,13543.145482915104,-23867.2821363547,-51423.89850901348
-1242.332308570422,13620.16959430809,-24165.20853819949,-51153.86708424892
-1307.6888093577395,13650.836187700772,-24879.100904357543,-50937.36808745481
-1582.1011760355443,13579.847047310715,-25271.306964314816,-51050.06558299847
-1637.4887987957954,13492.85405789066,-24317.155697006667,-51479.353187007095
-1386.0093219291357,13534.562413044265,-23867.885633455,-51427.9888782488
-1252.9493871866928,13606.378567979164,-24172.472855147465,-51157.286901150575
-1319.6246408968736,13629.780844423873,-24892.690764986368,-50936.76459035452
-1588.3373127385753,13554.63427956513,-25257.135958330156,-51054.22300746715
-1632.3255458266194,13465.763743610829,-24297.642624097185,-51480.22490504085
-1373.067661889513,13515.205802345969,-23873.317107357638,-51421.529224101214
-1240.879445180827,13595.940303318535,-24176.563224382782,-51150.156694669335
-1319.35641996341,13622.069492586792,-24904.224265125307,-50935.021154287
-1597.054493076145,13549.269860895856,-25256.24188855194,-51062.76137384908
-1636.013583661745,13469.47413319041,-24289.95362400456,-51483.57766670915
-1373.3358828229766,13522.313657082756,-23874.07706666912,-51413.52729958622
-1246.489733039109,13599.02484405337,-24187.96261405499,-51145.68634577828
-1329.1688357792898,13626.22691705548,-24924.74316653528,-50929.41086642872
-1605.3469902690638,13554.343706887212,-25251.682132683058,-51067.27642622905
-1631.565586515139,13476.492580949376,-24269.05474293885,-51487.73509117784
-1371.3689293109096,13520.883145437616,-23884.716497029844,-51415.91893624293
-1252.345890086399,13586.239646224934,-24206.08987880825,-51148.83794174647
-1334.6003096819295,13606.289161001345,-24943.049245244176,-50933.41182868622
-1604.564679213128,13531.142596142605,-25252.28562978335,-51081.08980430244
-1623.787179444692,13450.89983354805,-24258.929402700596,-51499.11212910559
-1361.802382684038,13497.503220737366,-23889.879749999018,-51414.756645531255
-1242.5781777594302,13570.414611150576,-24213.64476843414,-51147.921520223805
-1327.5595101785077,13597.54962891932,-24956.728512850823,-50936.11638976531
-1598.4179494879186,13515.943409912994,-25237.399367976115,-51093.517374219584
-1610.957278127346,13434.09132171766,-24240.332751313777,-51505.638838486535
-1348.5030947331304,13486.684976420996,-23887.2869476422,-51413.639058308494
-1228.4742270081315,13560.53514010133,-24220.79732665984,-51146.96039521223
-1320.0940275304351,13578.327128687755,-24976.15217878249,-50937.03281128798
-1598.6861704213825,13496.229171303412,-25236.72881564245,-51106.28022030357
-1613.4606735063403,13418.601562810132,-24234.498946010943,-51516.77000722528
-1355.7450599366498,13473.18452276999,-23893.25486341177,-51415.136625187
-1240.00772714707,13550.87918649664,-24229.425100019587,-51145.68634577828
-1335.5614346935076,13572.627433851652,-24991.865455134568,-50940.98907005657
-1608.476234492807,13496.564447470242,-25221.90960906859,-51112.04697037304
-1609.638525204483,13421.149661678037,-24205.776954385878,-51507.896364676526
-1350.872379645393,13472.75983962534,-23896.518218102243,-51398.9316104569
-1241.6394044923072,13543.056075937282,-24239.461033280026,-51136.41037182932
-1338.221292283689,13563.329108158245,-25006.930530897444,-50935.021154287
-1610.3537810270527,13484.00276708636,-25213.818277575767,-51121.05472338852
-1604.564679213128,13412.231315640369,-24202.78182062886,-51520.0110101713
-1346.066754587502,13468.892987834572,-23906.062412984666,-51400.69739826887
-1241.6394044923072,13541.491453825409,-24258.147091644656,-51135.78452298457
-1348.346632521943,13566.033669237337,-25030.019882919776,-50934.48471242008
-1626.3576300570526,13482.393441485578,-25211.53839964133,-51131.24711886014
-1613.1030455950554,13404.542315547744,-24190.175436756068,-51525.88951896304
-1350.9617866232145,13459.929938307994,-23909.37047116405,-51397.2328778783
-1245.6850702387178,13526.426378062532,-24262.03629517988,-51132.72233399419
-1349.7324406781722,13544.710105026974,-25032.81385097669,-50933.47888391959
-1623.3177928111306,13462.768609853818,-25182.45878010497,-51137.19268288525
-1599.3567227550416,13396.875667199572,-24164.80620679929,-51526.33655385216
-1337.4389812277534,13457.962984795928,-23914.62313111104,-51396.74113950028
-1240.4994655250866,13523.3418373277,-24276.967260476027,-51138.0196974301
-1350.939434878759,13541.379695103133,-25053.66802855349,-50939.49150317806
-1622.8707579220245,13460.309917963734,-25177.07200969124,-51147.69800277925
-1590.9301150953909,13395.579266021165,-24155.217308427968,-51531.097475421135
-1331.7839898805607,13458.208853984936,-23912.834991554617,-51389.812098719136
-1239.7618579580617,13526.806357718271,-24279.627118066208,-51124.94392692375
-1355.4321355142756,13541.603212547689,-25069.493063627848,-50930.72961935159
-1631.2526620927647,13454.699630105451,-25170.724114265933,-51155.185837171775
-1597.0097895872343,13390.348957818624,-24148.73530253593,-51535.85839699011
-1338.4671614726976,13451.078647503691,-23931.476346430343,-51388.26982835172
-1244.4110208047657,13519.363226814656,-24311.67951961512,-51123.53576702306
-1364.931626907781,13531.500224053889,-25096.091639529663,-50930.99784028505
-1636.1923976173875,13442.696743332952,-25170.902928221574,-51159.2762064071
-1591.757129640237,13378.144905346026,-24147.707122290984,-51526.78358874126
-1330.8452166134375,13441.243879943357,-23938.87477384505,-51373.092993866565
-1239.359526557866,13504.320502796234,-24315.881647572714,-51113.36572329589
-1362.5399902510633,13517.39627330259,-25110.44145946997,-50927.93565129467
-1630.984441159301,13437.354676408137,-25153.17799486852,-51168.93216001179
-1578.9272283228909,13380.402431536011,-24122.293188845302,-51532.215062643896
-1318.037667040547,13446.787112568274,-23932.25865748628,-51369.4273077759
-1233.682183466218,13513.86469767865,-24318.94383656309,-51108.58244998246
-1364.8422199299598,13525.91228794006,-25122.35493926465,-50926.43808441616
-1635.7453627282814,13437.444083385955,-25143.186765096994,-51181.49384039568
-1576.446184688352,13382.36938504808,-24120.5944562667,-51542.58627207116
-1321.479835686664,13447.480016646388,-23935.320846476658,-51374.277636322695
-1240.38770680281,13513.507069767364,-24329.940894835105,-51113.41042678481
-1374.095842134457,13518.357398314169,-25128.859296901144,-50934.30589846443
-1641.4450575643848,13425.6200105691,-25121.840849142176,-51198.70468362626
-1577.6755306333937,13370.053573853203,-24100.32142404573,-51547.86128376261
-1326.128998533368,13437.287621174768,-23951.659971673485,-51374.277636322695
-1249.775439474039,13502.2864940508,-24354.885441647228,-51116.98670589766
-1385.3611213399315,13510.400177288078,-25154.49674779138,-50938.35156421085
-1647.4576768228624,13416.32168487569,-25115.850581628158,-51206.773663374624
-1573.763975353715,13363.191588305424,-24093.906473387065,-51551.48226636437
-1322.8879955873483,13432.861975772616,-23945.848518115108,-51369.71788045381
-1251.004785419081,13496.519743981333,-24350.862127645272,-51110.57175523898
-1399.062740691035,13500.3865957721,-25160.375256583127,-50936.33990720987
-1667.015453221256,13406.263399870802,-25100.49493318736,-51215.40143673438
-1585.208068514832,13353.78150388974,-24079.087266813192,-51551.59402508665
-1336.1872835382562,13424.480071601876,-23961.11475957808,-51366.96861588581
-1264.9299222147372,13488.160191555047,-24367.313011564376,-51111.59993548393
-1406.774092528116,13497.033834103804,-25172.869881733644,-50941.190235756665
-1666.7472322877925,13407.358635349112,-25081.093619000152,-51227.58313746252
-1582.3246934800975,13358.162445802982,-24070.10186554216,-51554.87973152158
-1337.103705060924,13421.931972733972,-23971.620079472075,-51359.7713541712
-1269.713195528173,13482.549903696765,-24391.005860687004,-51099.21706905569
-1425.2589851926548,13482.438144974489,-25199.37905065764,-50933.61299438632
-1682.5722673621497,13386.862085683597,-25079.506645143825,-51231.24882355319
-1585.3868824704746,13344.997268318804,-24066.77145561832,-51547.458952362416
-1338.3777544948764,13414.265324385802,-23977.096256863628,-51350.33891801106
-1275.524649086553,13472.491618691876,-24402.002918959013,-51099.9099731338
-1429.99755501718,13473.698612892464,-25214.71234735398,-50941.63727064578
-1687.824927309147,13380.357728047102,-25071.86234854011,-51246.40330629388
-1585.4762894482958,13337.151806014992,-24064.91626082853,-51559.461839134914
-1340.389411495854,13413.728882518875,-23980.00198364281,-51351.72472616729
-1280.0173497220696,13477.274892005313,-24406.74148878354,-51094.54555446453
-1435.7196015977386,13477.274892005313,-25213.39359443112,-50937.85982583283
-1689.3671976765631,13380.625948980563,-25035.116080655585,-51248.50437027268
-1579.5754289120948,13338.761131615776,-24040.552859372245,-51553.29275766525
-1342.1999027967338,13404.765832992296,-23985.008774400805,-51345.6674034199
-1282.8336695234382,13471.418734958022,-24417.69384356664,-51089.471708473175
-1444.034450535113,13472.133990780592,-25227.27402773786,-50937.7257153661
-1690.7753575772474,13375.21682682238,-25028.634074763548,-51254.449934297794
-1570.277103218687,13338.694076382408,-24034.540240113765,-51547.21308317341
-1327.4924549451418,13408.722091760888,-23989.6132337586,-51336.61494691551
-1270.8531344953938,13470.23409250189,-24431.93190478467,-51085.49309796013
-1435.3396219419983,13471.105810535648,-25235.208897019496,-50940.005593300535
-1683.4886888848173,13372.288748298735,-24998.86155114908,-51266.00578618119
-1558.2295129572765,13336.25773623678,-24005.32651011068,-51549.3141471522
-1320.965745564192,13409.482051072366,-23985.165236611992,-51333.48570269176
-1278.1174514433685,13469.496484934863,-24442.45957642312,-51087.01301658309
-1450.9411395718028,13464.914377321527,-25250.788062904845,-50945.57117766991
-1695.178651234943,13368.779524419251,-24997.028708103742,-51277.0028444532
-1567.952521795335,13333.508471668778,-24020.123364940093,-51552.97983324288
-1330.062905557502,13401.435423068457,-24003.493667065344,-51332.34576372454
-1277.8492305099048,13456.33130745069,-24456.76469287452,-51085.69426366023
-1454.6515291513836,13452.732676593385,-25254.587859462245,-50947.82870385989
-1699.7607588482808,13351.680439910942,-24966.451521688883,-51287.463460858286
-1565.4491264163407,13317.929305783427,-23995.24587336133,-51555.30441466623
-1327.291289245044,13393.098222386629,-23996.18464662846,-51329.752961367725
-1286.7228730586617,13452.352696937643,-24463.71608540012,-51080.01692056858
-1465.5591804455737,13444.797807311752,-25265.741379945444,-50948.275738749
-1697.0338460247335,13346.137207286029,-24941.52932662121,-51297.588801096535
-1554.0497367441342,13315.180041215426,-23982.10304762161,-51559.95357751293
-1323.5138444320971,13385.476277527368,-23993.211864615903,-51333.239833502754
-1280.129108444346,13441.377990410088,-24467.672344168703,-51083.95082759272
-1465.4250699788415,13430.805615282728,-25260.645182209635,-50958.89281736527
-1697.4808809138397,13332.435587934922,-24920.36222462204,-51315.04551351613
-1545.4890186177515,13309.748567312789,-23976.582166741155,-51565.429754904486
-1309.2757832140665,13386.906789172506,-24002.398431587037,-51326.9142898219
-1272.5742188184522,13443.657868344531,-24480.18932106368,-51073.02082455407
-1465.4921252122076,13431.386760638568,-25271.038743381352,-50950.33209923889
-1697.726750102848,13327.920535554951,-24908.001709938257,-51309.278763446666
-1550.7863820536593,13302.797174787183,-23968.133207337047,-51550.29762390824
-1326.5983851669296,13378.83780942414,-24011.316777624703,-51317.68301936186
-1289.896820771315,13437.980525252882,-24504.597426008877,-51072.66319664278
-1476.9809218622354,13430.358580393622,-25296.072697171297,-50957.3281952534
-1694.0834157566328,13336.92828857044,-24890.388535307477,-51322.01925778619
-1529.7086870323049,13313.794233059196,-23960.354800266603,-51550.74465879735
-1304.5372133895414,13384.045765882229,-24019.65397830653,-51313.27972570417
-1274.071785696958,13434.717170562408,-24512.532295290508,-51069.6010076524
-1470.9906543482132,13413.572420307688,-25290.57416803529,-50964.63721569029
-1696.2068314798871,13308.318055667649,-24867.47799724078,-51337.75488588273
-1535.766009779693,13291.420136859437,-23956.331486264648,-51556.73492631137
-1321.613946153396,13367.751344174309,-24025.398376631543,-51317.07952226156
-1296.9599720191925,13422.624876812086,-24524.691644274197,-51070.76329836408
-1489.0732156125566,13410.353769106125,-25297.033822182875,-50962.379689500296
-1704.7451978618144,13306.798137044683,-24857.19619479134,-51342.202883029335
-1535.3189748905868,13288.91674148044,-23951.056474573197,-51553.15864719852
-1307.5099954020973,13366.723163929364,-24024.817231275705,-51302.707350576806
-1284.845326524416,13417.70749303192,-24540.00258922608,-51063.78955409403
-1484.982846377235,13400.94368469044,-25311.54010433437,-50970.15809657075
-1696.273886713253,13297.924494495928,-24840.76766261669,-51358.96669137081
-1522.9361084623467,13282.546494310678,-23945.960276837384,-51562.50167638084
-1306.5041669016084,13358.430666736444,-24037.401263404045,-51312.698580348326
-1287.9745707481588,13412.03014994027,-24557.436949901217,-51068.01403379608
-1497.0304366386458,13397.210943366405,-25313.171781679604,-50978.04826236347
-1696.407997179985,13300.718462552844,-24807.91059826739,-51365.828676918594
-1514.7553699917044,13289.855514747564,-23937.84659360011,-51556.2208361889
-1303.196108722223,13364.912672628485,-24047.057217008736,-51306.23892620074
-1285.135899202335,13418.288638387758,-24574.044296031512,-51064.169533749766
-1493.6106197369838,13399.289655600744,-25325.73346206349,-50981.80335543196
-1692.7199593448593,13297.902142751473,-24806.16716219988,-51382.43602304888
-1507.602811766006,13283.418212344432,-23947.63665767153,-51565.22858920439
-1301.6985418437175,13359.257681281291,-24063.262231738838,-51314.0620367601
-1292.9813615061476,13412.5665918072,-24596.910130609293,-51072.21616175368
-1503.6465529974166,13393.254684597814,-25329.466203387525,-50992.643951492784
-1698.754930347792,13291.956578726362,-24783.21192064428,-51392.89663945397
-1508.541585033129,13285.586331556598,-23935.83493659913,-51563.90983628152
-1303.039646511036,13367.438419751934,-24049.6276676211,-51305.27780118917
-1291.975533005659,13423.18367042347,-24592.551540440505,-51062.87313257136
-1511.6931810013273,13400.02726316777,-25330.315569676823,-50994.85677419386
-1699.1572617479876,13297.879791007015,-24759.653181988386,-51402.530241314205
-1502.05957914109,13293.655311304963,-23919.36170093557,-51562.14404846956
-1299.4633673981866,13370.053573853203,-24053.98625778988,-51301.2097836983
-1293.9201347732703,13418.4674523434,-24603.749764412616,-51060.12386800336
-1515.3365153475422,13389.611350251598,-25324.54881960736,-50996.66726549474
-1697.078549513644,13287.463878090844,-24729.03129208461,-51406.866479738535
-1497.611581994484,13285.899255978971,-23913.97493052184,-51557.96427225641
-1293.450748139709,13369.673594197464,-24052.75691184484,-51295.91242026239
-1290.925001016259,13417.618086054095,-24613.29395929503,-51054.75944933408
-1523.1372741624446,13383.911655415495,-25329.91323827663,-51000.95880043016
-1706.9133170739792,13279.77487799822,-24705.718422617727,-51411.56034607415
-1502.8865936859363,13275.170418640426,-23905.883599029017,-51549.98469948587
-1303.8219575669716,13353.26741376727,-24061.675257882507,-51289.22924867025
-1300.1786232207564,13403.335321347156,-24622.949912899723,-51048.232739953135
-1526.0653526860897,13374.03218436625,-25323.610046340236,-51000.19884111868
-1696.720921602359,13277.271482619224,-24686.31710843052,-51419.718732800335
-1491.3083900580873,13273.829313973109,-23903.044927483195,-51552.130466953575
-1299.3739604203654,13343.745570629308,-24069.788941119783,-51289.63158007045
-1304.0454750115246,13387.778507206263,-24650.599020790934,-51052.211350466176
-1538.1129429475002,13355.591995190622,-25339.45743315905,-51016.225041893136
-1701.2136222378758,13248.86241541653,-24672.280212912585,-51441.46698015535
-1480.8254219085482,13249.197691583358,-23902.620244338545,-51554.34328965465
-1293.584858606441,13322.913744796962,-24082.4847319704,-51282.9037049894
-1308.515823902586,13367.59488196312,-24671.20732917873,-51041.638975338814
-1543.6338238279611,13336.280087981237,-25346.45352917356,-51009.02778017853
-1707.6062211520937,13236.412493754924,-24654.17529990379,-51431.83337829512
-1495.3093523155871,13242.782740924686,-23902.039098982703,-51537.24420514634
-1306.5935738794296,13321.416177918456,-24092.5877204642,-51270.118507160965
-1311.7568268486057,13370.277091297758,-24682.159683961832,-51034.12878920184
-1545.9807569957684,13339.990477560816,-25343.01136052744,-51011.50882381306
-1702.219450738365,13244.392066525468,-24624.15690710031,-51434.7391050743
-1485.519288244163,13250.874072417508,-23895.199465179383,-51532.34917311063
-1301.6761900992622,13325.126567498037,-24092.654775697563,-51268.442126326816
-1321.971574064681,13366.209073806893,-24690.720402088216,-51037.5486061035
-1564.376242682486,13331.832090834629,-25336.372892424213,-51021.18712916221
-1706.7792066072473,13235.339610021068,-24607.281340036552,-51447.50195115828
-1480.1101660859783,13242.983906624784,-23895.71355530185,-51536.57365281268
-1294.903611529304,13323.629000619532,-24095.26992979884,-51269.11267866048
-1310.818053581483,13375.529751244754,-24696.822428324514,-51034.41936187975
-1556.1955042118436,13340.504567683289,-25334.987084267985,-51024.38342861932
-1703.761721105781,13240.14523507896,-24582.06857229097,-51454.31923321715
-1478.2773230406433,13249.108284605538,-23891.913758744453,-51530.85160623212
-1296.870565041371,13330.692151867408,-24103.607130480665,-51260.350794834
-1312.6956001157284,13378.211960579392,-24716.69312914528,-51025.031629208526
-1557.827181557081,13338.135282771023,-25340.30679944835,-51026.93152748723
-1688.6966453429038,13240.23464205678,-24566.064723260966,-51461.58355016512
-1463.905151355881,13250.67290671741,-23898.26165416976,-51529.73401900936
-1298.099910986413,13321.259715707269,-24120.14742137759,-51265.53639954763
-1321.3680769643877,13365.963204617883,-24740.56479222355,-51034.44171362421
-1569.40538518493,13326.870003565553,-25343.21252622754,-51042.30952767248
-1697.235011724831,13231.629220441488,-24549.457377130675,-51474.21228578238
-1467.3696717464534,13246.224909570805,-23898.57457859213,-51531.00806844331
-1299.1727947202678,13323.852518064085,-24120.192124866506,-51260.08257390053
-1326.486626444653,13367.661937196486,-24744.61045796996,-51025.501015842085
-1578.4578416893294,13326.981762287827,-25333.623627856214,-51043.91885327326
-1703.1805757499428,13226.6224296835,-24537.38743512481,-51479.53200096274
-1466.7214711572494,13236.993639110762,-23893.366622134046,-51525.73305675186
-1300.06686449848,13307.20046844488,-24128.41756682605,-51259.00969016668
-1328.900614845826,13347.858291609084,-24767.722161736747,-51032.20653917868
-1582.3246934800975,13303.780651543218,-25346.721750107023,-51066.89644657332
-1697.592639636116,13212.540830676657,-24517.159106392755,-51500.02855062825
-1452.639872150406,13237.95476412234,-23895.78061053522,-51524.43665557345
-1289.0474544820136,13311.380244658025,-24143.482642588933,-51247.9455766613
-1325.1455217773346,13350.428742221446,-24797.31587139557,-51020.78479776202
-1581.698844635349,13305.00999748826,-25351.39326469818,-51057.59812087991
-1685.8803255415353,13214.932467333374,-24505.80442020946,-51491.55723947969
-1443.609767390462,13244.012086869729,-23901.92734026043,-51514.69129499094
-1283.2583526680892,13323.517241897254,-24147.394197868613,-51240.52479750214
-1323.7597136211054,13365.873797640064,-24806.68125232235,-51013.43107383622
-1583.3975772139522,13316.856422049574,-25340.35150293726,-51062.11317325988
-1685.9697325193565,13220.252182513736,-24475.383696005785,-51499.3579982946
-1444.347374957487,13244.10149384755,-23894.39480237899,-51512.2102513564
-1287.4381288812317,13320.991494773803,-24158.234793929438,-51242.11177135847
-1330.4428852132423,13359.369440003567,-24816.828944305056,-51022.081198940425
-1589.1643272834217,13307.312227167158,-25330.941418521576,-51081.80506012501
-1686.4614708973731,13212.741996376752,-24454.50716668453,-51520.97213518288
-1445.3979069468865,13235.898403632453,-23904.29662517269,-51525.0625044182
-1290.1873934492344,13316.096462738093,-24164.73915156593,-51252.81825695256
-1336.746077149639,13357.603652191598,-24836.274961981173,-51024.2940216415
-1603.8941268794688,13307.803965545174,-25334.227124956506,-51086.52127820507
-1698.1514332474987,13214.507784188723,-24447.73458811457,-51520.43569331595
-1458.8760088534366,13239.631144956487,-23914.28785494421,-51516.658248503
-1307.5099954020973,13315.783538315718,-24182.799361085818,-51238.28962305661
-1357.0861646039682,13351.747495144307,-24865.175767561886,-51011.62058253534
-1622.2896125661866,13297.477459606822,-25343.480747161004,-51088.7564526506
-1707.5838694076383,13203.93540906136,-24439.2185734771,-51523.52023405078
-1461.28999725461,13233.52911872019,-23911.47153514285,-51507.91871642098
-1314.8637193278933,13306.418157388944,-24184.654555875608,-51237.10498060048
-1366.898580419848,13340.146939772005,-24871.098979842543,-51010.30182961248
-1631.3644208150413,13277.96438669734,-25331.25434294395,-51093.27150503058
-1697.369122191563,13185.338757674546,-24404.796887015927,-51525.30837360721
-1445.1743895023335,13213.300789988136,-23908.92343627494,-51501.23554482884
-1301.3632656768875,13287.441526346389,-24195.02576530287,-51232.88050089843
-1360.7518506946387,13322.466709907856,-24890.701459729848,-51011.03943717951
-1629.9339091699017,13266.05090690266,-25323.945322507065,-51103.39684526883
-1691.110633744077,13176.979205248264,-24392.592834543328,-51531.27628937677
-1436.412505675853,13210.797394609142,-23907.15764846297,-51499.29094306123
-1295.4400533962314,13286.301587379168,-24202.40184097312,-51233.59575672099
-1358.740193693661,13322.176137229935,-24914.394308852472,-51012.80522499147
-1629.7774469587146,13263.927491179407,-25321.86661027272,-51114.997400641136
-1687.9366860314235,13176.398059892424,-24370.1516831102,-51545.067315705695
-1431.025735262124,13211.42324345389,-23907.939959518902,-51501.324951806666
-1294.5683353624745,13281.20538964336,-24203.966463084995,-51230.46651249725
-1357.8461239154487,13318.264581950258,-24916.383614109,-51005.25033536558
-1626.0000021457677,13257.557244009644,-25306.175685665094,-51115.913822163806
-1677.8113457931693,13166.831513265552,-24352.58321196833,-51544.66498430551
-1428.1423602273894,13202.080214271571,-23913.125564232538,-51493.97122788087
-1299.4633673981866,13271.750601738764,-24214.33767251225,-51225.25855603917
-1373.5594002675296,13302.573657342631,-24934.57793409561,-51005.11622489885
-1642.8979209539798,13242.492168246768,-25297.659671027624,-51124.40748505682
-1685.4556423968843,13160.058934695597,-24333.11484254776,-51549.44825761894
-1427.7176770827386,13201.432013682368,-23913.72906133283,-51490.685521445936
-1300.648009854318,13278.903159964462,-24222.965445872003,-51221.16818680384
-1376.867458446915,13317.817547061151,-24948.480719146817,-51005.02681792103
-1648.4858570678066,13256.305546320147,-25288.80838022332,-51138.48908406367
-1683.9133720294683,13174.27464416917,-24313.467659171543,-51563.50750488132
-1424.4990258811745,13216.13946153396,-23909.795154308697,-51488.62916095605
-1295.3282946739548,13291.19661941488,-24226.251152306933,-51218.0389425801
-1374.542877023563,13321.527936640732,-24962.629373387022,-51005.80912897696
-1649.0670024236445,13257.356078309544,-25283.555720276323,-51146.78158125658
-1683.6227993515492,13171.99476623473,-24299.52017063143,-51568.96133052842
-1430.9810317732135,13210.70798763132,-23919.384052680023,-51493.77006218077
-1312.293268715533,13281.25009313227,-24245.294838582857,-51226.0408670951
-1393.452452832753,13316.342331927102,-24988.55739695518,-51011.2406028796
-1663.8191537641471,13250.985831139784,-25286.126170888685,-51160.66201456333
-1678.9065812714794,13172.240635423736,-24289.819513537823,-51570.9729875294
-1420.1851392013002,13212.585534165566,-23920.00990152477,-51478.794393395714
-1305.610097123396,13280.847761732071,-24254.459053809533,-51212.27219251063
-1391.79842374306,13310.642637090998,-24999.129772082542,-51003.75276848707
-1663.595636319594,13236.81482515512,-25276.82784519528,-51171.480258879696
-1677.2972556706973,13154.4039433484,-24270.21703365052,-51584.33933071367
-1419.0675519785348,13200.962627048806,-23919.629921869036,-51483.13063182005
-1302.2126319661895,13273.382279084002,-24249.876946196197,-51211.7357506437
-1392.0889964209791,13304.741776554798,-24999.46504824937,-50997.44957655067
-1665.5402380872058,13234.199671053848,-25240.103929055207,-51165.71350881023
-1665.6072933205717,13159.991879462228,-24233.22489657699,-51571.777650329794
-1406.3494093834652,13208.226943996782,-23908.118773474547,-51464.91396008897
-1298.5022423866085,13280.57954079861,-24250.3239810853,-51196.15658475836
-1395.1511854113562,13307.133413211515,-25016.49707752432,-50992.576896259416
-1666.8589910100688,13230.75750240773,-25240.41685347758,-51178.96809327223
-1659.8852467400131,13156.08032418255,-24231.772033187397,-51580.807755089736
-1395.1735371558116,13210.529173675675,-23915.87482880054,-51462.83524785462
-1284.197125935212,13280.601892543064,-24269.23355689449,-51195.91071556935
-1387.059853918535,13302.596009087089,-25039.92170571348,-50994.87912593832
-1660.533447329217,13223.56024069312,-25227.49754518241,-51182.72318634072
-1652.2856536252086,13146.26790836667,-24210.78374514386,-51579.57840914469
-1396.2911243785768,13197.967493291795,-23919.629921869036,-51461.15886702047
-1294.747149318117,13265.067430146628,-24272.51926332942,-51202.90681158386
-1401.2979151365655,13287.843857746586,-25050.02469420728,-51001.741111486095
-1676.8055172926806,13213.256086499225,-25213.304187453294,-51187.26059046514
-1655.3031391266752,13141.663449008876,-24194.019936802382,-51565.0721269932
-1399.2415546466775,13191.463135655302,-23935.52201217676,-51435.83434055261
-1298.323428430966,13260.172398110915,-24287.316118158837,-51179.61629386143
-1411.155034441356,13281.5853692991,-25062.02758097977,-50989.82763169141
-1678.660712082471,13208.025778296684,-25199.71432682447,-51200.76104411615
-1652.151543158477,13140.612917019478,-24177.457294161,-51588.13912727108
-1396.51464182313,13189.965568776795,-23938.248925000305,-51457.53788441872
-1300.357437176399,13257.847816687565,-24303.878760800217,-51197.60944814795
-1416.407694388353,13278.67964251991,-25088.760267348323,-51002.45636730867
-1692.496441900306,13197.632217124965,-25198.70849832398,-51223.02338159364
-1667.3283776436303,13123.960867400274,-24171.53408188034,-51604.075921067706
-1404.2483454046662,13180.80135355012,-23942.294590746715,-51460.354204220086
-1307.3311814464548,13249.734133450287,-24311.14307774819,-51195.75425335816
-1421.906223524359,13266.6320522585,-25098.751497119847,-51002.45636730867
-1689.6577703544822,13186.389289663946,-25179.642460303603,-51230.39945726389
-1648.6423192789937,13124.139681355917,-24154.5020526054,-51604.0312175788
-1393.094824921468,13176.532170359156,-23943.009846569283,-51453.4475151834
-1302.4808528996532,13239.631144956487,-24319.167354007644,-51193.139099256885
-1419.3804764009092,13260.977060911306,-25105.12174428961,-51000.60117251887
-1689.3671976765631,13183.908246029408,-25161.49284380589,-51232.008782864665
-1642.4955895537842,13123.044445877606,-24139.57108730925,-51597.16923203102
-1386.2328393736886,13183.148286717927,-23944.84268961462,-51438.31538418715
-1299.7315883316503,13249.175339838905,-24329.292694245894,-51180.286846195086
-1430.6010521174733,13269.940110437885,-25126.244142799875,-50995.10264338287
-1700.9677530488675,13191.306673444114,-25152.12746287912,-51244.03402138162
-1642.4955895537842,13133.393303560411,-24121.15324987808,-51604.83588037919
-1390.3679120979205,13191.686653099854,-23942.652218658,-51442.9421952894
-1310.2369082256448,13253.802150941152,-24340.245049029,-51185.09247125298
-1442.8274563345262,13264.173360368415,-25139.58813423969,-51003.26103010905
-1704.074645528155,13187.216304208792,-25132.770852180824,-51256.17101862085
-1635.700659239371,13130.375818058948,-24111.027909639823,-51609.820319392726
-1387.9762754412027,13181.628368094964,-23953.69398041892,-51438.38243942052
-1313.2990972160217,13238.401799011446,-24362.03799987293,-51182.99140727418
-1443.3415464569982,13250.091761361571,-25155.904907692064,-51002.81399521995
-1702.1300437605437,13166.160960931891,-25120.70091017496,-51264.48586755823
-1632.9290429269129,13108.605218959476,-24104.30003455878,-51606.89224086908
-1377.0239206581025,13171.145399945426,-23963.72991367935,-51430.26875618324
-1293.2719341840666,13241.307525790637,-24364.72020920756,-51173.33545366949
-1424.7225433257274,13260.91000567794,-25166.477282819425,-50999.01419866255
-1684.4498138963957,13177.962682004296,-25118.376328751605,-51277.36047236448
-1613.4830252507957,13118.261172564173,-24101.953101390973,-51616.32467702922
-1366.8315251864822,13179.03556573815,-23964.22165205737,-51433.50975912926
-1291.2155736941784,13241.687505446376,-24372.275098833456,-51178.45400314975
-1435.1161044974451,13251.410514284436,-25173.719248022942,-51006.25616386606
-1692.8093663226805,13165.870388253974,-25093.32002321721,-51289.273952159165
-1606.1740048139102,13115.802480674089,-24082.57413894822,-51618.5822032192
-1359.4107460273203,13179.28143492716,-23966.389771269533,-51428.4359131379
-1289.4497858822092,13245.19672932586,-24380.187616370637,-51174.74361357017
-1431.3610114289536,13258.741886465776,-25181.7435242824,-51003.50689929807
-1688.8754592985465,13173.17940869086,-25071.102389228632,-51293.76665279468
-1604.2294030462986,13122.50800401068,-24068.76076087484,-51622.51611024333
-1363.255246073633,13187.529228631169,-23970.50249224931,-51429.37468640503
-1293.584858606441,13253.645688729965,-24391.43054383165,-51174.207171703245
-1436.546616142585,13265.939148180383,-25190.7959807868,-51009.60892553436
-1696.1844797354318,13173.64879532442,-25050.38232211856,-51311.379827425466
-1595.2663535197205,13128.475919780243,-24042.340998928667,-51620.83972940919
-1348.3689842663985,13194.391214178946,-23962.902899134508,-51413.95198273087
-1291.2155736941784,13255.120903864015,-24392.50342756551,-51159.8797035074
-1450.2035320047776,13260.15004636646,-25201.14483846961,-50998.56716377344
-1699.7607588482808,13171.927711001365,-25043.8109092487,-51306.21657445629
-1589.2984377501534,13129.258230836182,-24050.85701356614,-51614.1342060726
-1342.3340132634655,13198.727452603276,-23991.04374540374,-51409.57104081762
-1283.7053875571953,13260.798246955665,-24427.863887293803,-51158.27037790661
-1439.7652673441492,13268.844874959574,-25230.91736208408,-51004.6915417542
-1693.4575669118842,13175.191065691835,-25047.92363022848,-51323.38271419797
-1583.1740597693993,13127.134815112928,-24048.152452487047,-51624.30424979976
-1347.74313542165,13187.819801309086,-23999.380946085566,-51414.063741453145
-1299.3963121648208,13242.201595568848,-24446.3711317028,-51161.489029108176
-1462.0723083105456,13245.844929915063,-25247.74822565892,-51010.547698801485
-1708.656753141493,13155.588585804531,-25020.520391526272,-51334.49153119225
-1599.021446588212,13110.706282938276,-24036.842469792664,-51626.53942424529
-1359.6342634718733,13182.254216939717,-24009.48393457937,-51412.65558155246
-1300.3797889208545,13250.516444506222,-24450.617963149307,-51162.76307854213
-1464.441593222808,13257.557244009644,-25247.77057740338,-51018.12494017184
-1709.595526408616,13162.137646929938,-25003.086030851133,-51348.573130199096
-1588.627885416494,13117.5459167416,-24033.512059868823,-51632.99907839287
-1354.4263070137868,13185.31640593009,-24013.194324158947,-51413.907279241954
-1304.358399433899,13245.688467703876,-24466.33123950139,-51161.84665701946
-1481.473622497752,13246.180206081892,-25270.032914880863,-51022.1929576627
-1726.0240585832669,13153.755742759198,-25002.48253375084,-51360.8218861606
-1596.607458187039,13113.008512617173,-24029.26522842231,-51631.76973244784
-1360.483629761175,13178.096792471028,-24026.49361210985,-51409.16870941744
-1307.0182570240804,13236.457197243832,-24482.446847253665,-51158.806819773534
-1476.422128250853,13236.211328054826,-25277.453694040025,-51025.501015842085
-1712.5236049322612,13140.054123408096,-24985.45050447589,-51377.25041833525
-1580.8047748571366,13100.558590955568,-24036.32837967019,-51644.17495062053
-1348.346632521943,13171.503027856712,-24047.66071410903,-51418.77995953321
-1301.6761900992622,13232.992676853262,-24510.498286545077,-51174.11776472542
-1481.987712620224,13230.601040196543,-25302.8229239968,-51051.18317022124
-1719.8326253691466,13134.823815205553,-24967.7926263562,-51407.31351462764
-1576.5802951550836,13097.988140343206,-24016.636492805064,-51655.79785773729
-1350.6265104563845,13159.254271895205,-24045.80551931924,-51422.55740434616
-1311.6897716152396,13216.452385956334,-24520.020129683035,-51173.76013681414
-1498.43859653933,13210.4174149534,-25315.76458403642,-51053.41834466677
-1730.2261865408643,13119.378759786936,-24952.325219193128,-51411.04625595168
-1583.5093359362288,13090.433250717311,-24012.926103225484,-51650.70166000148
-1350.4029930118315,13161.93648122984,-24049.89588855456,-51414.30961064215
-1309.9463355477258,13219.358112735525,-24528.40203385377,-51166.04878497706
-1498.2597825836876,13212.116147532004,-25317.083336959284,-51050.02087950956
-1726.113465561088,13113.07556785054,-24929.21351542634,-51416.36597113204
-1575.3733009544972,13081.984291313209,-24004.70066126593,-51648.55589253377
-1351.8782081458817,13155.521530571168,-24056.601411891155,-51401.2338401358
-1324.0502862990245,13212.116147532004,-24556.05114174499,-51153.12947668189
-1514.4647973137853,13207.75755736322,-25330.40497665465,-51041.48251312763
-1731.142608063532,13111.533297483124,-24919.89283798848,-51410.50981408475
-1566.7678793392038,13091.68494840681,-23999.89503620804,-51632.954374903966
-1342.065792330002,13168.46319061079,-24058.23308923639,-51389.76739523022
-1313.2320419826558,13226.04128432766,-24561.795540070005,-51148.815590002014
-1504.9206024313692,13223.649647670944,-25334.987084267985,-51044.00826025108
-1719.206776524398,13128.319457569058,-24891.1261428745,-51420.07636071162
-1549.4452773863409,13106.012416602662,-23984.338222067145,-51632.44028478149
-1327.648917156329,13183.550618118124,-24050.119405999118,-51380.93845617038
-1300.7374168321392,13244.392066525468,-24554.598278355395,-51134.8681014619
-1497.6562854833944,13240.368752523513,-25323.945322507065,-51035.0452107245
-1708.8132153526803,13143.920975198864,-24853.70932265632,-51420.67985781191
-1541.6221668269834,13116.02599811864,-23965.69686719142,-51628.14874984608
-1320.2057862527115,13187.484525142256,-24053.82979557869,-51377.96567415782
-1296.5352888745415,13244.034438614182,-24561.86259530337,-51130.39775257084
-1496.4492912828075,13234.222022798303,-25317.642130570668,-51039.15793170428
-1697.883212314035,13139.78590247463,-24823.422708919374,-51429.37468640503
-1520.8350444835478,13120.16107084287,-23946.004980326292,-51618.62690670812
-1305.096007000924,13194.748842090232,-24047.99599027586,-51362.31945303911
-1287.4381288812317,13254.159778852438,-24567.29406920601,-51114.66212447431
-1502.1266343744558,13241.016953112718,-25327.61100859773,-51027.33385888742
-1706.689799629426,13143.116312398472,-24813.453830892307,-51419.27169791123
-1527.8087887536035,13121.993913888207,-23952.68815191843,-51601.21489777743
-1315.6683821282843,13194.681786856863,-24060.33415321519,-51346.31560400911
-1296.200012707712,13257.177264353904,-24585.823665359458,-51104.67089470278
-1505.479396042752,13246.29196480417,-25332.26017144444,-51026.88682399831
-1698.397302436507,13150.69355376882,-24795.594787072518,-51425.21726193634
-1513.8836519579474,13134.242669849717,-23942.11577679107,-51597.52685994231
-1316.4059896953097,13202.32608346058,-24063.217528249923,-51344.68392666387
-1307.4429401687314,13253.891557918974,-24598.72062191017,-51104.44737725823
-1524.63484104095,13234.311429776124,-25340.887944804188,-51033.70410605719
-1714.0211718107669,13130.331114570035,-24775.545272296105,-51435.83434055261
-1521.1926723948327,13114.483727751223,-23934.851459843096,-51595.179926774494
-1322.3068502315105,13179.572007605078,-24069.76658937533,-51335.51971143719
-1321.032800797558,13229.125825062494,-24615.10445059591,-51095.95371436521
-1543.8349895280587,13212.09379578755,-25344.5312791504,-51033.65940256827
-1732.886044131046,13114.908410895874,-24757.552118009586,-51442.58456737812
-1541.4657046157963,13102.659654934369,-23944.797986125708,-51597.14688028656
-1338.3330510059657,13176.46511512579,-24085.05518258276,-51336.34672598204
-1329.3700014793876,13229.23758378477,-24627.44261353524,-51094.500850975615
-1553.088611732556,13211.08796728706,-25340.418558170622,-51036.22985318063
-1729.8909103740348,13116.428329518836,-24725.09738506048,-51448.15015174749
-1525.9759457082685,13112.896753894896,-23927.564791150668,-51589.03319704928
-1326.5536816780188,13185.60697860801,-24073.432275466,-51326.10962702151
-1325.257280499611,13233.28324953118,-24633.65639849381,-51086.43187122725
-1548.0147657412012,13207.556391663122,-25335.8811540462,-51039.22498693765
-1724.1018085601104,13109.253419548682,-24696.956538791244,-51453.46986692785
-1521.7514660062154,13108.895791637397,-23911.4938868873,-51582.17121150151
-1332.6557079143176,13182.254216939717,-24075.421580722523,-51317.83948157305
-1333.192149781245,13230.24341228526,-24645.74869224414,-51079.14520253482
-1562.923379292891,13207.958723063315,-25332.953075522557,-51039.71672531566
-1733.2883755312414,13110.415710260357,-24677.35405890394,-51463.52815193274
-1528.3005271316204,13101.631474689422,-23911.53859037621,-51584.89812432505
-1336.2319870271667,13172.866484268485,-24081.14362730308,-51319.85113857403
-1341.4399434852533,13223.76140639322,-24655.11407317091,-51080.173382779765
-1573.7863270981702,13198.503935158722,-25332.327226677804,-51045.66228934077
-1735.4341429989508,13100.670349677845,-24651.582497546973,-51466.85856185658
-1521.0138584391902,13096.088242064508,-23901.3908983935,-51578.59493238866
-1330.129960790868,13164.641042308933,-24084.63049943811,-51315.04551351613
-1337.9530713502254,13212.317313232104,-24677.10818971493,-51078.25113275661
-1576.960274810824,13183.528266373669,-25350.700360620067,-51053.5524551335
-1735.9929366103336,13085.627625659425,-24644.385235832364,-51478.77204165126
-1519.8068642386038,13085.404108214869,-23914.22079971085,-51577.0750137657
-1333.840350370449,13156.773228260665,-24107.116354360147,-51307.13299597895
-1343.74217316415,13202.080214271571,-24698.49880915866,-51068.72928961865
-1577.340254466564,13174.52051335818,-25342.430215171604,-51048.83623705342
-1726.0911138166323,13078.989157556196,-24613.517476739584,-51478.90615211799
-1502.5513175191068,13085.985253570709,-23897.747564047288,-51566.480286893886
-1321.0775042864686,13159.678955039852,-24098.95796763396,-51297.0076557407
-1339.6294521843736,13205.61178989551,-24698.99054753668,-51061.30851045949
-1587.4879464492735,13172.03946972364,-25341.87142156022,-51052.077239999446
-1730.4497039854175,13077.133962766406,-24595.94900559771,-51482.41537599747
-1501.3890268074308,13084.957073325762,-23888.87392149853,-51561.920531025
-1320.742228119639,13157.041449194128,-24092.274796041824,-51292.82787952756
-1338.0201265835915,13207.556391663122,-24707.730079618705,-51058.46983891366
-1578.5248969226957,13175.883969769951,-25332.282523188893,-51056.18996097922
-1716.1669392784763,13075.032898787607,-24568.411656428776,-51488.8526784006
-1494.191765092822,13082.5877884135,-23885.45410459687,-51561.96523451391
-1321.5692426644855,13159.74601027322,-24106.110525859654,-51292.09027196054
-1348.033708099569,13209.18806900836,-24726.192620538783,-51054.312414444976
-1591.4218534734075,13183.863542540495,-25331.567267366325,-51056.34642319041
-1726.0687620721774,13088.063965805051,-24548.85388003038,-51490.86433540158
-1499.734997717738,13094.7918408861,-23892.27138665573,-51555.3714698996
-1324.7878938660497,13168.79846677762,-24106.423450282036,-51283.64131255643
-1352.5711122239964,13215.42420571139,-24735.200373554275,-51049.37267892035
-1605.3916937579745,13178.119144215483,-25328.14745046466,-51069.66806288577
-1738.6751459449704,13077.089259277494,-24530.1901734102,-51511.29382983373
-1505.3005820871094,13085.851143103975,-23884.738848774297,-51559.14891471254
-1331.35930673591,13158.382553861447,-24115.073575386235,-51285.2059346683
-1357.5108477486192,13206.37174920699,-24749.058455116567,-51052.85955105538
-1608.9456211263682,13168.41848712188,-25327.72276732001,-51077.06649030048
-1724.2806225157528,13070.696660363275,-24507.83842895489,-51513.59605951262
-1489.0955673570118,13083.68302389181,-23888.851569754075,-51551.43756287546
-1322.932699076259,13159.813065506589,-24127.29997960329,-51277.78515550913
-1357.8014204265382,13200.917923559897,-24775.41116182937,-51051.2502254546
-1612.0972170945663,13154.806274748598,-25326.001682996957,-51087.97414159467
-1721.9336893479456,13059.073753246515,-24485.46433275513,-51525.24131837384
-1484.155831832389,13073.870608075931,-23884.15770341846,-51551.079934964175
-1325.7937223665383,13144.569175788069,-24133.4467093285,-51275.974664208254
-1362.4729350176974,13189.786754821152,-24789.67157479186,-51045.1481992183
-1612.4324932613963,13152.101713669505,-25324.01237774043,-51094.433795742254
-1719.787921880236,13055.028087500106,-24467.962916846624,-51535.210196400905
-1478.0761573405457,13071.948358052774,-23878.77093300473,-51549.53766459676
-1319.7811031080607,13139.383571074435,-24133.983151195425,-51276.93578921983
-1360.6847954612726,13180.555484361112,-24788.33047012454,-51044.030611995535
-1616.500510752262,13135.203794861292,-25310.48957234497,-51097.63009519936
-1714.6023171666047,13045.282726917592,-24443.174832245688,-51537.62418480208
-1472.488221226719,13069.5343696516,-23871.752485245765,-51544.91085349451
-1316.517748417586,13144.45741706579,-24131.30094186079,-51270.453783327794
-1360.4612780167197,13187.931560031362,-24806.256569177694,-51040.23081543813
-1618.9815543868012,13144.435065321337,-25311.24953165645,-51104.33561853595
-1707.7179798743705,13055.408067155848,-24417.045642977435,-51543.36858312709
-1458.6301396644285,13076.77633485512,-23872.758313746253,-51538.27238539128
-1306.8170913239828,13143.965678687771,-24142.14153792161,-51264.105887902486
-1356.6838332037728,13184.399984407424,-24818.907656539403,-51032.072428711945
-1615.5170339962283,13141.618745519969,-25297.86083672772,-51098.904144633314
-1700.3195524596636,13050.066000231029,-24405.802715516416,-51537.19950165743
-1449.9129593268583,13079.994986056685,-23878.614470793545,-51522.223832872376
-1309.3651901918877,13146.334963600037,-24160.358209652688,-51251.92418717434
-1363.7469844516495,13179.70611807181,-24844.38864521845,-51029.077294954935
-1626.3576300570526,13132.275716337648,-25307.181514165582,-51114.59506924094
-1704.2534594837975,13046.422665884813,-24396.37027935628,-51552.08576346467
-1452.8857413394144,13080.330262223515,-23875.06054342515,-51525.15191139602
-1309.4098936807984,13154.470998581768,-24152.98213398244,-51255.05343139809
-1363.7022809627392,13191.016100766195,-24851.764720888703,-51033.41353337927
-1627.4752172798178,13140.21058561928,-25294.8209994818,-51121.52411002209
-1698.821985581158,13053.262299688138,-24373.660906989684,-51560.40061240204
-1447.0742877810346,13079.905579078864,-23881.386087106,-51529.53285330926
-1305.5877453789408,13149.710077012787,-24168.427189401056,-51255.12048663146
-1361.93649315077,13188.400946664924,-24875.05523861113,-51031.35717288937
-1629.6433364919826,13137.908355940386,-25291.20001688004,-51130.33069733748
-1695.916258801968,13048.076694974508,-24349.364560766764,-51566.323824682695
-1442.8498080789816,13074.11647726494,-23880.62612779452,-51527.878824219566
-1310.6392396258402,13140.769379230664,-24177.792570327827,-51257.82504771055
-1377.515659036119,13175.481638369756,-24891.03673589668,-51035.93928050272
-1639.5898627745942,13125.369027300958,-25283.53336853187,-51140.94777595375
-1689.8142325656693,13044.612174583934,-24327.884534345216,-51565.273292693295
-1437.0830580095123,13077.089259277494,-23885.02942145222,-51509.50569027731
-1304.4478064117202,13148.301917112103,-24181.94999479652,-51240.23422482422
-1372.3300543224875,13182.298920428626,-24894.83653245408,-51024.27166989705
-1642.2273686203205,13125.83841393452,-25268.892975913644,-51140.858368975925
-1692.1388139890212,13039.29245940357,-24306.493914901486,-51566.63674910507
-1443.743877857194,13067.701526606266,-23879.575595805123,-51505.28121057525
-1312.4273791822648,13138.467149551769,-24187.53793091034,-51234.71334394376
-1376.8898101913703,13176.107487214504,-24913.030852440697,-51016.44855933769
-1640.5062842972618,13123.73734995572,-25261.13692058765,-51143.227653888185
-1680.2029824498873,13042.086427460485,-24288.4337053816,-51571.75529858533
-1430.2657759506435,13076.6869278773,-23881.16256966145,-51508.54456526573
-1305.610097123396,13143.69745775431,-24196.925663581573,-51237.3955532784
-1379.192039870267,13177.448591881825,-24920.764556022237,-51018.795492505495
-1644.7754674882256,13120.228126076236,-25250.02810359336,-51152.63773830387
-1679.7559475607811,13036.00675296864,-24267.11014117124,-51573.454031163936
-1423.4037904028644,13075.502285421167,-23878.18978764889,-51494.06063485869
-1297.786986564039,13145.083265910538,-24203.184152029055,-51220.7882071481
-1378.1862113697782,13174.02877498016,-24935.874335274024,-51001.91992544174
-1647.792952989692,13111.242724805204,-25239.12045229917,-51150.04493594706
-1671.1952294343985,13028.742436020666,-24255.24136486547,-51573.69990035295
-1414.7313135542051,13070.607253385457,-23890.59500582159,-51492.09368134662
-1293.1378237173349,13142.512815298178,-24221.51258248241,-51226.152625817376
-1371.5253915220967,13178.499123871225,-24957.600230884585,-51011.68763776871
-1637.7346679848038,13116.517736496657,-25236.393539475623,-51167.74751755566
-1653.9620344593568,13036.6773053023,-24244.445472293555,-51583.51231616882
-1398.9509819687585,13077.06690753304,-23892.114924444548,-51493.81476566968
-1289.807413793494,13142.557518787087,-24224.910047639616,-51231.96407937576
-1381.091938148968,13167.770286532676,-24977.537986938714,-51023.19878616319
-1655.079621682122,13100.625646188932,-25231.69967314001,-51188.333474199
-1664.8696857535465,13019.064130671515,-24229.156879086124,-51599.33735124319
-1407.0199617171245,13057.956166023752,-23899.245130925792,-51497.391044782526
-1295.261239440589,13125.860765678975,-24242.679684481584,-51232.63463170941
-1388.9150487083257,13156.102675927004,-25002.460182006384,-51027.043286209504
-1658.655900794971,13085.895846592886,-25233.04077780733,-51207.82419536402
-1666.143735187499,13003.52966827508,-24224.99945461744,-51612.83780489419
-1417.033543233102,13045.126264706403,-23908.476401385837,-51498.26276281629
-1304.4925099006307,13117.635323719422,-24255.151957887647,-51232.09818984249
-1394.7488540111608,13148.145454900916,-25012.25024607781,-51023.71287628566
-1667.3954328769962,13080.330262223515,-25218.37803344465,-51207.66773315284
-1659.6170258065497,13007.776499721587,-24208.36975674269,-51607.36162750264
-1401.1191011809233,13050.982421753695,-23907.738793818808,-51491.87016390207
-1300.5586028764967,13111.063910849562,-24262.03629517988,-51229.14775957439
-1399.353313368954,13136.20962336178,-25028.701129996916,-51025.635126308815
-1665.6519968094824,13065.242834716182,-25204.74346932691,-51223.02338159364
-1653.7832205037143,12992.040871625051,-24185.101590764712,-51619.40921776405
-1400.605011058451,13039.426569870302,-23915.271331700245,-51492.76423368028
-1297.362303419388,13112.829698661531,-24258.772940489405,-51222.64340193789
-1396.8499179899595,13145.26207986618,-25028.05292940771,-51016.04622793749
-1666.3896043765074,13076.083430777006,-25184.179864428028,-51221.21289029275
-1645.758944244259,13001.294493829548,-24163.5545091098,-51611.36258976014
-1388.222144630211,13049.35074440846,-23906.21887519585,-51476.782736394736
-1292.131995216846,13117.434158019323,-24273.145112174167,-51210.50640469866
-1404.2706971491216,13141.998725175708,-25051.65637155251,-51007.93254470021
-1675.0620812251666,13068.4838376622,-25180.715344037457,-51221.123483314936
-1647.7482495007814,12994.544267004048,-24159.97822999695,-51606.60166819116
-1391.5972580429625,13040.20888092624,-23917.64061661251,-51460.354204220086
-1297.4964138861196,13102.68200667882,-24287.85256002576,-51194.189631246285
-1408.0257902176131,13121.748044699198,-25075.036296252765,-50998.09777713988
-1678.1913254489095,13040.745322793166,-25171.50642532187,-51226.19732930629
-1635.9465284283792,12974.382993505358,-24135.324255862743,-51607.02635133581
-1368.5526095095408,13028.6753807873,-23915.561904378166,-51454.74391636181
-1273.9823787191367,13095.574151942032,-24290.110086215747,-51187.640570120886
-1388.356255096943,13122.530355755134,-25078.63492711007,-50995.929657927714
-1656.1972089048877,13048.367267652426,-25157.13425363711,-51232.858149153966
-1615.405275273952,12983.211932565206,-24127.29997960329,-51609.70856067045
-1359.8577809164265,13039.068941959018,-23916.72419508984,-51456.86733208506
-1271.0766519399467,13104.559553213066,-24299.60957760925,-51197.16241325884
-1398.1463191683674,13124.07262612255,-25102.528941932796,-51005.943239443695
-1676.134964959021,13048.72489556371,-25149.10997737765,-51248.90670167288
-1633.1749121159212,12977.288720284549,-24119.58862776621,-51619.02923810831
-1380.935475937781,13028.6753807873,-23927.54243940621,-51455.68268962893
-1297.87639354186,13095.484744964211,-24315.05463302787,-51189.20519223275
-1426.7342003267051,13117.009474874672,-25111.179067037,-50997.538983528495
-1692.094110500111,13037.34785763596,-25127.31702653373,-51248.05733538358
-1632.1914353598877,12974.539455716544,-24098.689746700496,-51610.55792695975
-1380.935475937781,13023.221555140204,-23936.125509277048,-51442.293994700194
-1302.614963366385,13082.453677946767,-24328.46567970105,-51182.07498575151
-1433.484427152208,13103.68783517931,-25132.59203822518,-51000.95880043016
-1706.890965329524,13021.746340006155,-25130.71449169093,-51259.79200122262
-1642.56264478715,12965.03996432304,-24099.36029903416,-51611.42964499351
-1389.4067870863423,13029.256526143135,-23945.35677973709,-51439.164750476455
-1308.9852105361474,13098.323416510037,-24344.38012175323,-51176.9787880157
-1443.6544708793726,13119.602277231488,-25156.17312862553,-50999.81886146294
-1710.757817120292,13039.71714254822,-25114.73299440539,-51274.745318263216
-1637.46644705134,12984.32951978797,-24091.29131928579,-51619.67743869752
-1384.288237606077,13042.756979794143,-23958.61136419909,-51435.52141613024
-1311.7568268486057,13105.721843924744,-24360.83100567234,-51174.40833740334
-1453.7127558842608,13120.675160965344,-25161.291678105797,-50997.29311433949
-1716.6363259120378,13038.040761714074,-25098.617386653117,-51281.67435904436
-1643.2555488652647,12975.500580728123,-24082.90941511505,-51627.41114227905
-1397.4310633457976,13026.5743168085,-23966.009791613797,-51438.65066035398
-1320.0269722970693,13087.68398614931,-24375.337287823837,-51179.593942116975
-1462.5640466885625,13104.000759601684,-25184.98452722842,-51005.47385281013
-1724.8617678715907,13019.019427182608,-25090.079020271187,-51295.93477200685
-1639.433400563407,12963.296528255529,-24060.736484615387,-51627.41114227905
-1387.8421649744707,13025.456729585736,-23947.591954182622,-51433.28624168471
-1317.9929635516362,13088.30983499406,-24370.82223544386,-51173.93895076978
-1463.1451920444003,13107.73350092572,-25189.38782088612,-51003.26103010905
-1722.112503303588,13023.199203395749,-25066.72144731539,-51300.82980404256
-1633.5101882827507,12966.671641668278,-24049.91824029901,-51624.39365677758
-1384.802327728549,13029.412988354325,-23967.7085241924,-51422.84797702408
-1317.8588530849045,13093.093108307494,-24392.794000243422,-51165.24412217666
-1467.5484857020958,13102.88317237892,-25197.725021567945,-51005.69737025468
-1727.521625461772,13014.48202305818,-25039.58642954665,-51316.09604550553
-1626.245871334776,12968.61624343589,-24033.44500463545,-51631.50151151437
-1382.32128409401,13032.00579071114,-23963.79696891272,-51425.15020670297
-1324.094989787935,13092.958997840762,-24388.524817052465,-51168.328662911495
-1482.5688579760622,13104.559553213066,-25196.42862038954,-51007.4408063222
-1736.8646546440907,13016.247810870149,-25019.62632174806,-51322.86862407549
-1629.2410050917872,12966.492827712636,-24020.27982715128,-51633.58022374872
-1393.161880154834,13024.71912201871,-23963.79696891272,-51424.613764836045
-1338.4001062393315,13081.291387235093,-24409.267235906987,-51171.50261062415
-1495.7116837157828,13091.170858284338,-25225.284722481338,-51017.23087039362
-1744.0842681031547,13001.76388046311,-25015.603007746104,-51338.17956902738
-1631.6773452374157,12952.455932194702,-24013.864876492607,-51637.31296507275
-1391.0384644315798,13012.96210443522,-23971.17304458297,-51419.60697407806
-1332.4992457031306,13072.10482026396,-24425.69576808164,-51158.806819773534
-1493.5882679925285,13076.865741832942,-25242.83084187876,-51007.32904759992
-1740.4632855013951,12986.743508189144,-25004.0024523738,-51342.11347605151
-1621.8425776770805,12942.688219867734,-24003.18074264297,-51634.340183060194
-1384.7352724951832,13007.284761343572,-23976.559814996697,-51414.063741453145
-1332.4545422142198,13071.456619674758,-24429.89789603924,-51159.812648274026
-1498.05861688359,13077.558645911056,-25237.153498787105,-51017.05205643798
-1739.0551256007109,12988.28577855656,-24973.17939676993,-51360.15133382694
-1609.9067461379466,12949.304336226503,-23989.501475036323,-51641.00100290788
-1370.161935110323,13016.00194168114,-23973.587032984145,-51413.59435481958
-1323.3126787319993,13078.273901733626,-24434.725872841584,-51156.75045928365
-1503.3559803194978,13080.218503501235,-25249.066978581784,-51020.04719019499
-1743.301957047219,12985.76003143311,-24953.0404750157,-51367.68387170838
-1601.5248419672064,12943.269365223572,-23964.467521246377,-51637.87175868413
-1363.322301306999,13005.407214809326,-23972.84942541712,-51406.26298263824
-1317.4788734291642,13061.375982925414,-24449.88035558228,-51155.23054066069
-1498.4609482837857,13067.410953928347,-25256.107778085207,-51022.61764080735
-1742.4525907579173,12975.14295281684,-24934.60028584007,-51371.50602001024
-1611.5384234831838,12936.429731420249,-23981.2089778434,-51628.37226729063
-1385.092900406468,13005.7201392317,-23999.671518763487,-51392.539011542685
-1347.385507510365,13067.030974272606,-24475.92013787272,-51139.09258116395
-1530.8039225106147,13065.019317271628,-25274.23504283846,-51012.358190102364
-1762.9267886789787,12969.577368447468,-24920.78690776669,-51373.227104333295
-1615.7405514407817,12931.17707147325,-23960.98064911135,-51621.063246853744
-1381.5836765269848,12999.349892061937,-23993.07775414917,-51382.257209093244
-1335.8967108603372,13057.084447989995,-24479.89874838576,-51131.80591247153
-1523.0925706735338,13056.458599145246,-25275.062057383308,-51015.66624828175
-1749.336928050152,12967.47630446867,-24888.801561451142,-51383.59831376056
-1594.7075599083378,12937.65907736529,-23942.16048027998,-51621.95731663195
-1362.3611762954208,13007.173002621294,-23981.79012319924,-51375.30581656764
-1332.7004114032284,13064.616985871431,-24477.46240824013,-51124.45218854573
-1524.5901375520396,13057.978517768208,-25268.66945846909,-51012.98403894712
-1745.4924280038392,12955.89810084082,-24870.96486937581,-51392.1813836314
-1587.309132493631,12924.024513247552,-23938.47244244485,-51624.0360288663
-1360.84125767246,12996.153592604827,-23989.501475036323,-51369.874342665
-1325.3690392218875,13058.000869512662,-24487.967728134125,-51110.52705175008
-1519.1586636493998,13057.799703812563,-25275.48674052796,-50998.76832947354
-1746.0512216152215,12959.742600887132,-24850.803595877125,-51384.80530796115
-1583.799908614148,12925.879708037342,-23938.003055811296,-51607.65220018056
-1358.9190076493037,12999.036967639562,-24008.79103050125,-51351.81413314511
-1330.9569753357143,13056.72682007871,-24506.51967603203,-51095.126699820365
-1531.1168469329891,13045.126264706403,-25287.333165089272,-50990.29701832498
-1751.8626751736017,12940.140120999828,-24835.49265092524,-51382.23485734878
-1588.0020365717455,12907.21600141716,-23926.46955567236,-51588.85438309365
-1367.1220978644012,12979.881522641364,-24002.733707753865,-51323.9638595538
-1335.583786437963,13040.074770459509,-24516.37679533682,-51062.22493198216
-1540.281062159665,13026.462558086225,-25294.57513029279,-50961.48561972209
-1760.669262488993,12919.375350400847,-24816.00192976021,-51362.341804783566
-1590.6171906730165,12893.156754154774,-23917.215933467854,-51562.7698973143
-1375.9510369242475,12963.318879999984,-24003.963053698903,-51300.89685927593
-1351.8111529125158,13021.478119072692,-24533.1406036783,-51045.93051027424
-1557.0448705011454,13015.510203303123,-25292.831694225275,-50951.85201786185
-1771.979245183378,12912.736882297622,-24784.553025311598,-51358.69847043735
-1595.065187819623,12885.13247789532,-23903.089630972103,-51547.50365585133
-1382.388339327376,12947.046810036518,-24012.30025438073,-51284.870658501466
-1362.405879784331,12999.506354273124,-24541.18723168221,-51035.6487078248
-1573.9427893093575,12986.341176788948,-25299.40310709513,-50951.78496262848
-1782.9539517109338,12883.791373228,-24764.81643495756,-51362.74413618376
-1595.7804436421925,12860.724372950122,-23899.423944881437,-51544.55322558323
-1382.4106910718313,12934.060446507983,-24017.37410037209,-51278.09807993151
-1366.8538769309375,12988.33048204547,-24553.61480159936,-51027.84794900989
-1585.208068514832,12971.253749281615,-25308.969653722008,-50951.00265157255
-1788.1842599134757,12865.93232940821,-24751.628905728925,-51364.01818561771
-1603.7823681571924,12838.752608150557,-23912.3432531766,-51532.662097533
-1395.3076476225433,12905.025530460542,-24041.312818683724,-51264.50821930268
-1377.94034218077,12959.742600887132,-24581.979165313147,-51014.48160582562
-1591.3324464955865,12946.71153386969,-25325.7781655524,-50947.493427693065
-1785.59145755666,12843.44647448617,-24735.98268461021,-51368.3767757865
-1588.5831819275836,12827.308514989438,-23903.022575738734,-51530.24810913183
-1377.4262520582977,12902.812707759464,-24040.105824483137,-51262.4518588128
-1368.4408507872645,12955.763990374087,-24595.85959861989,-51017.52144307154
-1590.6618941619272,12936.876766309351,-25334.33888367878,-50963.765497656525
-1787.5807628131824,12830.504814446547,-24732.1381845639,-51392.60606677605
-1590.9748185843014,12819.597163152355,-23912.76793632125,-51540.23933890335
-1383.1706503833116,12896.6436262898,-24064.04454279477,-51267.458649570784
-1378.5885427699736,12949.952536815708,-24630.77302345908,-51022.48353034062
-1609.0126763597343,12930.84179530642,-25353.40492169916,-50971.99093961608
-1796.0967774506544,12831.041256313474,-24727.51137346165,-51404.67600878191
-1592.5841441850837,12819.530107918992,-23923.764994593264,-51545.38024012807
-1393.899487721859,12890.608655286867,-24084.406981993558,-51274.588856052025
-1393.161880154834,12945.571594902469,-24661.73018952968,-51026.3950856203
-1621.3508392990636,12926.773777815555,-25366.324229994327,-50978.11531759684
-1801.5282513532936,12822.100558531352,-24717.766012879136,-51409.97337221782
-1590.6395424174718,12815.551497405946,-23926.626017883544,-51536.55130106823
-1394.301819122055,12887.5911697854,-24095.515798987843,-51261.93776869032
-1400.8508802474596,12937.815539576475,-24681.757352561635,-51015.55448955947
-1633.8678161940356,12913.653303820289,-25375.466093476545,-50976.81891641843
-1802.0646932202208,12810.969389792608,-24697.47062891372,-51414.60018332007
-1587.823222616103,12804.554439133935,-23916.746546834296,-51533.265594633296
-1393.0724731770126,12879.298672592482,-24094.264101298348,-51256.66275699887
-1397.565173812529,12927.824309804952,-24685.512445630127,-51009.05013192298
-1633.0631533936446,12899.683463535725,-25356.623572900724,-50981.46807926513
-1797.3261233956962,12791.568075605404,-24661.73018952968,-51426.31249741465
-1584.6492749034496,12785.6672150692,-23906.01770949575,-51532.68444927746
-1398.123967423912,12856.723410692624,-24092.34185127519,-51253.15353311939
-1404.1812901713004,12908.17712642874,-24697.425925424806,-51005.02681792103
-1636.3935633174854,12886.048899417983,-25369.54288119589,-50984.91024791125
-1788.5418878247606,12784.773145290988,-24645.74869224414,-51428.547671860186
-1567.3266729505865,12784.996662735542,-23918.86996255755,-51527.29767886373
-1380.935475937781,12863.317175306938,-24113.665415485557,-51253.53351277513
-1392.3795690988982,12911.149908441295,-24724.06920481553,-51010.41358833476
-1637.824074962625,12877.152905124773,-25381.657526690666,-50999.05890215146
-1790.5088413368276,12768.881054983263,-24641.568916031,-51441.31051794416
-1563.5939316265503,12766.824694493378,-23915.047814255693,-51524.05667591771
-1383.2600573611328,12837.59031743888,-24122.53905803431,-51247.27502432764
-1396.8275662455042,12888.30642560797,-24743.358760280466,-51006.92671619973
-1643.3896593319964,12860.277338061016,-25382.529244724425,-51004.37861733182
-1787.334893624174,12763.829560736369,-24610.41058426029,-51451.41350643796
-1559.6823763468717,12765.662403781702,-23914.310206688668,-51530.06929517619
-1378.6332462588844,12839.803140139957,-24124.282494101823,-51252.55003601909
-1392.8489557324597,12890.27337912004,-24753.394693540897,-51011.2406028796
-1645.535426799706,12858.377439782314,-25390.77703842843,-51022.90821348527
-1787.9383907244674,12758.867473467288,-24606.096697580422,-51475.66514917197
-1553.5356466216622,12767.316432871394,-23916.83595381212,-51534.91962372299
-1378.8567637034373,12840.093712817874,-24140.30869487628,-51252.05829764108
-1399.3756651134092,12890.899227964786,-24775.85819671848,-51010.52534705703
-1644.2837291102087,12862.31134680645,-25385.792599414897,-51025.43396060872
-1779.1318034090762,12765.81886599289,-24573.261984975576,-51468.177314779445
-1549.3558704085196,12769.61866255029,-23919.674625357944,-51517.66407700349
-1377.6944729917614,12840.943079107175,-24154.278535160847,-51237.30614630057
-1401.4990808366636,12889.98280644212,-24796.086525450533,-50992.97922765961
-1651.1680664024434,12854.7341054361,-25386.93253838212,-51015.68860002621
-1770.012291671311,12759.895653712232,-24553.19011845471,-51463.7963728662
-1531.5638818220953,12770.758601517511,-23910.756279320274,-51503.58247799665
-1359.8577809164265,12838.7302564061,-24149.20468916949,-51226.6443641954
-1388.065682419024,12880.796239470988,-24804.937816254835,-50995.50497478306
-1642.339127342597,12843.602936697358,-25379.623517945234,-51028.026762965535
-1757.5623700097049,12745.814054705388,-24534.57111532344,-51481.2530852858
-1515.1800531363551,12762.399049091227,-23911.91857003195,-51513.685466490446
-1346.0220510985914,12840.965430851633,-24156.80428228429,-51229.1924630633
-1376.062795646524,12886.40652732927,-24811.37511865796,-50988.73239621311
-1637.019412162234,12840.853672129357,-25369.341715495797,-51031.4465798672
-1750.7003844619258,12740.471987780573,-24503.25632134156,-51484.09175683162
-1505.926430931858,12754.441828065135,-23902.553189105176,-51504.11891986358
-1345.6197196983958,12828.58256442339,-24161.87812827565,-51225.66088743936
-1393.3183423660212,12872.16846611124,-24827.28956071014,-50994.92382942723
-1657.2030374053763,12827.666142900724,-25375.913128365653,-51048.635071353325
-1763.0608991457104,12731.397179531716,-24503.74805971957,-51493.18891682493
-1517.0799514150565,12746.7081244836,-23915.02546251124,-51497.03341687124
-1362.674100717795,12814.165689249718,-24179.379544184158,-51216.34021000149
-1410.864461763437,12854.82351241392,-24851.764720888703,-50982.96564614364
-1675.2855986697195,12813.271619471505,-25369.520529451434,-51044.05296373999
-1769.855829460124,12721.271839293462,-24478.021201851512,-51493.23362031384
-1516.8117304815926,12745.791702960934,-23904.78836355071,-51486.66220744398
-1361.4447547727532,12817.361988706827,-24169.29890743481,-51200.85045109397
-1410.059798963046,12850.979012367608,-24863.14175881645,-50970.15809657075
-1679.2865609272196,12802.878058299788,-25360.892756091685,-51046.17637946324
-1765.0502044022328,12710.095967065809,-24448.449843937145,-51497.83807967164
-1514.8224252250702,12735.599307489314,-23899.11102045906,-51484.38232950954
-1363.9481501517475,12811.505831659537,-24174.17158772607,-51202.16920401684
-1421.123912468423,12849.436742000193,-24873.13298858797,-50971.56625647143
-1694.8433750681131,12800.10644198733,-25349.850994330765,-51051.36198417688
-1775.4214138294954,12704.820955374356,-24425.58400935936,-51498.441576771926
-1519.5162915606847,12724.937525384132,-23901.68147107142,-51477.47564047285
-1373.514696778619,12796.597218107849,-24186.465047176487,-51200.17989876031
-1422.9567555137585,12839.534919206491,-24882.54307300366,-50969.28637853699
-1693.7481395898033,12791.322206416397,-25343.279581460905,-51062.2025802377
-1766.436012558462,12699.9482750831,-24400.59475905833,-51505.75059720881
-1509.9497449338132,12726.099816095808,-23895.624148324037,-51475.55339044969
-1363.836391429471,12799.972331520596,-24196.79155311484,-51197.72120687023
-1425.191929959289,12840.987782596088,-24906.392384337472,-50972.86265764984
-1698.4643576698732,12790.58459884937,-25338.362197680737,-51075.09953678841
-1763.9102654350122,12694.852077347288,-24385.26146236199,-51520.07806540467
-1510.4861868007406,12720.020141603964,-23900.80975303766,-51478.794393395714
-1370.7877839550715,12792.23862793906,-24195.02576530287,-51200.15754701586
-1433.8644068079482,12828.20258476765,-24916.56242806464,-50975.74603268457
-1705.7957298512138,12773.776087018978,-25330.24851444346,-51088.577638694966
-1769.7887742267578,12682.13393475222,-24368.542357509417,-51531.63391728806
-1510.3297245895535,12712.174679300151,-23905.34715716209,-51478.50382071779
-1367.9491124092476,12786.181305191674,-24206.559265441807,-51196.648323136375
