 EXG Channel 0, EXG Channel 1, EXG Channel 2, EXG Channel 3
9839.930813304283,43383.61840052824,-19312.510706485595,-11160.82950363511
9839.103798759435,43388.35697035277,-19309.649683195315,-11157.566148944636
9829.872528299396,43373.91774343464,-19313.74005243064,-11160.337765257093
9829.693714343754,43369.38033931021,-19316.176392576264,-11159.600157690067
9831.99594402265,43374.29772309038,-19316.01993036508,-11157.007355333251
9833.627621367888,43380.24328711549,-19309.71673842868,-11158.97430884532
9833.00177252314,43384.95950519556,-19311.795450663027,-11168.652614194469
9827.860871298417,43375.77293822443,-19316.9587036322,-11166.529198471211
9830.85600505543,43370.27440908842,-19309.895552384325,-11154.928643098909
9834.18641497927,43373.649522501175,-19305.67107268227,-11155.219215776828
9844.848197084451,43387.48525231901,-19303.100622069916,-11154.72747739881
9837.94150804776,43395.12954892273,-19303.458249981195,-11154.77218088772
9834.387580679368,43391.77678725443,-19309.984959362147,-11152.648765164467
9836.823920824996,43381.67379876063,-19312.734223930147,-11155.800361132666
9836.533348147075,43381.45028131608,-19309.694386684227,-11160.382468746004
9841.338973204967,43392.40263609918,-19308.241523294637,-11163.712878669843
9846.971612807703,43399.84576700279,-19307.30275002751,-11159.287233267694
9836.75686559163,43390.8380139873,-19313.04714835252,-11159.846026879077
9835.683981857776,43386.47942381852,-19312.845982652427,-11158.437866978393
9842.054229027535,43386.99351394099,-19309.71673842868,-11158.817846634132
9836.913327802817,43392.62615354373,-19309.694386684227,-11162.617643191534
9840.064923771017,43398.057627446375,-19308.666206439284,-11161.54475945768
9834.298173701543,43384.89244996219,-19315.639950709337,-11159.35428850106
9832.33122018948,43377.67283650313,-19317.38338677685,-11153.319317498126
9834.454635912733,43382.90314470568,-19309.62733145086,-11149.810093618644
9832.08535100047,43388.82635698633,-19306.587494204938,-11158.01318383374
9835.46046441322,43395.30836287837,-19306.8557151384,-11160.985965846296
9835.639278368864,43390.48038607602,-19311.326064029465,-11158.191997789383
9831.817130067007,43384.80304298437,-19311.974264618668,-11158.147294300474
9830.341914932957,43380.2879906044,-19310.2084768067,-11160.11424781254
9835.99690628015,43386.01003718496,-19304.307616270497,-11162.952919358364
9839.304964459536,43392.246173888,-19304.39702324832,-11158.169646044928
9831.168929477804,43386.16649939615,-19315.617598964884,-11159.913082112442
9822.630563095876,43378.768071981445,-19319.998540878125,-11154.615718676534
9827.637353853865,43380.0421214154,-19317.13751758785,-11149.608927918543
9830.498377144144,43384.914801706655,-19311.43782275174,-11146.59144241708
9836.28747895807,43393.520223321946,-19307.570970960973,-11148.357230229049
9831.146577733349,43386.90410696317,-19311.43782275174,-11145.742076127775
9828.03968525406,43376.86817370274,-19310.946084373725,-11145.29504123867
9832.37592367839,43375.70588299107,-19303.81587789248,-11140.422360947414
9833.13588298987,43379.88565920421,-19300.753688902103,-11139.237718491284
9840.89193831586,43389.11692966425,-19297.535037700534,-11136.15317775645
9836.980383036183,43389.85453723127,-19305.1569825598,-11138.880090579998
9827.905574787328,43381.137356893705,-19312.555409974502,-11138.075427779608
9824.150481718836,43374.7894614684,-19313.225962308166,-11141.58465165909
9828.79964456554,43373.29189458989,-19312.22013380768,-11152.11232329754
9829.157272476825,43379.41627257065,-19309.046186095024,-11155.800361132666
9825.737455575165,43372.17430736712,-19315.997578620623,-11154.63807042099
9823.23406019617,43361.423118284125,-19317.875125154867,-11150.838273863588
9818.406083393822,43352.594179224274,-19318.34451178843,-11148.737209884788
9824.999848008138,43352.30360654636,-19312.331892529957,-11150.25712850775
9831.258336455625,43363.032443884906,-19308.509744228097,-11153.364020987035
9825.692752086254,43360.46199327255,-19319.77502343357,-11158.236701278294
9824.731627074674,43352.72828969101,-19319.77502343357,-11146.166759272428
9832.174757978291,43351.47659200151,-19312.667168696786,-11138.790683602178
9839.304964459536,43356.99747288197,-19311.95191287421,-11140.757637114244
9842.03187728308,43365.11115611925,-19311.63898845184,-11142.054038292652
9841.450731927243,43363.79240319639,-19313.96356987519,-11143.35043947106
9835.616926624409,43354.89640890317,-19320.959665889703,-11139.572994658112
9841.204862738236,43355.38814728119,-19317.651607710315,-11135.683791122889
9839.886109815372,43361.24430432848,-19313.561238474995,-11137.6283928905
9850.391429709369,43373.58246726781,-19307.68272968325,-11138.00837254624
9855.174703022803,43378.49985104798,-19309.470869239674,-11138.790683602178
9849.072676786504,43365.602894497264,-19321.20553507871,-11140.735285369788
9845.809322096027,43356.2822170594,-19322.97132289068,-11135.415570189423
9849.363249464424,43360.46199327255,-19316.91400014329,-11127.681866607889
9852.04545879906,43365.49113577499,-19315.014101864588,-11123.569145628113
9843.842368583964,43362.85362992926,-19322.658398468306,-11129.91704105342
9833.38175217888,43349.129658833706,-19327.419320037287,-11124.887898550976
9839.95316504874,43344.078164586805,-19325.54177350304,-11127.05601776314
9845.56345290702,43348.99554836697,-19322.03254962356,-11125.938430540376
9848.536234919577,43356.25986531495,-19320.44557576723,-11128.330067197094
9840.89193831586,43354.359967036246,-19328.380445048864,-11139.885919080489
9830.5207288886,43339.98779535148,-19334.370712562886,-11142.881052837498
9829.269031199105,43335.47274297151,-19331.15206136132,-11140.10943652504
9830.341914932957,43337.372641250215,-19330.23563983865,-11142.992811559774
9836.28747895807,43342.91587387513,-19330.2132880942,-11149.49716919627
9843.127112761393,43347.54268497738,-19330.05682588301,-11149.29600349617
9837.248603969649,43339.27253952892,-19337.74582597564,-11149.29600349617
9830.587784121964,43331.56118769184,-19340.62920101037,-11147.418456961925
9829.447845154744,43332.32114700331,-19334.46011954071,-11145.92089008342
9838.790874337064,43335.31628076032,-19328.648665982328,-11143.506901682247
9842.367153449912,43337.55145520585,-19327.285209570557,-11143.484549937792
9838.187377236767,43327.78374287888,-19330.2132880942,-11140.355305714049
9837.248603969649,43320.318260230815,-19327.2628578261,-11138.768331857722
9837.293307458558,43319.51359743042,-19324.15596534681,-11145.20563426085
9841.540138905066,43325.63797541118,-19317.986883877147,-11145.25033774976
9845.295231973558,43333.5281412039,-19316.422261765278,-11135.907308567444
9838.209728981225,43329.37071673521,-19317.316331543487,-11130.364075942529
9836.198071980249,43321.56995792032,-19318.43391876625,-11125.983134029286
9838.880281314883,43325.414457966624,-19315.796412920525,-11122.362151427526
9842.300098216549,43333.50578945944,-19314.745880931125,-11123.926773539397
9854.28063324459,43342.7817634084,-19312.711872185693,-11119.791700815163
9849.13973201987,43340.166609307125,-19315.08115709796,-11116.081311235585
9842.165987749817,43331.74000164748,-19319.417395522287,-11114.606096101536
9839.819054582009,43328.76721963492,-19316.82459316547,-11118.025913003195
9842.85889182793,43335.53979820488,-19312.57776171896,-11120.909288037932
9844.155293006335,43342.44648724157,-19313.18125881925,-11120.372846171003
9828.576127120989,43332.119981303214,-19320.40087227832,-11117.623581603
9829.604307365931,43328.476646957,-19317.495145499128,-11116.282476935685
9836.667458613809,43327.157894034135,-19314.701177442217,-11117.601229858548
9831.012467266615,43326.263824255926,-19314.857639653404,-11123.502090394746
9833.314696945512,43331.38237373619,-19315.72935768716,-11129.470006164314
9828.643182354352,43324.25216725495,-19321.96549439019,-11128.128901496995
9823.65874334082,43313.63508863868,-19328.3133898155,-11131.772235843211
9826.251545697636,43313.07629502729,-19331.0626543835,-11134.052113777652
9831.258336455625,43316.16083576213,-19328.20163109322,-11131.839291076576
9834.61109812392,43324.40862946613,-19324.558296747007,-11133.91800331092
9827.74911257614,43321.94993757605,-19330.92854391677,-11134.029762033197
9819.926002016784,43313.56803340531,-19337.36584631989,-11132.35338119905
9820.887127028362,43309.54471940336,-19340.1151108879,-11132.39808468796
9826.564470120007,43313.18805374957,-19333.856622440413,-11139.707105124844
9827.682057342776,43317.50194042944,-19332.984904406658,-11144.44567494937
9823.725798574184,43309.723533359,-19335.912982930306,-11144.512730182736
9823.032894496071,43305.47670191249,-19334.12484337388,-11142.702238881857
9822.049417740038,43304.58263213428,-19330.995599150134,-11139.863567336031
9823.926964274284,43304.56028038982,-19329.810956694004,-11145.6303174055
9836.846272569452,43311.48932117096,-19325.698235714222,-11148.290174995682
9837.785045836574,43311.93635606008,-19325.742939203137,-11139.39418070247
9834.588746379464,43306.34841994625,-19322.12195660138,-11131.168738742916
9832.89001380086,43302.12394024419,-19317.20457282121,-11128.195956730362
9838.969688292706,43308.98592579197,-19309.13559307284,-11123.099758994553
9845.339935462467,43319.89357708616,-19303.972340103668,-11122.943296783364
9842.277746472091,43315.31146947283,-19305.06757558198,-11129.358247442038
9839.483778415177,43309.79058859236,-19305.24638953762,-11125.513747395724
9841.115455760417,43311.019934537406,-19303.21238079219,-11121.043398504664
9842.210691238724,43313.07629502729,-19301.49129646913,-11121.848061305054
9840.08727551547,43316.13848401767,-19306.0063488491,-11129.425302675403
9842.99300229466,43315.75850436193,-19309.314407028487,-11126.854852063045
9841.115455760417,43305.990792034965,-19312.15307857431,-11123.591497372568
9835.840444068965,43301.229870465984,-19316.35520653191,-11129.849985820054
9835.840444068965,43304.96261179002,-19316.623427465373,-11140.042381291674
9838.097970258948,43311.89165257116,-19316.690482698737,-11136.801378345655
9827.704409087231,43304.56028038982,-19328.69336947124,-11140.86939583652
9821.110644472916,43295.910155285615,-19332.090834628445,-11141.763465614731
9830.051342255038,43292.08800698376,-19330.28034332757,-11145.183282516397
9837.628583625386,43293.87614654018,-19327.2628578261,-11148.804265118157
9836.645106869351,43301.67690535509,-19329.27451482708,-11152.15702678645
9836.37688593589,43306.10255075724,-19329.810956694004,-11145.742076127775
9835.818092324507,43297.29596344184,-19329.58743924945,-11138.6789248799
9829.89488004385,43287.64000983715,-19327.553430504016,-11140.400009202958
9830.073693999491,43289.9198877716,-19323.239543824144,-11144.088047038083
9835.505167902133,43298.435902409066,-19319.19387807773,-11148.5807476736
9843.395333694856,43302.25805071092,-19317.3610350324,-11148.804265118157
9840.154330748835,43293.54087037336,-19318.903305399814,-11139.863567336031
9838.254432470136,43289.13757671566,-19317.741014688138,-11139.572994658112
9839.170853992802,43290.50103312743,-19312.711872185693,-11140.847044092065
9845.85402558494,43304.22500422299,-19305.782831404547,-11142.478721437305
9849.050325042048,43308.24831822495,-19308.263875039087,-11141.338782470082
9846.010487796128,43302.347457688746,-19312.13072682985,-11136.600212645557
9843.440037183767,43297.56418437531,-19314.25414255311,-11137.471930679314
9845.51874941811,43300.80518732133,-19316.712834443195,-11143.506901682247
9851.441961698769,43313.41157119413,-19316.06463385399,-11143.797474360166
9861.05321181455,43319.31243173032,-19316.802241421014,-11135.460273678336
9857.722801890708,43309.50001591445,-19324.066558368988,-11138.6789248799
9850.592595409466,43300.06757975431,-19327.911058415302,-11144.49037843828
9853.163046021826,43300.04522800985,-19318.500973999617,-11141.383485958992
9857.298118746055,43306.124902501695,-19315.86346815389,-11137.606041146046
9853.05128729955,43303.37563793369,-19322.90426765731,-11137.740151612776
9848.692697130764,43294.74786457394,-19324.33477930245,-11133.113340510528
9847.306888974535,43292.4679866395,-19318.29980829952,-11135.43792193388
9844.848197084451,43288.82465229329,-19316.310503043,-11138.366000457529
9846.61398489642,43292.89266978415,-19311.370767518376,-11134.230927733295
9844.267051728611,43290.79160580535,-19315.52819198706,-11136.331991712092
9836.600403380442,43276.95587598752,-19321.71962520118,-11140.757637114244
9835.348705690943,43270.40681486212,-19318.925657144267,-11143.037515048683
9834.23111846818,43269.1104136837,-19317.696311199223,-11148.804265118157
9844.356458706434,43277.69348355454,-19309.38146226185,-11144.691544138375
9845.764618607118,43280.42039637809,-19310.946084373725,-11141.629355148
9837.94150804776,43268.12693692767,-19316.846944909925,-11138.790683602178
9835.616926624409,43265.02004444839,-19316.33285478745,-11136.399046945458
9839.796702837551,43270.20564916202,-19314.276494297566,-11135.214404489328
9843.46238892822,43274.85481200872,-19315.34937803142,-11141.294078981173
9842.389505194367,43281.31446615631,-19321.58551473445,-11144.959765071842
9844.579976150988,43283.393178390645,-19324.290075813544,-11134.946183555863
9845.89872907385,43282.54381210134,-19323.84304092444,-11133.58272714409
9852.246624499156,43283.21436443501,-19320.087947855944,-11131.749884098756
9856.404048967845,43290.881012783175,-19319.305636800007,-11132.06280852113
9860.04738331406,43300.89459429915,-19323.28424731305,-11135.05794227814
9858.885092602384,43293.85379479573,-19330.861488683404,-11133.225099232806
9855.62173791191,43289.89753602714,-19333.02960789557,-11131.258145720738
9858.371002479911,43298.145329731145,-19327.464023526198,-11125.58080262909
9860.539121692076,43306.124902501695,-19322.97132289068,-11127.01131427423
9863.735421149186,43314.28328922788,-19326.81582293699,-11132.375732943505
9856.694621645764,43310.68465837058,-19337.075273641974,-11133.783892844189
9851.240795998669,43303.97913503399,-19335.48829978565,-11136.846081834565
9857.633394912888,43306.63899262417,-19324.245372324636,-11131.5263666542
9857.678098401797,43309.678829870085,-19323.820689179985,-11133.761541099731
9852.6266041549,43308.58359439178,-19334.705988729715,-11143.618660404523
9847.619813396908,43299.44173090956,-19345.703047001727,-11147.083180795096
9844.244699984158,43291.797434305845,-19348.83229122547,-11151.44177096388
9839.528481904088,43287.34943715924,-19348.1170354029,-11153.766352387232
9844.669383128808,43292.84796629524,-19340.562145777007,-11149.474817451814
9852.179569265792,43301.5204431439,-19338.55048877603,-11149.027782562707
9844.199996495248,43295.19489946305,-19341.053884155022,-11148.424285462414
9830.654839355331,43287.14827145914,-19343.2667068561,-11151.486474452791
9841.495435416156,43286.72358831449,-19339.28809634305,-11154.280442509706
9848.268013986111,43294.70316108503,-19334.34836081843,-11148.804265118157
9849.653822142342,43301.34162918826,-19333.67780848477,-11149.363058729536
9852.112514032426,43302.906251300126,-19333.990732907147,-11145.049172049665
9846.926909318794,43302.01218152192,-19333.27547708457,-11139.751808613755
9841.450731927243,43301.00635302143,-19333.789567207048,-11142.322259226115
9852.09016228797,43311.57872814879,-19327.35226480392,-11140.981154558796
9854.347688477956,43318.083085785285,-19326.14527060333,-11141.428189447905
9849.922043075803,43312.45044618255,-19336.516480030597,-11138.522462668714
9844.222348239702,43304.85085306774,-19340.048055654534,-11131.772235843211
9846.748095363151,43305.990792034965,-19335.19772710773,-11129.894689308963
9852.604252410443,43311.64578338216,-19332.60492475092,-11131.168738742916
9856.359345478932,43324.229815510495,-19328.17927934877,-11133.403913188447
9854.973537322703,43322.396972465154,-19329.34157006044,-11127.972439285808
9850.056153542537,43315.26676598391,-19326.569953747985,-11125.849023562554
9847.597461652456,43316.20553925104,-19325.38531129185,-11131.772235843211
9853.744191377664,43318.843045096764,-19323.753633946613,-11134.454445177847
9860.33795599198,43331.04709756936,-19320.89261065633,-11137.740151612776
9857.320470490513,43332.94699584806,-19322.72545370167,-11134.096817266562
9852.157217521337,43323.67102189911,-19322.90426765731,-11126.25135496275
9848.223310497202,43316.96549856252,-19322.948971146223,-11129.045323019664
9847.865682585918,43321.23468175348,-19321.58551473445,-11133.87329982201
9851.777237865595,43327.04613531186,-19321.67492171227,-11137.449578934858
9847.99979305265,43325.5262166889,-19328.581610748963,-11138.366000457529
9844.334106961978,43317.25607124044,-19335.17537536328,-11135.415570189423
9843.350630205943,43314.5738619058,-19339.645724254337,-11134.946183555863
9839.550833648544,43315.57969040629,-19336.1141486304,-11141.49524468127
9837.94150804776,43321.3240887313,-19335.82357595248,-11153.11815179803
9845.18347325128,43316.116132273215,-19344.004314423124,-11150.21242501884
9837.628583625386,43304.6720391121,-19348.318201103,-11144.333916227091
9842.680077872286,43301.45338791054,-19345.12190164589,-11146.390276716982
9841.763656349618,43300.80518732133,-19345.34541909044,-11147.597270917568
9846.770447107609,43307.04132402436,-19343.758445234114,-11144.713895882833
9844.579976150988,43306.7731030909,-19348.742884247647,-11141.875224337007
9839.75199934864,43293.272649439896,-19357.21419539621,-11141.15996851444
9838.880281314883,43286.45536738102,-19355.761332006616,-11139.483587680292
9846.5245779186,43291.77508256138,-19346.485358057664,-11132.934526554887
9853.632432655386,43305.47670191249,-19340.9644771772,-11134.163872499928
9852.827769854995,43312.24928048245,-19344.339590589952,-11134.409741688936
9852.671307643808,43302.03453326637,-19345.010142923613,-11125.603154373546
9852.693659388264,43293.94320177355,-19340.316276588,-11124.038532261677
9844.490569173166,43292.19976570604,-19339.757482976616,-11132.196918987862
9844.04353428406,43297.25125995294,-19336.1141486304,-11132.420436432414
9849.117380275417,43299.66524835411,-19338.23756435365,-11131.235793976282
9841.026048782594,43289.763425560406,-19350.59807903744,-11133.046285277163
9839.483778415177,43286.94710575904,-19350.665134270803,-11129.760578842232
9843.28357497258,43289.539908115854,-19346.55241329103,-11130.699352109355
9848.647993641853,43296.73716983046,-19344.87603245688,-11135.39321844497
9843.887072072874,43293.94320177355,-19350.12869240388,-11137.96366905733
9837.338010947467,43288.75759705992,-19355.96249770671,-11134.901480066954
9837.226252225191,43284.4660621245,-19357.54947156304,-11130.609945131537
9844.624679639895,43284.39900689114,-19356.40953259582,-11130.00644803124
9848.782104108584,43289.02581799338,-19352.900308716336,-11132.196918987862
9849.251490742146,43292.17741396158,-19354.129654661378,-11133.180395743895
9841.651897627342,43283.72845455747,-19358.532948319076,-11133.49332016627
9837.583880136475,43278.09581495474,-19357.84004424096,-11133.828596333098
9835.95220279124,43278.87812601068,-19355.671925028797,-11137.114302768028
9840.89193831586,43288.779948804375,-19345.68069525727,-11135.616735889524
9842.90359531684,43297.98886751996,-19342.73026498917,-11130.654648620444
9843.842368583964,43296.51365238591,-19345.077198156974,-11121.266915949216
9843.618851139408,43290.724550571984,-19344.361942334406,-11118.897631036954
9846.301060474048,43292.222117450496,-19344.69721850124,-11118.785872314676
9852.6266041549,43299.03939950936,-19341.21034636621,-11120.037570004177
9850.391429709369,43298.145329731145,-19346.261840613108,-11126.20665147384
9839.506130159632,43293.60792560672,-19352.006238938124,-11127.257183463238
9844.781141851085,43291.50686162792,-19352.050942427035,-11126.20665147384
9848.08920003047,43290.3669226607,-19351.514500560108,-11125.178471228895
9852.403086710345,43295.64193435216,-19346.373599335384,-11125.78196832919
9850.480836687188,43298.83823380926,-19351.961535449213,-11130.609945131537
9846.681040129786,43293.87614654018,-19359.136445419364,-11129.045323019664
9845.406990695834,43286.835347036766,-19359.896404730847,-11126.58663112958
9845.742266862664,43288.19880344854,-19356.40953259582,-11125.670209606911
9850.100857031448,43296.84892855274,-19347.20061388023,-11120.082273493084
9840.824883082496,43298.70412334253,-19352.855605227425,-11122.496261894255
9838.209728981225,43289.89753602714,-19361.036343698062,-11125.223174717805
9844.08823777297,43285.58364934727,-19359.94110821976,-11126.139596240471
9843.551795906043,43287.036512736864,-19355.96249770671,-11130.29702070916
9846.278708729593,43295.30665818533,-19354.77785525058,-11130.92286955391
9845.630508140386,43303.6215071227,-19352.833253482968,-11131.5263666542
9842.94829880575,43300.35815243222,-19354.46493082821,-11127.190128229871
9840.735476104675,43292.93737327306,-19353.146177905342,-11122.87624155
9843.99883079515,43290.09870172724,-19347.58059353597,-11123.099758994553
9847.865682585918,43295.37371341869,-19347.2676691136,-11124.507918895237
9846.65868838533,43301.922774544095,-19352.22975638268,-11120.194032215362
9842.970650550204,43295.26195469641,-19357.05773318502,-11116.751863569243
9840.355496448934,43285.02485573589,-19357.772989007597,-11113.600267601048
9840.154330748835,43286.63418133667,-19354.286116872565,-11114.047302490151
9845.85402558494,43293.11618722871,-19348.78758773656,-11113.130880967485
9854.168874522316,43302.95095478904,-19347.53589004706,-11109.353436154535
9848.938566319772,43296.75952157492,-19354.59904129494,-11107.900572764942
9846.56928140751,43295.12784422968,-19352.58738429396,-11106.894744264451
9847.575109908,43294.54669887385,-19353.436750583263,-11109.509898365724
9848.08920003047,43296.40189366364,-19353.839081983457,-11112.460328633826
9853.163046021826,43305.23083272348,-19348.13938714736,-11111.096872222051
9847.865682585918,43299.77700707639,-19351.961535449213,-11110.560430355124
9840.444903426756,43292.89266978415,-19354.46493082821,-11110.58278209958
9835.304002202034,43288.2658586819,-19359.18114890828,-11116.48364263578
9841.383676693878,43295.776044818886,-19354.286116872565,-11114.047302490151
9842.99300229466,43304.40381817864,-19350.776892993083,-11116.595401358058
9835.415760924312,43304.49322515645,-19356.476587829184,-11122.38450317198
9834.94637429075,43300.04522800985,-19356.767160507105,-11121.602192116046
9841.271917971602,43297.34066693076,-19353.68261977227,-11122.071578749606
9845.652859884842,43304.0685420118,-19349.726361003683,-11119.29996243715
9847.70922037473,43311.28815547087,-19349.27932611457,-11125.401988673448
9833.00177252314,43305.67786761259,-19355.53781456206,-11132.420436432414
9828.129092231882,43296.91598378611,-19363.964422221718,-11130.721703853813
9833.38175217888,43295.93250703008,-19357.50476807413,-11123.904421794943
9832.733551589674,43301.98982977746,-19354.084951172463,-11123.613849117024
9839.439074926267,43309.120036258704,-19357.63887854086,-11129.738227097778
9835.259298713125,43302.28040245538,-19366.91485248981,-11132.174567243406
9830.677191099789,43292.78091106188,-19365.417285611307,-11127.748921841256
9834.61109812392,43296.08896924126,-19357.86239598541,-11119.456424648337
9833.359400434423,43302.056885010825,-19352.22975638268,-11119.858756048532
9839.975516793194,43313.7244956165,-19345.18895687925,-11117.377712413992
9841.674249371796,43312.98688804948,-19347.35707609142,-11116.01425600222
9840.601365637942,43308.33772520277,-19347.98292493617,-11109.979284999286
9842.881243572385,43311.17639674859,-19340.9644771772,-11109.062863476618
9851.106685531937,43319.69241138607,-19335.39889280783,-11108.526421609691
9855.554682678545,43327.69433590106,-19331.95672416171,-11109.666360576912
9853.4759704442,43325.74973413345,-19333.09666312893,-11108.10173846504
9847.105723274435,43318.88774858567,-19343.132596389365,-11110.403968143935
9846.323412218502,43319.46889394152,-19340.78566322156,-11101.575029084092
9848.826807597496,43324.90036784415,-19333.141366617845,-11100.569200583604
9855.129999533892,43334.28810051538,-19325.854697925413,-11098.57989532708
9853.006583810638,43335.47274297151,-19328.805128193515,-11096.38942437046
9847.016316296616,43327.4261149676,-19335.801224208026,-11092.47786909078
9842.94829880575,43323.38044922119,-19337.052921897524,-11094.333063880573
9843.015354039117,43323.58161492129,-19337.29879108653,-11102.379691884482
9851.777237865595,43336.389164494176,-19335.66711374129,-11108.414662887417
9846.345763962956,43341.5300657189,-19343.892555700848,-11114.695503079356
9841.00369703814,43331.00239408045,-19346.708875502216,-11105.374825641493
9839.193205737258,43328.476646957,-19345.703047001727,-11107.788814042666
9844.71408661772,43338.26671102842,-19343.73609348966,-11112.683846078378
9844.557624406532,43341.79828665237,-19345.72539874618,-11112.48268037828
9838.097970258948,43339.317243017824,-19359.69523903075,-11115.05313099064
9828.71023758772,43327.13554228968,-19368.92650949079,-11109.95693325483
9827.413836409312,43321.03351605339,-19363.62914605488,-11113.712026323325
9832.688848100765,43322.7769521209,-19360.254032642133,-11117.757692069734
9837.583880136475,43330.35419349125,-19353.615564538904,-11120.372846171003
9840.958993549228,43338.87020812872,-19350.173395892787,-11123.323276439103
9832.442978911757,43330.89063535818,-19360.70106753124,-11130.766407342722
9830.923060288796,43326.55439693385,-19362.17628266529,-11132.15221549895
9840.154330748835,43333.55049294836,-19354.50963431712,-11131.705180609844
9846.681040129786,43342.73705991949,-19352.945012205248,-11129.738227097778
9842.90359531684,43343.89935063116,-19360.097570430946,-11129.24648871976
9835.840444068965,43334.48926621548,-19367.54070133456,-11130.408779431436
9837.13684524737,43334.86924587122,-19365.05965770002,-11129.06767476412
9843.66355462832,43334.95865284904,-19361.79630300955,-11130.38642768698
9849.877339586896,43341.10538257425,-19357.01302969611,-11128.084198008084
9845.317583718012,43343.608777953246,-19358.8682244859,-11124.95495378434
9835.348705690943,43337.14912380566,-19360.49990183114,-11118.785872314676
9838.43324642578,43332.119981303214,-19359.628183797384,-11118.6741135924
9851.173740765304,43332.94699584806,-19358.60000355244,-11119.67994209289
9851.509016932132,43339.00431859545,-19357.92945121878,-11127.145424740962
9850.838464598472,43343.47466748651,-19359.94110821976,-11130.989924787276
9841.09310401596,43335.4280394826,-19365.037305955568,-11127.123072996506
9840.556662149032,43332.63407142569,-19359.851701241936,-11126.072541007106
9846.56928140751,43334.24339702647,-19356.65540178483,-11126.050189262653
9846.636336640877,43337.39499299467,-19356.20836689572,-11129.49235790877
9841.406028438334,43339.09372557327,-19359.67288728629,-11133.426264932905
9837.315659203012,43333.103458059246,-19362.60096580994,-11129.313543953129
9833.113531245415,43325.90619634464,-19366.4231141118,-11126.58663112958
9834.700505101742,43326.86732135622,-19368.054791457034,-11121.468081649316
9840.109627259926,43332.544664447865,-19365.774913522597,-11127.592459630068
9845.56345290702,43339.13842906218,-19363.36092512142,-11129.984096286786
9844.758790106627,43334.5786731933,-19365.93137573378,-11119.67994209289
9844.579976150988,43328.633109168186,-19364.88084374438,-11115.746035068756
9848.268013986111,43328.76721963492,-19359.82934949748,-11115.097834479551
9857.85691235744,43340.83716164078,-19355.96249770671,-11114.114357723518
9856.985194323684,43348.52616173341,-19356.431884340276,-11113.935543767877
9850.436133198278,43344.30168203136,-19361.72924777618,-11111.633314088978
9845.541101162566,43336.83619938329,-19359.605832052926,-11109.73341581028
9848.670345386308,43338.46787672852,-19355.51546281761,-11113.15323271194
9853.006583810638,43344.52519947591,-19356.744808762647,-11119.188203714872
9855.867607100918,43350.85074315676,-19360.321087875494,-11122.831538061087
9850.391429709369,43344.56990296482,-19367.36188737892,-11128.01714277472
9848.737400619675,43339.45135348456,-19364.67967804428,-11124.86554680652
9849.653822142342,43339.58546395129,-19358.68941053026,-11125.066712506616
9851.888996587872,43342.84881864176,-19355.0684279285,-11124.284401450685
9855.107647789437,43350.73898443449,-19354.64374478385,-11124.731436339787
9852.783066366084,43348.61556871123,-19362.77977976558,-11124.619677617511
9847.172778507804,43337.90908311714,-19364.277346644085,-11124.843195062063
9846.479874429688,43336.8809028722,-19360.052866942035,-11125.647857862456
9847.08337152998,43341.79828665237,-19357.30360237403,-11124.552622384146
9853.900653588851,43349.91196988964,-19356.40953259582,-11127.883032307987
9848.647993641853,43347.49798148847,-19359.248204141644,-11123.971477028308
9842.747133105651,43336.92560636111,-19366.60192806744,-11130.073503264608
9843.75296160614,43339.60781569575,-19365.43963735576,-11132.554546899146
9842.545967405556,43347.07329834381,-19360.276384386587,-11134.6779626224
9840.847234826952,43350.157839078645,-19363.249166399142,-11137.740151612776
9849.497359931154,43348.57086522232,-19365.84196875596,-11135.572032400612
9845.541101162566,43338.64669068417,-19367.138369934364,-11132.331029454594
9841.786008094074,43335.85272262725,-19364.858491999923,-11129.693523608868
9847.776275608096,43343.742888419976,-19364.79143676656,-11131.124035254006
9850.838464598472,43351.00720536795,-19366.35605887843,-11138.455407435347
9836.51099640262,43343.72053667552,-19377.75544855064,-11142.434017948392
9837.785045836574,43335.51744646042,-19378.046021228554,-11138.522462668714
9848.826807597496,43338.423173239615,-19373.329803148485,-11137.762503357231
9850.726705876195,43342.22296979702,-19372.16751243681,-11139.461235935836
9856.247586756655,43351.45424025706,-19368.814750768517,-11134.990887044774
9845.675211629296,43348.704975689056,-19380.325899162995,-11141.227023747806
9834.700505101742,43335.964481349525,-19379.65534682934,-11142.098741781563
9837.583880136475,43331.427077225104,-19370.15585543583,-11137.896613823965
9845.630508140386,43343.34055701978,-19361.93041347628,-11133.783892844189
9848.469179686212,43355.65636821465,-19360.097570430946,-11132.35338119905
9841.00369703814,43353.42119376912,-19367.31718389001,-11130.744055598268
9837.919156303304,43348.07912684431,-19369.48530310217,-11126.519575896213
9842.03187728308,43350.20254256756,-19362.131579176377,-11118.651761847945
9838.187377236767,43348.66027220014,-19360.72341927569,-11120.886936293477
9846.010487796128,43359.4338130276,-19353.570861049997,-11120.350494426548
9851.66547914332,43367.03340614241,-19353.839081983457,-11120.886936293477
9844.535272662077,43356.32692054832,-19363.316221632507,-11123.211517716829
9843.03770578357,43351.61070246824,-19361.59513730945,-11120.574011871102
9849.273842486602,43356.01399612594,-19356.431884340276,-11123.166814227918
9852.872473343908,43361.35606305076,-19357.39300935185,-11125.893727051463
9849.13973201987,43358.29387406038,-19362.39980010984,-11130.520538153713
9848.871511086409,43354.33761529179,-19362.668021043304,-11123.7256078393
9845.764618607118,43350.29194954538,-19363.76325652161,-11124.597325873056
9847.128075018893,43351.78951642389,-19362.668021043304,-11129.470006164314
9850.369077964911,43359.09853686077,-19358.041209941057,-11128.978267786297
9845.608156395932,43355.544609492375,-19363.78560826607,-11129.648820119955
9842.03187728308,43345.37456576521,-19372.16751243681,-11127.972439285808
9838.120322003404,43339.540760462376,-19371.049925214043,-11129.604116631046
9839.975516793194,43346.08982158778,-19366.69133504526,-11131.191090487371
9849.4750081867,43354.20350482506,-19367.428942612285,-11132.15221549895
9843.238871483669,43352.41536526864,-19371.295794403053,-11136.600212645557
9829.760769577118,43340.77010640742,-19376.54845435005,-11130.811110831632
9838.3214877035,43340.97127210752,-19371.87693975889,-11122.205689216338
9842.23304298318,43349.21906581153,-19367.83127401248,-11121.088101993571
9844.110589517426,43355.65636821465,-19365.484340844672,-11125.223174717805
9838.43324642578,43353.08591760229,-19367.74186703466,-11129.224136975305
9830.61013586642,43343.34055701978,-19373.039230470567,-11126.407817173937
9831.057170755526,43339.56311220683,-19370.245262413653,-11121.53513688268
9834.029952768082,43341.91004537464,-19366.31135538952,-11123.546793883655
9832.71119984522,43343.27350178641,-19367.4736461012,-11134.029762033197
9837.628583625386,43357.84683917128,-19362.71272453221,-11125.692561351369
9835.795740580052,43356.93041764861,-19362.57861406548,-11116.327180424594
9834.94637429075,43352.79534492437,-19364.769085022104,-11116.126014724496
9842.769484850109,43357.75743219345,-19358.555300063526,-11114.96372401282
9846.926909318794,43365.826411941816,-19355.64957328434,-11119.076444992595
9850.257319242635,43370.56498176634,-19361.01399195361,-11121.44572990486
9843.395333694856,43364.08297587431,-19375.095590960456,-11122.25039270525
9843.909423817327,43362.20542934006,-19375.855550271932,-11115.321351924104
9848.200958752746,43369.9391329216,-19367.83127401248,-11115.455462390835
9851.061982043026,43380.06447315985,-19364.07618094399,-11120.216383959816
9851.888996587872,43384.35600809527,-19362.958593721225,-11114.38257865698
9850.503188431643,43380.51150804896,-19365.529044333583,-11107.274723920194
9848.849159341951,43380.57856328232,-19365.909023989323,-11110.135747210474
9850.212615753724,43384.71363600656,-19365.171416422298,-11112.30386642264
9856.225235012202,43392.246173888,-19361.21515765371,-11113.44380538986
9857.633394912888,43398.01292395746,-19362.46685534321,-11114.360226912526
9853.073639044003,43393.16259541066,-19369.97704148019,-11112.885011778477
9846.904557574338,43386.76999649644,-19371.675774058796,-11112.90736352293
9847.552758163543,43388.33461860832,-19370.8711112584,-11115.991904257764
9858.438057713278,43402.12564493724,-19368.993564724155,-11115.991904257764
9864.13775254938,43413.41327588717,-19365.909023989323,-11112.639142589467
9859.555644936045,43410.93223225263,-19367.83127401248,-11107.900572764942
9853.408915210834,43403.80202577139,-19370.960518236225,-11107.610000087025
9854.124171033403,43403.57850832684,-19365.64080305586,-11104.704273307834
9853.4759704442,43404.58433682732,-19363.56209082152,-11110.739244310767
9854.727668133695,43409.83699677432,-19363.62914605488,-11115.790738557664
9846.56928140751,43403.846729260295,-19374.536797349072,-11114.896668779456
9841.60719413843,43395.174252411634,-19379.007146240136,-11118.24943044775
9847.32924071899,43396.4930053345,-19376.92843400579,-11113.95789551233
9853.811246611029,43403.53380483792,-19370.78170428058,-11110.403968143935
9858.102781546448,43410.77577004144,-19363.74090477716,-11106.090081464064
9851.061982043026,43402.46092110407,-19365.238471655663,-11109.95693325483
9845.965784307216,43393.45316808858,-19365.193768166755,-11112.370921656004
9845.85402558494,43392.13441516572,-19364.992602466657,-11110.001636743742
9854.95118557825,43402.97501122654,-19361.885709987368,-11107.520593109202
9866.954072350749,43414.53086310993,-19358.68941053026,-11110.76159605522
9864.249511271655,43411.75924679748,-19359.56112856401,-11096.277665648184
9857.454580957245,43401.32098213685,-19360.29873613104,-11088.789831255655
9856.158179778837,43395.12954892273,-19359.225852397187,-11090.645026045446
9856.739325134677,43394.72721752253,-19359.762294264117,-11089.393328355947
9863.176627537803,43406.55129033939,-19361.326916375987,-11088.923941722387
9858.974499580205,43402.75149378199,-19369.239433913164,-11090.24269464525
9851.08433378748,43389.25104013098,-19374.536797349072,-11091.203819656828
9850.547891920554,43389.16163315316,-19369.59706182445,-11089.728604522776
9854.168874522316,43395.30836287837,-19362.958593721225,-11089.19216265585
9858.080429801992,43402.46092110407,-19360.812826253517,-11092.85784874652
9848.647993641853,43397.901165235184,-19372.9721752372,-11095.651816803434
9845.339935462467,43388.51343256395,-19376.5261026056,-11094.6683400474
9847.575109908,43386.12179590724,-19372.726306048196,-11092.969607468798
9851.218444254211,43389.318095364346,-19370.60289032494,-11097.663473804412
9853.967708822216,43396.20243265658,-19368.43477111277,-11101.86560176201
9846.926909318794,43388.80400524187,-19379.901216018345,-11105.732453552777
9840.243737726658,43375.191792868594,-19384.84095154297,-11103.273761662696
9839.3720196929,43369.69326373259,-19381.443486385764,-11105.844212275057
9848.737400619675,43377.44931905858,-19378.001317739647,-11102.379691884482
9853.833598355484,43386.99351394099,-19377.01784098361,-11102.044415717652
9848.178607008293,43384.04308367289,-19383.186922453275,-11104.592514585556
9839.416723181812,43372.64369400069,-19389.11013473393,-11104.503107607736
9842.501263916643,43369.62620849922,-19383.67866083129,-11102.24558141775
9847.932737819285,43373.20248761207,-19377.956614250736,-11100.368034883504
9851.28549948758,43382.54551679439,-19372.234567670177,-11105.173659941394
9844.959955806728,43382.746682494486,-19374.93912874927,-11106.87239252
9835.102836501936,43371.86138294475,-19375.16264619382,-11100.904476750433
9832.599441122942,43366.36285380874,-19376.50375086114,-11103.854907018533
9843.887072072874,43372.24136260049,-19370.51348334712,-11107.744110553756
9848.536234919577,43378.72336849253,-19366.177244922783,-11112.415625144917
9848.51388317512,43378.544554536886,-19367.205425167733,-11106.62652333099
9844.177644750793,43367.212220098045,-19369.820579269,-11097.6187703155
9841.204862738236,43362.20542934006,-19368.79239902406,-11098.445784860349
9850.369077964911,43366.29579857538,-19360.768122764603,-11097.6187703155
9857.968671079716,43375.25884810196,-19355.291945373054,-11100.725662794788
9854.28063324459,43373.69422599009,-19363.003297210133,-11105.486584363767
9851.039630298572,43363.23360958501,-19367.4736461012,-11101.48562210627
9850.14556052036,43358.29387406038,-19364.344401877453,-11098.95987498282
9850.324374476002,43362.11602236224,-19358.33178261897,-11097.551715082136
9850.547891920554,43369.69326373259,-19354.755503506127,-11100.144517438952
9851.777237865595,43372.15195562267,-19356.364829106908,-11103.318465151604
9844.669383128808,43357.15393509316,-19364.25499489963,-11100.09981395004
9843.797665095051,43352.482420502,-19365.104361188933,-11095.540058081158
9853.274804744102,43355.70107170357,-19361.617489053904,-11096.657645303923
9857.432229212787,43363.34536830728,-19363.338573376965,-11098.445784860349
9856.024069312103,43362.45129852906,-19371.38520138088,-11099.183392427372
9848.357420963934,43348.81673441133,-19376.61550958341,-11098.803412771633
9846.14459826286,43339.00431859545,-19377.040192728065,-11100.300979650136
9852.604252410443,43340.77010640742,-19369.619413568904,-11100.81506977261
9857.52163619061,43347.4309262551,-19367.339535634463,-11104.838383774566
9859.935624591782,43355.6340164702,-19369.038268213066,-11099.898648249942
9855.308813489535,43348.59321696678,-19378.671870073304,-11101.440918617358
9852.13486577688,43340.77010640742,-19380.661175329828,-11104.167831440906
9853.18539776628,43344.74871692046,-19374.11211420442,-11106.782985542177
9853.900653588851,43352.616530968735,-19369.64176531336,-11106.715930308812
9852.939528577272,43354.47172575852,-19373.10628570393,-11108.369959398504
9846.85985408543,43343.80994365335,-19379.096553217954,-11105.6206948305
9845.51874941811,43338.91491161763,-19378.426000884298,-11104.81603203011
9847.239833741169,43339.69722267357,-19372.16751243681,-11105.575991341591
9855.442923956269,43351.76716467943,-19365.05965770002,-11105.732453552777
9854.973537322703,43354.40467052516,-19368.65828855733,-11112.43797688937
9848.826807597496,43346.3803942657,-19372.771009537104,-11111.119223966509
9848.04449654156,43341.84299014128,-19369.77587578009,-11103.944313996351
9848.670345386308,43341.61947269672,-19366.06548620051,-11106.604171586534
9846.926909318794,43344.52519947591,-19364.56791932201,-11111.633314088978
9845.228176740193,43347.14035357718,-19370.379372880387,-11112.90736352293
9840.489606915666,43340.05485058485,-19380.996451496656,-11109.398139643448
9835.549871391044,43333.326975503805,-19383.9245300203,-11106.648875075443
9839.103798759435,43338.19965579506,-19377.80015203955,-11108.124090209496
9844.624679639895,43344.99458610948,-19372.52514034809,-11109.420491387904
9845.965784307216,43348.95084487806,-19370.558186836028,-11109.040511732162
9845.42934244029,43345.262807042935,-19370.15585543583,-11104.39134888546
9843.171816250304,43337.17147555012,-19373.01687872611,-11105.955970997333
9839.3720196929,43332.72347840351,-19373.30745140403,-11112.281514678183
9842.054229027535,43335.47274297151,-19367.026611212088,-11114.181412956885
9845.56345290702,43343.6311296977,-19366.62427981189,-11118.517651381211
9840.400199937843,43334.73513540449,-19374.201521182244,-11117.221250202803
9837.539176647566,43324.60979516623,-19373.195692681755,-11109.979284999286
9840.981345293683,43325.77208587791,-19363.495035588152,-11109.24167743226
9843.797665095051,43331.11415280273,-19354.53198606157,-11112.415625144917
9845.18347325128,43335.71861216052,-19356.45423608473,-11117.690636836369
9847.99979305265,43329.48247545749,-19361.34926812044,-11118.763520570225
9846.278708729593,43323.13458003218,-19366.0207827116,-11121.602192116046
9847.910386074827,43323.112228287726,-19366.98190772318,-11120.976343271295
9852.201921010246,43329.08014405729,-19366.177244922783,-11116.39423565796
9856.694621645764,43338.93726336209,-19365.909023989323,-11112.549735611648
9842.478912172188,43326.28617600038,-19383.67866083129,-11122.362151427526
9838.85792957043,43317.43488519608,-19387.88078878889,-11126.854852063045
9838.924984803794,43315.57969040629,-19384.99741375416,-11129.849985820054
9836.913327802817,43317.5242921739,-19385.66796608781,-11134.789721344678
9836.242775469158,43325.45916145553,-19385.01976549861,-11132.263974221229
9830.252507955136,43321.74877187595,-19392.17232372431,-11130.788759087178
9835.974554535696,43314.68562062808,-19390.56299812353,-11122.473910149803
9841.741304605164,43313.948013061054,-19383.67866083129,-11120.574011871102
9844.892900573364,43318.28425148538,-19375.587329338472,-11120.216383959816
9850.57024366501,43329.50482720195,-19370.759352536126,-11116.461290891326
9852.268976243611,43331.85176036976,-19374.69325956026,-11107.028854731185
9845.51874941811,43325.01212656643,-19378.40364913984,-11103.989017485264
9843.32827846149,43319.89357708616,-19383.633957342383,-11109.44284313236
9845.965784307216,43321.77112362041,-19384.952710265246,-11117.221250202803
9852.023107054603,43334.46691447102,-19380.21414044072,-11124.932602039886
9846.792798852062,43333.12580980371,-19383.008108497637,-11124.217346217316
9841.048400527048,43322.91106258763,-19381.152913707843,-11115.67897983539
9845.496397673654,43321.83817885377,-19376.66021307233,-11111.923886766896
9849.877339586896,43325.57092017781,-19373.329803148485,-11113.24263968976
9851.821941354508,43333.99752783746,-19370.78170428058,-11117.109491480527
9847.105723274435,43331.27061501391,-19376.74962005015,-11118.785872314676
9843.5741476505,43324.90036784415,-19379.320070662507,-11117.131843224985
9839.75199934864,43322.821655609805,-19378.64951832885,-11117.847099047554
9843.216519739211,43327.85079811225,-19375.587329338472,-11123.01035201673
9847.508054674632,43335.98683309399,-19370.8711112584,-11130.364075942529
9847.396295952356,43335.6292051827,-19372.79336128156,-11127.838328819076
9843.060057528026,43324.0733532993,-19377.151951450345,-11121.311619438127
9843.551795906043,43328.00726032344,-19376.36964039441,-11119.501128137246
9839.75199934864,43330.48830395798,-19376.83902702797,-11127.503052652246
9851.352554720945,43339.13842906218,-19370.51348334712,-11132.15221549895
9854.392391966869,43343.47466748651,-19370.289965902564,-11128.642991619468
9849.206787253235,43335.74096390497,-19373.86624501541,-11123.658552605932
9846.166950007317,43327.87314985671,-19375.900253760847,-11123.189165972371
9845.630508140386,43329.63893766868,-19375.40851538283,-11123.099758994553
9853.56537742202,43337.9314348616,-19374.35798339343,-11123.837366561576
9852.201921010246,43335.71861216052,-19379.2753671736,-11123.770311328211
9847.865682585918,43329.14719929066,-19380.50471311864,-11123.34562818356
9843.440037183767,43327.26965275641,-19379.521236362605,-11122.563317127624
9848.335069219478,43328.70016440156,-19375.274404916097,-11121.19986071585
9853.878301844396,43336.14329530517,-19371.988698481167,-11125.558450884637
9856.381697223387,43337.10442031675,-19374.0227072266,-11124.262049706227
9848.558586664032,43325.68267890008,-19383.20927419773,-11123.993828772764
9842.456560427734,43315.75850436193,-19380.728230563192,-11119.456424648337
9848.04449654156,43319.267728241415,-19372.9721752372,-11119.188203714872
9854.682964644786,43328.498998701456,-19368.88180600188,-11123.502090394746
9853.386563466378,43328.65546091264,-19372.569843837005,-11125.133767739984
9848.156255263835,43317.41253345162,-19378.336593906475,-11120.149328726451
9848.469179686212,43313.41157119413,-19376.36964039441,-11112.370921656004
9850.838464598472,43315.53498691738,-19373.97800373769,-11111.879183277988
9852.067810543514,43322.128751531694,-19373.799189782047,-11111.856831533532
9858.818037369016,43330.98004233599,-19374.06741071551,-11113.600267601048
9856.068772801014,43324.52038818841,-19376.88373051688,-11113.399101900948
9846.14459826286,43318.708934630034,-19376.92843400579,-11113.644971089956
9853.967708822216,43319.35713521924,-19370.51348334712,-11111.521555366702
9861.65670891484,43327.38141147869,-19366.49016934516,-11111.074520477596
9858.438057713278,43329.9295103466,-19368.010087968123,-11114.919020523908
9851.866644843418,43322.73224863199,-19370.84875951395,-11115.611924602024
9846.5245779186,43317.09960902925,-19373.86624501541,-11115.969552513308
9845.09406627346,43315.6243938952,-19372.05575371453,-11117.467119391817
9848.960918064227,43320.78764686437,-19369.820579269,-11120.037570004177
9852.00075531015,43324.45333295505,-19376.99548923916,-11126.832500318587
9851.66547914332,43321.45819919804,-19381.51054161913,-11124.597325873056
9843.887072072874,43310.63995488166,-19381.06350673002,-11123.39033167247
9840.75782784913,43312.137521760174,-19372.413381625815,-11121.937468282877
9857.588691423976,43323.76042887693,-19358.60000355244,-11114.471985634802
9858.773333880108,43327.87314985671,-19361.528082076085,-11112.035645489172
9850.771409365108,43319.64770789715,-19369.284137402075,-11111.074520477596
9850.503188431643,43316.00437355094,-19371.899291503345,-11109.062863476618
9853.744191377664,43317.54664391836,-19372.92747174829,-11113.019122245209
9854.504150689145,43324.56509167732,-19367.78657052357,-11111.588610600067
9858.95214783575,43332.96934759252,-19364.299698388542,-11111.208630944328
9858.70627864674,43331.78470513639,-19365.86432050041,-11106.939447753364
9849.877339586896,43324.0286498104,-19372.52514034809,-11105.553639597136
9845.608156395932,43319.2230247525,-19374.93912874927,-11109.621657088
9843.395333694856,43323.51455968792,-19371.11698044741,-11117.780043814188
9847.99979305265,43327.87314985671,-19371.40755312533,-11126.050189262653
9851.419609954311,43323.00046956545,-19368.993564724155,-11111.923886766896
9851.33020297649,43318.19484450756,-19366.333707133974,-11104.614866330012
9855.241758256168,43328.566053934825,-19359.82934949748,-11099.652779060934
9861.56730193702,43330.15302779115,-19355.090779672955,-11104.257238418728
9854.437095455778,43328.566053934825,-19358.77881750808,-11105.084252963574
9847.195130252258,43322.620489909714,-19361.72924777618,-11097.037624959665
9850.547891920554,43316.80903635133,-19358.13061691888,-11089.683901033868
9862.439019970778,43322.46402769852,-19347.714704002705,-11082.687805019355
9863.064868815529,43328.09666730126,-19344.384294078864,-11086.264084132205
9866.529389206098,43337.55145520585,-19340.20451786572,-11086.95698821032
9867.75873515114,43337.41734473912,-19340.673904499283,-11082.91132246391
9860.226197269702,43327.60492892325,-19341.120939388387,-11082.866618974998
9859.220368769213,43323.84983585475,-19337.432901553264,-11082.084307919064
9862.28255775959,43327.53787368988,-19337.075273641974,-11089.48273533377
9872.497304975666,43338.33376626179,-19335.53300327456,-11091.092060934552
9872.67611893131,43339.20548429555,-19340.718607988198,-11084.47594457578
9870.91033111934,43334.086934815285,-19342.43969231125,-11075.62465377148
9869.77039215212,43335.137466804685,-19340.38333182136,-11074.440011315348
9869.636281685389,43334.511617959935,-19339.77983472107,-11079.111525906506
9873.86076138744,43337.95378660605,-19342.774968478083,-11082.24077013025
9870.083316574492,43334.153990048646,-19346.485358057664,-11078.731546250769
9862.327261248502,43324.18511202158,-19349.92752670378,-11076.943406694343
9865.23298802769,43323.80513236584,-19347.64764876934,-11075.37878458247
9866.529389206098,43325.414457966624,-19344.07136965649,-11080.43027882937
9869.099839818458,43331.11415280273,-19341.232698110663,-11085.39236609845
9865.612967683432,43327.73903938998,-19346.485358057664,-11083.939502708854
9862.729592648697,43319.4241904526,-19349.793416237047,-11077.368089838994
9862.90840660434,43316.92079507361,-19347.848814469435,-11078.552732295124
9866.14940955036,43322.01699280942,-19340.651552754825,-11078.329214850572
9867.736383406684,43327.51552194543,-19338.125805631375,-11080.609092785013
9861.589653681476,43322.46402769852,-19344.808977223514,-11086.889932976954
9854.459447200234,43310.50584441493,-19349.54754704804,-11088.186334155362
9857.320470490513,43310.5728996483,-19342.752616733625,-11081.816086985598
9858.013374568627,43317.5242921739,-19337.87993644237,-11076.80929622761
9861.433191470289,43326.5767486783,-19335.82357595248,-11076.250502616227
9859.734458891686,43329.7283446465,-19343.847852211937,-11077.725717750278
9858.549816435554,43323.872187599205,-19345.859509212914,-11073.724755492778
9857.074601301503,43323.84983585475,-19345.077198156974,-11068.47209554578
9862.014336826129,43329.70599290204,-19341.500919044127,-11066.974528667277
9864.987118838682,43337.439696483576,-19339.98100042117,-11064.80640945511
9866.484685717189,43337.48439997249,-19341.791491722048,-11063.957043165808
9861.23202577019,43328.409591723634,-19350.50867205962,-11065.588720511048
9854.392391966869,43321.05586779784,-19357.817692496505,-11067.108639134009
9859.041554813572,43324.69920214405,-19355.35900060642,-11065.208740855303
9867.3787554954,43333.14816154816,-19354.2190616392,-11070.014365913195
9865.18828453878,43335.15981854914,-19359.96345996421,-11071.444877558337
9864.76360139413,43328.34253649027,-19362.39980010984,-11071.199008369327
9868.362232251437,43326.19676902256,-19358.555300063526,-11069.008537412708
9869.882150874397,43327.023783567405,-19358.220023896694,-11072.540113036646
9872.81022939804,43337.3279377613,-19354.17435815029,-11075.401136326926
9871.96086310874,43339.69722267357,-19355.940145962257,-11080.296168362638
9866.529389206098,43332.276443514405,-19360.902233231336,-11078.57508403958
9864.495380460668,43330.35419349125,-19357.84004424096,-11072.920092692388
9867.646976428863,43333.17051329261,-19354.80020699504,-11073.322424092585
9870.932682863797,43343.16174306413,-19353.906137216825,-11083.604226542024
9871.71499391973,43350.35900477874,-19356.45423608473,-11080.43027882937
9861.634357170387,43342.35708026375,-19362.086875687462,-11078.396270083937
9856.895787345862,43337.14912380566,-19363.427980354783,-11078.463325317303
9856.940490834771,43340.01014709594,-19361.572785564997,-11084.85592423152
9864.33891824948,43351.45424025706,-19357.66123028532,-11086.733470765766
9863.467200215722,43353.3317867913,-19365.909023989323,-11084.811220742611
9858.57216818001,43345.37456576521,-19371.47460835869,-11078.664491017402
9856.180531523292,43346.179228565605,-19369.328840890987,-11078.351566595027
9866.752906650652,43352.34831003527,-19368.41241936832,-11079.312691606605
9872.944339864773,43359.94790315008,-19366.69133504526,-11080.363223596005
9867.579921195498,43358.830315927305,-19365.350230377942,-11081.011424185208
9862.57313043751,43351.70010944607,-19370.468779858205,-11079.402098584424
9859.220368769213,43345.57573146531,-19369.328840890987,-11079.379746839972
9863.75777289364,43346.40274601016,-19365.43963735576,-11087.024043443686
9865.925892105806,43350.40370826766,-19365.26082340012,-11093.349587124538
9864.361269993937,43357.19863858207,-19365.97607922269,-11090.130935922973
9860.673232158808,43352.19184782408,-19369.999393224643,-11086.62171204349
9855.62173791191,43344.41344075363,-19371.139332191862,-11084.163020153406
9860.583825180987,43349.397879767166,-19359.985811708662,-11078.329214850572
9871.357366008446,43361.62428398422,-19349.122863903387,-11077.56925553909
9878.107592833949,43372.19665911158,-19347.491186558156,-11074.90939794891
9871.111496819436,43368.66508348764,-19352.36386684941,-11072.629520014469
9869.122191562914,43362.898333418176,-19354.710800017216,-11069.880255446466
9875.648900943865,43364.10532761876,-19356.767160507105,-11069.969662424286
9877.414688755833,43371.97314166703,-19355.895442473346,-11072.160133380909
9877.034709100091,43377.5387260364,-19355.426055839784,-11071.869560702988
9869.502171218655,43368.06158638735,-19360.991640209155,-11070.327290335572
9865.344746749968,43360.05966187235,-19361.25986114262,-11072.09307814754
9866.328223506,43363.099499118274,-19362.913890232317,-11069.924958935377
9868.921025862815,43368.37451080972,-19363.78560826607,-11071.824857214076
9872.966691609226,43375.52706903542,-19359.896404730847,-11073.031851414664
9869.368060751924,43367.72631022052,-19364.63497455537,-11069.969662424286
9863.467200215722,43360.12671710572,-19365.909023989323,-11071.266063602694
9860.04738331406,43359.00912988295,-19364.344401877453,-11076.138743893953
9870.91033111934,43367.25692358696,-19355.247241884143,-11075.7140607493
9869.636281685389,43374.09655739028,-19356.476587829184,-11079.893836962445
9857.812208868529,43366.27344683093,-19366.289003645063,-11085.52647656518
9861.746115892664,43360.97608339502,-19365.73021003368,-11082.821915486087
9867.646976428863,43359.59027523879,-19365.484340844672,-11082.57604629708
9872.38554625339,43364.37354855223,-19362.489207087663,-11087.04639518814
9876.520618977622,43373.47070854554,-19355.806035495527,-11087.96281671081
9878.375813767412,43374.90122019067,-19358.48824483016,-11089.236866144762
9873.592540453976,43367.03340614241,-19367.004259467634,-11090.756784767722
9873.2796160316,43364.86528693024,-19369.574710079996,-11091.24852314574
9878.062889345038,43372.30841783386,-19367.69716354575,-11094.735395280766
9877.884075389396,43378.768071981445,-19368.032439712577,-11095.42829935888
9874.419554998822,43374.29772309038,-19370.178207180288,-11090.130935922973
9871.84910438646,43367.77101370943,-19369.530006591085,-11086.91228472141
9870.060964830038,43365.51348751944,-19369.373544379898,-11089.90741847842
9872.38554625339,43371.30258933337,-19368.54652983505,-11091.226171401284
9877.705261433752,43382.83608947231,-19367.630108312384,-11086.331139365571
9870.753868908152,43377.091691147296,-19374.469742115707,-11076.876351460976
9860.583825180987,43364.53001076341,-19379.63299508488,-11075.33408109356
9863.936586849284,43364.95469390806,-19376.481399116685,-11076.585778783056
9868.876322373906,43372.15195562267,-19375.140294449368,-11079.983243940263
9869.591578196476,43380.08682490431,-19375.229701427183,-11086.219380643295
9865.791781639076,43378.49985104798,-19378.2248351842,-11084.610055042513
9859.71210714723,43370.29676083288,-19379.78945729607,-11078.977415439776
9857.543987935063,43365.58054275281,-19376.7719717946,-11084.274778875682
9858.214540268724,43370.96731316654,-19372.01105022562,-11088.879238233476
9867.736383406684,43384.37835983972,-19364.52321583309,-11087.381671354971
9866.171761294814,43388.22285988604,-19363.852663499438,-11086.264084132205
9859.3768309804,43379.88565920421,-19372.01105022562,-11088.85688648902
9862.081392059492,43376.53289753591,-19373.97800373769,-11088.633369044468
9868.116363062423,43382.70197900558,-19373.08393395948,-11086.375842854482
9871.111496819436,43392.06735993235,-19372.413381625815,-11085.302959120629
9872.34084276448,43392.38028435472,-19375.050887471545,-11081.234941629762
9868.161066551336,43384.71363600656,-19380.147085207354,-11077.47984856127
9863.020165326616,43374.65535100167,-19383.85747478693,-11082.799563741632
9865.14358104987,43378.56690628135,-19381.957576508237,-11086.28643587666
9864.964767094229,43390.05570293137,-19380.750582307646,-11087.448726588336
9868.76456365163,43393.60963029977,-19385.623262598903,-11089.86271498951
9862.595482181963,43384.37835983972,-19393.133448735887,-11092.701386535333
9864.405973482844,43380.645618515686,-19394.139277236376,-11092.14259292395
9867.66932817332,43386.30060986288,-19390.473591145703,-11089.393328355947
9870.865627630428,43401.5444995814,-19389.93714927878,-11090.645026045446
9869.032784585092,43402.39386587071,-19395.972120281716,-11091.807316757122
9869.77039215212,43396.82828150133,-19396.709727848734,-11089.840363245054
9864.025993827105,43393.7437407665,-19396.106230748443,-11090.689729534355
9865.590615938976,43395.71069427856,-19388.327823677995,-11088.5663138111
9866.439982228278,43401.00805771447,-19383.85747478693,-11094.936560980865
9863.511903704632,43397.275316390434,-19388.953672522744,-11101.060938961618
9856.381697223387,43384.87009821774,-19395.994472026166,-11103.05024421814
9856.269938501113,43379.8409557153,-19397.894370304868,-11100.43509011687
9865.52356070561,43384.78069123992,-19393.02169001361,-11100.904476750433
9867.535217706589,43395.82245300084,-19389.333652178484,-11102.53615409567
9860.382659480889,43395.196604156095,-19394.20633246974,-11100.792718028157
9857.05224955705,43385.607705784765,-19397.156762737843,-11099.295151149649
9859.08625830248,43382.79138598339,-19390.89827429036,-11094.489526091758
9860.673232158808,43385.29478136239,-19385.71266957673,-11100.05511046113
9859.80151412505,43393.65433378868,-19389.73598357868,-11109.800471043643
9862.796647882062,43398.66112454666,-19390.294777190065,-11104.838383774566
9865.367098494424,43395.174252411634,-19388.81956205601,-11098.646950560444
9862.90840660434,43390.45803433157,-19381.13056196339,-11097.663473804412
9864.584787438487,43392.492043077,-19371.966346736717,-11094.333063880573
9873.458429987244,43397.38707511271,-19373.955651993238,-11097.28349414867
9871.96086310874,43400.225746658536,-19377.487227617174,-11095.160078425415
9867.691679917774,43393.27435413293,-19378.314242162018,-11088.655720788924
9866.57409269501,43388.35697035277,-19374.648556071348,-11084.118316664497
9864.070697316016,43388.51343256395,-19377.75544855064,-11089.728604522776
9872.497304975666,43400.13633968072,-19376.190826438764,-11088.655720788924
9876.185342810792,43404.71844729405,-19379.677698573792,-11092.321406879591
9872.944339864773,43394.88367973372,-19389.73598357868,-11091.092060934552
9866.685851417284,43385.09361566229,-19391.85939930193,-11094.57893306958
9864.51773220512,43382.63492377221,-19389.378355667395,-11101.731491295275
9866.28352001709,43390.50273782048,-19383.49984687565,-11100.613904072512
9869.748040407663,43396.18008091213,-19385.511503876627,-11102.133822695474
9869.613929940931,43388.2899151194,-19396.55326563755,-11104.39134888546
9866.797610139563,43381.18206038261,-19398.341405193976,-11101.597380828543
9864.562435694032,43378.3880923257,-19394.385146425386,-11100.926828494888
9866.57409269501,43386.92645870763,-19387.165532966323,-11101.53032559518
9867.959900851238,43391.79913899889,-19385.35504166544,-11103.452575618336
9860.449714714256,43387.46290057456,-19397.447335415764,-11108.124090209496
9849.4750081867,43374.74475797949,-19406.946826809268,-11113.86848853451
9856.292290245568,43375.48236554651,-19397.223817971208,-11107.967627998309
9866.015299083629,43384.691284262095,-19387.65727134434,-11107.118261709007
9860.114438547424,43386.99351394099,-19390.71946033472,-11109.8228227881
9866.685851417284,43383.90897320616,-19398.475515660703,-11107.364130898017
9859.868569358418,43375.59412426879,-19403.45995467424,-11108.168793698404
9858.259243757637,43375.48236554651,-19406.522143664617,-11114.561392612624
9863.66836591582,43382.27729586093,-19407.86324833193,-11115.276648435194
9861.433191470289,43382.97019993904,-19417.47449844772,-11122.719779338811
9853.341859977469,43375.08003414632,-19425.834050874004,-11123.926773539397
9849.85498784244,43370.22970559952,-19421.073129305023,-11113.980247256786
9849.162083764326,43374.34242657929,-19415.66400714684,-11112.795604800654
9848.312717475024,43381.80790922736,-19415.59695191347,-11121.91511653842
9855.308813489535,43387.32879010782,-19414.434661201794,-11127.167776485418
9851.62077565441,43382.76903423894,-19416.22280075822,-11121.624543860502
9846.412819196325,43372.73310097851,-19418.07799554801,-11115.81309030212
9853.587729166476,43372.50958353395,-19407.37150995392,-11113.175584456396
9853.94535707776,43377.31520859185,-19402.342367451474,-11122.138633982971
9859.309775747037,43387.149976152185,-19401.783573840094,-11122.049227005153
9862.70724090424,43389.5416128089,-19401.40359418435,-11113.175584456396
9856.158179778837,43376.44349055809,-19404.9798732972,-11111.25333443324
9850.5255401761,43370.96731316654,-19402.342367451474,-11117.109491480527
9853.073639044003,43373.47070854554,-19396.75443133765,-11116.573049613602
9850.078505286992,43375.10238589077,-19395.368623181417,-11122.093930494062
9841.651897627342,43368.91095267665,-19404.644597130373,-11124.284401450685
9839.03674352607,43360.17142059463,-19409.830201844,-11121.803357816145
9841.987173794172,43361.46782177303,-19405.11398376393,-11118.8752792925
9844.691734873264,43366.74283346449,-19402.163553495837,-11117.556526369635
9853.43126695529,43377.15874638066,-19400.46482091723,-11112.505032122735
9845.831673840485,43371.10142363327,-19412.445355945278,-11114.404930401435
9835.304002202034,43360.39493803918,-19421.98955082769,-11117.690636836369
9837.13684524737,43364.12767936321,-19416.669835647328,-11110.851003033044
9843.99883079515,43372.64369400069,-19409.60668439945,-11104.503107607736
9844.915252317816,43379.4386243151,-19409.561980910537,-11109.53225011018
9837.740342347664,43378.52220279243,-19415.86517284693,-11110.538078610669
9833.784083579074,43370.1850021106,-19417.586257169994,-11109.062863476618
9835.080484757482,43368.553324765366,-19414.99345481318,-11113.19793620085
9839.349667948443,43376.041159157896,-19410.478402433208,-11106.894744264451
9840.243737726658,43378.41044407016,-19412.579466412004,-11109.264029176717
9842.165987749817,43380.44445281559,-19416.111042035944,-11110.58278209958
9836.645106869351,43370.74379572199,-19417.25098100317,-11107.453537875836
9835.013429524117,43370.31911257734,-19417.02746355861,-11105.553639597136
9835.840444068965,43370.788499210896,-19415.351082724465,-11105.553639597136
9845.161121506826,43381.11500514925,-19408.55615241005,-11111.789776300166
9850.726705876195,43383.26077261696,-19406.857419831445,-11111.879183277988
9844.557624406532,43374.32007483484,-19414.278198990607,-11108.951104754342
9841.383676693878,43368.28510383191,-19415.775765869115,-11112.281514678183
9842.411856938825,43369.17917361012,-19418.92736183731,-11120.618715360011
9847.440999441267,43376.44349055809,-19422.503640950163,-11124.217346217316
9843.5741476505,43373.738929479,-19428.9856468422,-11126.050189262653
9836.980383036183,43364.90999041915,-19435.89233587889,-11128.710046852832
9835.482816157675,43362.76422295144,-19431.80196664357,-11128.195956730362
9839.75199934864,43367.99453115399,-19427.041045074588,-11126.564279385124
9848.13390351938,43374.54359227939,-19423.934152595302,-11128.508881152737
9844.758790106627,43373.35894982325,-19424.761167140143,-11128.911212552932
9840.444903426756,43365.04410088588,-19429.11975730893,-11122.406854916437
9842.322449961,43361.7360427065,-19431.2878765211,-11120.462253148826
9847.619813396908,43365.71465321954,-19426.70576890776,-11116.90832578043
9848.782104108584,43374.32007483484,-19423.531821195105,-11119.478776392792
9847.530406419088,43378.544554536886,-19423.867097361934,-11122.093930494062
9844.669383128808,43373.87303994573,-19429.11975730893,-11114.784910057177
9852.224272754702,43372.39782481168,-19425.47642296272,-11106.313598908617
9857.700450146252,43372.64369400069,-19421.453108960763,-11106.29124716416
9859.153313535848,43379.326865592826,-19420.581390927004,-11115.567221113111
9860.382659480889,43383.61840052824,-19420.91666709384,-11114.717854823812
9851.978403565694,43370.83320269981,-19427.19750728577,-11112.81795654511
9847.95508956374,43362.25013282897,-19424.18002178431,-11109.353436154535
9850.167912264817,43363.45712702956,-19417.20627751425,-11106.917096008909
9855.80055186755,43375.37060682423,-19411.238361744687,-11101.686787806368
9852.783066366084,43376.488194047,-19413.36177746794,-11103.609037829525
9846.5245779186,43369.313284076845,-19414.65817864635,-11096.836459259566
9844.535272662077,43362.69716771808,-19409.22670474371,-11097.954046482331
9844.758790106627,43360.73021420601,-19407.39386169837,-11104.883087263475
9850.61494715392,43369.89442943269,-19401.89533256237,-11103.586686085067
9852.403086710345,43372.84485970079,-19408.22087624322,-11103.989017485264
9850.61494715392,43366.13933636419,-19416.111042035944,-11102.603209329034
9849.452656442243,43361.40076653967,-19417.988588570188,-11103.273761662696
9851.888996587872,43362.49600201798,-19415.306379235557,-11100.144517438952
9859.019203069116,43372.12960387822,-19404.152858752357,-11100.256276161228
9858.639223413376,43381.22676387153,-19405.09163201948,-11103.609037829525
9858.549816435554,43379.75154873748,-19409.96431231073,-11094.981264469776
9856.694621645764,43374.11890913474,-19407.37150995392,-11090.376805111982
9859.779162380595,43373.85068820127,-19404.21991398572,-11086.62171204349
9859.823865869506,43376.06351090235,-19405.87394307541,-11090.19799115634
9856.09112454547,43381.18206038261,-19411.84185884498,-11099.585723827568
9848.469179686212,43373.29189458989,-19417.921533336823,-11097.328197637582
9846.703391874242,43362.741871206985,-19419.50850719315,-11100.233924416772
9853.94535707776,43364.88763867469,-19413.071204790023,-11103.832555274075
9855.420572211811,43368.57567650982,-19416.111042035944,-11108.459366376324
9852.04545879906,43373.76128122345,-19418.972065326223,-11112.080348978085
9848.782104108584,43372.17430736712,-19420.424928715816,-11108.794642543156
9854.012412311127,43369.55915326586,-19415.64165540238,-11102.692616306857
9855.152351278348,43371.05672014436,-19414.859344346445,-11107.520593109202
9853.94535707776,43375.124737635226,-19417.45214670326,-11116.505994380235
9856.247586756655,43383.75251099498,-19415.775765869115,-11114.38257865698
9850.99492680966,43381.427929571626,-19422.41423397234,-11111.655665833434
9856.00171756765,43377.717539992045,-19421.900143849867,-11107.274723920194
9858.99685132466,43379.57273478183,-19416.535725180594,-11104.950142496842
9861.209674025737,43381.49498480499,-19414.479364690706,-11102.491450606758
9865.367098494424,43388.2899151194,-19414.702882135254,-11105.330122152582
9862.70724090424,43381.33852259381,-19418.681492648306,-11104.368997141004
9854.99588906716,43367.10046137577,-19419.9331903378,-11103.363168640515
9858.549816435554,43367.92747592062,-19412.870039089925,-11104.167831440906
9862.14844729286,43377.494022547486,-19405.024576786112,-11103.609037829525
9865.52356070561,43382.25494411647,-19404.577541897004,-11102.379691884482
9858.527464691098,43375.0353306574,-19415.284027491096,-11102.75967154022
9855.845255356462,43368.24040034299,-19420.9837223272,-11097.14938368194
9858.549816435554,43368.57567650982,-19419.55321068206,-11099.988055227765
9863.3777932379,43375.97410392453,-19414.479364690706,-11102.871430262498
9867.3787554954,43385.40654008467,-19407.282102976096,-11098.33402613807
9863.556607193545,43386.658237774165,-19409.718443121725,-11094.355415625028
9860.293252503068,43379.37156908173,-19414.479364690706,-11097.6187703155
9860.09208680297,43377.56107778085,-19412.020672800623,-11103.452575618336
9863.422496726813,43383.14901389468,-19410.83603034449,-11104.279590163183
9860.159142036337,43386.21120288506,-19414.769937368623,-11110.24750593275
9857.991022824172,43385.16067089566,-19415.19462051328,-11107.185316942372
9855.062944300524,43380.13152839321,-19415.619303657928,-11101.127994194983
9851.28549948758,43376.75641498047,-19418.94971358177,-11106.96179949782
9856.962842579229,43379.81860397084,-19412.91474257884,-11107.900572764942
9858.438057713278,43387.77582499693,-19405.09163201948,-11107.565296598112
9849.00562155314,43378.05281615887,-19413.74175712368,-11110.96276175532
9838.455598170232,43361.40076653967,-19423.46476596174,-11115.522517624202
9840.668420871309,43358.20446708256,-19417.00511181416,-11110.33691291057
9847.798627352551,43364.4853072745,-19407.930303565303,-11103.787851785166
9853.878301844396,43370.721443977534,-19403.12467850741,-11108.124090209496
9854.012412311127,43373.35894982325,-19406.54449540907,-11106.447709375348
9844.289403473069,43364.23943808549,-19415.59695191347,-11110.135747210474
9845.921080818303,43362.56305725135,-19418.32386473702,-11111.365093155517
9850.033801798085,43367.41338579814,-19416.46866994723,-11107.699407064843
9851.687830887777,43374.20831611256,-19414.635826901893,-11104.883087263475
9858.885092602384,43378.45514755907,-19413.16061176784,-11100.05511046113
9854.124171033403,43369.82737419932,-19416.111042035944,-11099.295151149649
9854.61590941142,43364.26178982995,-19415.686358891293,-11101.038587217165
9857.56633967952,43365.24526658598,-19413.495887934678,-11110.471023377302
9856.33699373448,43374.11890913474,-19412.93709432329,-11117.042436247164
9848.580938408488,43374.5882957683,-19420.38022522691,-11122.406854916437
9849.609118653432,43370.40851955516,-19420.55903918255,-11120.305790937638
9852.648955899353,43367.12281312023,-19418.905010092854,-11121.602192116046
9854.347688477956,43367.27927533141,-19417.385091469896,-11124.306753195138
9856.09112454547,43376.30938009136,-19416.89335309188,-11135.05794227814
9859.19801702476,43375.86234520225,-19421.74368163868,-11140.06473303613
9854.012412311127,43365.98287415301,-19427.9351148528,-11135.706142867344
9851.3749064654,43359.05383337186,-19426.638713674394,-11133.67213412191
9852.6266041549,43360.640807228185,-19427.2869142636,-11141.428189447905
9860.941453092271,43373.649522501175,-19423.688283406293,-11140.86939583652
9858.549816435554,43373.62717075672,-19428.896239864374,-11136.287288223182
9849.251490742146,43362.1830775956,-19438.50748998016,-11129.514709653224
9846.435170940778,43357.55626649335,-19436.1382050679,-11128.687695108378
9853.610080910932,43364.06062412985,-19425.722292151724,-11123.613849117024
9857.05224955705,43368.79919395437,-19424.60470492896,-11127.81597707462
9857.14165653487,43371.4366998001,-19429.00799858665,-11129.87233756451
9852.961880321727,43370.16265036615,-19430.684379420803,-11128.039494519177
9849.296194231058,43364.4853072745,-19428.94094335329,-11125.714913095822
9850.95022332075,43368.553324765366,-19425.00703632916,-11122.63037236099
9860.4273629698,43381.78555748291,-19419.821431615524,-11118.62941010349
9862.439019970778,43386.63588602971,-19420.156707782357,-11118.62941010349
9854.347688477956,43375.6388277577,-19429.03035033111,-11116.327180424594
9850.592595409466,43369.69326373259,-19432.65133293287,-11118.271782192203
9850.436133198278,43372.95661842306,-19431.086710821,-11126.117244496018
9858.371002479911,43385.27242961794,-19424.537649695598,-11125.111415995529
9854.928833833794,43389.85453723127,-19426.50460320766,-11120.708122337834
9845.317583718012,43381.47263306053,-19430.550268954077,-11117.511822880724
9844.669383128808,43377.82929871432,-19428.24803927517,-11115.567221113111
9851.821941354508,43380.86913596024,-19426.839879374493,-11120.305790937638
9857.029897812594,43391.01682794295,-19420.849611860467,-11121.468081649316
9857.365173979422,43395.196604156095,-19420.89431534938,-11122.96564852782
9852.268976243611,43384.914801706655,-19427.37632124142,-11124.664381106422
9848.4244761973,43376.30938009136,-19427.063396819045,-11124.262049706227
9843.887072072874,43375.4376620576,-19427.823356130524,-11127.257183463238
9852.38073496589,43383.39488308369,-19428.493908464185,-11130.63229687599
9859.466237958222,43390.860365731765,-19432.42781548832,-11134.119169011015
9855.398220467356,43386.47942381852,-19436.31701902354,-11127.234831718784
9848.357420963934,43378.544554536886,-19433.835975389004,-11128.642991619468
9850.369077964911,43381.67379876063,-19427.957466597258,-11133.58272714409
9853.56537742202,43387.4405488301,-19421.877792105413,-11125.379636928992
9855.08529604498,43390.30157212038,-19420.335521738,-11122.719779338811
9844.781141851085,43387.32879010782,-19430.974952098724,-11126.430168918392
9839.863758070918,43382.00907492746,-19432.986609099706,-11121.713950838322
9840.534310404577,43383.19371738359,-19431.354931754464,-11122.049227005153
9843.66355462832,43390.61449654275,-19425.90110610737,-11124.664381106422
9846.636336640877,43400.67278154764,-19421.29664674957,-11121.512785138224
9839.148502248348,43394.21312740006,-19428.784481142106,-11120.328142682094
9836.242775469158,43386.97116219654,-19430.192641042788,-11119.791700815163
9833.85113881244,43380.93619119361,-19431.310228265556,-11122.988000272277
9840.936641804772,43388.133452908216,-19426.14697529637,-11123.278572950194
9840.556662149032,43392.9390779661,-19432.405463743864,-11131.548718398655
9835.080484757482,43389.96629595355,-19438.79806265808,-11132.331029454594
9826.050379997538,43378.902182448175,-19441.79319641509,-11129.313543953129
9835.125188246391,43376.801118469375,-19438.46278649125,-11125.066712506616
9846.345763962956,43383.931324950616,-19432.45016723277,-11127.7265700968
9853.610080910932,43396.91768847915,-19426.54930669657,-11126.519575896213
9853.878301844396,43395.82245300084,-19433.74656841118,-11126.899555551954
9847.3739442079,43385.49594706249,-19441.1896993148,-11128.911212552932
9843.216519739211,43379.93036269312,-19439.826242903026,-11130.542889898168
9850.480836687188,43386.32296160734,-19431.757263154657,-11131.05698002064
9855.509979189632,43395.21895590055,-19429.052702075565,-11130.96757304282
9854.90648208934,43391.57562155433,-19439.64742894738,-11131.325200954105
9851.33020297649,43383.797214483886,-19446.129434839426,-11124.642029361969
9849.609118653432,43383.95367669507,-19439.021580102635,-11120.216383959816
9842.434208683278,43382.72433075003,-19438.08280683551,-11126.184299729384
9852.268976243611,43394.906031478175,-19433.411292244356,-11121.401026415948
9855.66644140082,43396.60476405678,-19436.272315534632,-11114.539040868169
9846.99396455216,43385.80887148486,-19440.69796093678,-11116.7742153137
9850.413781453824,43386.97116219654,-19431.019655587632,-11113.220287945303
9849.162083764326,43385.65240927367,-19427.689245663794,-11121.490433393768
9853.274804744102,43391.8438424878,-19424.15767003985,-11129.58176488659
9852.157217521337,43392.53674656591,-19427.59983868597,-11129.358247442038
9846.323412218502,43382.92549645013,-19428.51626020864,-11128.084198008084
9846.055191285035,43379.77390048193,-19425.789347385093,-11126.519575896213
9846.85985408543,43388.22285988604,-19423.353007239464,-11127.033666018686
9855.152351278348,43397.5435373239,-19426.19167878529,-11131.280497465194
9849.899691331351,43397.56588906836,-19430.34910325397,-11128.374770686003
9840.824883082496,43395.196604156095,-19432.65133293287,-11121.781006071687
9847.910386074827,43395.37541811173,-19431.04200733209,-11124.999657273253
9850.324374476002,43395.53188032293,-19428.270391019632,-11125.804320073645
9851.956051821238,43403.15382518218,-19427.24221077469,-11126.519575896213
9849.09502853096,43401.56685132586,-19434.640638189398,-11123.971477028308
9845.295231973558,43395.4424733451,-19435.31119052305,-11116.260125191227
9840.444903426756,43392.26852563245,-19432.22664978822,-11113.555564112135
9841.875415071896,43396.87298499024,-19429.85736487596,-11116.751863569243
9847.686868630277,43407.82533977334,-19427.488079963696,-11118.405892658937
9841.338973204967,43404.56198508287,-19435.825280645524,-11124.709084595332
9838.701467359242,43394.5931070558,-19440.09446383649,-11123.055055505642
9839.595537137451,43392.804967499374,-19439.11098708045,-11118.8752792925
9840.534310404577,43395.46482508956,-19435.11002482296,-11123.01035201673
9843.641202883864,43403.086769948815,-19430.17028929833,-11128.553584641646
9843.931775561785,43404.763150782965,-19432.204298043765,-11128.911212552932
9842.121284260904,43399.28697339141,-19433.254830033165,-11125.401988673448
9841.09310401596,43396.42595010113,-19431.64550443238,-11115.34370366856
9843.507092417132,43399.801063513885,-19430.59497244298,-11110.471023377302
9851.151389020848,43409.83699677432,-19426.70576890776,-11111.365093155517
9854.392391966869,43414.55321485439,-19426.12462355192,-11115.544869368658
9848.916214575316,43409.30055490739,-19428.203335786264,-11111.745072811256
9847.932737819285,43405.03137171642,-19426.32578925202,-11109.10756696553
9849.56441516452,43407.8476915178,-19424.917629351334,-11110.359264655026
9848.826807597496,43409.7475897965,-19425.69994040727,-11114.427282145893
9848.268013986111,43408.965278740565,-19427.957466597258,-11115.120186224009
9846.748095363151,43402.37151412624,-19430.2373445317,-11114.516689123711
9839.439074926267,43393.788444255406,-19439.46861499174,-11118.852927548043
9840.75782784913,43394.95073496708,-19442.12847258192,-11120.574011871102
9846.435170940778,43404.003191471485,-19434.819452145035,-11123.770311328211
9849.13973201987,43407.75828453997,-19439.51331848065,-11122.429206660892
9844.80349359554,43404.27141240495,-19451.873833164434,-11120.283439193185
9839.3720196929,43395.37541811173,-19454.176062843333,-11119.791700815163
9842.03187728308,43393.989609955504,-19450.53272849712,-11124.619677617511
9844.736438362175,43399.309325135866,-19443.916612138342,-11125.826671818098
9844.937604062272,43402.48327284852,-19444.207184816263,-11127.503052652246
9844.222348239702,43396.53770882341,-19447.314077295552,-11126.854852063045
9836.354534191434,43390.010999442464,-19451.18092908632,-11128.464177663824
9833.962897534717,43391.46386283205,-19453.438455276308,-11129.96174454233
9841.048400527048,43395.889508234206,-19445.548289483584,-11125.223174717805
9847.08337152998,43405.03137171642,-19441.413216759356,-11127.033666018686
9846.189301751769,43403.93613623812,-19444.877737149924,-11121.758654327234
9836.980383036183,43394.7942727559,-19448.61047847396,-11116.327180424594
9841.026048782594,43393.095540177295,-19441.70378943727,-11114.896668779456
9846.681040129786,43400.78454026992,-19435.445300989784,-11119.076444992595
9843.171816250304,43400.918650736654,-19436.629943445914,-11125.357285184537
9837.069790014004,43392.804967499374,-19441.234402803708,-11117.176546713896
9833.828787067983,43390.48038607602,-19440.09446383649,-11113.063825734118
9833.225289967691,43392.35793261027,-19433.768920155635,-11115.857793791032
9838.880281314883,43397.76705476845,-19432.628981188416,-11119.367017670516
9842.881243572385,43405.992496728,-19436.205260301263,-11116.997732758253
9838.209728981225,43397.76705476845,-19443.044894104587,-11114.181412956885
9841.026048782594,43393.56492681085,-19440.07211209203,-11112.795604800654
9842.076580771993,43396.8953367347,-19437.211088801752,-11111.00746524423
9842.925947061294,43400.73983678101,-19435.869984134435,-11116.39423565796
9846.435170940778,43406.55129033939,-19439.960353369755,-11118.987038014777
9841.294269716058,43399.6446013027,-19447.51524299565,-11115.902497279942
9836.354534191434,43391.53091806542,-19451.069170364044,-11113.10852922303
9839.841406326464,43394.63781054471,-19447.13526333991,-11109.91222976592
9842.65772612783,43397.990572213006,-19441.39086501489,-11106.380654141982
9842.814188339018,43404.606688571774,-19437.30049577957,-11105.397177385948
9843.797665095051,43407.73593279552,-19441.30145803708,-11105.24071517476
9839.550833648544,43400.58337456982,-19446.107083094965,-11102.379691884482
9838.746170848151,43394.10136867778,-19444.385998771908,-11101.329159895082
9839.550833648544,43398.70582803558,-19437.27814403512,-11104.10077620754
9840.914290060316,43409.27820316293,-19434.55123121157,-11105.464232619312
9841.763656349618,43404.58433682732,-19441.457920248264,-11108.079386720585
9836.220423724702,43398.57171756884,-19448.38696102941,-11111.230982688783
9833.627621367888,43396.649467545685,-19448.118740095942,-11113.756729812232
9836.488644658166,43395.86715648975,-19447.582298229016,-11115.880145535488
9842.478912172188,43404.27141240495,-19443.022542360133,-11114.494337379258
9841.160159249326,43404.58433682732,-19447.157615084365,-11112.415625144917
9839.506130159632,43399.13051118023,-19447.112911595454,-11109.308732665628
9842.098932516448,43398.37055186875,-19443.156652826867,-11111.923886766896
9841.60719413843,43398.48231059103,-19439.84859464748,-11116.595401358058
9847.552758163543,43407.06538046186,-19437.211088801752,-11120.194032215362
9844.065886028517,43402.70679029307,-19444.028370860626,-11125.401988673448
9835.5722231355,43393.83314774432,-19445.727103439225,-11126.832500318587
9837.963859792217,43392.71556052155,-19439.155690569365,-11124.038532261677
9846.412819196325,43399.21991815805,-19433.970085855733,-11124.329104939594
9848.71504887522,43407.37830488424,-19433.858327133457,-11123.658552605932
9846.792798852062,43411.42397063065,-19433.52305096663,-11116.573049613602
9841.629545882886,43404.606688571774,-19435.17708005632,-11119.456424648337
9837.203900480736,43397.65529604618,-19435.51235622315,-11124.619677617511
9837.762694092118,43402.08094144833,-19434.79710040058,-11126.96661078532
9841.115455760417,43413.77090379845,-19436.585239957007,-11124.910250295432
9839.930813304283,43413.994421243005,-19438.909821380355,-11127.123072996506
9837.38271443638,43404.38317112722,-19440.832071403514,-11129.849985820054
9834.342877190456,43398.95169722458,-19443.447225504784,-11131.749884098756
9834.387580679368,43397.78940651291,-19441.50262373717,-11132.308677710138
9845.228176740193,43410.64165957471,-19431.578449199016,-11127.34659044106
9851.777237865595,43413.32386890935,-19427.733949152705,-11123.032703761186
9846.457522685234,43402.192700170606,-19432.539574210597,-11123.904421794943
9841.048400527048,43396.8953367347,-19436.60759170146,-11117.623581603
9844.758790106627,43398.10233093528,-19432.830146888515,-11115.25429669074
9850.5255401761,43401.81272051486,-19432.964257355245,-11117.400064158448
9848.290365730569,43400.78454026992,-19440.74266442569,-11115.276648435194
9844.334106961978,43395.6436390452,-19445.727103439225,-11109.420491387904
9839.126150503893,43391.70973202107,-19448.47636800723,-11116.997732758253
9842.367153449912,43394.50370007798,-19444.65421970537,-11122.831538061087
9849.765580864618,43405.880738005726,-19442.866080148942,-11126.407817173937
9854.727668133695,43415.76020905498,-19443.24605980469,-11122.719779338811
9849.85498784244,43411.37926714173,-19442.26258304865,-11115.857793791032
9843.261223228124,43409.43466537412,-19439.736835925203,-11116.953029269342
9848.580938408488,43409.30055490739,-19434.43947248929,-11123.502090394746
9851.888996587872,43412.250985175495,-19430.17028929833,-11130.654648620444
9846.546929663054,43412.80977878688,-19433.724216666727,-11132.554546899146
9843.95412730624,43409.12174095175,-19440.51914698114,-11130.229965475794
9851.33020297649,43407.4453601176,-19435.825280645524,-11123.882070050488
9845.652859884842,43405.50075834999,-19440.586202214505,-11134.789721344678
9847.32924071899,43409.88170026323,-19440.47444349223,-11137.114302768028
9846.85985408543,43414.30734566538,-19440.22857430322,-11128.10654975254
9838.410894681325,43404.27141240495,-19446.8893941509,-11125.111415995529
9835.594574879951,43398.41525535766,-19444.27424004963,-11125.826671818098
9836.533348147075,43402.34916238179,-19440.385036514406,-11124.038532261677
9839.975516793194,43410.48519736352,-19438.79806265808,-11125.223174717805
9838.23208072568,43411.0439909749,-19443.00019061568,-11126.564279385124
9833.158234734325,43405.67957230564,-19448.52107149614,-11121.19986071585
9826.408007908823,43399.242269902505,-19451.20328083077,-11116.126014724496
9825.670400341798,43396.40359835668,-19450.868004663946,-11119.791700815163
9832.130054489382,43405.76897928345,-19444.25188830517,-11119.881107792988
9834.052304512536,43410.46284561907,-19450.912708152857,-11128.82180557511
9824.910441030315,43399.89047049171,-19462.200339102787,-11132.35338119905
9822.250583440136,43390.41333084265,-19463.56379551456,-11129.939392797874
9826.564470120007,43390.61449654275,-19458.53465301212,-11129.604116631046
9838.545005148057,43402.39386587071,-19448.65518196287,-11127.145424740962
9841.60719413843,43406.998325228495,-19449.39278952989,-11128.642991619468
9835.974554535696,43395.82245300084,-19454.176062843333,-11129.738227097778
9832.264164956114,43387.10527266327,-19457.14884485589,-11135.415570189423
9828.844348054452,43387.61936278574,-19453.192586087294,-11139.595346402568
9841.584842393975,43394.615458800254,-19440.07211209203,-11135.05794227814
9848.13390351938,43403.511453093466,-19437.121681823934,-11136.801378345655
9835.058133013026,43394.88367973372,-19452.320868053543,-11141.651706892457
9829.51490038811,43388.42402558614,-19455.65127797738,-11138.120131268515
9837.360362691925,43394.50370007798,-19448.789292429603,-11132.82276783261
9837.047438269548,43397.56588906836,-19448.34225754049,-11133.761541099731
9842.456560427734,43405.50075834999,-19448.61047847396,-11128.665343363922
9839.439074926267,43406.05955196137,-19453.527862254126,-11123.792663072663
9840.579013893488,43403.6455635602,-19448.90105115188,-11119.121148481508
9845.406990695834,43402.08094144833,-19446.4423592618,-11123.34562818356
9846.815150596518,43406.55129033939,-19443.58133597152,-11124.39616017296
9847.977441308194,43412.85448227578,-19445.771806928136,-11130.229965475794
9837.80739758103,43402.86325250426,-19457.975859400733,-11135.460273678336
9829.80547306603,43393.87785123323,-19459.316964068053,-11135.10264576705
9837.025086525093,43395.50952857847,-19453.75137969868,-11136.287288223182
9845.250528484648,43401.79036877041,-19448.789292429603,-11139.148311513462
9844.401162195343,43402.50562459298,-19449.75041744118,-11145.49620693877
9839.148502248348,43396.24713614549,-19455.070132621546,-11146.792608117175
9835.75103709114,43387.82052848584,-19455.20424308828,-11138.120131268515
9834.85696731293,43385.65240927367,-19454.64544947689,-11138.075427779608
9837.13684524737,43390.52508956493,-19452.745551198197,-11142.92575632641
9838.924984803794,43397.56588906836,-19451.315039553054,-11144.11039878254
9833.605269623433,43396.53770882341,-19457.61823148945,-11141.875224337007
9832.934717289772,43394.838976244806,-19459.272260579142,-11140.981154558796
9839.66259237082,43392.20147039908,-19454.377228543428,-11139.01420104673
9842.009525538628,43394.548403566885,-19451.337391297508,-11140.690581880875
9845.988136051672,43398.124682679736,-19450.957411641768,-11147.574919173112
9843.015354039117,43392.737912266006,-19457.238251833707,-11151.330012241604
9836.645106869351,43384.78069123992,-19457.238251833707,-11142.992811559774
9842.99300229466,43389.25104013098,-19448.49871975168,-11136.5778609011
9846.926909318794,43400.002229213984,-19447.9399261403,-11139.796512102666
9848.826807597496,43406.55129033939,-19451.42679827533,-11143.573956915612
9848.849159341951,43405.321944394345,-19458.221728589742,-11141.718762125822
9840.847234826952,43393.49787157749,-19465.41899030435,-11143.842177849076
9837.695638858751,43387.46290057456,-19465.933080426825,-11141.986983059283
9835.907499302328,43388.17815639712,-19465.77661821564,-11144.7809511162
9842.277746472091,43401.20922341457,-19456.32183031104,-11147.127884284006
9845.250528484648,43400.87394724774,-19453.70667620977,-11142.523424926214
9838.589708636966,43390.34627560929,-19459.42872279033,-11137.471930679314
9837.51682490311,43391.06153143186,-19457.03708613361,-11137.404875445947
9836.533348147075,43394.43664484461,-19452.767902942647,-11140.7799888587
9839.595537137451,43400.76218852546,-19451.315039553054,-11142.434017948392
9840.914290060316,43405.27724090544,-19456.053609377577,-11137.226061490306
9836.846272569452,43398.41525535766,-19461.194510602298,-11132.86747132152
9837.494473158657,43393.02848494393,-19457.729990211727,-11132.979230043797
9843.194167994758,43398.43760710211,-19455.248946577187,-11134.141520755473
9849.273842486602,43410.35108689679,-19453.438455276308,-11135.683791122889
9846.032839540583,43408.51824385145,-19457.260603578165,-11132.82276783261
9838.097970258948,43396.09067393431,-19461.686248980317,-11133.649782377455
9835.75103709114,43392.44733958809,-19455.65127797738,-11136.06377077863
9845.451694184743,43395.6436390452,-19448.006981373663,-11137.67309637941
9850.14556052036,43403.48910134901,-19448.56577498505,-11145.026820305207
9847.865682585918,43405.612517072266,-19453.974897143235,-11148.424285462414
9845.317583718012,43400.44926410309,-19457.14884485589,-11141.741113870276
9842.90359531684,43394.48134833352,-19459.54048151261,-11139.751808613755
9845.786970351572,43396.76122626796,-19458.44524603429,-11138.857738835542
9853.967708822216,43407.17713918414,-19450.152748841378,-11137.941317312876
9852.604252410443,43408.048857217895,-19453.30434480957,-11142.121093526015
9843.238871483669,43398.54936582439,-19456.18771984431,-11139.416532446923
9840.4225516823,43393.07318843284,-19458.17702510083,-11138.343648713071
9840.064923771017,43392.58145005482,-19458.62405998994,-11145.8314831056
9845.071714529004,43398.16938616865,-19454.33252505452,-11146.233814505797
9844.80349359554,43405.12077869425,-19454.958373899262,-11141.808169103644
9844.267051728611,43403.6455635602,-19458.467597778752,-11139.125959769006
9840.243737726658,43397.36472336826,-19456.74651345569,-11135.39321844497
9841.204862738236,43398.43760710211,-19450.37626628593,-11130.162910242429
9842.545967405556,43405.1431304387,-19447.582298229016,-11134.49914866676
9841.763656349618,43405.36664788326,-19456.09831286649,-11143.104570282052
9837.51682490311,43394.5931070558,-19462.64737399189,-11140.265898736228
9836.08631325797,43388.93811570861,-19460.56866175755,-11139.751808613755
9838.075618514493,43394.03431344442,-19457.417065789352,-11141.718762125822
9847.619813396908,43402.86325250426,-19452.36557154245,-11140.332953969591
9846.703391874242,43405.3442961388,-19454.0419523766,-11140.06473303613
9838.90263305934,43399.13051118023,-19464.9943071597,-11142.501073181758
9835.080484757482,43392.91672622165,-19471.14103688491,-11146.54673892817
9837.539176647566,43397.29766813489,-19468.145903127897,-11147.843140106575
9849.877339586896,43410.52990085243,-19456.90297566688,-11139.43888419138
9853.878301844396,43414.37440089875,-19456.61240298896,-11135.43792193388
9850.61494715392,43405.09842694979,-19462.490911780707,-11133.53802365518
9853.341859977469,43401.29863039239,-19459.36166755696,-11129.626468375502
9851.777237865595,43399.15286292468,-19457.014734389155,-11130.49818640926
9857.4769327017,43408.9429269961,-19448.811644174057,-11129.134729997484
9861.612005425932,43418.91180502317,-19444.922440638835,-11128.084198008084
9855.80055186755,43414.754380554485,-19450.71154245276,-11130.6770003649
9849.251490742146,43408.51824385145,-19450.644487219397,-11129.291192208671
9848.04449654156,43408.9429269961,-19454.488987265708,-11137.650744634955
9849.922043075803,43414.68732532112,-19458.55700475657,-11146.077352294607
9851.71018263223,43418.50947362298,-19456.32183031104,-11140.7799888587
9847.08337152998,43414.77673229894,-19463.4967402812,-11133.336857955082
9842.210691238724,43405.16548218316,-19470.17991187333,-11140.5788231586
9840.958993549228,43403.55615658237,-19470.358725828974,-11147.507863939749
9847.776275608096,43408.45118861809,-19460.099275123983,-11143.126922026506
9857.342822234968,43416.54252011091,-19456.679458222327,-11141.607003403546
9854.23592975568,43409.1440926962,-19460.926289668834,-11142.21050050384
9848.200958752746,43397.990572213006,-19462.177987358333,-11136.913137067932
9849.922043075803,43398.14703442419,-19454.958373899262,-11137.226061490306
9853.252452999646,43404.74079903851,-19449.61630697445,-11136.95784055684
9851.933700076785,43406.17131068365,-19451.98559188671,-11140.645878391968
9849.43030469779,43399.48813909151,-19454.399580287885,-11135.326163211605
9850.27967098709,43393.56492681085,-19453.147882598387,-11133.716837610822
9849.318545975511,43390.61449654275,-19455.65127797738,-11140.5788231586
9851.821941354508,43397.85646174628,-19451.22563257523,-11141.674058636912
9855.979365823194,43404.58433682732,-19449.57160348554,-11137.695448123866
9850.57024366501,43395.82245300084,-19454.66780122135,-11135.7284946118
9848.938566319772,43388.35697035277,-19451.024466875133,-11130.051151520152
9856.538159434576,43393.49787157749,-19444.900088894377,-11127.860680563532
9853.05128729955,43395.330714622825,-19446.28589705061,-11132.800416088154
9856.024069312103,43403.39969437119,-19442.307286537565,-11128.39712243046
9859.890921102871,43408.18296768463,-19443.17900457132,-11126.184299729384
9846.189301751769,43402.52797633744,-19449.79512093009,-11123.43503516138
9846.099894773948,43410.12756945224,-19446.79998717308,-11116.327180424594
9847.865682585918,43421.79518005791,-19443.648391204883,-11117.981209514286
9850.592595409466,43432.97105228556,-19440.07211209203,-11116.081311235585
9846.032839540583,43434.75919184199,-19443.871908649435,-11114.002599001242
9841.383676693878,43431.473485407056,-19443.022542360133,-11109.286380921172
9840.37784819339,43430.57941562885,-19443.447225504784,-11113.10852922303
9841.763656349618,43435.47444766456,-19443.447225504784,-11116.282476935685
9842.054229027535,43441.79999134541,-19442.50845223766,-11115.29900017965
9842.791836594562,43441.08473552284,-19447.738760440203,-11106.894744264451
9838.23208072568,43428.321889438856,-19453.438455276308,-11108.90640126543
9831.99594402265,43427.897206294205,-19453.974897143235,-11115.276648435194
9836.175720235791,43435.4520959201,-19448.25285056268,-11115.164889712918
9848.647993641853,43442.53759891243,-19441.48027199272,-11113.95789551233
9846.122246518404,43439.31894771087,-19446.487062750704,-11108.90640126543
9842.478912172188,43424.76796207047,-19455.494815766197,-11110.493375121758
9843.931775561785,43421.23638644652,-19455.740684955203,-11112.370921656004
9851.218444254211,43429.21595921707,-19446.39765577289,-11111.34274141106
9852.38073496589,43435.20622673109,-19445.213013316752,-11115.455462390835
9858.259243757637,43436.435572676135,-19442.37434177093,-11109.018159987709
9853.364211721922,43424.499741137,-19442.37434177093,-11108.593476843058
9849.698525631253,43417.3471829113,-19444.497757494184,-11114.539040868169
9853.56537742202,43423.38215391424,-19440.02740860312,-11119.188203714872
9853.788894866571,43427.60663361629,-19442.32963828202,-11126.564279385124
9851.888996587872,43428.947738283605,-19451.89618490889,-11134.834424833589
9849.497359931154,43421.41520040217,-19458.020562889644,-11135.34851495606
9849.162083764326,43420.38702015722,-19457.864100678456,-11133.15804399944
9847.977441308194,43424.16446497017,-19458.266432078653,-11137.851910335054
9851.978403565694,43432.03227901844,-19454.91367041036,-11144.177454015906
9851.531368676588,43433.216921474566,-19458.17702510083,-11147.127884284006
9841.383676693878,43421.81753180237,-19466.55892927157,-11146.166759272428
9842.322449961,43421.63871784672,-19456.61240298896,-11138.29894522416
9844.982307551183,43426.93608128263,-19447.44818776229,-11138.38835220198
9848.4244761973,43432.45696216309,-19443.80485341607,-11140.5788231586
9848.983269808685,43435.16152324218,-19445.99532437269,-11137.471930679314
9840.109627259926,43425.371459170754,-19453.41610353185,-11141.53994817018
9836.019258024604,43419.090618978815,-19451.85148141998,-11143.43984644888
9837.338010947467,43423.02452600295,-19447.51524299565,-11143.05986679314
9845.51874941811,43430.95939528458,-19440.9885336147,-11148.223119762317
9844.937604062272,43437.77667734345,-19439.64742894738,-11151.64293666398
9841.42838018279,43432.591072629824,-19442.17317607083,-11141.808169103644
9846.792798852062,43431.22761621805,-19439.84859464748,-11134.230927733295
9842.61302263892,43428.03131676094,-19444.7883301721,-11138.96949755782
9852.04545879906,43432.21109297408,-19438.2392690467,-11135.124997511506
9853.163046021826,43432.34520344081,-19440.74266442569,-11136.354343456547
9844.647031384353,43424.36563067027,-19447.783463929118,-11135.10264576705
9840.109627259926,43420.47642713504,-19447.51524299565,-11132.263974221229
9842.478912172188,43424.65620334819,-19443.268411549143,-11135.281459722692
9847.105723274435,43432.501665652,-19439.46861499174,-11137.807206846144
9841.316621460512,43432.34520344081,-19447.64935346238,-11147.7313813843
9832.442978911757,43419.26943293446,-19452.81260643156,-11152.984041331298
9827.413836409312,43411.75924679748,-19447.89522265139,-11151.195901774872
9830.431321910775,43412.51920610896,-19443.35781852696,-11151.888805852986
9838.589708636966,43420.38702015722,-19437.85928939096,-11154.839236121088
9839.975516793194,43422.935119025125,-19437.546364968584,-11158.124942556018
9831.928888789284,43409.166444440656,-19441.860251648457,-11157.186169288894
9828.933755032273,43401.20922341457,-19446.66587670635,-11160.024840834718
9831.817130067007,43402.14799668169,-19447.247022062187,-11166.752715915763
9839.640240626364,43408.92057525165,-19446.2411935617,-11166.551550215669
9840.958993549228,43415.20141544359,-19449.28103080762,-11164.741058914788
9835.773388835596,43407.981801984526,-19456.38888554441,-11162.751753658264
9830.744246333152,43396.53770882341,-19456.09831286649,-11160.091896068085
9834.789912079565,43397.25296464598,-19453.03612387611,-11159.488398967793
9841.60719413843,43403.93613623812,-19448.677533707327,-11155.755657643756
9841.227214482691,43404.15965368267,-19453.818434932047,-11162.081201324609
9831.392446922357,43390.21216514256,-19461.775655958136,-11161.25418677976
9830.99011552216,43384.490118562,-19459.51812976815,-11153.967518087333
9832.264164956114,43387.93228720812,-19456.23242333322,-11154.21338727634
9832.957069034228,43396.13537742321,-19452.745551198197,-11159.913082112442
9830.096045743949,43402.21505191506,-19454.824263432536,-11164.763410659243
9823.546984618544,43400.851595503285,-19460.211033846263,-11159.15312280096
9821.110644472916,43401.52214783694,-19460.59101350201,-11158.6837361674
9825.022199752591,43408.36178164027,-19455.38305704392,-11158.326108256117
9823.74815031864,43418.91180502317,-19449.728065696727,-11162.952919358364
9832.4206271673,43432.56872088536,-19447.537594740104,-11160.91891061293
9829.269031199105,43429.752401084,-19454.75720819917,-11160.49422746828
9827.816167809508,43426.26552894897,-19455.450112277285,-11159.913082112442
9829.984287021673,43426.89137779372,-19451.9408883978,-11161.388297246493
9831.861833555917,43431.98757552953,-19451.2926878086,-11161.164779801938
9838.94733654825,43444.14692451322,-19451.49385350869,-11160.11424781254
9836.063961513515,43442.29172972342,-19458.73581871221,-11161.500055968769
9837.539176647566,43432.36755518527,-19460.65806873537,-11158.01318383374
9839.193205737258,43428.187778972126,-19462.379153058428,-11160.717744912834
9841.09310401596,43430.08767725083,-19463.31792632555,-11170.194884561884
9849.385601208878,43442.02350878997,-19455.785388444117,-11162.77410540272
9843.440037183767,43439.43070643314,-19459.80870244607,-11163.39995424747
9833.158234734325,43429.61829061726,-19465.731914726726,-11165.456314737356
9831.392446922357,43428.72422083905,-19465.50839728217,-11170.530160728713
9836.131016746882,43433.10516275229,-19460.099275123983,-11173.838218908098
9838.030915025582,43441.26354947848,-19459.316964068053,-11173.324128785627
9832.778255078583,43436.5026279095,-19463.429685047828,-11173.279425296716
9831.727723089183,43428.97009002806,-19467.274185094146,-11171.40187876247
9838.924984803794,43432.00992727398,-19462.46856003625,-11164.629300192511
9836.667458613809,43432.76988658546,-19466.491874038205,-11168.362041516548
9836.28747895807,43442.381136701246,-19467.967089172256,-11171.535989229202
9835.795740580052,43446.1585815142,-19471.453961307285,-11162.21531179134
9832.174757978291,43440.61534888928,-19471.85629270748,-11157.141465799985
9833.292345201058,43438.22371223256,-19467.67651649433,-11156.985003588798
9834.834615568474,43438.04489827692,-19467.251833349685,-11150.6818116524
9839.930813304283,43442.15761925669,-19465.061362393066,-11153.364020987035
9837.360362691925,43441.30825296739,-19468.123551383444,-11154.839236121088
9835.639278368864,43432.233444718535,-19472.7950659746,-11155.375677988017
9838.701467359242,43431.89816855171,-19465.37428681544,-11153.229910520306
9843.149464505848,43440.74945935601,-19460.143978612898,-11154.883939609996
9845.116418017917,43448.46081119309,-19460.099275123983,-11155.68860241039
9835.348705690943,43442.93993031263,-19468.81645546156,-11156.381506488504
9831.28068820008,43432.74753484101,-19477.24306312121,-11154.01222157624
9837.919156303304,43432.34520344081,-19469.442304306307,-11152.849930864564
9845.362287206925,43436.279110464944,-19461.23921409121,-11156.850893122066
9844.781141851085,43443.40931694619,-19464.65903099287,-11166.462143237846
9837.561528392022,43441.08473552284,-19474.00206017519,-11172.765335174245
9835.773388835596,43431.11585749577,-19476.930138698837,-11170.820733406632
9834.387580679368,43427.29370919392,-19476.88543520992,-11165.97040485983
9841.18251099378,43432.68047960764,-19473.33150784153,-11167.333861271603
9845.965784307216,43442.55995065689,-19469.28584209512,-11169.814904906145
9845.630508140386,43445.93506406964,-19475.52197879815,-11169.25611129476
9839.03674352607,43439.34129945532,-19480.595824789503,-11165.679832181911
9832.979420778684,43433.149866241205,-19480.43936257832,-11165.568073459635
9833.046476012049,43430.1994359731,-19477.42187707685,-11170.328995028614
9842.90359531684,43440.43653493364,-19468.458827550272,-11168.965538616842
9838.3214877035,43437.03906977643,-19470.13520838442,-11171.044250851184
9830.878356799883,43422.28691843592,-19474.09146715301,-11169.479628739313
9828.062036998515,43418.57652885634,-19469.509359539672,-11166.171570559927
9828.106740487428,43422.085752735824,-19466.313060082564,-11162.550587958169
9831.392446922357,43431.339374940326,-19460.63571699092,-11162.818808891632
9831.459502155722,43432.72518309656,-19463.31792632555,-11161.857683880056
9823.770502063097,43423.31509868087,-19468.570586272548,-11161.25418677976
9819.478967127678,43419.11297072327,-19469.08467639502,-11164.517541470235
9817.646124082345,43419.13532246773,-19468.43647580582,-11164.048154836672
9817.534365360068,43425.43851440412,-19466.223653104746,-11169.8372566506
9819.926002016784,43426.13141848224,-19467.58710951652,-11170.88778864
9814.628638580876,43415.78256079943,-19477.555987543583,-11166.663308937945
9813.064016469005,43409.43466537412,-19478.80768523308,-11164.137561814496
9815.522708359087,43410.61930783025,-19479.210016633275,-11173.100611341071
9824.32929567448,43426.444342904615,-19471.99040317421,-11170.239588050794
9831.101874244438,43436.74849709851,-19468.41412406136,-11164.674003681424
9830.878356799883,43431.40643017369,-19471.23044386273,-11160.427172234917
9832.71119984522,43426.62315686025,-19471.923347940847,-11162.148256557974
9837.18154873628,43431.16056098468,-19467.00596416068,-11164.942224614886
9843.820016839509,43438.13430525474,-19460.948641413288,-11166.663308937945
9844.51292091762,43435.675613364656,-19465.77661821564,-11163.891692625486
9840.556662149032,43423.94094752562,-19469.8446357065,-11162.327070513616
9838.14267374786,43417.5483486114,-19468.95056592829,-11162.707050169356
9842.121284260904,43416.63192708873,-19467.922385683345,-11162.550587958169
9846.479874429688,43423.583319614336,-19464.70373448178,-11167.378564760516
9845.809322096027,43429.61829061726,-19464.167292614853,-11171.178361317918
9836.46629291371,43419.78352305693,-19472.169217129853,-11165.724535670824
9829.649010854842,43410.30638340788,-19475.745496242704,-11162.77410540272
9827.74911257614,43409.61347932977,-19478.025374177145,-11171.424230506926
9830.073693999491,43415.0002497435,-19471.878644451936,-11175.849875909076
9828.821996309996,43420.52113062396,-19469.12937988393,-11177.503904998768
9827.95027827624,43412.094522964304,-19478.4500573218,-11178.912064899454
9820.596554350444,43400.02458095844,-19485.848484736503,-11179.850838166576
9820.104815972429,43400.695133292094,-19480.57347304505,-11177.861532910054
9826.273897442092,43409.12174095175,-19472.63860376341,-11176.900407898476
9838.209728981225,43423.13628472522,-19469.24113860621,-11173.368832274537
9834.052304512536,43418.10714222278,-19478.740629999716,-11176.83335266511
9832.621792867398,43409.9487554966,-19477.04189742111,-11173.435887507903
9829.783121321574,43408.2947264069,-19474.42674331984,-11174.665233452944
9835.95220279124,43413.748552054,-19470.91751944036,-11172.430059007414
9839.349667948443,43421.79518005791,-19471.14103688491,-11173.815867163645
9834.700505101742,43416.87779627774,-19474.069115408554,-11168.40674500546
9832.398275422844,43410.082865963326,-19470.91751944036,-11165.053983337162
9835.5722231355,43410.10521770778,-19468.28001359463,-11167.266806038238
9839.103798759435,43414.30734566538,-19466.17894961583,-11161.812980391143
9842.210691238724,43420.47642713504,-19464.56962401505,-11162.77410540272
9842.680077872286,43420.34231666831,-19466.581281016028,-11155.39802973247
9836.75686559163,43409.50172060749,-19474.024411919643,-11154.280442509706
9840.266089471112,43411.91570900866,-19470.984574673723,-11153.878111109509
9843.417685439312,43416.81074104438,-19467.385943816415,-11159.39899198997
9845.339935462467,43422.57749111384,-19467.095371138497,-11164.718707170334
9839.595537137451,43419.023563745446,-19472.52684504114,-11164.137561814496
9842.210691238724,43418.24125268951,-19467.81062696107,-11156.292099510682
9841.674249371796,43415.15671195468,-19469.46465605076,-11163.310547269648
9846.56928140751,43417.45894163358,-19469.934042684323,-11171.44658225138
9849.922043075803,43426.69021209362,-19464.1449408704,-11174.464067752848
9845.809322096027,43421.325793424345,-19465.48604553772,-11168.563207216646
9842.009525538628,43410.66401131917,-19467.78827521661,-11165.590425204093
9843.70825811723,43411.200453186095,-19466.71539148276,-11163.712878669843
9844.51292091762,43414.26264217647,-19462.75913271417,-11168.02676534972
9850.19026400927,43422.175159713646,-19456.43358903332,-11169.814904906145
9844.602327895444,43417.43658988913,-19462.71442922526,-11166.417439748937
9838.276784214591,43408.18296768463,-19465.37428681544,-11160.985965846296
9844.892900573364,43408.16061594017,-19463.58614725901,-11159.533102456702
9842.434208683278,43413.5473863539,-19464.65903099287,-11164.718707170334
9843.484740672677,43418.71063932308,-19465.62015600445,-11165.8362943931
9846.032839540583,43414.48615962103,-19464.234347848214,-11157.767314644732
9840.08727551547,43405.09842694979,-19465.731914726726,-11149.743038385275
9838.99204003716,43402.28210714842,-19463.653202492384,-11145.406799960949
9840.623717382396,43404.04789496039,-19463.22851934773,-11146.993773817274
9846.278708729593,43416.25194743299,-19460.52395826864,-11148.267823251226
9848.983269808685,43427.22665396055,-19463.429685047828,-11145.429151705404
9849.542063420064,43424.54444462591,-19466.00013566019,-11142.612831904034
9846.591633151966,43419.67176433466,-19464.9943071597,-11144.222157504815
9849.922043075803,43419.85057829029,-19460.166330357355,-11142.434017948392
9853.833598355484,43427.56193012738,-19456.165368099853,-11138.947145813365
9847.642165141364,43427.18195047163,-19464.033182148123,-11143.842177849076
9842.814188339018,43416.296650921904,-19469.151731628383,-11137.762503357231
9837.762694092118,43409.41231362967,-19474.98553693122,-11141.15996851444
9839.886109815372,43413.65914507618,-19473.890301452917,-11147.329049984104
9843.618851139408,43420.92346202415,-19469.375249072946,-11148.290174995682
9845.630508140386,43423.31509868087,-19467.67651649433,-11142.434017948392
9841.338973204967,43416.520168366456,-19471.364554329462,-11141.49524468127
9843.864720328418,43414.84378753231,-19468.347068828,-11140.310602225138
9844.065886028517,43416.43076138864,-19465.642507748904,-11144.848006349564
9847.351592463445,43424.38798241472,-19464.055533892577,-11147.910195339942
9845.295231973558,43427.249005705,-19467.385943816415,-11147.798436617666
9840.4225516823,43418.06243873387,-19474.09146715301,-11146.412628461436
9843.261223228124,43413.45797937608,-19470.53753978461,-11144.87035809402
9847.95508956374,43417.30247942239,-19465.79896996009,-11143.261032493238
9858.773333880108,43433.149866241205,-19452.343219798,-11138.254241735249
9861.254377514646,43442.04586053442,-19452.27616456463,-11134.96853530032
9852.51484543262,43433.39573543021,-19460.881586179923,-11137.337820212582
9850.033801798085,43428.0983719943,-19461.306269324574,-11138.96949755782
9851.911348332327,43429.752401084,-19459.719295468247,-11140.422360947414
9854.48179894469,43436.99436628752,-19460.300440824085,-11143.372791215515
9851.129037276392,43438.08960176582,-19466.022487404643,-11142.970459815318
9847.70922037473,43432.43461041863,-19469.978746173238,-11138.902442324454
9843.082409272482,43427.15959872718,-19469.978746173238,-11136.689619623376
9836.980383036183,43422.77865681394,-19468.07884789453,-11134.72266611131
9847.66451688582,43436.18970348713,-19460.27808907963,-11130.20761373134
9849.072676786504,43444.7057181246,-19461.820359447047,-11131.258145720738
9846.166950007317,43437.486104665535,-19469.017621161656,-11129.20178523085
9842.99300229466,43434.26745346397,-19465.888376937917,-11136.287288223182
9845.965784307216,43437.84373257682,-19462.826187947536,-11134.320334711116
9846.681040129786,43440.83886633383,-19466.067190893555,-11142.992811559774
9851.71018263223,43448.37140421527,-19465.888376937917,-11138.321296968616
9849.027973297594,43444.1022210243,-19473.66678400836,-11138.00837254624
9852.268976243611,43439.94479655562,-19474.203225875288,-11139.7294568693
9852.38073496589,43442.31408146788,-19473.353859585983,-11142.992811559774
9858.348650735456,43446.96324431458,-19469.732876984224,-11147.932547084398
9859.75681063614,43450.22659900506,-19465.95543217128,-11149.675983151912
9857.365173979422,43443.766944857474,-19467.274185094146,-11145.004468560752
9849.877339586896,43433.93217729714,-19471.364554329462,-11144.982116816296
9852.492493688163,43437.620215132265,-19473.219749119253,-11143.551605171157
9855.688793145277,43447.16441001468,-19475.43257182033,-11145.004468560752
9859.28742400258,43450.628930405255,-19476.214882876266,-11145.07152379412
9855.062944300524,43443.8563518353,-19485.624967291948,-11144.959765071842
9847.485702930177,43435.675613364656,-19492.48695283973,-11147.753733128757
9849.899691331351,43437.486104665535,-19489.067135938065,-11147.217291261828
9856.918139090318,43445.71154662508,-19482.83099923504,-11147.753733128757
9859.779162380595,43452.41706996168,-19480.28290036713,-11148.290174995682
9857.588691423976,43448.63962514873,-19481.66870852336,-11139.908270824944
9854.90648208934,43443.47637217955,-19486.34022311452,-11140.355305714049
9853.274804744102,43439.05072677741,-19488.843618493516,-11146.166759272428
9854.414743711322,43441.68823262313,-19486.96607195927,-11151.553529686158
9856.13582803438,43446.33739546983,-19488.106010926487,-11151.307660497148
9847.150426763348,43441.37530820075,-19495.01269996318,-11152.984041331298
9837.248603969649,43432.3004999519,-19498.81249652058,-11157.25322452226
9842.61302263892,43430.98174702904,-19490.877627238944,-11152.760523886744
9848.893862830862,43435.89913080921,-19482.696888768303,-11150.77121863022
9852.559548921532,43439.96714830007,-19480.7969904896,-11154.883939609996
9848.491531430664,43432.41225867418,-19484.395621346903,-11160.82950363511
9843.596499394956,43423.6503748477,-19488.73185977124,-11161.54475945768
9846.681040129786,43422.97982251404,-19487.9495487153,-11161.790628646688
9851.598423909954,43424.43268590364,-19484.350917857995,-11165.97040485983
9858.058078057538,43431.07115400686,-19479.67940326684,-11170.418402006437
9847.70922037473,43423.13628472522,-19491.414069105875,-11172.720631685334
9846.636336640877,43419.381191656736,-19493.984519718237,-11166.462143237846
9848.066848286016,43419.47059863456,-19490.22942664974,-11164.674003681424
9854.392391966869,43431.6522993627,-19483.03216493513,-11165.143390314985
9852.961880321727,43441.42001168967,-19480.37230734495,-11167.669137438434
9846.5245779186,43438.51428491048,-19487.97190045976,-11164.83046589261
9844.199996495248,43430.08767725083,-19488.262473137675,-11162.103553069062
9846.792798852062,43430.06532550637,-19483.702717268792,-11163.243492036285
9852.38073496589,43437.68727036563,-19479.165313144364,-11163.48936122529
9857.700450146252,43445.5550844139,-19473.912653197367,-11164.137561814496
9854.23592975568,43439.2518924775,-19476.9971939322,-11162.63999493599
9848.938566319772,43428.9030347947,-19479.254720122182,-11160.091896068085
9851.62077565441,43429.79710457291,-19474.18087413083,-11158.817846634132
9856.828732112495,43437.73197385454,-19472.52684504114,-11163.377602503017
9862.461371715232,43449.01960480448,-19471.409257818374,-11166.752715915763
9856.13582803438,43442.26937797897,-19480.23819687822,-11165.769239159732
9854.057115800038,43433.48514240803,-19479.7464585002,-11157.789666389188
9858.326298991002,43433.59690113031,-19476.41604857636,-11159.35428850106
9858.773333880108,43436.54733139841,-19472.77271423015,-11162.125904813518
9859.66740365832,43441.040032033925,-19468.65999325037,-11164.249320536772
9855.867607100918,43439.02837503295,-19472.32567934104,-11159.756619901254
9852.917176832816,43433.283976707935,-19474.22557761974,-11154.72747739881
9853.76654312212,43433.149866241205,-19471.67747875184,-11151.64293666398
9852.827769854995,43435.27328196446,-19473.018583419154,-11153.54283494268
9856.560511179032,43445.28686348043,-19472.973879930243,-11156.649727421967
9856.739325134677,43450.42776470516,-19476.05842066508,-11153.095800053574
9849.899691331351,43441.88939832323,-19484.77560100265,-11148.625451162512
9848.692697130764,43437.84373257682,-19484.552083558094,-11152.224082019817
9846.61398489642,43442.49289542352,-19483.9485864578,-11155.39802973247
9862.841351370971,43456.46273570809,-19473.42091481935,-11156.850893122066
9868.317528762524,43456.015700818985,-19469.799932217597,-11158.460218722848
9853.05128729955,43443.565779157376,-19475.9466619428,-11159.846026879077
9852.224272754702,43438.111953510284,-19476.61721427646,-11160.628337935012
9857.879264101895,43440.36947970027,-19476.348993343,-11166.819771149132
9862.66253741533,43450.42776470516,-19472.079810152038,-11166.193922304385
9865.85883687244,43452.93116008416,-19475.9466619428,-11166.462143237846
9859.66740365832,43446.02447104746,-19479.38883058892,-11163.467009480835
9856.560511179032,43445.376270458255,-19478.025374177145,-11160.538930957193
9858.259243757637,43448.0584797929,-19476.61721427646,-11165.366907759537
9858.035726313085,43452.5064769395,-19479.254720122182,-11173.59234971909
9859.421534469311,43456.88741885274,-19481.1993218898,-11164.942224614886
9853.274804744102,43446.67267163666,-19486.13905741442,-11160.807151890654
9852.00075531015,43441.88939832323,-19481.445191078805,-11162.729401913812
9853.56537742202,43444.43749719113,-19471.297499096097,-11165.679832181911
9858.14748503536,43452.77469787296,-19468.570586272548,-11167.646785693978
9857.09695304596,43457.51326769749,-19474.314984597564,-11173.34648053008
9849.363249464424,43449.51134318249,-19475.83490322052,-11170.30664328416
9849.51971167561,43445.28686348043,-19470.112856639964,-11161.745925157777
9852.179569265792,43446.51620942548,-19465.106065881977,-11162.707050169356
9851.33020297649,43447.67850013715,-19462.960298414266,-11168.652614194469
9853.543025677563,43450.42776470516,-19456.053609377577,-11164.226968792316
9849.653822142342,43442.13526751224,-19456.72416171124,-11158.6837361674
9849.027973297594,43438.00019478801,-19457.68528672281,-11155.085105310096
9847.508054674632,43434.87095056426,-19463.58614725901,-11159.622509434525
9849.720877375708,43440.81651458937,-19462.46856003625,-11163.958747858853
9852.268976243611,43443.99046230203,-19464.61432750396,-11161.991794346786
9845.250528484648,43433.32868019685,-19472.57154853005,-11163.154085058462
9844.132941261882,43425.08088649284,-19471.14103688491,-11162.438829235893
9847.530406419088,43426.73491558253,-19467.85533044998,-11163.243492036285
9852.492493688163,43434.44626741961,-19468.05649615008,-11162.282367024703
9856.471104201211,43440.68240412264,-19472.90682469688,-11163.243492036285
9853.386563466378,43438.13430525474,-19478.47240906625,-11163.06467808064
9848.826807597496,43427.76309582748,-19478.539464299614,-11162.438829235893
9850.816112854018,43427.249005705,-19473.55502528608,-11159.466047223335
9856.33699373448,43436.99436628752,-19469.777580473132,-11159.801323390166
9864.405973482844,43446.8067821034,-19469.41995256185,-11158.460218722848
9861.209674025737,43441.53177041194,-19474.98553693122,-11160.717744912834
9860.606176925445,43435.60855813129,-19469.308193839574,-11160.87420712402
9857.812208868529,43433.10516275229,-19469.732876984224,-11168.630262450011
9860.203845525248,43438.51428491048,-19471.69983049629,-11170.820733406632
9863.310738004537,43446.292691980925,-19470.53753978461,-11169.25611129476
9853.85595009994,43439.4530581776,-19476.751324743196,-11168.92083512793
9847.016316296616,43429.46182840608,-19478.606519532983,-11166.462143237846
9844.490569173166,43425.25970044848,-19478.025374177145,-11169.725497928324
9852.581900665988,43431.473485407056,-19472.52684504114,-11164.40578274796
9859.510941447132,43441.665880878674,-19469.308193839574,-11160.360117001548
9854.70531638924,43435.675613364656,-19476.46075206527,-11158.236701278294
9848.312717475024,43428.14307548322,-19478.4500573218,-11153.408724475948
9857.208711768237,43429.90886329518,-19470.09050489551,-11150.324183741115
9858.438057713278,43434.64743311971,-19468.41412406136,-11152.11232329754
9856.471104201211,43438.51428491048,-19471.364554329462,-11159.197826289872
9852.09016228797,43433.79806683041,-19476.9971939322,-11160.091896068085
9851.509016932132,43426.77961907144,-19472.973879930243,-11150.97238433032
9847.66451688582,43422.175159713646,-19473.912653197367,-11155.576843688112
9846.85985408543,43426.444342904615,-19472.37038282995,-11163.176436802916
9850.749057620653,43437.26258722098,-19472.75036248569,-11162.550587958169
9854.66061290033,43438.06725002137,-19477.24306312121,-11156.716782655332
9853.05128729955,43432.36755518527,-19476.125475898443,-11155.219215776828
9852.827769854995,43431.54054064042,-19469.53171128413,-11159.242529778783
9856.80638036804,43436.54733139841,-19469.12937988393,-11163.332899014104
9857.65574665734,43440.3024244669,-19467.65416474988,-11163.936396114395
9854.23592975568,43442.515247167976,-19472.035106663123,-11162.34942225807
9845.42934244029,43435.16152324218,-19481.914577712367,-11165.791590904188
9835.058133013026,43425.63968010422,-19488.865970237966,-11172.273596796227
9829.649010854842,43428.43364816113,-19485.177932402843,-11172.20654156286
9842.90359531684,43442.73876461253,-19476.438400320814,-11165.858646137554
