 EXG Channel 0, EXG Channel 1, EXG Channel 2, EXG Channel 3
17717.691387854982,-6293.804203725363,-9477.430221728113,-702.9176596304965
16676.97181427143,-6452.412182380222,-9495.199858570082,-745.2965671177587
16357.587737749547,-6430.306307113923,-9477.40786998366,-733.2936803452588
17000.200390839625,-6289.602075767765,-9430.849186283254,-691.7641391472982
17787.160609622075,-6201.849127036229,-9422.646096068156,-669.5241534142677
17622.58471519765,-6323.889651762206,-9481.006500840962,-708.9079271445188
16503.812849976166,-6491.99712181057,-9507.560373253868,-745.1177531621163
16392.992900966754,-6428.22759487958,-9464.35445122176,-723.3248023181918
17000.803887939917,-6322.325029650335,-9442.829721311298,-696.1674328049937
17800.146973150608,-6222.546842401844,-9440.616898610222,-673.3686534605806
17602.24462774332,-6323.800244784385,-9484.895704376186,-711.4783777568791
16481.617567732046,-6480.016586782526,-9507.426262787136,-751.3985933540575
16441.563241668136,-6403.685379467653,-9464.265044243935,-712.1042266016277
17072.3294701969,-6299.973285195028,-9446.428352168605,-677.9507610739186
17852.539462153847,-6217.271830710391,-9430.33509616078,-660.2481794653153
17588.72182234786,-6336.20546295708,-9484.87335263173,-703.1188253305943
16480.25411132027,-6485.604522896353,-9523.296001350403,-745.900064218052
16458.617622687536,-6412.313152827401,-9477.005538583462,-710.5843079786669
17086.18755175919,-6299.973285195028,-9448.618823125224,-676.453194195413
17856.607479644714,-6218.9705632889945,-9445.891910301676,-663.1986097334159
17543.07956017012,-6359.11600102377,-9508.409739543167,-708.3267817886808
16447.97819232681,-6508.850337129872,-9537.735228268532,-745.6988985179543
16453.454369718358,-6430.418065836199,-9493.21055331356,-721.9166424175075
17083.170066257724,-6313.049055701382,-9457.626576140712,-691.741787402843
17865.01173555991,-6207.168842216593,-9446.16013123514,-664.450307422913
17512.45767026635,-6347.716611351563,-9502.017140628952,-706.963325376907
16434.41068344244,-6493.606447411353,-9528.16868164166,-745.0059944398397
16492.324053326138,-6383.635864691242,-9493.702291691578,-714.674677213988
17136.322514572443,-6264.232845810991,-9444.349639934258,-685.5056506998123
17889.978634116487,-6177.0610424352935,-9438.761703820432,-668.9206563139745
17475.331422726085,-6327.421227386145,-9504.051149374383,-715.2781743142813
16428.06278801713,-6465.085621486381,-9522.580745527834,-745.967119451418
16519.973161217353,-6378.673777422164,-9469.227131513017,-716.9545551484293
17159.277756128045,-6278.068575628827,-9450.563424892836,-690.6689036689883
17903.054404622842,-6195.948266500029,-9462.72277387652,-670.3288162146588
17431.410244871407,-6355.584425399831,-9495.132803336715,-718.2509563268371
16401.173639437395,-6490.231333998601,-9505.392254041702,-745.5871397956777
16523.258867652283,-6396.197545075124,-9463.929768077109,-711.5230812457897
17177.382669136845,-6272.324177303813,-9413.034845952374,-677.4366709514464
17915.034939650886,-6199.055158979316,-9414.040674452865,-664.740880100832
17396.563875265583,-6374.829277375851,-9484.046338086884,-718.4297702824796
16378.37486009298,-6501.720130648629,-9509.348512810291,-746.7941339962642
16523.37062637456,-6408.066321380892,-9461.895759331675,-716.0157818813065
17187.68682333074,-6305.650628286676,-9421.975543734496,-694.5581072042116
17916.510154784937,-6234.66148789662,-9426.28943041437,-671.9828453043515
17357.11304630197,-6398.231553820558,-9483.331082264314,-721.804883695231
16370.99878442273,-6500.3119707479445,-9490.97537886803,-750.8845032315854
16579.004118323817,-6375.544533198421,-9452.731544105,-719.3461918051472
17266.4767225357,-6254.8898166286735,-9431.206814194538,-688.0537495677173
17964.119370474742,-6198.563420601299,-9436.124197974706,-676.0732145396727
17330.179194233322,-6376.148030298714,-9509.750844210488,-731.4384855554683
16370.976432678275,-6473.422822168211,-9513.863565190264,-755.4442591004681
16604.57451398069,-6366.045041804915,-9463.77330586592,-716.7757411927869
17275.84210346247,-6259.874255642207,-9443.29910794486,-685.2374297663487
17956.07274247083,-6199.457490379512,-9443.6790876006,-674.486240683346
17280.759487242638,-6370.6495011627085,-9504.051149374383,-728.6892209874655
16357.341868560536,-6444.522016587498,-9500.743091195,-746.1682851515156
16640.493767320368,-6332.003334999483,-9473.20574202606,-709.9808108783735
17320.500888884173,-6231.8228163507965,-9441.354506177247,-683.225772765371
17969.774361821936,-6186.269961150881,-9428.591660093269,-677.6154849070889
17250.763446183617,-6369.442506962122,-9501.480698762023,-737.5628635362225
16339.66163869639,-6470.204170966646,-9510.421396544149,-758.8640760021301
16612.44232802896,-6371.297701751912,-9469.964739080042,-722.4530842844349
17307.492173611186,-6261.036546353883,-9449.289375458882,-694.9827903488625
17955.759818048457,-6208.912278284107,-9439.38755266518,-686.9138106004966
17208.49629741863,-6386.563943214887,-9510.622562244243,-743.5978345391553
16354.078513870065,-6459.140057461269,-9522.73720773902,-757.9700062239178
16670.132180468107,-6353.192788743114,-9449.44583767007,-712.99829637984
17357.515377702162,-6265.149267333659,-9428.010514737429,-686.5785344336671
17958.419675638637,-6226.167825003604,-9447.612994624737,-677.5037261848124
17167.72671553215,-6404.892373668239,-9505.951047653083,-725.738790719365
16341.114502085986,-6469.265397699523,-9498.373806282736,-734.4112675680242
16662.644346075576,-6362.222893503058,-9466.902550089664,-699.8107671512088
17378.01192736768,-6244.339793245768,-9426.937631003577,-673.8156883496868
17966.75687632047,-6198.049330478827,-9444.707267845544,-667.7360138578432
17131.606296492373,-6382.0935943238255,-9517.529251280934,-724.4423895409572
16341.449778252814,-6440.856330496828,-9496.697425448589,-735.3947443240577
16699.837648849207,-6338.753561824985,-9456.129009262206,-706.8292149101752
17414.82525048557,-6236.337868730769,-9435.900680530152,-685.1033192996168
17975.18348398012,-6191.7908420313415,-9450.742238848476,-678.1966302629269
17098.369252487333,-6388.866172893784,-9514.534117523925,-737.3616978361247
16338.879327640454,-6447.740667789062,-9508.63325698772,-751.3985933540575
16717.607285691178,-6341.547529881898,-9473.317500748337,-718.8097499382199
17425.241163401744,-6237.500159442444,-9447.881215558198,-691.6076769361111
17938.21369865104,-6210.052217251327,-9476.290282760892,-688.6795984124659
17039.2712401475,-6410.2120888486015,-9533.041361932916,-744.0001659393508
16333.939592115832,-6456.949586504649,-9494.998692869984,-746.8611892296302
16732.851175409698,-6360.345346968812,-9476.647910672178,-720.8214069391975
17478.460666949828,-6240.942328088561,-9469.227131513017,-694.1557758040161
17965.70634433107,-6202.631438092165,-9473.719832148532,-689.3054472572145
17042.60165007134,-6392.084824095348,-9510.711969222066,-742.8825787165855
16378.37486009298,-6435.514263572009,-9510.55550701088,-750.6609857870324
16785.08720220175,-6331.466893132555,-9474.278625759916,-718.9885638938623
17499.292492782177,-6245.390325235167,-9463.6838988881,-690.937124602452
17932.044617181375,-6244.339793245768,-9478.816029884343,-689.5736681906782
16974.764105649487,-6427.981725690571,-9508.92382966564,-742.3908403385688
16364.919109930886,-6431.155673403225,-9495.088099847806,-736.0429449132615
16808.869458302197,-6321.006276727471,-9467.39428846768,-701.5318514742675
17532.820109465138,-6223.016229035406,-9433.307878173337,-675.3803104615582
17930.234125880495,-6229.118255271704,-9463.706250632556,-682.2199442648822
16943.35990468978,-6431.423894336688,-9508.297980820891,-736.8029042247421
16364.449723297326,-6443.471484598099,-9475.127992049216,-722.7213052178986
16810.255266458425,-6329.879919276228,-9443.746142833968,-689.0819298126614
17535.412911821953,-6238.818912365307,-9441.91329978863,-671.2675894817817
17892.862009151224,-6254.174560806104,-9452.508026660444,-686.6902931559436
16899.77400300193,-6431.580356547875,-9504.297018563391,-741.2509013713482
16380.118296160495,-6427.110007656814,-9491.757689923965,-724.6659069855103
16858.04329610387,-6346.599024128798,-9446.54011089088,-702.4929764858457
17572.785028551225,-6269.016119124427,-9432.100883972753,-690.7136071578989
17862.597747158736,-6246.9102438581285,-9454.743201105975,-695.161604304505
16909.273494395435,-6398.857402665306,-9505.839288930809,-740.5356455487783
16340.175728818862,-6440.297536885445,-9505.88399241972,-743.1284479055939
16800.21933319799,-6350.823503830851,-9468.735393135,-707.6562294550216
17574.863740785568,-6230.1240837721925,-9449.356430692247,-674.7768133612649
17874.086543808764,-6236.069647797304,-9471.238788513994,-686.3997204780246
16837.636153416177,-6420.002152920027,-9513.461233790067,-730.902043688541
16377.883121714964,-6411.284972582456,-9494.842230658798,-718.8097499382199
16868.95094739806,-6292.53015429141,-9466.790791367388,-684.2763047547704
17621.422424485972,-6191.992007731439,-9451.032811526396,-663.3103684556924
17852.695924365034,-6230.548766916843,-9467.327233234317,-681.1247087865721
16786.361251635703,-6431.803873992429,-9511.270762833448,-730.902043688541
16370.57410127808,-6432.027391436982,-9483.30873051986,-715.9934301368511
16885.938273184096,-6311.998523711983,-9449.512892903434,-680.0518250527174
17649.987953899858,-6200.530374113367,-9432.145587461662,-655.2637404517818
17840.938906781543,-6257.393212007668,-9452.15039874916,-676.4755459398682
16770.84914098372,-6443.627946809286,-9503.268838318449,-730.9467471774516
16402.91707550491,-6416.336466829356,-9478.905436862164,-718.7426947048539
16932.54166037341,-6312.110282434259,-9442.136817233184,-684.5668774326894
17702.02281499181,-6235.041467552361,-9412.297238385348,-663.2656649667817
17836.759130568404,-6303.4378055856005,-9460.44289594208,-690.6242001800777
16745.41285579358,-6455.429667881688,-9510.60021049979,-741.2732531158034
16432.35432295255,-6396.93515264215,-9475.910303105153,-722.2072150954265
16975.83698938334,-6303.795433496885,-9447.255366713449,-697.3073717722144
17735.8857078416,-6223.575022646788,-9436.951212519552,-678.9118860854967
17824.935057751543,-6286.986921666494,-9482.995806097486,-702.4482729969351
16739.757864446387,-6451.339298646367,-9528.906289208686,-750.705689275943
16450.727456894812,-6413.520147027987,-9514.064730890364,-739.0827821591834
16989.248036056524,-6314.568974324343,-9464.510913432949,-706.0692555986948
17754.303545272774,-6221.0269237788825,-9443.366163178223,-677.2802087402594
17787.85351370019,-6296.084081659804,-9485.432146243113,-699.5425462177451
16674.20019795897,-6480.910656560738,-9527.36401884127,-745.1401049065715
16425.313523449127,-6439.962260718616,-9500.899553406183,-727.9516134204404
17001.630902484765,-6322.68265756162,-9469.674166402125,-697.128557816572
17789.976929423443,-6203.592563103744,-9423.808386779832,-669.0100632917957
17762.37252502114,-6275.296959316369,-9465.293224488882,-696.9273921164743
16648.808616257742,-6459.430630139188,-9509.5943819993,-744.8271804841972
16471.514579238246,-6402.187812589146,-9472.468134459035,-723.3918575515578
17055.923289766706,-6268.882008657695,-9426.043561225362,-681.1694122754827
17818.542458837328,-6185.375891372668,-9409.525622072892,-655.5319613852455
17749.341458003695,-6295.413529326145,-9467.10371578976,-690.7136071578989
16659.403343129557,-6461.017603995515,-9487.913189877652,-736.6464420135549
16509.736062256823,-6406.166423102191,-9452.798599338365,-710.5619562342115
17068.194397472667,-6319.061674959859,-9431.028000238895,-687.0032175783178
17833.51812762238,-6228.380647704679,-9415.694703542556,-670.3064644702035
17719.613637878138,-6331.5563001103765,-9478.413698484148,-705.8457381541417
16618.43259554298,-6497.875630602316,-9521.194937371603,-753.9466922219625
16510.004283190287,-6427.17706289018,-9471.64111991419,-727.482226786879
17109.098089825882,-6313.116110934748,-9438.33702067578,-697.7320549168653
17872.566625185806,-6209.538127128855,-9437.085322986284,-676.8331738511532
17708.527172628306,-6303.996599196983,-9486.505029976968,-707.1644910770049
16605.75915643682,-6471.299406444956,-9518.468024548058,-748.6940322749654
16506.53976279971,-6413.587202261353,-9486.661492188156,-724.0847616296722
17094.725918141117,-6303.393102096689,-9481.989977596995,-691.9876565918513
17861.368401213695,-6199.233972934959,-9453.469151672023,-671.6475691375219
17702.000463247357,-6297.24637237148,-9490.438937001103,-707.3433050326473
16655.648250061065,-6454.89322601476,-9532.773140999454,-746.5929682961665
16445.139520780984,-6416.448225551632,-9480.984149096508,-725.8505494416415
17068.75319108405,-6303.415453841145,-9450.58577663729,-685.6844646554548
17866.330488482774,-6205.224240448981,-9437.82293055331,-654.9955195183181
17615.87919186106,-6330.528119865432,-9486.125050321229,-690.9818280913626
16550.438588909936,-6474.987444280082,-9515.674056491143,-723.3471540626472
16542.906051028498,-6378.271446021968,-9462.812180854342,-694.8039763932201
17142.022209408547,-6279.029700640404,-9428.122273459709,-663.1315545000499
17895.54421848586,-6197.870516523185,-9421.90848850113,-642.903225767997
17585.302005446196,-6331.332782665823,-9475.083288560309,-687.51730770079
16518.78851876122,-6482.274112972512,-9516.344608824804,-731.3937820665577
16540.357952160593,-6397.471594509077,-9459.749991863966,-700.8836508850636
17161.177654406747,-6293.91596244764,-9433.039657239871,-671.5134586707901
17909.491707025973,-6207.213545705503,-9438.068799742316,-658.5941503756226
17552.55669981917,-6333.143273966703,-9484.560428209355,-698.9614008619071
16524.108233941584,-6475.61329312483,-9502.55358249588,-729.0021454098398
16588.011871339306,-6398.231553820558,-9487.957893366563,-705.5998689651334
17221.750881880627,-6268.054994112849,-9442.293279444371,-671.4687551818795
17960.051352983875,-6186.158202428604,-9425.752988547443,-655.5990166186115
17534.965876932845,-6343.805056071885,-9497.323274293336,-712.2159853239042
16514.228762892337,-6470.539447133476,-9523.921850195153,-737.3616978361247
16602.5181534908,-6384.954617614105,-9504.676998219133,-706.7621596768093
17243.61088795792,-6258.846075397262,-9453.96089005004,-670.6864441259437
17976.770457836446,-6153.591710757221,-9423.920145502108,-645.4289728914467
17497.2808357812,-6310.165680666648,-9485.20862879856,-695.8545083826194
16479.717669453345,-6452.747458547051,-9506.68865522011,-726.6999157309432
16606.876743659584,-6369.956597084594,-9465.941425078086,-696.1897845494491
17250.048190361045,-6262.601168465754,-9448.507064402946,-667.9595313023963
17957.50325411597,-6174.445888334023,-9440.34867767676,-653.3638421730808
17432.17020418289,-6323.912003506662,-9497.16681208215,-698.0226275947842
16446.838253359587,-6441.75040027504,-9498.68673070511,-722.2519185843371
16604.283941302772,-6352.522236409454,-9458.16301800764,-691.8982496140301
17265.515597524118,-6240.584700177276,-9434.33605841828,-661.2093044768935
17967.002745509475,-6177.664539535587,-9430.402151394148,-647.775906059254
17409.885514960948,-6339.580576369832,-9484.247503786984,-697.6649996834993
16462.77504715622,-6444.164388676213,-9492.897628891184,-726.09641863065
16663.53841585379,-6344.855588061284,-9457.760686607444,-696.2791915272703
17316.47757488222,-6249.547749703855,-9439.633421854189,-669.904133070008
17983.386574195218,-6197.669350823087,-9433.017305495418,-655.1519817295053
17366.701944673296,-6367.699070894608,-9489.92484687863,-701.5318514742675
16448.60404117156,-6453.0603829694255,-9496.49625974849,-718.7426947048539
16678.290567194294,-6352.768105598463,-9482.034681085906,-690.7583106468095
17345.71365662976,-6250.911206115628,-9459.146494763672,-662.2821882107482
18006.00653958399,-6172.657748777599,-9425.529471102893,-652.5368276282344
17356.308383501575,-6334.462026889566,-9477.072593816829,-701.4871479853568
16466.999526858275,-6426.618269278797,-9487.555561966368,-722.5201395178008
16721.004750848384,-6320.380427882723,-9450.764590592931,-691.8758978695748
17376.357898277987,-6227.017191292905,-9440.572195121313,-674.6203511500778
18007.19118204012,-6185.599408817221,-9449.177616736606,-678.3530924741141
17309.101499211967,-6368.526085439455,-9527.565184541369,-736.579386780189
16434.34362820907,-6458.782429549984,-9525.7993967294,-754.6395963000771
16693.892084824096,-6383.568809457875,-9471.417602469635,-727.0575436422281
17367.618366195962,-6279.029700640404,-9449.512892903434,-697.7991101502312
17990.270911487452,-6211.661542852109,-9456.173712751117,-684.0080838213067
17263.012202145124,-6380.417213489677,-9506.465137775558,-734.6347850125773
16433.069578775117,-6462.425763896199,-9500.40781502817,-747.5317415632894
16725.899782884095,-6355.763239355474,-9460.755820364457,-712.5736132351892
17408.45500331581,-6242.708115900531,-9445.735448090489,-680.2529907528151
18007.593513440315,-6181.240818648436,-9443.58968062278,-666.3949091905248
17223.94135283725,-6365.598006915809,-9493.679939947122,-714.1829388359713
16425.693503104867,-6440.833978752373,-9486.706195677069,-719.770874949798
16752.721876230466,-6352.231663731535,-9445.713096346031,-684.7680431327872
17432.93016349437,-6254.576892206299,-9434.134892718184,-659.7340893428433
18001.446783715106,-6191.388510631145,-9421.39439837866,-645.0936967246172
17184.937558762736,-6372.124716296758,-9478.816029884343,-693.3958164925357
16416.842212300566,-6433.837882737861,-9472.624596670224,-701.2189270518932
16756.6557832546,-6333.925585022639,-9441.15334047715,-674.0615575386951
17439.211003686312,-6244.362144990224,-9446.316593446329,-659.7564410872985
17975.585815380313,-6207.37000791669,-9461.24755874247,-663.4891824113348
17136.38956980581,-6375.589236687331,-9479.464230473546,-713.065351613206
16421.11139549153,-6409.005094648015,-9470.34471873578,-714.9428981474517
16787.300024902826,-6314.636029557709,-9448.372953936214,-689.9759995908737
17489.41302173293,-6222.9044703131285,-9444.01436376743,-675.3803104615582
17990.829705098833,-6207.079435238771,-9473.138686792694,-679.224810507871
17098.592769931885,-6409.027446392471,-9563.104458225303,-739.5745205372001
16411.254276186737,-6454.08856321437,-9525.061789162371,-743.5531310502447
16798.98998725295,-6346.241396217513,-9480.15713455166,-708.8855754000635
17498.532533470694,-6233.275679740391,-9481.677053174622,-687.51730770079
17957.07857097132,-6228.559461660321,-9484.716890420545,-688.4560809679128
17031.246963888047,-6426.730028001074,-9535.008315444984,-734.5006745458454
16384.454534584827,-6450.177007934691,-9511.091948877804,-732.6231280115996
16802.74508032144,-6347.873073562751,-9471.864637358742,-692.6135054365999
17527.07571114012,-6258.846075397262,-9445.646041112666,-663.1315545000499
17951.043599968387,-6253.280491027891,-9470.322366991326,-667.4454411799242
16995.17124833718,-6421.298554098435,-9514.131786123728,-714.8981946585411
16396.859752757522,-6423.869004710795,-9484.336910764803,-711.7242469458874
16841.39124648467,-6313.160814423659,-9450.809294081842,-672.5192871712788
17562.838502268613,-6224.491444169456,-9444.327288189805,-645.160751957983
17945.008628965454,-6247.178464791592,-9456.173712751117,-653.9226357844634
16962.381239221246,-6442.51035958652,-9500.698387706088,-708.4385405109573
16400.279569659182,-6444.857292754328,-9476.267931016437,-706.1139590876054
16861.127836838703,-6321.810939527863,-9440.460436399037,-670.6864441259437
17591.158162493488,-6228.0677232823045,-9429.7763025494,-652.1344962280389
17937.45373933956,-6244.5633106903215,-9453.938538305583,-668.5853801471449
16936.453215653088,-6430.976859447582,-9507.78389069842,-726.7446192198538
16429.962686295832,-6408.021617891982,-9481.945274108086,-718.6532877270326
16921.67871256813,-6281.644854741676,-9439.700477087556,-687.6961216564324
17677.1229716686,-6178.446850591523,-9425.663581569625,-670.2170574923823
17979.586777637815,-6210.275734695881,-9466.231997756006,-696.9720956053849
16947.852605325294,-6408.513356269998,-9524.36888508426,-757.9253027350072
16461.12101806653,-6410.882641182261,-9493.50112599148,-753.3208433772139
16935.089759241317,-6308.578706810321,-9460.465247686536,-729.4268285544907
17677.68176527998,-6186.337016384246,-9447.501235902457,-706.739807932354
17937.45373933956,-6215.103711498226,-9489.008425355963,-725.4258662969908
16884.53011328341,-6432.295612370445,-9560.93633901314,-788.8154135722416
16442.904346335454,-6432.921461215194,-9526.112321151772,-778.4218524005238
16923.846831780294,-6334.8420065453065,-9474.25627401546,-742.2120263829263
17664.807160473723,-6249.57010144831,-9475.820896127332,-719.8155784387086
17877.998099088443,-6300.196802639581,-9525.128844395738,-738.5239885478006
16827.108481777726,-6478.116688503825,-9526.112321151772,-778.3771489116132
16426.72168334981,-6456.010813237526,-9491.601227712776,-761.2110091699374
16935.15681447468,-6344.5873671278205,-9471.64111991419,-727.2587093423259
17678.888759480567,-6258.28728178588,-9474.59155018229,-704.5493369757339
17852.00302028692,-6321.855643016773,-9482.21349504155,-717.222776081893
16789.959882493007,-6490.611313654342,-9501.5924574843,-751.8456282431637
16426.699331605356,-6438.442342095655,-9470.836457113795,-725.2917558302589
16957.530910674443,-6325.230756429524,-9432.05618048384,-690.6912554134435
17733.27055374033,-6224.111464513715,-9414.063026197318,-663.8244585781645
17878.087506066266,-6263.003499865949,-9452.195102238073,-681.7058541424101
16808.824754813286,-6423.645487266242,-9503.380597040725,-725.4035145525354
16483.69627996639,-6401.338446299845,-9467.930730334609,-712.9759446353847
17007.64352174324,-6300.867354973239,-9434.20194795155,-687.8525838676195
17766.060562856266,-6197.758757800908,-9427.161148448127,-666.2160952348823
17854.014677287898,-6251.4923514714665,-9466.835494856296,-689.6407234240442
16764.2553763694,-6435.290746127456,-9512.276591333935,-742.0555641717392
16484.7915154447,-6405.607629490809,-9480.35830025176,-726.6999157309432
17016.584219525364,-6311.238564400503,-9457.090134273783,-700.1236915735831
17778.21991183995,-6212.197984719037,-9449.915224303631,-675.8944005840302
17807.14306916512,-6274.380537793701,-9484.78394565391,-703.0964735861389
16718.613114191667,-6445.550196832442,-9521.21728911606,-748.9846049528844
16493.531047526725,-6397.1810218311575,-9482.54877120838,-723.9059476740298
17044.94858323915,-6301.649666029176,-9457.06778252933,-693.4852234703569
17808.260656387887,-6198.8986967681285,-9440.885119543687,-667.5571999022008
17792.99441492491,-6266.557427234344,-9486.572085210337,-694.8486798821307
16699.949407571487,-6444.387906120766,-9525.330010095837,-747.352927607647
16508.730233756334,-6392.062472350893,-9488.740204422498,-731.1032093886387
17061.779446813995,-6302.655494529664,-9458.073611029818,-702.515328230301
17811.233438400443,-6230.012325049916,-9445.042544012374,-683.2034210209157
17731.258896739353,-6322.168567439147,-9495.512782992457,-710.2937353007478
16653.748351782364,-6459.385926650278,-9512.433053545124,-739.6192240261107
16519.436719350426,-6393.64944620722,-9452.06099177134,-717.0886656151612
17118.508174241564,-6270.491334258478,-9435.05131424085,-681.7952611202313
17888.19049456006,-6169.148524898115,-9409.279752883882,-658.3706329310695
17755.622298195638,-6270.312520302835,-9465.717907633532,-697.4638339834016
16658.598680329167,-6445.907824743727,-9498.06088186036,-731.3937820665577
16556.406504679504,-6379.254922778002,-9454.653794128157,-701.6212584520887
17140.01055240757,-6274.872276171717,-9443.567328878324,-675.8273453506644
17895.723032441503,-6189.756833285908,-9463.460381443549,-659.1976474759159
17708.638931350582,-6293.8712589587285,-9459.63823314169,-687.673769911977
16612.129403606585,-6447.025411966492,-9477.609035683756,-725.3364593191695
16562.21795823788,-6374.06931806437,-9445.780151579398,-697.3967787500357
17147.543090289008,-6283.276532086913,-9431.989125250477,-675.2461999948264
17899.67929121009,-6203.033769492361,-9431.96677350602,-658.6165021200779
17665.25419536283,-6315.083064446815,-9485.432146243113,-699.1849183064602
16578.311214245703,-6470.695909344663,-9516.992809414009,-746.9058927185408
16548.69515284242,-6406.769920202484,-9481.989977596995,-721.4919592728567
17147.140758888814,-6304.018950941438,-9445.131950990197,-693.5522787037229
17902.763831944925,-6201.670313080587,-9435.788921807876,-669.5018016698125
17620.64011343004,-6329.522291364943,-9486.482678232513,-709.1090928446166
16540.02267599376,-6475.635644869286,-9507.001579642483,-748.0458316857614
16553.27726045576,-6396.309303797401,-9471.708175147554,-716.7533894483316
17184.64698608482,-6293.267761858436,-9454.49733191697,-687.9419908454407
17945.79094002139,-6177.776298257863,-9426.781168792388,-658.7506125868098
17623.88111637606,-6286.629293755209,-9460.64406164218,-696.1227293160831
16574.08673454365,-6445.505493343532,-9493.612884713755,-736.6240902690996
16621.85241244464,-6381.646559434719,-9460.487599430991,-706.7174561878987
17247.92477463779,-6291.949008935572,-9436.660639841632,-672.3404732156364
17951.825911024323,-6228.917089571606,-9439.76753232092,-656.1354584855388
17568.873473271546,-6340.92168103715,-9522.916021694664,-694.1557758040161
16547.398751664015,-6452.948624247149,-9526.581707785332,-721.2460900838483
16618.43259554298,-6370.046004062415,-9439.34284917627,-690.355979246614
17237.754730910627,-6274.782869193897,-9415.985276220474,-669.1888772474382
17961.817140795843,-6200.932705513562,-9426.311782158826,-655.196685218416
17525.868716939534,-6356.456143433588,-9487.77907941092,-702.6494386970328
16515.949847215397,-6480.687139116185,-9497.54679173789,-733.4501425564459
16628.781453225787,-6390.251981050013,-9455.59256739528,-701.5318514742675
17260.307641066032,-6288.305674589357,-9434.269003184916,-676.386138962047
17970.51196938896,-6206.431234649567,-9428.099921715251,-661.5892841326338
17476.627823904495,-6357.663137634175,-9500.385463283714,-713.4006277800355
16482.913968910452,-6486.722110119118,-9504.364073796758,-741.4297153269906
16630.43548231548,-6385.7369286700405,-9460.554654664356,-704.6834474424658
17285.90038846736,-6261.684746943087,-9431.184462450085,-671.2452377373264
17994.003652811487,-6181.352577370712,-9426.602354836745,-658.2365224643377
17452.93497478187,-6330.483416376522,-9480.91709386314,-712.0148196238065
16474.93439613991,-6446.623080566297,-9496.83153591532,-737.7640292363202
16653.703648293453,-6343.179207227136,-9449.781113836898,-697.0615025832061
17322.95958077426,-6235.890833841662,-9423.495462357458,-674.3968337055247
18022.61388571428,-6181.084356437249,-9428.971639749008,-668.2501039803152
17433.041922216646,-6357.484323678533,-9494.59636146979,-718.6532877270326
16487.540780012703,-6464.079792985892,-9500.988960384007,-739.4180583260129
16691.992186545394,-6370.984777329538,-9466.343756478282,-706.6951044434434
17347.747665375195,-6265.015156866927,-9456.218416240026,-675.4920691838347
18021.8539264028,-6176.837524990741,-9429.48572987148,-660.4046416765025
17399.223732855768,-6347.582500884832,-9490.774213167932,-716.3063545592254
16482.98102414382,-6461.107010973336,-9507.73918720951,-741.8767502160968
16714.813317634264,-6360.390050457722,-9479.240713028994,-708.192671321949
17371.52992147564,-6254.040450339371,-9453.87148307222,-684.5668774326894
18011.52742046445,-6210.029865506872,-9443.433218411592,-680.4318047084575
17334.157804746366,-6383.904085624706,-9494.97634112553,-730.5891192661667
16449.945145838876,-6471.858200056338,-9495.06574810335,-746.3470991071581
16711.035872821318,-6376.706823910096,-9466.835494856296,-715.9487266479405
17386.5055902607,-6264.657528955642,-9446.070724257315,-687.9196391009855
18015.03664434393,-6193.668388565587,-9441.578023621802,-682.063482053695
17289.65548153585,-6366.648538905209,-9499.916076650152,-733.0701629007058
16430.230907229296,-6452.546292846953,-9501.391291784204,-746.9505962074514
16718.68016942503,-6354.511541665976,-9459.235901741493,-704.4599299979127
17410.019625427678,-6244.585662434776,-9419.159223933128,-667.8477725801197
18013.0026355985,-6203.190231703548,-9428.39049439317,-660.6952143544214
17245.84606240345,-6388.307379282401,-9495.423376014636,-713.7135522024098
16441.250317245762,-6442.130379930781,-9489.455460245068,-723.6824302294767
16763.27189961337,-6337.971250769049,-9434.112540973729,-693.7310926593653
17450.096303236045,-6243.110447300726,-9418.175747177094,-669.5688569031784
18029.87820266225,-6195.992969988939,-9427.563479848324,-658.840019564631
17226.444748216243,-6373.979911086549,-9493.54582948039,-710.9419358899518
16447.97819232681,-6437.950603717638,-9505.12403310824,-719.7038197164321
16789.266978414893,-6347.582500884832,-9450.317555703828,-686.8244036226754
17491.31292001163,-6238.841264109763,-9418.15339543264,-660.1811242319494
18050.0618279054,-6182.716033782486,-9447.322421946816,-662.4162986774801
17208.675111374272,-6389.872001394272,-9527.140501396716,-725.6046802526332
16451.286250506193,-6454.535598103475,-9506.129861608728,-740.7144595044208
16811.37285368119,-6343.246262460502,-9452.239805726982,-706.5162904878009
17514.80460343416,-6240.137665288171,-9436.146549719162,-682.711682642899
18031.308714307397,-6218.7917493333525,-9462.856884343251,-685.6844646554548
17151.2981833575,-6411.977876660571,-9537.802283501898,-741.9438054494626
16446.324163237114,-6458.13422896078,-9514.087082634816,-745.2518636288481
16829.47776668999,-6362.759335369985,-9472.87046585923,-717.5357005042673
17533.133033887512,-6264.210494066536,-9457.313651718336,-697.5755927056781
18019.976379868556,-6223.932650558073,-9480.425355485124,-694.9604386044072
17102.86195312285,-6403.327751556368,-9535.432998589637,-748.0234799413062
16422.05016875865,-6451.51811260201,-9512.813033200864,-746.190636895971
16816.469051417,-6350.175303241647,-9473.853942615264,-707.5221189882898
17557.65289755498,-6218.389417933156,-9443.34381143377,-670.2617609812929
18037.947182410622,-6202.072644480782,-9455.659622628644,-668.3171592136812
17087.640415148784,-6419.51041454201,-9517.350437325293,-726.3422878196583
16441.76440736823,-6445.661955554719,-9495.177506825628,-724.062409885217
16863.318307795325,-6338.1277129802365,-9464.242692499482,-689.484261212857
17607.698453390414,-6235.33204023028,-9427.00468623694,-661.3210631991701
18029.11824335077,-6235.689668141565,-9456.419581940125,-674.5085924278012
17049.55304259694,-6425.992420434049,-9512.276591333935,-730.8796919440856
16458.30469826516,-6411.84376619384,-9500.854849917276,-720.8437586836528
16904.981959460016,-6304.667151530642,-9444.684916101089,-684.4327669659575
17639.504985750318,-6224.692609869553,-9423.271944912904,-663.8021068337091
18021.786871169435,-6234.750894874442,-9441.19804396606,-668.4736214248683
17014.103175890825,-6413.855423194817,-9501.078367361828,-725.0682383857059
16440.33389572309,-6425.299516355934,-9482.146439808184,-728.1751308649934
16890.520380797432,-6329.902271020684,-9457.336003462791,-699.7437119178429
17643.327134052175,-6233.94623207405,-9441.756837577444,-672.9216185714745
18007.951141351597,-6242.059915311327,-9471.149381536172,-684.3433599881363
16994.83597217035,-6427.802911734929,-9539.858643991784,-739.6639275150213
16470.97813737132,-6433.524958315487,-9495.73630043701,-730.4773605438901
16942.085855255827,-6327.354172152779,-9449.512892903434,-694.513403715301
17699.78764054628,-6223.105636013226,-9440.952174777052,-670.4629266813906
18005.246580272506,-6241.434066466578,-9481.028852585418,-680.9905983198403
16946.3997419357,-6444.522016587498,-9525.106492651284,-735.8641309576191
16458.662326176443,-6441.3704206193,-9496.295094048392,-724.9564796634293
16951.250070482503,-6319.039323215405,-9457.67127962962,-689.4172059794911
17708.147192972567,-6207.951153272528,-9437.331192175292,-664.3385487006365
17946.863823755244,-6257.683784685587,-9475.753840893964,-685.7291681443654
16875.879988179207,-6453.03803122497,-9521.664324005167,-737.4064013250353
16461.813922144644,-6426.104179156325,-9496.11628009275,-717.8262731821864
16984.88944588774,-6294.184183381103,-9469.361241979748,-682.0411303092397
17760.159702320063,-6167.539199297333,-9406.396377849149,-652.290958439226
17966.533358875913,-6233.94623207405,-9449.132913247697,-674.7991651057202
16866.738124696985,-6449.081772456381,-9506.97922789803,-728.4880552873678
16467.424210002926,-6407.954562658616,-9476.558503694356,-709.6678864559992
16990.320919790378,-6289.311503089846,-9454.609090639246,-676.6990633844214
17762.908966888066,-6189.89094375264,-9463.706250632556,-660.739917843332
17952.94349824709,-6236.561386175321,-9472.423430970124,-680.3647494750917
16871.275528821414,-6431.714467014607,-9513.841213445809,-728.063372142717
16512.775899502743,-6405.697036468629,-9487.153230566171,-713.8253109246864
17033.303324377935,-6307.841099243296,-9474.993881582484,-695.9215636159854
17803.544438307814,-6220.177557489581,-9459.057087785852,-679.7612523747983
17923.461547310537,-6286.741052477486,-9504.945219152596,-707.7903399217535
16814.077414760282,-6466.784354064984,-9552.263862164482,-758.8640760021301
16504.50575405428,-6421.3656093318,-9518.848004203795,-738.5910437811666
17048.61426932982,-6317.407645870167,-9487.77907941092,-706.739807932354
17835.798005556822,-6213.159109730615,-9472.177561781116,-681.1247087865721
17909.64816923716,-6261.662395198631,-9510.086120377317,-696.837985138653
16779.07458294327,-6448.858255011828,-9564.736135570543,-745.0730496732057
16519.347312372603,-6402.07605386687,-9526.671114763156,-722.900119173541
17094.167124529737,-6288.19391586708,-9472.7363553925,-685.0586158107062
17887.944625371056,-6187.186382673548,-9428.323439159803,-652.9168072839747
17901.087451110776,-6269.127877846704,-9485.789774154398,-683.0916622986391
16765.26120486989,-6447.494798600054,-9530.448559576102,-734.2101018679264
16536.55815560319,-6386.608646703798,-9487.890838133197,-711.6571917125216
17111.84735439388,-6267.876180157206,-9448.909395803144,-670.4629266813906
17901.690948211068,-6167.203923130503,-9431.38562815018,-646.0324699917401
17864.609404159713,-6263.986976621983,-9478.21253278405,-672.385176704547
16734.92988764404,-6447.60655732233,-9517.573954769843,-716.1275406035829
16548.628097609057,-6397.561001486898,-9489.276646289429,-693.8875548705524
17123.62672372183,-6295.614695026243,-9480.023024084929,-668.5183249137789
17900.483954010484,-6199.390435146146,-9444.43904691208,-646.8371327921311
17800.43754582853,-6304.264820130446,-9500.474870261534,-685.2597815108039
16675.96598577094,-6488.71141537564,-9555.12488545476,-737.3616978361247
16551.109141243596,-6419.465711053099,-9473.719832148532,-707.9244503884853
17158.49544507211,-6287.143383877681,-9447.456532413547,-674.2850749832481
17948.02611446692,-6174.98233020095,-9443.4779219005,-653.0956212396171
17792.525028291348,-6291.971360680028,-9501.056015617372,-696.6144676941
16673.350831669668,-6458.84948478335,-9546.295946394916,-744.8495322286526
16578.825304368176,-6387.9050478822055,-9492.83057365782,-714.384104536069
17191.59837861042,-6271.318348803324,-9446.048372512863,-682.4211099649799
17980.12321950474,-6170.333167354246,-9432.033828739384,-654.2579119512931
17778.599891495694,-6283.835325698296,-9489.075480589328,-692.322932758681
16658.10694195115,-6442.353897375334,-9518.848004203795,-736.3782210800912
16583.5638741927,-6379.210219289091,-9481.431183985613,-710.2043283229266
17187.172733208266,-6284.014139653938,-9470.791753624888,-678.934237829952
17955.69276281509,-6199.613952590698,-9466.366108222735,-667.3336824576477
17708.59422786167,-6308.355189365768,-9487.01912009944,-704.1693573199937
16599.724185433886,-6462.112839473825,-9530.761483998476,-743.2178548834152
16567.18004550696,-6399.393844532233,-9485.96858811004,-707.1421393325495
17183.998785495616,-6303.460157330055,-9454.095000516772,-674.1509645165163
17965.616937353247,-6192.41669087609,-9461.806352353851,-657.1189352415723
17678.30761412473,-6309.137500421703,-9513.863565190264,-696.547412460734
16597.600769710632,-6444.343202631856,-9524.011257172971,-727.8175029537085
16618.857278687632,-6345.123808994747,-9477.49727696148,-691.5406217027452
17237.106530321424,-6247.893720614162,-9456.06195402884,-664.0703277671728
17990.874408587744,-6174.825867989764,-9471.43995421409,-654.6602433514886
17632.53124148026,-6320.447483116089,-9517.909230936675,-697.9779241058736
16586.223731782884,-6443.583243320375,-9499.513745249957,-722.9448226624517
16657.59285182868,-6351.516407908965,-9458.945329063574,-688.970171090385
17292.024766448114,-6252.744049160963,-9437.95704102004,-664.9196940564746
18049.21246161609,-6173.820039489275,-9440.035753254384,-652.872103795064
17645.383494542064,-6317.854680759273,-9509.795547699398,-702.8729561415859
16582.245121269836,-6450.624042823797,-9508.02975988743,-739.865093215119
16656.050581461262,-6382.183001301647,-9476.424393227624,-717.8486249266416
17288.98492920219,-6288.238619355991,-9460.845227342275,-697.4638339834016
18037.947182410622,-6196.596467089233,-9432.81613979532,-681.8399646091419
17591.918121804967,-6340.8322740593285,-9490.528343978924,-721.9613459064182
16560.340411703637,-6463.141019718769,-9514.489414035012,-746.4812095738899
16679.45285790597,-6365.575655171354,-9482.30290201937,-710.6290114675775
17337.868194325947,-6257.5273224744,-9442.360334677736,-671.6028656486113
18067.987926958554,-6189.019225718883,-9436.727695075,-657.0742317526617
17561.899729001492,-6340.228776959036,-9507.247448831493,-707.4774154993792
16550.639754610034,-6449.171179434202,-9519.83148095983,-732.4443140559572
16700.30703548277,-6353.930396310138,-9478.30193976187,-696.5027089718234
17341.84680483899,-6264.746935933464,-9463.125105276717,-675.6261796505665
18047.111397637294,-6190.8520687642185,-9475.01623332694,-665.8137638346868
17515.38574879,-6322.794416283896,-9513.97532391254,-704.8846131425636
16558.105237258107,-6423.51137679951,-9512.433053545124,-719.770874949798
16742.88710867013,-6330.72928556553,-9467.863675101242,-683.5386971877452
17402.710604990792,-6239.198892021048,-9452.217453982526,-659.3988131760136
18091.256092936528,-6192.662560065099,-9448.507064402946,-647.6641473369774
17478.9747570723,-6350.3988206862,-9503.157079596172,-699.4084357510133
16522.431853107435,-6421.812644220906,-9503.157079596172,-717.5580522487227
16735.376922533145,-6325.7448465519965,-9466.656680900656,-685.3044849997145
17415.58520979705,-6243.333964745279,-9453.44679992757,-662.9303887999522
18108.89161931177,-6185.711167539498,-9460.979337809007,-653.6544148509997
17460.243995218756,-6341.68164034863,-9519.31739083736,-700.2130985514043
16524.108233941584,-6442.912690986716,-9484.381614253714,-720.8884621725634
16767.295213615325,-6354.511541665976,-9441.287450943884,-691.3841594915581
17465.675469121394,-6234.952060574539,-9423.875442013195,-659.1752957314606
18130.68457015569,-6157.860893948186,-9424.903622258142,-646.3453944141144
17425.330570379563,-6336.764256568463,-9491.712986435055,-701.0177613517955
16518.475594338848,-6434.284917626967,-9505.056977874872,-725.224700596893
16801.202809954026,-6311.305619633868,-9461.851055842764,-688.6795984124659
17501.84059165008,-6204.196060204036,-9427.38466589268,-660.0917172541282
18126.035407308987,-6170.690795265531,-9446.517759146423,-657.8118393196869
17374.9497383773,-6354.958576555083,-9512.365998311758,-705.353999776125
16507.456184322382,-6449.461752112121,-9514.712931479566,-723.2130435959153
16793.960844750505,-6369.598969173309,-9483.196971797584,-700.548374718234
17498.241960792777,-6232.04633379535,-9456.01725053993,-670.5076301703012
18118.793442105467,-6158.263225348381,-9462.96864306553,-662.192781232927
17330.916801800347,-6347.873073562751,-9521.485510049524,-719.0779708716835
16506.56211454417,-6418.169309874691,-9502.6429894737,-721.223738339393
16837.591449927266,-6310.746826022485,-9468.131896034703,-680.1859355194492
17548.0416474392,-6197.870516523185,-9432.123235717208,-648.7146793263769
18116.06652928192,-6179.296216880824,-9444.39434342317,-650.9945572608182
17274.65746100634,-6376.080975065348,-9509.795547699398,-706.449235254435
16485.93145441192,-6431.915632714705,-9508.409739543167,-713.1771103354824
16839.647810417155,-6333.009163499972,-9459.571177908325,-674.9556273169073
17555.79770276519,-6224.066761024805,-9427.6752385706,-643.1937984459161
18107.39405243326,-6180.682025037054,-9441.95800327754,-642.5232461122569
17245.622544958896,-6370.02365231796,-9497.077405104328,-695.7651014047982
16484.098611366586,-6429.747513502541,-9487.06382358835,-700.9507061184295
16855.80812165834,-6328.784683797919,-9469.182428024104,-669.9711883033739
17570.639261083517,-6233.834473351774,-9443.634384111689,-645.3842694025361
18096.55345637244,-6197.669350823087,-9444.953137034552,-638.4999321103015
17214.732434121663,-6384.97696935856,-9501.681864462122,-687.6961216564324
16503.03053892023,-6427.266469868001,-9494.35049228078,-695.4745287268793
16889.648662763677,-6319.776930782429,-9474.658605415656,-669.904133070008
17609.687758646938,-6220.199909234037,-9442.96383177803,-650.1004874826059
18100.621473863303,-6198.049330478827,-9454.854959828252,-651.4639438943797
17160.82002649546,-6390.78842291694,-9516.478719291536,-713.5123865023121
16476.901349651976,-6423.421969821688,-9494.998692869984,-717.1780725929824
16881.66908999313,-6318.569936581843,-9463.77330586592,-685.773871633276
17610.403014469506,-6220.4681301675,-9448.10473300275,-664.3832521895471
18062.847025733838,-6210.342789929247,-9476.178524038616,-672.7204528713767
17105.52181071303,-6401.137280599747,-9538.31637362437,-726.5658052642113
16471.134599582507,-6436.117760672303,-9520.36792282676,-728.7115727319209
16906.92656122763,-6321.609773827765,-9465.762611122444,-690.7136071578989
17653.854805690626,-6197.669350823087,-9446.785980079889,-661.1422492435277
18068.27849963647,-6190.047405963827,-9473.272797259426,-667.7136621133878
17056.19151070017,-6408.334542314356,-9532.37080959926,-723.3024505737366
16452.44854121787,-6441.593938063853,-9495.713948692555,-714.0264766247841
16929.72534057204,-6302.297866618379,-9456.553692406856,-673.7486331163208
17689.30467239674,-6177.753946513409,-9436.884157286186,-647.6194438480668
18056.208557630605,-6198.809289790308,-9468.958910579551,-657.7447840863209
17034.107987178326,-6406.345237057833,-9508.566201754356,-712.6183167240998
16497.710823739868,-6408.334542314356,-9478.34664325078,-703.0964735861389
16983.704803431607,-6286.137555377192,-9437.755875319945,-661.0304905212511
17743.395893978584,-6185.040615205839,-9413.951267475042,-630.0733244506508
18070.312508381907,-6204.888964282151,-9447.456532413547,-645.9654147583741
17019.579353282377,-6412.000228405026,-9503.11237610726,-702.4259212524797
16510.27250412375,-6417.342295329845,-9478.34664325078,-692.8370228811531
16991.147934335226,-6317.988791226005,-9446.87538705771,-663.1315545000499
17749.050885325778,-6222.569194146299,-9449.11056150324,-645.7866008027316
18043.758635969,-6224.871423825196,-9458.408887196649,-656.8507143081086
16979.100344073813,-6413.587202261353,-9496.675073704131,-708.7291131888763
16507.79146048921,-6418.057551152415,-9479.955968851564,-700.9730578628848
17004.402518797222,-6317.452349359078,-9453.11152376074,-671.8487348376196
17767.066391356755,-6218.478824910978,-9439.633421854189,-650.7486880718099
17998.38459472473,-6249.167770048114,-9483.375785753226,-669.5912086476337
16919.73411080052,-6425.8806617117725,-9536.975268957052,-722.0060493953288
16511.07716692414,-6392.844783406828,-9492.875277146732,-711.3666190346025
17047.228461173592,-6279.633197740698,-9467.908378590151,-680.5882669196448
17826.030293229855,-6187.007568717906,-9454.899663317165,-655.2860921962372
18006.967664595566,-6244.451551968044,-9499.513745249957,-677.9507610739186
16900.757479757962,-6433.010868193015,-9552.12975169775,-729.0915523876611
16520.97898971784,-6414.838899950851,-9517.17162336965,-707.2762497992813
17051.207071686636,-6320.87216626074,-9473.272797259426,-674.6874063834437
17835.261563689895,-6198.071682223283,-9452.910358060642,-643.3279089126479
17979.206797982075,-6224.379685447179,-9488.44963174458,-660.5834556321449
16856.232804802992,-6416.917612185194,-9527.87810896374,-712.8865376575635
16523.638847308022,-6390.274332794468,-9486.773250910432,-692.9487816034296
17066.294499193966,-6291.39021532419,-9451.278680715404,-654.5261328847567
17839.9107265366,-6189.6227228191765,-9440.05810499884,-631.4591326068798
17943.823986509324,-6239.265947254414,-9482.481715975013,-649.1840659599384
16827.153185266638,-6421.097388398336,-9494.842230658798,-688.3890257345469
16527.818623521165,-6392.97889387356,-9463.885064588198,-676.386138962047
17083.304176724458,-6290.451442057067,-9441.980355021997,-652.3803654170472
17872.879549608177,-6196.238839177948,-9424.635401324678,-626.3182313821592
17907.077718624798,-6285.601113510265,-9471.484657703002,-657.9459497864187
16789.155219692617,-6452.009850980026,-9504.5428877524,-702.7611974193094
16552.874929055564,-6383.971140858072,-9466.455515200558,-680.1188802860833
17118.843450408396,-6270.200761580559,-9438.761703820432,-650.391060160525
17910.65399773765,-6171.629568532654,-9427.027037981396,-629.6933447949106
17904.708433712534,-6265.663357456131,-9469.271835001926,-654.6602433514886
16770.69267877253,-6455.384964392778,-9514.109434379272,-702.1129968301054
16570.264586241792,-6389.73789092754,-9471.708175147554,-676.2743802397705
17151.611107779874,-6269.709023202542,-9444.193177723071,-649.2064177043936
17942.102902186263,-6153.703469479498,-9433.754913062445,-627.3911151160139
17879.562721200316,-6246.016174079916,-9486.952064866076,-665.9478743014187
16754.778236720354,-6425.321868100389,-9524.45829206208,-717.0663138707059
16588.078926572674,-6377.556190199398,-9491.310655034858,-696.7038746719212
17163.81516025247,-6271.363052292234,-9459.839398841788,-672.2063627489046
17958.866710527745,-6171.718975510476,-9444.01436376743,-646.4348013919356
17855.445188933038,-6269.709023202542,-9483.711061920056,-676.5649529176894
16733.052341109793,-6428.406408835222,-9513.88591693472,-719.5250057607897
16603.702795946934,-6364.703937137597,-9474.97152983803,-692.0323600807619
17192.581855366454,-6274.827572682807,-9453.24563422747,-666.3502057016142
17973.909434546167,-6184.392414616635,-9441.53332013289,-648.6699758374663
17817.268409403376,-6272.324177303813,-9490.26012304546,-681.3258744866699
16690.472267922436,-6440.565757818909,-9515.294076835404,-718.385066793569
16583.675632914976,-6390.9001816392165,-9475.820896127332,-689.5066129573123
17196.716928090686,-6283.075366386815,-9446.92009054662,-656.873066052564
17987.07461203034,-6197.5128886119,-9452.910358060642,-639.7292780553435
17770.62031872515,-6324.403741884678,-9492.003559112974,-677.4590226959018
16665.371258899126,-6475.769755336018,-9533.398989844203,-715.3005260587366
16632.29067710527,-6394.275295051968,-9461.53813142039,-684.2092495214044
17249.35528628293,-6283.544753020376,-9429.351619404748,-653.8108770621869
18025.27374330446,-6196.819984533785,-9433.53139561789,-637.516455354268
17762.730152932425,-6306.008256197961,-9493.814050413854,-681.4152814644912
16666.332383910703,-6441.728048530585,-9526.581707785332,-718.6532877270326
16652.742523281875,-6360.010070801982,-9490.595399212289,-688.903115857019
17277.74200174117,-6262.534113232388,-9452.01628828243,-661.2763597102595
18036.874298676765,-6193.8472025212295,-9447.05420101335,-650.5251706272568
17717.60198087716,-6311.7750062674295,-9501.88303016222,-689.6854269129548
16656.38585762809,-6433.7484757600405,-9517.909230936675,-718.4968255158456
16686.314843453747,-6350.801152086396,-9488.248466044482,-692.322932758681
17301.211333419244,-6248.51956945891,-9458.610052896744,-664.4726591673683
18058.26491812049,-6161.101896894204,-9442.807369566844,-644.7584205577875
17683.31440488272,-6297.224020627024,-9507.73918720951,-688.7690053902871
16622.23239210038,-6432.764999004006,-9528.772178741954,-722.8107121957198
16696.26136973636,-6348.0518875183925,-9470.34471873578,-692.7699676477871
17336.258868725166,-6251.984089849483,-9439.901642787652,-654.3473189291143
18076.503941596027,-6188.326321640769,-9447.702401602555,-639.3492983996032
17636.44279675994,-6337.255994946479,-9501.190126084104,-685.0362640662509
16581.70867940291,-6458.000118494048,-9512.142480867204,-713.4006277800355
16681.62097711813,-6364.122791781759,-9470.30001524687,-681.8623163535973
17327.541688387595,-6264.411659766634,-9476.87142811673,-659.4658684093796
18077.53212184097,-6190.337978641746,-9473.026928070418,-639.7739815442541
17593.773316594757,-6363.631053403742,-9477.385518239204,-687.0926245561391
16567.738839118345,-6491.572438665919,-9502.59828598479,-720.709648216921
16714.701558911987,-6364.055736548393,-9463.63919539919,-686.936162344952
17371.574624964553,-6253.816932894819,-9444.05906725634,-657.7447840863209
18095.86055229432,-6188.102804196215,-9445.176654479106,-639.6845745664328
17561.966784234857,-6338.954727525083,-9515.048207646396,-683.2481245098263
16559.200472736415,-6437.302403128434,-9509.63908548821,-707.9691538773959
16732.292381798314,-6329.455236131577,-9468.645986157178,-675.5144209282901
17402.375328823964,-6236.628441408688,-9451.546901648868,-648.0664787371729
18112.177325746696,-6174.289426122836,-9444.282584700892,-634.8342460196312
17525.309923328154,-6335.154930967681,-9506.55454475338,-687.8078803787089
16542.92840277295,-6434.486083327065,-9518.289210592417,-712.99829637984
16729.96780037496,-6331.712762321564,-9486.01329159895,-684.7903948772425
17402.1071078905,-6228.402999449134,-9460.286433730893,-654.6602433514886
18095.9723110166,-6168.679138264553,-9452.262157471438,-640.6904030669216
17457.002992272734,-6357.529027167443,-9518.088044892316,-698.4696624838904
16511.7477192578,-6451.428705624188,-9524.570050784356,-717.7145144599098
16748.631506995145,-6323.956706995572,-9494.372844025236,-685.8409268666419
17444.038980488658,-6214.455510909022,-9477.430221728113,-661.8798568105527
18132.20448877865,-6161.9736149279615,-9465.293224488882,-644.2219786908602
17452.979678270778,-6345.459085161578,-9525.5982310293,-699.7660636622982
16525.60580082009,-6439.917557229705,-9502.486527262512,-716.2616510703148
16765.775294992363,-6347.515445651466,-9464.399154710669,-679.4259762079688
17446.69883807884,-6249.368935748213,-9443.924956789608,-651.4862956388349
18108.35517744484,-6187.164030929092,-9464.980300066509,-643.1714467014607
17395.848619443015,-6363.8992743372055,-9520.412626315669,-693.7981478927312
16517.98385596083,-6444.007926465026,-9485.901532876676,-705.9798486208736
16804.063833244305,-6335.579614112332,-9444.863730056732,-672.5416389157342
17497.90668462595,-6239.265947254414,-9427.116444959218,-645.4289728914467
18125.00722706404,-6207.437063150056,-9432.793788050863,-637.7399727988211
17364.04208708311,-6387.055681592904,-9494.953989381074,-688.3890257345469
16506.18213488843,-6445.03610670997,-9508.92382966564,-701.7553689188205
16813.630379871178,-6329.075256475837,-9462.096925031772,-666.6407783795331
17512.345911544075,-6236.963717575517,-9431.787959550376,-648.1335339705389
18117.854668838343,-6191.835545520252,-9438.024096253408,-640.712754811377
17310.554362601564,-6375.745698898519,-9505.414605786158,-696.4580054829128
16491.251169592284,-6435.55896706092,-9508.007408142974,-711.1431015900495
16835.132758037184,-6324.448445373589,-9467.237826256494,-678.5989616631224
17548.71219977286,-6221.362199945713,-9443.857901556245,-652.4921241393238
18104.644787865254,-6200.932705513562,-9465.829666355809,-658.1694672309718
17250.31641129451,-6398.946809643127,-9532.393161343714,-716.1498923480383
16479.985890386808,-6438.978783962582,-9514.355303568282,-720.6649447280104
16839.67016216161,-6323.353209895278,-9479.419526984637,-692.8370228811531
17543.28072587022,-6228.224185493492,-9464.309747732848,-668.2948074692258
18091.189037703163,-6189.17568793007,-9458.408887196649,-661.3434149436254
17205.54586715053,-6390.184925816647,-9527.162853141172,-721.9836976508734
16460.226948288317,-6452.211016680124,-9520.680847249132,-733.4054390675353
16864.257081062446,-6321.073331960837,-9455.950195306565,-688.0761013121726
17604.457450444395,-6198.8986967681285,-9438.53818637588,-660.7846213322428
18110.25507572354,-6172.635397033143,-9435.25247994095,-660.2481794653153
17193.185352466746,-6373.242303519524,-9491.78004166842,-717.2451278263484
16489.865361436052,-6428.317001857401,-9472.579893181311,-720.0390958832617
16888.978110430016,-6328.5611663533655,-9437.82293055331,-687.4949559563346
17613.24168601533,-6241.769342633408,-9421.90848850113,-663.7797550892539
18090.138505713763,-6216.176595232081,-9440.39338116567,-663.1092027555947
17147.766607733563,-6398.656236965208,-9497.949123138083,-714.4958632583456
16485.283253822716,-6430.194548391646,-9470.679994902612,-714.1382353470607
16922.483375368523,-6315.239526658002,-9428.43519788208,-676.6320081510554
17666.282375607774,-6211.683894596565,-9419.561555333325,-652.4921241393238
18101.515543641515,-6202.765548558897,-9440.549843376855,-658.0577085086952
17126.420691778745,-6407.239306836046,-9496.160983581662,-710.8748806565858
16504.818678476655,-6428.562871046409,-9489.075480589328,-709.578479478178
16957.3520967188,-6301.493203817989,-9449.95992779254,-674.2627232387929
17713.60101861966,-6192.975484487472,-9411.112595929217,-643.3949641460138
18106.276465210496,-6200.08333922426,-9436.39241890817,-648.4017549040026
17088.154505271257,-6406.009960891004,-9495.937466137108,-707.6785811994769
16500.7953644747,-6417.945792430138,-9473.317500748337,-705.4657584984016
16965.93516658964,-6305.203593397569,-9433.240822939972,-673.4357086939465
17718.294884955274,-6197.825813034274,-9413.951267475042,-648.4688101373685
18066.915043224697,-6203.972542759484,-9444.48375040099,-660.8516765656086
17047.027295473494,-6391.83895490634,-9500.49722200599,-711.4560260124238
16522.767129274267,-6387.994454860027,-9473.7868873819,-699.6766566844769
16990.924416890673,-6291.613732768743,-9425.28360191388,-664.8749905675639
17741.183071277508,-6201.022112491383,-9422.802558279343,-643.9984612463071
18050.35240058332,-6220.959868545517,-9448.574119636312,-656.0907549966282
16998.948693150127,-6407.954562658616,-9480.06772757384,-702.7835491637646
16506.56211454417,-6386.206315303602,-9470.434125713602,-693.70874091491
17000.08863211735,-6276.883933172695,-9438.6275933537,-664.4279556784577
17774.55422574928,-6172.07660342176,-9394.974636432486,-638.7905047882206
18051.00060117252,-6209.448720151034,-9436.571232863813,-652.5368276282344
16968.013878823982,-6414.861251695305,-9494.708120192066,-708.2597265553148
16498.35902432907,-6413.922478428183,-9478.614864184245,-706.3598282766138
16998.702823961117,-6308.824575999329,-9439.164035220629,-670.8205545926755
17782.064411886266,-6188.616894318688,-9421.14852918965,-641.3833071450362
18012.57795245385,-6220.110502256215,-9477.49727696148,-663.0421475222287
16922.326913157336,-6416.559984273909,-9502.933562151618,-712.417151024002
16510.093690168105,-6392.241286306535,-9467.953082079064,-706.1363108320608
17038.89126049176,-6289.535020534399,-9448.082381258297,-676.5649529176894
17809.378243610652,-6200.888002024652,-9443.075590500306,-656.6048451191002
17989.578007409335,-6231.621650650698,-9491.623579457231,-677.3025604847146
16888.553427285366,-6413.833071450362,-9529.26391711997,-731.5055407888342
16514.765204759267,-6392.97889387356,-9477.698442661576,-713.7359039468652
17055.52095836651,-6280.415508796634,-9450.25050047046,-673.5921709051337
17843.57641262727,-6179.340920369736,-9445.19900622356,-646.8371327921311
17985.264120729462,-6238.66245015412,-9491.757689923965,-667.579551646656
16877.377555057712,-6427.065304167903,-9507.850945931788,-716.7980929372422
16546.41527490798,-6390.609608961297,-9476.82672462782,-698.6931799284434
17085.047612791972,-6272.145363348171,-9444.751971334455,-662.2374847218376
17866.039915804853,-6168.9026557091065,-9429.508081615935,-637.9858419878295
17945.522719087927,-6243.445723467556,-9461.761648864944,-662.2374847218376
16819.777109596387,-6431.960336203616,-9499.379634783225,-711.3219155456919
16531.260792167282,-6393.984722374049,-9487.108527077262,-696.6815229274658
17094.256531507555,-6270.089002858282,-9444.550805634355,-654.3696706735695
17886.223541047995,-6175.541123812333,-9398.707377756522,-626.2064726598827
17916.35369257375,-6258.175523063604,-9454.519683661423,-655.9789962743516
16802.23099019897,-6427.467635568099,-9485.454497987568,-697.0391508387507
16563.581414649656,-6373.018786074971,-9450.563424892836,-675.3803104615582
17121.14568008729,-6267.652662712653,-9430.849186283254,-650.9275020274523
17910.65399773765,-6168.455620820001,-9421.5732123343,-633.359030885581
17894.53838998537,-6258.197874808058,-9468.288358245893,-661.611635877089
16770.156236905605,-6450.199359679146,-9508.521498265443,-705.2869445427591
16579.920539846487,-6395.616399719286,-9456.15136100666,-684.4998221993235
17139.16118611827,-6288.931523434106,-9423.897793757653,-657.0742317526617
17924.936762444588,-6171.406051088101,-9413.5712878193,-633.873121008053
17877.14873279914,-6248.161941547625,-9465.15911402215,-663.6679963669773
16761.103780401205,-6427.735856501563,-9507.135690109217,-708.125616088583
16590.068231829195,-6380.908951867695,-9475.485619960502,-690.0877583131503
17163.189311407725,-6272.234770325991,-9463.147457021172,-663.2880167112371
17964.83462629731,-6147.8249606877525,-9444.282584700892,-636.2871094092261
17857.680363378568,-6243.780999634386,-9473.116335048238,-666.7078336128991
16736.91919290056,-6428.115836157303,-9510.913134922164,-712.5959649796445
16619.594886254657,-6364.92745458215,-9470.992919324985,-685.6844646554548
17210.73147186416,-6261.394174265168,-9448.01532602493,-651.9780340168517
17993.020176055452,-6161.79480097232,-9437.19708170856,-627.9946122163072
17801.95746445149,-6277.912113417639,-9482.705233419569,-661.5669323881784
16685.286663208804,-6435.603670549831,-9508.476794776536,-696.547412460734
16600.819420912198,-6387.480364737555,-9497.010349870963,-674.2627232387929
17202.617788626885,-6284.528229776411,-9451.368087693225,-646.7924293032205
17984.772382351446,-6175.69758602352,-9406.664598782612,-617.6010510445894
17754.571766206238,-6290.026758912416,-9453.759724349944,-653.6991183399103
16665.795942043776,-6439.694039785152,-9480.805335140863,-689.2383920238486
16639.800863242253,-6362.222893503058,-9450.451666170558,-662.4833539108461
17264.330955067988,-6255.336851517779,-9416.320552387304,-640.5339408557345
18039.22123184457,-6169.215580131481,-9405.14468015965,-623.2113389028715
17741.674809655527,-6305.181241653114,-9466.20964601155,-667.3336824576477
16654.463607604936,-6449.193531178657,-9491.198896312582,-705.1751858204825
16668.209930444948,-6362.178190014147,-9448.462360914036,-672.2287144933599
17279.731306997695,-6267.76442143493,-9434.96190726303,-646.2112839473825
18036.740188210035,-6198.27284792338,-9446.54011089088,-633.3143273966704
17687.672995051504,-6330.304602420879,-9512.924791923142,-680.3423977306363
16618.81257519872,-6459.475333628098,-9510.421396544149,-712.8418341686529
16667.941709511484,-6367.050870305404,-9468.131896034703,-682.3764064760693
17325.082996497513,-6267.473848757011,-9453.178578994106,-655.1519817295053
18019.529344979448,-6209.806348062319,-9463.035698298896,-647.485333381335
17629.87138389008,-6341.391067670712,-9503.984094141018,-687.6290664230664
16588.74947890633,-6452.881569013784,-9525.777044984943,-716.3957615370466
16659.716267551932,-6352.119905009259,-9475.26210251595,-683.449290209924
17301.278388652612,-6253.772229405908,-9456.374878451214,-657.0518800082065
18043.825691202368,-6185.5100018394,-9442.24857595546,-644.9595862578853
17589.012395025777,-6346.353154939789,-9502.531230751423,-694.4016449930245
16555.333620945647,-6479.189572237679,-9520.144405382203,-722.5648430067114
16691.411041189556,-6383.8593821357945,-9475.127992049216,-692.6805606699659
17359.32586900304,-6264.523418488911,-9445.221357968016,-662.840981822131
18097.268712195008,-6169.528504553856,-9443.857901556245,-646.5242083697568
17601.127040520554,-6301.046168928882,-9499.469041761044,-691.6300286805664
16587.073098072186,-6421.119740142792,-9519.719722237554,-723.3024505737366
16727.620867207155,-6340.87697754824,-9465.382631466702,-692.0547118252173
17376.53671223363,-6254.219264295014,-9444.841378312276,-664.8302870786533
18102.65548260873,-6189.332150141257,-9424.277773413394,-652.5368276282344
17553.897804486493,-6350.8682073197615,-9500.676035961633,-700.5930782071446
16556.384152935047,-6461.822266795906,-9511.762501211466,-722.3189738177031
16723.195221805003,-6366.559131927387,-9465.136762277694,-690.6912554134435
17381.431744269343,-6269.463154013533,-9445.690744601578,-663.422127177969
18089.467953380103,-6192.461394365,-9445.44487541257,-646.4795048808462
17495.135068313488,-6342.598061871298,-9500.92190515064,-687.0702728116838
16531.5513648452,-6446.868949755305,-9502.531230751423,-702.4259212524797
16741.300134813802,-6354.243320732513,-9469.964739080042,-669.1888772474382
17403.805840469104,-6256.521493973911,-9452.083343515797,-645.4289728914467
18094.13946797126,-6197.110557211704,-9436.794750308363,-631.3473738846033
17445.044808989147,-6364.59217841532,-9494.506954491968,-680.5212116862788
16518.855573994588,-6444.365554376311,-9494.194030069591,-694.289886270748
16781.466219599988,-6332.830349544329,-9455.994898795474,-661.2540079658041
17456.69006785036,-6234.035639051872,-9432.324401417303,-635.4377431199244
18121.006264806543,-6192.9084292541065,-9439.521663131913,-626.6982110378995
17428.146890180935,-6386.832164148351,-9494.462251003057,-683.225772765371
16532.959524745886,-6464.124496474802,-9488.047300344384,-694.8486798821307
16801.023995998385,-6360.21123650208,-9444.371991678714,-661.1646009879829
17487.84839962106,-6256.119162573715,-9421.707322801032,-634.4095628749803
18135.9819335916,-6183.5206965828775,-9431.855014783743,-626.7429145268101
17400.318968334075,-6342.73217233803,-9490.6401027012,-677.8166506071867
16533.31715265717,-6409.273315581479,-9488.002596855476,-687.9196391009855
16829.03073180088,-6312.758483023463,-9452.39626793817,-659.6893858539327
17521.80069944867,-6215.70720859852,-9444.461398656536,-636.6000338316004
18139.3793987488,-6175.876399979163,-9463.929768077109,-631.9285192404412
17362.321002760054,-6370.314224995879,-9498.574971982836,-687.1820315339603
16522.36479787407,-6443.717353787107,-9495.669245203644,-700.9507061184295
16873.153075355658,-6329.656401831675,-9477.005538583462,-665.9925777903293
17591.471086915863,-6227.844205837751,-9448.305898702847,-638.4775803658463
18085.981081245078,-6206.006551504916,-9448.216491725028,-638.3211181546591
17286.772106501117,-6394.856440407806,-9502.59828598479,-691.8535461251195
16494.82744870513,-6454.736763803574,-9492.852925402276,-701.6659619409993
16845.95100235355,-6344.140332238714,-9455.123180761717,-661.097545754617
17554.121321931045,-6247.670203169609,-9431.452683383546,-633.5378448412234
18134.998456835565,-6203.547859614833,-9438.717000331522,-629.8498070060978
17276.08797265148,-6403.4618620231,-9506.35337905328,-693.6640374259994
16500.661254007966,-6462.09048772937,-9493.367015524747,-700.9954096073401
16880.372688814725,-6344.475608405543,-9446.67422135761,-664.4950109118237
17610.73829063634,-6235.354391974734,-9432.123235717208,-643.6631850794774
18145.23555579609,-6196.8423362782405,-9448.06002951384,-645.6077868470892
17244.996696114147,-6388.821469404873,-9512.83538494532,-699.5872497066557
16508.953751200886,-6437.078885683881,-9513.371826812248,-703.8787846420747
16905.697215282587,-6317.25118365898,-9468.400116968169,-669.9935400478292
17649.183291099464,-6191.366158886691,-9438.940517776076,-639.1928361884161
18137.479500470105,-6184.839449505741,-9469.29418674638,-646.613615347578
17193.006538511105,-6391.391920017233,-9543.904309738196,-704.3258195311809
16503.83520172062,-6426.260641367512,-9505.995751141996,-703.4988049863344
16921.3434364013,-6318.882861004217,-9465.047355299874,-670.8876098260415
17656.0676283917,-6217.964734788506,-9449.44583767007,-647.1500572145054
18101.649654108245,-6221.988048790461,-9495.579838225824,-656.9177695414746
17124.58784873341,-6435.871891483294,-9556.711859311088,-715.3452295476473
16483.048079377186,-6457.798952793951,-9492.718814935544,-707.1644910770049
16915.219058420545,-6344.565015383365,-9450.026983025908,-664.6738248674661
17654.815930702203,-6237.455455953534,-9426.803520536843,-631.7497052847988
18072.368868871792,-6236.069647797304,-9456.173712751117,-637.2035309318937
17093.116592540337,-6425.545385544942,-9521.97724842754,-691.3618077471027
16499.11898364055,-6436.140112416758,-9485.342739265292,-687.1373280450497
16958.715553130576,-6323.889651762206,-9445.82485506831,-653.7214700843657
17720.194783233976,-6204.553688115321,-9422.57904083479,-623.5019115807905
18113.25020948055,-6191.254400164414,-9446.406000424147,-625.357106370581
17083.974729058114,-6399.773824187973,-9504.945219152596,-679.4036244635134
16512.21710589136,-6421.1867953761575,-9480.78298339641,-673.8827435830526
16983.995376109528,-6291.39021532419,-9439.164035220629,-640.4221821334579
17742.568879433737,-6171.115478410182,-9421.215584423016,-617.5563475556788
18085.668156822703,-6187.611065818199,-9455.883140073198,-631.8167605181648
17048.524862352,-6385.580466458853,-9510.801376199886,-684.2316012658598
16532.64660032351,-6393.336521784845,-9484.538076464902,-678.7330721298542
17012.627960756774,-6286.539886777388,-9463.482733188002,-654.9061125404969
17775.51535076086,-6173.5965220447215,-9471.6858234031,-633.4707896078575
18078.20267417463,-6193.578981587766,-9494.149326580684,-649.0499554932065
17008.93992292165,-6409.116853370292,-9538.517539324468,-706.4268835099797
16522.767129274267,-6410.703827226619,-9503.268838318449,-699.0731595841837
17023.960295195615,-6296.911096204651,-9478.123125806227,-664.5620661451895
17800.86222897318,-6187.231086162458,-9433.307878173337,-635.4377431199244
18043.825691202368,-6231.889871584162,-9473.87629435972,-654.7272985848545
16953.865224583773,-6435.89424322775,-9524.659457762178,-704.8846131425636
16510.45131807939,-6432.295612370445,-9498.083233604815,-697.0615025832061
17015.913667191704,-6323.152044195181,-9462.521608176425,-663.064499266684
17794.71549924797,-6208.956981773017,-9432.458511884037,-633.3813826300362
17996.641158657214,-6246.843188624763,-9464.041526799385,-649.4969903823127
16888.91105519665,-6441.728048530585,-9512.433053545124,-697.9779241058736
16509.937227956918,-6410.525013270976,-9479.553637451369,-679.805955863709
17046.33439139538,-6291.837250213296,-9444.5284538899,-646.4571531363908
17822.18579318354,-6194.338940899246,-9435.565404363324,-626.8993767379972
17981.8443038278,-6259.404869008645,-9459.191198252583,-651.7321648278433
16884.999499916972,-6436.765961261507,-9500.296056305891,-699.319028773192
16563.71552511639,-6372.147068041214,-9462.745125620975,-675.9614558173962
17120.11749984235,-6249.011307836928,-9436.90650903064,-646.1442287140165
17913.671483239115,-6145.634489731132,-9428.010514737429,-624.775961014743
18018.99290311252,-6213.539089386355,-9483.822820642332,-653.5426561287233
16884.239540605493,-6415.93413542916,-9539.098684680306,-713.7135522024098
16578.311214245703,-6384.194658302625,-9484.761593909454,-705.5551654762228
17148.995953678605,-6269.999595880461,-9434.514872373924,-664.450307422913
17947.914355744644,-6152.965861912473,-9428.457549626535,-637.3823448875362
17996.350585979293,-6223.642077880154,-9478.570160695332,-669.5241534142677
16840.34071449527,-6430.7533420030295,-9524.972382184553,-728.2421860983594
16579.741725890843,-6398.79034743194,-9485.275684031929,-711.6348399680662
17149.577099034443,-6286.539886777388,-9459.72764011951,-682.1081855426056
17934.793881749378,-6194.003664732417,-9456.553692406856,-663.1539062445053
17925.741425244978,-6292.306636846857,-9505.280495319426,-687.8302321231643
16779.74513527693,-6471.858200056338,-9522.290172849916,-721.6931249729545
16560.586280892647,-6419.17513837518,-9480.112431062753,-694.3792932485692
17145.687895499217,-6309.763349266452,-9436.727695075,-656.3589759300919
17938.41486435114,-6212.600316119232,-9423.741331546466,-631.325022140148
17880.881474123176,-6303.460157330055,-9475.955006594064,-664.3832521895471
16747.4021610501,-6467.18668546518,-9504.63229473022,-703.9458398754406
16581.14988579153,-6401.293742810934,-9479.39717524018,-677.1237465290722
17181.92007326127,-6288.328026333813,-9432.637325839678,-638.9469669994077
17984.526513162436,-6186.940513484539,-9397.410976578114,-610.9178794524527
17871.896072852145,-6284.930561176606,-9455.994898795474,-645.8760077805529
16734.818128921765,-6445.013754965515,-9489.29899803388,-689.8195373796866
16618.745519965356,-6370.0013005735045,-9464.86854134423,-668.7865458472427
17227.964666839205,-6265.23867431148,-9450.317555703828,-644.1102199685836
18019.596400212813,-6175.742289512431,-9416.544069831858,-631.1462081845056
17878.936872355567,-6261.885912643184,-9472.937521092595,-663.1539062445053
16772.056135184306,-6417.789330218951,-9512.611867500767,-705.9127933875077
16684.54905564178,-6343.223910716047,-9451.479846415505,-684.5668774326894
17300.585484574494,-6228.335944215768,-9435.610107852232,-662.4386504219354
18084.885845766767,-6147.892015921118,-9437.10767473074,-648.7593828152875
17861.211939002507,-6277.710947717542,-9491.712986435055,-690.6242001800777
16737.902669656596,-6441.415124108211,-9516.970457669551,-733.159569878527
16672.456761891455,-6396.488117753043,-9479.419526984637,-713.9147179025076
17276.08797265148,-6307.416416098645,-9468.690689646088,-694.7592729043095
18073.37469737228,-6177.195152902026,-9456.374878451214,-667.7807173467538
17802.29274061832,-6282.8965524311725,-9511.82955644483,-700.7942439072424
16688.795887088287,-6419.353952330823,-9525.911155451677,-728.0186686538063
16668.25463393386,-6355.539721910921,-9490.148364323184,-699.6990084289323
17286.012147189635,-6273.508819759944,-9469.852980357764,-669.9711883033739
18053.14636864023,-6188.438080363046,-9458.16301800764,-649.5193421267679
17736.958591575454,-6315.083064446815,-9502.397120284691,-686.6232379225777
16644.29356387777,-6463.431592396688,-9502.084195862317,-720.4861307723679
16675.988337515395,-6365.352137726801,-9453.603262138757,-681.5270401867676
17319.159784216856,-6251.291185771369,-9429.843357782764,-649.4522868934021
18087.836276034865,-6176.457545335001,-9429.955116505042,-636.6670890649664
17710.717643584925,-6324.828425029329,-9477.430221728113,-681.0800052976615
16627.19447936946,-6468.080755243392,-9496.563314981857,-715.5240435032897
16692.618035390144,-6377.332672754846,-9449.82581732581,-675.2685517392816
17347.43474095282,-6256.1862178070805,-9421.752026289943,-641.3609554005809
18126.281276497997,-6150.59657700021,-9409.43621509507,-622.4066761024804
17707.297826683265,-6286.249314099469,-9474.859771115753,-667.9595313023963
16639.95732545344,-6423.198452377135,-9510.35434131078,-703.8787846420747
16736.047474866806,-6340.631108359231,-9448.328250447305,-679.5377349302453
17396.76504096568,-6235.823778608296,-9429.39632289366,-656.2248654633601
18171.387096808805,-6155.804533458297,-9422.601392579243,-640.9809757448406
17680.475733336894,-6323.934355251116,-9494.93163763662,-698.7825869062647
16636.984543440885,-6440.141074674258,-9516.858698947275,-729.2703663433035
16777.912292231595,-6341.055791503882,-9476.82672462782,-702.7835491637646
17434.561840839608,-6239.064781554316,-9455.324346461815,-680.5435634307341
18162.69226821569,-6166.443963819023,-9457.000727295965,-669.0547667807064
17610.20184876941,-6353.8633410767725,-9526.961687441077,-724.1518168630382
16583.027432325773,-6492.377101466311,-9535.656516034189,-752.2479596433592
16750.531405273843,-6389.424966505167,-9491.802393412876,-718.675639471488
17432.192555927344,-6250.598281693254,-9464.957948322051,-680.8564878531084
18149.43768375369,-6174.93762671204,-9463.996823310474,-663.0868510111393
17570.66161282797,-6336.294869934902,-9521.373751327248,-704.9516683759294
16585.754345149322,-6441.70569678613,-9521.93254493863,-721.290793572759
16782.98613822295,-6345.63789911722,-9453.96089005004,-682.5328686872565
17454.410189915918,-6241.434066466578,-9428.569308348811,-652.8050485616981
18145.012038351542,-6185.420594861579,-9430.804482794343,-640.9586240003854
17501.84059165008,-6363.8992743372055,-9492.674111446631,-690.4006827355246
16545.74472257432,-6460.861141784328,-9497.50208824898,-709.869052156097
16778.739306776442,-6365.486248193532,-9466.500218689467,-670.2617609812929
17456.623012616994,-6263.919921388617,-9441.622727110713,-638.4105251324803
18160.27827981452,-6180.07852793676,-9420.097997200251,-619.1656731564609
17484.428582719396,-6348.253053218491,-9465.87436984472,-671.3569964596029
16559.625155881065,-6428.674629768686,-9462.409849454149,-688.7019501569213
16835.579792926288,-6306.052959686871,-9425.238898424972,-656.9624730303852
17538.922135701436,-6196.328246155768,-9403.133023158673,-629.8945104950084
18203.68536754672,-6159.336109082235,-9410.889078484664,-625.5582720706788
17468.961175556324,-6354.802114343896,-9485.5886084543,-689.4172059794911
16574.37730722157,-6428.384057090767,-9497.45738476007,-713.6017934801333
16866.06757236333,-6324.001410484482,-9459.615881397234,-682.0411303092397
17557.51878708825,-6231.196967506047,-9440.505139887946,-666.774888846265
18189.60376853988,-6190.293275152836,-9451.569253393323,-667.5571999022008
17416.792203997637,-6382.808850146395,-9502.821803429342,-724.0400581407616
16552.22672846636,-6445.594900321353,-9489.678977689622,-728.1527791205382
16856.52337748091,-6336.20546295708,-9449.11056150324,-689.9312961019631
17563.41964762445,-6227.620688393198,-9426.311782158826,-659.354109687103
18161.440570526192,-6193.020187976384,-9439.6781253431,-655.3978509185137
17352.75445613318,-6381.892428623728,-9500.631332472722,-712.0371713682617
16537.899260270508,-6443.315022386912,-9483.77811715342,-715.6134504811109
16880.462095792544,-6338.999431013994,-9452.038640026884,-680.744729130832
17596.72374686286,-6235.600261163743,-9433.82196829581,-655.3754991740584
18164.748628705576,-6205.045426493339,-9456.15136100666,-653.8108770621869
17308.76622304514,-6387.659178693197,-9511.60603900028,-702.6941421859434
16523.03535020773,-6431.468597825599,-9480.470058974037,-702.2024038079267
16893.29199710989,-6321.29684940539,-9440.34867767676,-665.9478743014187
17610.693587147427,-6219.529356900377,-9425.216546680516,-646.323042669659
18168.59312875189,-6178.513905824889,-9435.990087507977,-642.7691153012652
17282.94995819926,-6380.573675700864,-9500.631332472722,-700.7048369294212
16521.828356007143,-6444.767885776507,-9497.747957437989,-707.611525966111
16904.132593170714,-6342.575710126843,-9460.509951175449,-676.6096564066
17638.767378183293,-6226.614859892709,-9441.130988732695,-651.2627781942819
18159.83124492541,-6178.93858896954,-9445.53428239039,-646.4571531363908
17245.287268792068,-6374.359890742289,-9518.848004203795,-702.4259212524797
16534.5017951133,-6427.51233905701,-9508.49914652099,-712.3947992795466
16947.4502739251,-6287.858639700251,-9441.91329978863,-674.3297784721588
17679.268739136307,-6167.092164408227,-9427.25055542595,-652.3133101836813
18154.667991956238,-6174.512943567389,-9452.217453982526,-661.5222288992678
17190.41373615429,-6393.73885318504,-9516.5457745249,-718.3627150491137
16507.12090815555,-6442.309193886423,-9506.55454475338,-723.771837207298
16939.62716336574,-6327.421227386145,-9465.941425078086,-685.1033192996168
17692.344509642662,-6219.015266777906,-9428.658715326634,-652.9391590284299
18131.466881211625,-6221.406903434623,-9459.235901741493,-657.0295282637511
17134.467319782652,-6429.926327458183,-9510.153175610683,-710.4949010008456
16507.99262618931,-6446.220749166102,-9479.173657795627,-703.0070666083177
16971.970137592572,-6317.765273781452,-9436.05714274134,-661.4775254103572
17737.1374055311,-6202.519679369889,-9413.258363396926,-628.2628331497709
18135.758416147044,-6211.259211451914,-9443.857901556245,-635.6165570755669
17117.43529050771,-6399.907934654705,-9495.624541714731,-687.2267350228709
16537.452225381403,-6401.450205022122,-9472.691651903588,-679.0907000411391
17000.26744607299,-6289.982055423505,-9441.645078855168,-648.3346996706366
17760.51733023135,-6173.417708089079,-9418.332209388282,-620.4844260793241
18127.935305587685,-6180.79378375933,-9462.141628520683,-634.1413419415167
17096.201133275168,-6378.763184399985,-9506.867469175751,-687.2490867673263
16558.686382613945,-6385.267542036479,-9470.478829202511,-684.2763047547704
17027.581277797377,-6288.775061222918,-9461.180503509106,-664.450307422913
17780.07510662974,-6213.159109730615,-9451.859826071242,-647.708850825888
18093.24539819305,-6240.763514132919,-9482.124088063729,-663.7126998558879
17038.354818624834,-6409.653295237219,-9511.717797722556,-712.3724475350914
16545.521205129768,-6400.444376521633,-9483.26402703095,-704.772854420287
17038.578336069386,-6293.200706625069,-9461.426372698112,-677.4590226959018
17802.225685384954,-6188.192211174037,-9443.96966027852,-651.0839642386394
18068.502017081024,-6222.077455768283,-9480.82768688532,-665.2102667343935
16981.69314643063,-6423.064341910404,-9538.830463746845,-720.1732063499935
16525.717559542365,-6414.838899950851,-9499.98313188352,-704.4375782534573
17031.358722610323,-6300.822651484329,-9452.15039874916,-669.1441737585276
17806.651330787103,-6195.590638588744,-9443.232052711492,-646.971243258863
18026.726606694057,-6251.358241004735,-9486.750899165976,-664.740880100832
16924.20445969158,-6449.3723451343,-9517.68571349212,-715.0770086141836
16531.864289267574,-6392.151879328714,-9476.267931016437,-684.6339326660553
17067.993231772572,-6272.771212192919,-9443.030887011397,-646.7253740698545
17842.77174982688,-6179.631493047655,-9421.752026289943,-626.6758592934441
18023.97734212605,-6231.509891928422,-9458.565349407834,-652.4027171615026
16914.324988642336,-6431.848577481339,-9508.901477921188,-705.577517220678
16555.13245524555,-6404.713559712596,-9476.69261416109,-687.2490867673263
17111.467374738142,-6277.8450581842735,-9442.315631188829,-654.1685049734718
17907.12242211371,-6168.679138264553,-9428.368142648716,-630.9226907399525
18035.30967656489,-6222.256269723925,-9481.140611307694,-656.4930863968237
16903.68555828161,-6410.010923148504,-9516.210498358072,-708.5950027221445
16578.154752034516,-6374.02461457546,-9489.053128844873,-691.4288629804687
17131.650999981284,-6257.61672945222,-9466.857846600751,-659.0635370091841
17944.181614420606,-6149.478989777445,-9448.7305818475,-639.3045949106926
18020.42341475766,-6235.466150697012,-9488.226114300029,-673.0780807826616
16873.175427100115,-6435.782484505473,-9549.268728407473,-723.6153749961109
16592.70573767492,-6395.7728619304735,-9537.467007335068,-709.5337759892674
17174.856922013394,-6265.305729544846,-9465.15911402215,-672.5192871712788
17970.534321133415,-6161.571283527766,-9448.372953936214,-653.1850282174383
17984.191236995608,-6241.054086810838,-9500.720739450544,-684.2763047547704
16810.881115303175,-6429.188719891157,-9540.193920158616,-736.6240902690996
16568.096467029627,-6382.674739679664,-9501.391291784204,-709.8914039005523
17159.79184625052,-6270.804258680852,-9464.086230288296,-667.6913103689326
17954.910451759155,-6179.609141303199,-9451.748067348966,-646.2336356918378
17924.82500372231,-6269.150229591159,-9498.306751049373,-669.8147260921868
16785.22131266848,-6437.481217084077,-9518.915059437164,-702.9623631194071
16594.76209816481,-6375.589236687331,-9473.87629435972,-674.3521302166141
17195.286416445546,-6263.38347952169,-9446.562462635336,-640.7351065558322
17986.404059696684,-6176.837524990741,-9417.929877988086,-618.6292312895335
17897.466468509017,-6259.986014364483,-9467.72956463451,-646.1665804584719
16759.98619317844,-6417.163481374202,-9501.771271439942,-688.3666739900916
16609.08956636066,-6347.82837007384,-9477.653739172669,-669.032415036251
17200.807297326006,-6248.184293292081,-9437.219433453016,-644.5572548576897
18013.784946654432,-6153.412896801579,-9410.956133718031,-618.1821964004274
17902.49561101146,-6256.968528863016,-9460.64406164218,-646.0101182472847
16773.821922996274,-6424.383094833266,-9500.094890605797,-697.1062060721167
16661.90673850855,-6336.92071877965,-9465.002651810964,-678.3977959630247
17268.51073128113,-6228.358295960224,-9449.848169070265,-653.6991183399103
18057.23673787555,-6147.31087056528,-9446.16013123514,-643.8643507795753
17864.877625093177,-6267.250331312458,-9490.97537886803,-685.7291681443654
16730.481890497435,-6435.022525193993,-9524.16771938416,-727.7951512092533
16660.275061163316,-6362.938149325628,-9490.796564912387,-705.5998689651334
17283.687565766282,-6253.8392846392735,-9453.804427838852,-678.8895343410414
18074.42522936168,-6169.640263276132,-9452.01628828243,-660.5387521432343
17850.170177241587,-6295.190011881592,-9507.895649420698,-700.9730578628848
16714.612151934165,-6457.061345226925,-9535.164777656171,-738.4345815699794
16634.369389339612,-6380.506620467499,-9497.435033015614,-706.4045317655244
17277.31731859652,-6274.693462216075,-9472.87046585923,-669.5018016698125
18060.030705932462,-6176.368138357179,-9466.29905298937,-645.5407316137233
17765.52412098934,-6295.949971193072,-9513.17066111215,-682.2199442648822
16657.324630895215,-6450.199359679146,-9514.757634968477,-713.6241452245886
16666.891177522084,-6370.962425585083,-9474.882122860208,-683.6728076544771
17297.679757795308,-6259.538979475377,-9454.92201506162,-652.4027171615026
18065.752752513024,-6180.570266314777,-9448.618823125224,-635.1695221864608
17713.243390708376,-6327.980020997527,-9499.759614438964,-677.0343395512509
16625.629857257587,-6458.469505127609,-9510.55550701088,-710.1149213451054
16679.20698871696,-6361.865265591773,-9475.217399027038,-682.7787378762648
17327.117005242944,-6249.927729359595,-9449.334078947792,-649.5863973601339
18098.05102325094,-6160.006661415895,-9431.072703727808,-626.0947139376061
17700.458192879938,-6297.827517727318,-9497.88206790472,-668.9653598028851
16619.5725345102,-6440.006964207526,-9524.681809506632,-706.5609939767115
16683.431468419014,-6364.525123181954,-9485.230980543016,-684.7233396438766
17335.811833836062,-6248.094886314259,-9447.72475334701,-654.4143741624802
18130.952791089152,-6134.257451803381,-9436.504177630446,-630.1403796840167
17687.471829351405,-6287.8809914447065,-9497.993826626996,-681.3035227422146
16617.806746698232,-6456.435496382177,-9519.540908281911,-722.9224709179963
16722.055282837784,-6368.101402294803,-9481.095907818784,-696.6591711830106
17393.85931418649,-6216.109539998715,-9454.58673889479,-668.8312493361533
18146.464901741136,-6127.30605927778,-9449.267023714428,-653.8108770621869
17627.747968166826,-6299.258029372458,-9518.423321059146,-705.577517220678
16593.018662097296,-6426.7076762566185,-9517.7974722144,-733.3830873230801
16743.959992403983,-6346.800189828896,-9477.40786998366,-702.6717904414882
17410.645474272427,-6242.99868857845,-9466.120239033728,-668.8536010806085
18132.53976494548,-6169.997891187417,-9449.557596392346,-650.6592810939886
17562.749095290794,-6343.0003932714935,-9495.937466137108,-700.1460433180384
16549.812740065187,-6455.1167434593135,-9506.17456509764,-719.5697092497003
16745.636373238132,-6354.422134688156,-9459.414715697136,-680.2082872639045
17451.951498025835,-6253.056973583338,-9452.239805726982,-651.0392607497288
18097.156953472728,-6187.879286751662,-9426.892927514664,-630.1850831729273
17530.070844897135,-6337.881843791229,-9476.290282760892,-676.0732145396727
16540.42500739396,-6452.143961446758,-9483.487544475502,-700.9954096073401
16721.652951437587,-6358.601910901298,-9448.328250447305,-667.1995719909158
17445.044808989147,-6256.90147362965,-9433.19611945106,-640.1986646889048
18105.98589253257,-6200.284504924358,-9447.322421946816,-637.4270483764468
17489.524780455205,-6369.733079640041,-9505.5934197418,-696.1674328049937
16558.14994074702,-6453.552121347442,-9482.951102608577,-713.4900347578567
16808.489478646457,-6327.018895985949,-9440.840416054776,-679.6718453969771
17558.502263844286,-6215.729560342975,-9423.115482701718,-651.7992200612092
18155.31619254544,-6176.055213934805,-9442.069761999815,-652.4697723948684
17466.748352855248,-6349.035364274427,-9502.397120284691,-707.8350434106641
16560.832150081653,-6446.645432310753,-9505.16873659715,-727.7280959758873
16830.170670768104,-6333.880881533728,-9469.07066930183,-698.0449793392396
17552.534348074718,-6192.640208320643,-9438.135854975684,-663.6679963669773
18209.250951916096,-6145.410972286579,-9446.651869613155,-653.386193917536
17447.92818402388,-6340.96638452606,-9507.962704654065,-706.1139590876054
16552.472597655367,-6422.662010510208,-9528.101626408295,-722.3189738177031
16841.927688351596,-6316.379465625223,-9497.63619871571,-689.9983513353291
17549.069827684143,-6211.303914940824,-9441.421561410614,-654.4814293958461
18162.513454260046,-6182.738385526942,-9427.228203681494,-647.6194438480668
17362.00807833768,-6385.424004247667,-9489.343701522792,-702.4035695080245
16504.84103022111,-6456.547255104453,-9502.128899351228,-713.4676830134015
16828.98602831197,-6338.038306002415,-9455.413753439636,-673.1674877604828
17555.820054509648,-6222.27862146838,-9416.029979709385,-639.7516297997987
18172.996422409586,-6181.866667493185,-9429.91041301613,-628.8663302500642
17340.215127493757,-6380.998358845515,-9493.165849824649,-684.5892291771447
16530.098501455606,-6430.440417580655,-9480.805335140863,-689.9759995908737
16873.82362768932,-6340.765218825963,-9445.556634134846,-659.7340893428433
17575.355479163587,-6271.295997058868,-9426.155319947638,-639.7516297997987
18159.07128561393,-6183.543048327333,-9429.999819993953,-633.3813826300362
17302.217161919732,-6323.4426168731,-9500.966608639552,-683.9410285879408
16543.956583017898,-6373.622283175264,-9493.232905058016,-687.51730770079
16921.16462244566,-6285.310540832346,-9435.319535174314,-659.2423509648265
17643.26007881881,-6182.336054126747,-9417.125215187694,-636.3988681315027
18162.84873042688,-6159.939606182529,-9447.434180669092,-646.1665804584719
17260.441751532766,-6366.268559249468,-9510.443748288602,-704.6610956980105
16547.018772008272,-6402.232516078057,-9488.36022476676,-704.1470055755384
16948.16552974767,-6280.86254368574,-9455.480808673005,-676.6096564066
17688.365899129618,-6173.037728433339,-9433.553747362346,-655.8895892965304
18180.998346924585,-6164.007623673395,-9456.978375551507,-663.7574033447985
17220.54388768004,-6377.936169855138,-9530.962649698577,-725.6717354859991
16527.483347354337,-6414.101292383825,-9525.061789162371,-727.3481163201471
16943.270497711957,-6310.746826022485,-9462.990994809985,-692.479394969868
17673.278471622285,-6218.098845255237,-9433.933727018086,-663.1092027555947
18123.08497704089,-6203.659618337109,-9462.6333668987,-663.5115341557902
17162.786980007528,-6388.150917071213,-9529.152158397694,-715.8593196701192
16533.361856146083,-6411.821414449384,-9514.355303568282,-707.2538980548261
16982.900140631216,-6307.483471332011,-9442.807369566844,-666.1490400015164
17723.636951880093,-6213.762606830908,-9426.669410070112,-640.1539611999942
18135.28902951348,-6228.291240726858,-9450.406962681647,-645.8313042916423
17133.953229660183,-6403.595972489831,-9506.107509864272,-696.6368194385552
16541.654353339,-6383.188829802136,-9472.132858292203,-676.9672843178851
17007.352949065324,-6261.617691709721,-9428.502253115446,-639.6622228219775
17781.170342108053,-6156.050402647305,-9409.279752883882,-611.230803874827
18158.758361191554,-6183.31953088278,-9438.53818637588,-625.7594377707766
17108.71811017014,-6407.93221091416,-9499.513745249957,-687.0255693227732
16542.436664394936,-6421.298554098435,-9482.526419463924,-684.9468570884296
17022.4180248282,-6291.4349188131,-9451.792770837876,-653.5426561287233
17789.976929423443,-6173.12713541116,-9437.91233753113,-631.8838157515306
18122.90616308524,-6203.860784037207,-9474.72566064902,-651.709813083388
17059.968955513115,-6415.263583095501,-9534.851853233797,-714.8534911696305
16548.337524931136,-6387.368606015278,-9494.819878914344,-703.6552671975217
17050.961202497627,-6259.203703308547,-9461.180503509106,-670.1500022590163
17816.597857069715,-6171.003719687906,-9447.00949752444,-648.6923275819215
18098.028671506487,-6205.984199760462,-9482.749936908476,-667.7136621133878
17016.22659161408,-6393.425928762666,-9541.870300992765,-717.6251074820885
16539.41917889347,-6378.78553614444,-9504.520536007944,-700.190746806949
17052.011734487027,-6284.081194887304,-9476.178524038616,-669.1441737585276
17827.43845313054,-6186.895809995629,-9433.710209573534,-644.6019583466003
18070.11134268181,-6220.646944123143,-9470.232960013504,-659.4882201538348
16997.22760882707,-6403.864193423295,-9525.240603118016,-708.2597265553148
16515.256943137283,-6409.496833026032,-9509.348512810291,-701.0848165851613
17044.769769283506,-6301.135575906704,-9444.327288189805,-663.9809207893516
17835.19450845653,-6190.248571663925,-9429.373971149203,-634.2083971748826
18019.842269401823,-6230.638173894665,-9474.680957160112,-652.9391590284299
16925.411453892168,-6432.854405981828,-9502.307713306873,-696.4133019940022
16548.784559820244,-6414.816548206395,-9466.835494856296,-670.5523336592119
17102.325511255924,-6280.48256403,-9441.801541066354,-633.8284175191424
17904.104936612242,-6145.5003792644,-9422.690799557067,-603.8770799490309
18060.500092566024,-6188.236914662947,-9453.089172016284,-627.83815000512
16937.257878453478,-6388.21797230458,-9502.6429894737,-683.0916622986391
16586.961339349906,-6366.492076694021,-9467.506047189958,-670.3511679591142
17130.175784847233,-6253.012270094428,-9436.682991586087,-643.3502606571031
17919.97467517551,-6158.866722448674,-9419.829776266788,-624.0830569366285
18014.455498988093,-6231.241670994958,-9476.111468805251,-658.03535676424
16879.970357414528,-6424.047818666437,-9524.391236828713,-714.5405667472562
16585.530827704766,-6383.412347246689,-9469.137724535194,-692.546450203234
17136.031941894526,-6278.67207272912,-9463.125105276717,-663.1762579889605
17924.73559674449,-6174.445888334023,-9472.714003648043,-642.0762112231507
17973.820027568345,-6241.724639144497,-9466.053183800364,-663.578589389156
16821.90052531964,-6432.69794377064,-9497.099756848784,-705.9798486208736
16570.7116211309,-6393.470632251577,-9470.21060826905,-682.5105169428011
17145.509081543576,-6294.072424658826,-9448.350602191758,-655.7331270853433
17944.27102139843,-6199.345731657235,-9432.950250262053,-630.3638971285698
17944.181614420606,-6281.711909975042,-9478.950140351077,-658.2812259532483
16809.33884493576,-6444.477313098588,-9515.964629169062,-704.7952061647424
16595.18678130946,-6381.467745479077,-9477.050242072371,-678.8671825965861
17178.857884270892,-6266.959758634539,-9446.54011089088,-643.3726124015585
17985.353527707284,-6175.541123812333,-9444.573157378813,-620.2832603792262
17932.804576492857,-6271.988901136983,-9487.44380324409,-653.386193917536
16803.885019288664,-6438.062362439914,-9504.095852863296,-697.2850200277592
16639.689104519977,-6373.622283175264,-9473.742183892988,-671.4687551818795
17229.730454651173,-6259.248406797458,-9452.01628828243,-641.0927344671172
18031.688693963133,-6156.832713703241,-9426.870575770208,-616.8857952220196
17916.756023973947,-6263.316424288324,-9482.369957252737,-659.1529439870053
16774.38071660766,-6436.564795561409,-9509.572030254843,-708.9079271445188
16644.941764466974,-6367.877884850251,-9477.184352539103,-689.0595780682062
17234.334914008967,-6267.585607479287,-9455.480808673005,-667.3783859465583
18021.161022324686,-6193.109594954204,-9450.362259192736,-654.2132084623825
17852.718276109492,-6302.811956740851,-9523.944201939608,-695.8321566381642
16734.88518415513,-6435.134283916269,-9548.531120840446,-725.515273274812
16653.815407015732,-6359.898312079706,-9469.338890235293,-688.6795984124659
17239.051132089036,-6270.938369147583,-9454.25146272796,-661.2763597102595
18028.11241485029,-6171.607216788199,-9447.791808580376,-639.2822431662373
17822.744586794925,-6279.700252974064,-9492.942332380097,-676.6543598955107
16711.371148988146,-6437.9729554620935,-9521.753730982988,-713.1771103354824
16667.897006022573,-6354.310375965879,-9480.805335140863,-680.2082872639045
17295.131658927403,-6241.724639144497,-9443.880253300698,-645.8983595250082
18080.840180020357,-6164.36525158468,-9445.936613790584,-626.7429145268101
17800.683415017535,-6298.766290994441,-9502.307713306873,-667.6689586244772
16681.01748001784,-6448.947661989649,-9526.626411274245,-704.5940404646445
16667.807599044754,-6369.263693006479,-9490.26012304546,-671.9828453043515
17297.590350817485,-6275.4981250164665,-9456.799561595864,-646.6359670920333
18089.020918491,-6176.725766268464,-9429.91041301613,-622.5854900581229
17772.162589092564,-6283.544753020376,-9487.06382358835,-655.710775340888
16690.11464001115,-6396.7116351975965,-9501.324236550838,-682.8904965985414
16712.242867021905,-6326.057770974371,-9466.790791367388,-660.1811242319494
17340.01396179366,-6246.954947347039,-9450.295203959373,-639.7292780553435
18109.98685479008,-6164.655824262599,-9440.572195121313,-621.8478824910978
17716.864373310134,-6313.876070246229,-9517.998637914496,-672.8098598491979
16636.537508551777,-6447.047763710948,-9546.430056861647,-706.5162904878009
16709.06891930925,-6341.68164034863,-9490.595399212289,-672.2063627489046
17364.086790572022,-6240.294127499357,-9444.416695167623,-642.8361705346312
18118.77109036101,-6174.714109267487,-9451.658660371144,-636.3094611536815
17663.242538361854,-6348.20834972958,-9522.893669950208,-691.7194356583876
16598.24897029984,-6485.492764174076,-9540.976231214552,-724.710610474421
16710.968817587953,-6367.363794727778,-9497.904419649174,-692.7699676477871
17374.078020343546,-6243.937461845572,-9466.477866945012,-659.9576067873963
18130.863384111333,-6167.226274874959,-9453.24563422747,-639.6845745664328
17640.130834595067,-6339.647631603198,-9522.714855994564,-685.5950576776336
16608.70958670492,-6443.918519487205,-9521.641972260712,-705.8904416430523
16753.817111708773,-6335.847835045795,-9480.291245018392,-670.6864441259437
17420.614352299493,-6243.110447300726,-9451.636308626688,-647.3288711701479
18150.01882910953,-6176.546952312822,-9444.550805634355,-637.7623245432765
17608.838392357637,-6338.977079269538,-9504.989922641507,-683.0469588097285
16604.127479091585,-6443.203263664635,-9514.288248334917,-707.3433050326473
16773.263129384894,-6323.666134317653,-9473.384555981704,-678.3083889852035
17443.927221766382,-6232.9404035735615,-9440.05810499884,-657.0071765192959
18163.005192638066,-6171.786030743841,-9442.315631188829,-647.7312025703434
17581.301043188698,-6327.577689597331,-9498.17264058264,-693.3064095147145
16604.6192174696,-6442.353897375334,-9502.486527262512,-713.288869057759
16801.672196587588,-6345.012050272471,-9465.181465766604,-677.3472639736252
17466.904815066435,-6242.328136244791,-9459.526474419412,-655.4425544074243
18149.169462820228,-6196.283542666858,-9492.49529749099,-653.6544148509997
17510.9824551323,-6356.612605644776,-9507.850945931788,-699.4754909843792
16552.204376721904,-6446.1313421882805,-9506.800413942388,-717.5133487598121
16781.60033006672,-6342.665117104664,-9475.77619263842,-682.4881651983459
17476.381954715485,-6232.873348340196,-9461.87340758722,-654.8614090515863
18158.624250724824,-6185.934684984051,-9470.702346647064,-645.7642490582764
17483.109829796533,-6358.423096945656,-9537.869338735263,-699.3637322621026
16574.243196754836,-6447.673612555696,-9548.866397007276,-718.4744737713902
16838.48551970548,-6351.069373019859,-9496.943294637596,-682.7340343873542
17526.874545440023,-6242.931633345084,-9467.126067534216,-655.0402230072287
18189.60376853988,-6171.227237132459,-9478.279588017414,-643.7525920572987
17446.408265400918,-6354.355079454789,-9520.412626315669,-697.6202961945887
16560.519225659278,-6431.982687948071,-9515.83051870233,-710.450197511935
16880.327985325814,-6315.239526658002,-9467.573102423325,-667.7136621133878
17582.105705989088,-6223.016229035406,-9440.39338116567,-637.0247169762513
18207.932198993232,-6182.961902971495,-9455.816084839831,-635.2365774198267
17423.810651756605,-6380.126640811759,-9546.94414698412,-693.1052438146168
16564.542539661234,-6451.719278302107,-9520.434978060124,-695.5639357047005
16880.842075448283,-6333.277384433435,-9442.025058510908,-661.8575050660975
17592.43221192744,-6217.651810366132,-9436.861805541732,-639.9304437554412
18203.30538789098,-6174.93762671204,-9461.404020953658,-638.8575600215864
17376.313194789076,-6374.8739808647615,-9533.488396822024,-696.6368194385552
16563.246138482828,-6434.575490304886,-9507.02393138694,-699.2966770287368
16898.879933223718,-6334.3949716562,-9470.747050135977,-671.6475691375219
17611.610008670094,-6230.23584249447,-9453.5809103943,-648.4464583929132
18191.280149374023,-6198.652827579121,-9477.7878496394,-644.8925310245194
17375.329718033045,-6381.065414078881,-9539.322202124858,-702.001238107829
16596.483182487867,-6434.642545538252,-9505.369902297249,-710.3160870452032
16938.710741843075,-6316.848852258784,-9451.636308626688,-670.3735197035694
17685.1248961836,-6211.885060296662,-9443.58968062278,-652.7156415838768
18136.07134056942,-6199.3680834016905,-9462.700422132066,-656.9848247748405
17274.0763156505,-6396.890449153239,-9525.777044984943,-709.8914039005523
16554.28308895625,-6426.931193701172,-9511.270762833448,-708.7961684222423
16970.181998036147,-6292.396043824679,-9461.851055842764,-670.8876098260415
17715.724434342916,-6193.8472025212295,-9434.358410162737,-643.8867025240305
18228.249934703104,-6172.814210988786,-9456.888968573689,-642.389135645525
17284.08989716648,-6378.450259977611,-9524.88297520673,-696.0109705938066
16572.879740343065,-6422.013809921004,-9504.5428877524,-693.5075752148123
16992.64550121373,-6299.660360772653,-9424.970677491508,-653.8332288066422
17744.289963756797,-6182.447812849023,-9409.324456372791,-626.9440802269078
18213.60954208488,-6187.007568717906,-9440.39338116567,-634.6554320639888
17230.825690129484,-6406.434644035655,-9507.940352909607,-699.0284560952731
16567.7611908628,-6436.050705438937,-9486.102698576771,-699.2072700509156
17014.125527635282,-6307.461119587555,-9446.428352168605,-664.7855835897427
17767.960461134968,-6196.149432200126,-9428.278735670894,-643.0149844902736
18192.30832961897,-6218.344714444246,-9472.87046585923,-658.5047433978013
17181.316576160978,-6422.483196554565,-9507.515669764956,-711.8583574126193
16569.102295530116,-6427.355876845822,-9485.16392530965,-709.4667207559015
17043.875699505294,-6314.166642924148,-9449.177616736606,-669.3006359697147
17799.454069072493,-6206.967676516495,-9428.34579090426,-644.289033924226
18190.542541807,-6208.018208505894,-9445.087247501284,-651.3521851721031
17165.983279464635,-6403.126585856269,-9505.63812323071,-702.6717904414882
16581.887493358554,-6411.709655727107,-9487.466154988546,-696.3015432717256
17053.53165310999,-6295.637046770697,-9452.038640026884,-663.936217300441
17821.00115072741,-6187.208734418004,-9433.173767706605,-640.1986646889048
18187.92738770573,-6191.410862375601,-9456.39723019567,-644.9819380023406
17131.025151136535,-6406.769920202484,-9519.965591426562,-697.3073717722144
16593.398641753036,-6409.3627225593,-9478.100774061772,-683.6728076544771
17080.130229011804,-6295.2794188594125,-9459.906454075151,-654.9508160294075
17848.046761518333,-6192.886077509651,-9455.503160417456,-626.7876180157207
18158.69130595819,-6218.344714444246,-9444.10377074525,-626.9887837158184
17082.790086601985,-6409.250963837024,-9487.242637543994,-677.6154849070889
16589.19651379544,-6396.555172986409,-9463.795657610375,-672.7651563602873
17096.223485019622,-6290.138517634692,-9435.207776452038,-641.2491966783043
17874.555930442326,-6187.901638496118,-9414.867688997709,-615.6117457880671
18146.28608778549,-6215.215470220503,-9440.90747128814,-626.6088040600782
17051.967030998116,-6407.194603347136,-9480.805335140863,-675.5367726727453
16599.031281355772,-6386.653350192708,-9457.268948229426,-667.2666272242817
17109.56747645944,-6282.918904175628,-9437.219433453016,-644.8478275356088
17897.220599320008,-6181.866667493185,-9423.00372397944,-626.4970453378016
18131.44452946717,-6223.105636013226,-9444.193177723071,-647.5300368702456
17023.2673911175,-6424.807777977918,-9499.089062105306,-703.0070666083177
16616.420938542004,-6407.127548113769,-9461.06874478683,-686.0197408222843
17144.190328620713,-6284.19295360958,-9434.20194795155,-653.3638421730808
17938.034884695397,-6165.572245785266,-9423.540165846369,-627.905205238486
18101.20261921914,-6220.80340633433,-9471.194085025085,-656.9624730303852
16980.664966185686,-6416.224708107079,-9512.053073889385,-710.3384387896584
16624.08758689017,-6386.228667048057,-9481.252370029972,-692.0100083363067
17162.697573029705,-6282.382462308701,-9447.277718457904,-657.0518800082065
17943.30989638685,-6192.863725765196,-9445.221357968016,-635.1918739309161
18062.020011188983,-6250.911206115628,-9454.027945283407,-655.0178712627735
16937.3472854313,-6429.255775124523,-9502.106547606772,-706.2480695543372
16634.123520150606,-6373.398765730712,-9469.07066930183,-686.4444239669352
17232.055036074526,-6253.079325327793,-9436.90650903064,-650.03343224924
17984.437106184614,-6168.165048142082,-9423.651924568643,-632.2861471517261
18027.084234605343,-6233.700362885042,-9460.688765131088,-659.0411852647287
16949.50663441499,-6402.903068411716,-9498.17264058264,-696.8603368831083
16626.59098226917,-6377.086803565837,-9472.82576237032,-680.3647494750917
17198.706233347206,-6274.447593027066,-9447.814160324831,-646.5689118586674
18004.218400027563,-6170.690795265531,-9411.71609302951,-617.4669405778576
18022.85975490329,-6241.925804844595,-9468.511875690449,-645.0266414912512
16893.113183154248,-6412.737835972052,-9495.445727759092,-691.1382903025496
16665.103037965662,-6370.671852907164,-9458.6324046412,-673.0110255492957
17244.996696114147,-6266.847999912263,-9438.113503231229,-645.160751957983
18051.693505250634,-6166.309853352292,-9418.376912877193,-618.1151411670616
18012.846173387312,-6248.072534569805,-9454.16205575014,-643.8196472906646
16867.632194475198,-6423.734894244063,-9497.45738476007,-689.0148745792956
16684.437296919503,-6368.481381950543,-9461.87340758722,-662.7068713553991
17267.70606848074,-6271.0948313587705,-9435.163072963129,-638.8352082771312
18062.936432711653,-6174.22237088947,-9406.843412738252,-613.8012544871873
17963.40411465217,-6268.725546446508,-9464.7344308775,-653.7661735732763
16834.95394408154,-6421.857347709817,-9499.089062105306,-699.8778223845748
16709.426547220533,-6355.249149233002,-9451.859826071242,-675.3803104615582
17306.195772432777,-6260.477752742499,-9431.787959550376,-647.4629816368797
18066.57976705787,-6198.719882812487,-9429.798654293854,-631.9732227293518
17899.075794109798,-6317.96643948155,-9487.376748010724,-672.6086941491001
16799.526429119876,-6469.533618632987,-9522.111358894272,-710.0255143672841
16725.385692761625,-6373.108193052793,-9477.184352539103,-675.5591244172007
17326.200583720278,-6249.368935748213,-9445.86955855722,-647.9100165259858
18119.06166303893,-6151.445943289512,-9421.126177445196,-623.8595394920754
17909.894038426166,-6274.514648260432,-9481.699404919078,-657.1189352415723
16790.026937726372,-6444.052629953937,-9496.339797537305,-692.1441188030385
16736.226288822447,-6384.060547835893,-9455.860788328742,-663.5338859002454
17355.81664512356,-6265.864523156229,-9424.948325747053,-631.5708913291563
18137.97123884812,-6156.497437536412,-9425.261250169428,-610.8508242190867
17871.493741451948,-6273.933502904595,-9498.798489427389,-651.3968886610137
16774.157199163103,-6411.307324326912,-9493.322312035836,-685.7962233777313
16770.133885161147,-6333.836178044818,-9443.366163178223,-654.8167055626757
17395.558046765094,-6240.070610054804,-9436.124197974706,-629.7827517727318
18165.665050228246,-6163.962920184484,-9427.898756015153,-612.9071847089749
17836.82618580177,-6293.021892669427,-9478.525457206424,-658.4600399088907
16748.83267269524,-6417.565812774398,-9494.59636146979,-689.5736681906782
16775.051268941315,-6341.011088014971,-9455.033773783896,-662.9527405444074
17413.864125473992,-6247.5584444473325,-9454.653794128157,-639.1928361884161
18194.45409708668,-6163.538237039833,-9450.697535359566,-621.8702342355531
17820.9564472385,-6315.708913291564,-9471.574064680824,-666.998406290818
16758.08629489974,-6436.453036839132,-9482.705233419569,-698.6261246950776
16834.305743492336,-6316.088892947304,-9441.063933499328,-659.6893858539327
17473.878559336492,-6221.697476112542,-9423.651924568643,-629.8051035171871
18231.28977194903,-6139.174835583549,-9412.856031996733,-607.9898009288074
17807.835973243236,-6277.3756715507125,-9472.915169348142,-652.9168072839747
16747.066884883272,-6416.783501718463,-9494.216381814049,-692.9487816034296
16841.100673806748,-6327.845910530796,-9465.293224488882,-665.2102667343935
17478.41596346092,-6230.191139005558,-9460.621709897723,-637.7176210543658
18218.99631249861,-6155.491609035923,-9422.780206534888,-624.418333103458
17747.12863530262,-6311.551488822876,-9483.956931109064,-668.384214447047
16713.047529822295,-6441.482179341577,-9511.6954459781,-696.7485781608318
16842.66529591862,-6340.429942659133,-9463.974471566018,-663.645644622522
17504.45574575135,-6230.146435516648,-9436.258308441438,-632.4649611073686
18250.959307069697,-6142.97463214095,-9423.383703635182,-613.488330064813
17722.56406814624,-6305.784738753408,-9480.7382799075,-662.5504091442119
16711.996997832895,-6426.193586134146,-9485.275684031929,-690.2442205243374
16871.968432899528,-6332.003334999483,-9453.938538305583,-663.2209614778711
17539.927964201925,-6228.157130260126,-9432.525567117402,-637.0694204651619
18255.45200770521,-6166.108687652193,-9430.178633949594,-625.8041412596872
17648.445683532438,-6346.800189828896,-9513.818861701351,-684.2763047547704
16654.86593900513,-6457.955415005138,-9525.106492651284,-712.9535928909294
16868.258043319947,-6345.794361328407,-9438.381724164692,-670.7087958703991
17560.20099642289,-6229.90056632764,-9412.43134885208,-632.6884785519217
18262.112827552894,-6174.624702289665,-9421.841433267766,-627.8828534940307
17626.451566988417,-6359.719498124064,-9489.231942800516,-683.9633803323961
16665.415962388037,-6438.151769417736,-9491.4894689905,-699.5425462177451
16906.233657149514,-6303.750730007974,-9440.01340150993,-654.0567462511952
17598.95892130839,-6201.424443891578,-9417.706360543532,-624.8653679925642
18289.87369416639,-6147.713201965476,-9420.00859022243,-618.003382444785
17609.91127609149,-6326.01306748546,-9485.655663687668,-673.0780807826616
16694.182657502017,-6401.852536422317,-9472.199913525572,-682.935200087452
16952.658230383186,-6301.403796840167,-9427.742293803964,-649.3405281711255
17634.900526392525,-6202.586734603255,-9416.745235531956,-622.876062736042
18286.655042964823,-6157.682079992543,-9460.845227342275,-616.7293330108324
17561.452694112384,-6339.82644555884,-9492.718814935544,-669.5241534142677
16662.35377339766,-6418.750455230529,-9471.797582125377,-687.4279007229687
16955.16162576218,-6312.847890001284,-9444.170825978616,-644.7807723022428
17670.73037275438,-6200.79859504683,-9402.753043502931,-610.3814375855253
18311.845458965952,-6150.283652577836,-9412.00666570743,-607.2074898728716
17534.585897277106,-6336.183111212625,-9485.946236365586,-667.5348481577454
16668.768724056332,-6408.781577203462,-9486.057995087862,-680.9235430864744
16992.421983769178,-6302.3872735962,-9443.924956789608,-642.4338391344356
17697.1277829561,-6207.258249194414,-9423.517814101911,-616.8857952220196
18299.797868704543,-6159.939606182529,-9431.631497339187,-609.4203125739471
17478.17009427191,-6348.409515429677,-9497.256219059973,-669.3006359697147
16650.283831391793,-6420.560946531409,-9491.06478584585,-685.5727059331782
16994.657158214708,-6301.493203817989,-9451.502198159957,-650.7486880718099
17725.9838850479,-6175.116440667683,-9429.39632289366,-622.0937516801062
18306.615150763413,-6132.089332591216,-9445.02019226792,-623.1889871584162
17432.59488732754,-6343.983870027527,-9533.6001555443,-686.2209065223822
16638.86208997513,-6405.8087951909065,-9502.97826564053,-695.5415839602451
16999.999225139527,-6302.4990323184775,-9445.44487541257,-658.3929846755249
17728.934315316,-6199.345731657235,-9438.560538120337,-630.7662285287653
18282.29645279604,-6176.368138357179,-9442.427389911103,-632.1743884294497
17373.742744176718,-6389.894353138728,-9514.087082634816,-697.7544066613206
16613.62697048509,-6440.096371185347,-9508.16387035416,-708.773816677787
17001.541495506943,-6322.459140117066,-9468.690689646088,-678.3977959630247
17736.355094475162,-6207.5264701278775,-9451.6810121156,-656.1131067410835
18247.24891749012,-6183.31953088278,-9466.276701244917,-655.2413887073266
17332.369665189944,-6361.932320825139,-9518.423321059146,-705.4881102428568
16648.272174390815,-6386.563943214887,-9501.748919695488,-704.5269852312786
17068.03793526148,-6281.935427419595,-9454.430276683604,-669.2335807363488
17814.04975820181,-6182.4031093601125,-9442.695610844568,-642.0538594786954
18285.984490631163,-6181.017301203883,-9483.554599708868,-650.2569496937931
17320.590295861995,-6378.807887888896,-9509.21440234356,-705.3316480316697
16653.90481399355,-6392.084824095348,-9480.40300374067,-698.7825869062647
17087.595711659877,-6282.002482652961,-9450.697535359566,-664.8973423120192
17829.226592686962,-6195.098900210727,-9442.829721311298,-643.4173158904691
18258.245975762125,-6204.106653226216,-9479.061899073353,-654.6378916070332
17257.84894917595,-6415.151824373224,-9514.623524501743,-709.3773137780803
16623.998179912352,-6432.586185048364,-9493.50112599148,-699.9895811068512
17089.89794133877,-6277.129802361704,-9455.324346461815,-656.2919206967259
17856.965107556,-6149.83661768873,-9420.746197789456,-629.291013394715
18251.51810068108,-6169.729670253953,-9453.11152376074,-637.4046966319916
17227.450576716732,-6371.7670883854735,-9509.54967851039,-690.1771652909715
16648.853319746653,-6382.853553635306,-9481.252370029972,-682.6669791539883
17120.96686613165,-6280.817840196829,-9444.349639934258,-649.4075834044914
17885.15065731414,-6158.777315470853,-9424.970677491508,-613.8459579760979
18240.76691159808,-6166.488667307934,-9459.34766046377,-627.4805220938351
17199.84617231443,-6371.185943029635,-9517.26103034747,-683.8963250990302
16654.463607604936,-6387.145088570725,-9485.49920147648,-675.7826418617537
17135.361389560865,-6278.247389584469,-9437.889985786676,-639.0810774661395
17904.619026734716,-6167.114516152682,-9421.304991400835,-615.2094143878716
18232.161489982784,-6181.352577370712,-9447.903567302654,-627.8157982606648
17170.02894521105,-6388.575600215865,-9509.12499536574,-689.3277990016699
16672.30029968027,-6388.374434515767,-9480.246541529485,-689.0819298126614
17170.63244231134,-6278.113279117737,-9442.270927699916,-651.5980543611115
17951.781207535412,-6179.117402925182,-9430.670372327611,-626.7205627823547
18219.577457854444,-6221.295144712347,-9471.417602469635,-651.0616124941841
17125.10193885588,-6413.587202261353,-9538.897518980208,-712.2830405572702
16683.11854399664,-6371.945902341116,-9484.11339332025,-689.8418891241419
17212.83253584296,-6261.595339965265,-9442.427389911103,-656.6271968635556
18006.632388428734,-6158.173818370559,-9452.642137127175,-637.1141239540725
18225.344207923918,-6185.755871028408,-9494.797527169889,-653.0285660062511
17119.804575419974,-6387.189792059636,-9512.723626223044,-701.3306857741698
16710.901762354584,-6378.718480911074,-9501.413643528658,-692.4570432254128
17230.2668965181,-6264.881046400195,-9467.77426812342,-659.5105718982902
18010.342778008315,-6159.559626526789,-9430.223337438503,-628.5534058276899
18177.6902887452,-6217.584755132765,-9469.227131513017,-645.6748420804552
17054.51512986602,-6418.638696508253,-9522.446635061102,-699.6990084289323
16682.31388119625,-6389.290856038435,-9492.852925402276,-684.4327669659575
17223.09198654795,-6268.502029001955,-9448.305898702847,-645.6971938249104
18009.828687885845,-6166.488667307934,-9421.461453612024,-620.0150394457626
18121.609761906835,-6232.80629310683,-9460.5323029199,-643.5961298461116
17007.196486854136,-6401.517260255488,-9490.6401027012,-686.3997204780246
16691.29928246728,-6376.751527399008,-9460.867579086733,-675.223848250371
17242.716818179706,-6277.912113417639,-9433.598450851256,-644.1549234574942
18043.982153413555,-6156.229216602947,-9388.671444496087,-607.2745451062376
18124.493136941568,-6215.148414987138,-9429.39632289366,-632.2637954072709
16994.970082637083,-6406.345237057833,-9470.992919324985,-683.6728076544771
16725.899782884095,-6380.260751278491,-9439.544014876368,-669.680615625455
17303.133583442403,-6276.459250028044,-9423.20488967954,-641.9197490119635
18102.67783435319,-6164.007623673395,-9420.85795651173,-621.3114406241705
18120.425119450705,-6232.113389028716,-9444.5284538899,-644.6466618355109
16981.5590359639,-6426.7076762566185,-9488.516686977946,-697.5532409612229
16757.3039838438,-6381.177172801158,-9452.351564449258,-676.0508627952174
17343.679647884328,-6251.917034616117,-9446.003669023952,-639.5057606107904
18143.87209938432,-6149.255472332892,-9404.09414817025,-609.3532573405812
18100.48736339657,-6252.498179971955,-9445.82485506831,-639.0810774661395
16948.567861147865,-6440.364592118811,-9499.06671036085,-692.5240984587787
16764.12126590267,-6369.0625273063815,-9464.041526799385,-665.8808190680527
17350.2957642431,-6252.744049160963,-9438.33702067578,-631.6826500514329
18145.056741840453,-6151.222425844959,-9420.880308256186,-610.1802718854275
18059.62837453227,-6259.807200408841,-9461.53813142039,-640.712754811377
16923.19863119109,-6437.391810106255,-9488.293169533394,-682.644627409533
16784.103725445715,-6355.427963188644,-9452.39626793817,-660.806973076698
17375.82145641106,-6238.461284454023,-9426.557651347835,-631.8167605181648
18171.543559019992,-6144.248681574904,-9408.519793572405,-607.3863038285141
18025.005522371,-6260.321290531313,-9458.565349407834,-639.0363739772289
16894.566046543845,-6429.725161758085,-9488.226114300029,-678.7330721298542
16793.558513350312,-6351.11407650877,-9450.004631281452,-655.5096096407902
17400.92246543437,-6239.958851332528,-9422.95902049053,-625.6700307929553
18194.297634875493,-6153.658765990587,-9410.598505806744,-605.5311090387237
17991.679071388135,-6261.304767287346,-9466.142590778183,-642.098562967606
16867.67689796411,-6413.810719705906,-9501.771271439942,-681.1694122754827
16806.701339090032,-6341.145198481703,-9474.569198437834,-656.1801619744494
17421.21784939979,-6242.484598455978,-9436.43712239708,-628.5310540832346
18205.94289373671,-6145.790951942319,-9410.039712195365,-606.3804753280253
17948.69666680058,-6262.66822369912,-9456.64309938468,-643.5961298461116
16839.916031350618,-6425.3665715893,-9487.957893366563,-683.3822349765582
16805.650807100632,-6373.979911086549,-9458.610052896744,-660.9634352878852
17416.903962719913,-6279.029700640404,-9436.48182588599,-636.2871094092261
18214.481260118635,-6169.059117920294,-9428.72577056,-619.7244667678436
17920.48876529798,-6287.523363533422,-9481.92292236363,-660.0917172541282
16821.27467647489,-6446.243100910557,-9501.97243714004,-694.5581072042116
16855.71871468052,-6338.530044380432,-9453.335041205291,-654.615539862578
17493.32457701261,-6216.444816165545,-9439.521663131913,-619.4338940899246
18260.4587984632,-6141.275899562347,-9421.617915823212,-602.5136235372572
17892.660843451125,-6285.399947810167,-9452.77624759391,-644.4231443909579
16799.32526341978,-6430.730990258574,-9483.554599708868,-677.3696157180806
16850.82368264481,-6345.481436906032,-9452.888006316189,-649.4075834044914
17491.55878920064,-6230.727580872486,-9420.567383833812,-621.9596412133743
18235.24603071761,-6152.295309578813,-9414.510061086425,-606.2240131168381
17818.05072045931,-6301.001465439972,-9466.58962566729,-645.7195455693658
16756.052286154307,-6439.336411873867,-9486.952064866076,-674.2850749832481
16850.398999500158,-6357.998413801005,-9445.176654479106,-640.355126900092
17511.876524910513,-6240.361182732723,-9413.928915730588,-606.0451991611957
18261.732847897158,-6168.589731286733,-9408.788014505866,-591.583620498612
17783.22670259794,-6319.151081937681,-9478.883085117708,-641.4280106339468
16752.02897215235,-6412.469615038588,-9498.820841171842,-667.2219237353711
16900.623369291232,-6312.982000468016,-9450.25050047046,-638.9916704883183
17557.47408359934,-6215.595449876243,-9399.892020212654,-612.4825015643241
18277.200255060223,-6148.987251399428,-9409.302104628336,-600.6360770030113
17758.08099008572,-6294.474756059022,-9478.123125806227,-652.3133101836813
16768.03282118235,-6401.852536422317,-9494.059919602862,-678.1519267740163
16931.848756295294,-6318.234660415013,-9447.076552757806,-652.1568479724941
17586.643110113517,-6212.130929485671,-9422.467282112511,-632.8002372741983
18307.08453739697,-6144.02516413035,-9441.421561410614,-617.8469202335979
17730.901268828067,-6318.480529604021,-9506.509841264467,-663.2209614778711
16747.200995350006,-6430.440417580655,-9484.247503786984,-678.8895343410414
16948.16552974767,-6325.700143063086,-9451.524549904412,-644.6466618355109
17623.031750086757,-6210.231031206969,-9429.128101960196,-613.7118475093661
18318.90861021383,-6157.726783481453,-9422.221412923504,-597.2609635902601
17682.777963015793,-6339.692335092108,-9485.87918113222,-651.5757026166561
16728.447881752003,-6410.748530715529,-9481.92292236363,-669.9488365589186
16966.91864334567,-6299.638009028198,-9443.902605045152,-628.4416471054134
17650.01030564431,-6218.188252233059,-9413.928915730588,-597.2833153347153
18318.12629915789,-6186.068795450783,-9419.136872188672,-591.2036408428718
17643.72946545237,-6363.340480725823,-9474.099811804272,-635.258929164282
16734.661666710577,-6412.089635382848,-9470.814105369343,-642.5232461122569
17001.31797806239,-6285.0646716433375,-9415.33707563127,-603.6312107600226
17693.283282909786,-6192.103766453715,-9390.280770096871,-578.910181392453
18351.206880951748,-6140.7841611843305,-9400.00377893493,-571.5117539777463
17633.313552536198,-6324.291983162401,-9489.075480589328,-627.7710947717542
16738.148538845606,-6410.592068504342,-9460.01821279743,-644.1772752019496
17042.199318671148,-6291.8148984688405,-9395.019339921397,-608.2133183733605
17754.012972594854,-6186.60523731771,-9395.6675405106,-592.8129664436539
18325.68118878379,-6144.472199019457,-9404.205906892528,-583.3134750501484
17639.817910172693,-6310.858584744762,-9462.6333668987,-631.7944087737094
16740.69663771351,-6412.089635382848,-9472.15521003666,-650.547522371712
16975.009974838493,-6310.500956833477,-9434.425465396103,-617.5786993001342
17745.7875306353,-6192.081414709261,-9428.591660093269,-593.6623327329556
18318.88625846937,-6166.868646963674,-9453.603262138757,-601.619553759045
17522.068920382135,-6360.4347539466335,-9484.091041575795,-657.0071765192959
16699.97175931594,-6428.182891390668,-9480.7382799075,-668.5630284026895
17043.04868496045,-6327.085951219315,-9444.997840523463,-635.7283157978435
17771.64849897009,-6209.068740495293,-9416.655828554134,-603.2065276153717
18360.14757873387,-6160.5654550272775,-9429.888061271677,-597.9315159239193
17503.360510273043,-6362.468762692066,-9494.59636146979,-656.7389555858321
16711.035872821318,-6415.285934839957,-9486.460326488055,-669.5465051587231
17088.37802271581,-6285.332892576801,-9444.260232956438,-635.549501842201
17812.61924655667,-6177.664539535587,-9424.881270513686,-611.163748641461
18355.07373274252,-6164.231141117948,-9447.903567302654,-612.4154463309582
17460.132236496476,-6379.83606813384,-9507.850945931788,-670.485278425846
