%OpenBCI Raw EEG Data
%Number of channels = 8
%Sample Rate = 250 Hz
%Board = OpenBCI_GUI$BoardCytonSerial
Sample Index, EXG Channel 0, EXG Channel 1, EXG Channel 2, EXG Channel 3, EXG Channel 4, EXG Channel 5, EXG Channel 6, EXG Channel 7, Accel Channel 0, Accel Channel 1, Accel Channel 2, Other, Other, Other, Other, Other, Other, Other, Analog Channel 0, Analog Channel 1, Analog Channel 2, Timestamp, Other, Timestamp (Formatted)
7.0, -11425.049474841295, -29385.369048758635, -33441.31659761865, -15719.512488783896, -10628.880337343257, 187500.0, -45495.83589981031, -10823.988714693633, 0.0, 0.0, 0.0, 192.0, 0.0, 0.0, 0.0, 0.0, 0.0, 0.0, 0.0, 0.0, 0.0, 1.6635895183959E9, 0.0, 2022-09-19 17:11:58.395
0.0, 0.0, 0.0, 0.0, 0.0, 0.0, 0.0, 0.0, 0.0, 0.596, -0.6980000000000001, 0.462, 192.0, 18.0, 160.0, 234.0, 48.0, 14.0, 112.0, 0.0, 0.0, 0.0, 1.663589518489192E9, 0.0, 2022-09-19 17:11:58.489
1.0, -8877.755269736681, -26256.661266882573, -32949.01942599052, -15016.706587875677, -8854.241234569698, 187500.0, -44844.059031493554, -10864.400668668828, 0.596, -0.6980000000000001, 0.462, 192.0, 0.0, 0.0, 0.0, 0.0, 0.0, 0.0, 0.0, 0.0, 0.0, 1.6635895185062604E9, 0.0, 2022-09-19 17:11:58.506
2.0, -8904.465604360772, -26276.53196770334, -32947.18658294518, -15022.093358289405, -8864.411278296862, 187500.0, -44852.664453108846, -10868.28987220405, 0.596, -0.6980000000000001, 0.462, 192.0, 0.0, 0.0, 0.0, 0.0, 0.0, 0.0, 0.0, 0.0, 0.0, 1.6635895185092752E9, 0.0, 2022-09-19 17:11:58.509
3.0, -8935.266308220185, -26283.1033805732, -32939.76580378602, -15023.546221679, -8858.353955549474, 187500.0, -44846.89770303937, -10887.691186391257, 0.596, -0.6980000000000001, 0.462, 192.0, 0.0, 0.0, 0.0, 0.0, 0.0, 0.0, 0.0, 0.0, 0.0, 1.6635895185123475E9, 0.0, 2022-09-19 17:11:58.512
4.0, -8940.787189100647, -26280.532929960842, -32940.324597397404, -15024.708512390676, -8848.988574622701, 187500.0, -44842.47205763723, -10892.273294004595, 0.596, -0.6980000000000001, 0.462, 192.0, 0.0, 0.0, 0.0, 0.0, 0.0, 0.0, 0.0, 0.0, 0.0, 1.6635895185162857E9, 0.0, 2022-09-19 17:11:58.516
5.0, -8934.23812797524, -26280.644688683118, -32942.58212358739, -15022.093358289405, -8838.930289617812, 187500.0, -44841.332118670005, -10882.282064233073, 0.596, -0.6980000000000001, 0.462, 192.0, 0.0, 0.0, 0.0, 0.0, 0.0, 0.0, 0.0, 0.0, 0.0, 1.663589518520248E9, 0.0, 2022-09-19 17:11:58.520
6.0, -8921.519985380171, -26285.182092807543, -32950.51699286902, -15029.983524082128, -8839.131455317909, 187500.0, -44847.05416525056, -10883.220837500196, 0.596, -0.6980000000000001, 0.462, 192.0, 0.0, 0.0, 0.0, 0.0, 0.0, 0.0, 0.0, 0.0, 0.0, 1.6635895185242891E9, 0.0, 2022-09-19 17:11:58.524
7.0, -8940.8095408451, -26304.1587238501, -32943.09621370986, -15027.882460103328, -8848.183911822309, 187500.0, -44849.244636207186, -10888.697014891746, 0.596, -0.6980000000000001, 0.462, 192.0, 0.0, 0.0, 0.0, 0.0, 0.0, 0.0, 0.0, 0.0, 0.0, 1.6635895185282714E9, 0.0, 2022-09-19 17:11:58.528
8.0, -8967.832799891568, -26309.187866352546, -32937.12829794029, -15024.999085068595, -8854.554158992072, 187500.0, -44849.244636207186, -10892.742680638157, 0.596, -0.686, 0.468, 192.0, 18.0, 160.0, 234.0, 144.0, 14.0, 160.0, 0.0, 0.0, 0.0, 1.663589518532312E9, 0.0, 2022-09-19 17:11:58.532
9.0, -8973.756012172224, -26303.666985472082, -32940.92809449769, -15022.093358289405, -8850.128513589922, 187500.0, -44854.29613045408, -10886.39478521285, 0.596, -0.686, 0.468, 192.0, 0.0, 0.0, 0.0, 0.0, 0.0, 0.0, 0.0, 0.0, 0.0, 1.663589518535276E9, 0.0, 2022-09-19 17:11:58.535
10.0, -8960.635538176959, -26291.35117427721, -32941.08455670888, -15015.164317508259, -8836.359839005452, 187500.0, -44848.26115945115, -10870.927378049777, 0.596, -0.686, 0.468, 192.0, 0.0, 0.0, 0.0, 0.0, 0.0, 0.0, 0.0, 0.0, 0.0, 1.6635895185393476E9, 0.0, 2022-09-19 17:11:58.539
11.0, -8941.077761778566, -26287.081991086245, -32945.59960908885, -15019.522907677045, -8833.94585060428, 187500.0, -44846.852999550465, -10879.82337234299, 0.596, -0.686, 0.468, 192.0, 0.0, 0.0, 0.0, 0.0, 0.0, 0.0, 0.0, 0.0, 0.0, 1.6635895185432677E9, 0.0, 2022-09-19 17:11:58.543
12.0, -8962.289567266651, -26305.902159917612, -32944.19144918817, -15011.11865176185, -8846.149903076875, 187500.0, -44856.73247059971, -10868.021651270587, 0.596, -0.686, 0.468, 192.0, 0.0, 0.0, 0.0, 0.0, 0.0, 0.0, 0.0, 0.0, 0.0, 1.6635895185482357E9, 0.0, 2022-09-19 17:11:58.548
13.0, -8996.867715939012, -26320.11786939119, -32943.36443464332, -15006.581247637421, -8849.614423467448, 187500.0, -44858.5876653895, -10875.062450774009, 0.596, -0.686, 0.468, 192.0, 0.0, 0.0, 0.0, 0.0, 0.0, 0.0, 0.0, 0.0, 0.0, 1.663589518552349E9, 0.0, 2022-09-19 17:11:58.552
14.0, -9007.484794555283, -26314.10525013271, -32941.017501475515, -15005.307198203469, -8844.27235654263, 187500.0, -44854.765517087646, -10867.216988470196, 0.596, -0.686, 0.468, 192.0, 0.0, 0.0, 0.0, 0.0, 0.0, 0.0, 0.0, 0.0, 0.0, 1.6635895185563018E9, 0.0, 2022-09-19 17:11:58.556
15.0, -8995.124279871497, -26301.208293582, -32945.71136781113, -15011.856259328873, -8839.131455317909, 187500.0, -44856.35249094397, -10865.406497169317, 0.596, -0.686, 0.468, 192.0, 0.0, 0.0, 0.0, 0.0, 0.0, 0.0, 0.0, 0.0, 0.0, 1.663589518560397E9, 0.0, 2022-09-19 17:11:58.560
16.0, -8976.929959884877, -26291.97702312196, -32946.29251316697, -15012.593866895899, -8834.12466455992, 187500.0, -44853.02208102013, -10865.652366358325, 0.596, -0.686, 0.468, 192.0, 0.0, 0.0, 0.0, 0.0, 0.0, 0.0, 0.0, 0.0, 0.0, 1.6635895185633292E9, 0.0, 2022-09-19 17:11:58.563
17.0, -8987.837611179068, -26288.288985286832, -32932.25561764903, -14996.813535310452, -8838.572661706527, 187500.0, -44841.24271169218, -10867.373450681383, 0.596, -0.686, 0.468, 192.0, 0.0, 0.0, 0.0, 0.0, 0.0, 0.0, 0.0, 0.0, 0.0, 1.6635895185673656E9, 0.0, 2022-09-19 17:11:58.567
18.0, -9018.50420457175, -26294.905101645603, -32931.093326937356, -14995.137154476304, -8844.562929220549, 187500.0, -44839.856903535954, -10874.794229840545, 0.594, -0.686, 0.47000000000000003, 192.0, 18.0, 144.0, 234.0, 144.0, 14.0, 176.0, 0.0, 0.0, 0.0, 1.6635895185713897E9, 0.0, 2022-09-19 17:11:58.571
19.0, -9035.469178613326, -26297.07322085777, -32941.643350320264, -15006.15656449277, -8851.268452557142, 187500.0, -44842.82968554851, -10876.917645563799, 0.594, -0.686, 0.47000000000000003, 192.0, 0.0, 0.0, 0.0, 0.0, 0.0, 0.0, 0.0, 0.0, 0.0, 1.663589518575384E9, 0.0, 2022-09-19 17:11:58.575
20.0, -9028.897765743466, -26294.59217722323, -32947.52185911201, -15018.651189643288, -8855.738801448202, 187500.0, -44845.62365360542, -10874.10132576243, 0.594, -0.686, 0.47000000000000003, 192.0, 0.0, 0.0, 0.0, 0.0, 0.0, 0.0, 0.0, 0.0, 0.0, 1.6635895185803473E9, 0.0, 2022-09-19 17:11:58.580
21.0, -9010.144652145464, -26287.596081208718, -32950.025254491, -15023.367407723357, -8853.391868280396, 187500.0, -44849.44580190728, -10866.166456480796, 0.594, -0.686, 0.47000000000000003, 192.0, 0.0, 0.0, 0.0, 0.0, 0.0, 0.0, 0.0, 0.0, 0.0, 1.6635895185844803E9, 0.0, 2022-09-19 17:11:58.584
22.0, -9026.729646531301, -26302.325880804765, -32947.96889400112, -15027.100149047394, -8853.570682236039, 187500.0, -44854.11731649844, -10880.940959565754, 0.594, -0.686, 0.47000000000000003, 192.0, 0.0, 0.0, 0.0, 0.0, 0.0, 0.0, 0.0, 0.0, 0.0, 1.6635895185873907E9, 0.0, 2022-09-19 17:11:58.587
23.0, -9052.054172999166, -26314.01584315489, -32944.862001521826, -15027.033093814027, -8844.339411775996, 187500.0, -44853.22324672023, -10892.943846338254, 0.594, -0.686, 0.47000000000000003, 192.0, 0.0, 0.0, 0.0, 0.0, 0.0, 0.0, 0.0, 0.0, 0.0, 1.6635895185913956E9, 0.0, 2022-09-19 17:11:58.591
24.0, -9060.436077169905, -26306.796229695825, -32949.689978324175, -15027.882460103328, -8835.488120971695, 187500.0, -44852.59739787548, -10873.631939128869, 0.594, -0.686, 0.47000000000000003, 192.0, 0.0, 0.0, 0.0, 0.0, 0.0, 0.0, 0.0, 0.0, 0.0, 1.6635895185953755E9, 0.0, 2022-09-19 17:11:58.595
25.0, -9049.684888086902, -26296.134447590644, -32955.970818516114, -15033.984486339628, -8835.398713993873, 187500.0, -44853.02208102013, -10872.24613097264, 0.594, -0.686, 0.47000000000000003, 192.0, 0.0, 0.0, 0.0, 0.0, 0.0, 0.0, 0.0, 0.0, 0.0, 1.663589518599464E9, 0.0, 2022-09-19 17:11:58.599
26.0, -9035.133902446498, -26299.01782262538, -32961.20112671866, -15038.521890464055, -8844.22765305372, 187500.0, -44860.44286017929, -10867.328747192472, 0.594, -0.686, 0.47000000000000003, 192.0, 0.0, 0.0, 0.0, 0.0, 0.0, 0.0, 0.0, 0.0, 0.0, 1.663589518603381E9, 0.0, 2022-09-19 17:11:58.603
27.0, -9050.824827054123, -26311.87007568718, -32950.2264201911, -15031.950477594195, -8853.168350835842, 187500.0, -44859.52643865663, -10876.716479863702, 0.594, -0.686, 0.47000000000000003, 192.0, 0.0, 0.0, 0.0, 0.0, 0.0, 0.0, 0.0, 0.0, 0.0, 1.663589518608383E9, 0.0, 2022-09-19 17:11:58.608
28.0, -9078.183362267418, -26315.53576177785, -32948.39357714577, -15027.837756614419, -8863.450153285285, 187500.0, -44852.32917694202, -10882.997320055643, 0.598, -0.6880000000000001, 0.47000000000000003, 192.0, 18.0, 176.0, 234.0, 128.0, 14.0, 176.0, 0.0, 0.0, 0.0, 1.663589518612421E9, 0.0, 2022-09-19 17:11:58.612
29.0, -9086.542914693704, -26315.178133866568, -32951.008731247035, -15027.97186708115, -8864.008946896667, 187500.0, -44849.35639492946, -10880.62803514338, 0.598, -0.6880000000000001, 0.47000000000000003, 192.0, 0.0, 0.0, 0.0, 0.0, 0.0, 0.0, 0.0, 0.0, 0.0, 1.663589518615409E9, 0.0, 2022-09-19 17:11:58.615
30.0, -9069.913216818955, -26310.931302420056, -32957.513088883534, -15033.202175283692, -8860.052688128077, 187500.0, -44851.77038333063, -10877.901122319832, 0.598, -0.6880000000000001, 0.47000000000000003, 192.0, 0.0, 0.0, 0.0, 0.0, 0.0, 0.0, 0.0, 0.0, 0.0, 1.663589518619417E9, 0.0, 2022-09-19 17:11:58.619
31.0, -9047.248547941274, -26309.03140414136, -32958.09423423937, -15034.4985764621, -8858.443362527296, 187500.0, -44852.17271473083, -10872.983738539666, 0.598, -0.6880000000000001, 0.47000000000000003, 192.0, 0.0, 0.0, 0.0, 0.0, 0.0, 0.0, 0.0, 0.0, 0.0, 1.6635895186233885E9, 0.0, 2022-09-19 17:11:58.623
32.0, -9063.833542327111, -26322.39774732563, -32958.27304819501, -15039.058332330982, -8868.65810974337, 187500.0, -44857.7382991002, -10887.244151502151, 0.598, -0.6880000000000001, 0.47000000000000003, 192.0, 0.0, 0.0, 0.0, 0.0, 0.0, 0.0, 0.0, 0.0, 0.0, 1.663589518627462E9, 0.0, 2022-09-19 17:11:58.627
33.0, -9089.761565895267, -26331.718424763494, -32953.80269930395, -15033.649210172798, -8872.055574900576, 187500.0, -44856.53130489961, -10902.756262154135, 0.598, -0.6880000000000001, 0.47000000000000003, 192.0, 0.0, 0.0, 0.0, 0.0, 0.0, 0.0, 0.0, 0.0, 0.0, 1.663589518631417E9, 0.0, 2022-09-19 17:11:58.631
34.0, -9091.37089149605, -26327.516296805898, -32956.551963871956, -15023.21094551217, -8868.188723109808, 187500.0, -44854.20672347626, -10890.328692236984, 0.598, -0.6880000000000001, 0.47000000000000003, 192.0, 0.0, 0.0, 0.0, 0.0, 0.0, 0.0, 0.0, 0.0, 0.0, 1.6635895186364725E9, 0.0, 2022-09-19 17:11:58.636
35.0, -9071.008452297265, -26313.50175303242, -32956.48490863859, -15011.275113973035, -8856.498760759683, 187500.0, -44851.2339414637, -10854.118866219385, 0.598, -0.6880000000000001, 0.47000000000000003, 192.0, 0.0, 0.0, 0.0, 0.0, 0.0, 0.0, 0.0, 0.0, 0.0, 1.6635895186404235E9, 0.0, 2022-09-19 17:11:58.640
36.0, -9050.288385187196, -26308.20438959651, -32956.35079817186, -15013.599695396388, -8848.630946711415, 187500.0, -44854.40788917636, -10857.851607543422, 0.598, -0.6880000000000001, 0.47000000000000003, 192.0, 0.0, 0.0, 0.0, 0.0, 0.0, 0.0, 0.0, 0.0, 0.0, 1.6635895186445684E9, 0.0, 2022-09-19 17:11:58.644
37.0, -9066.98513829531, -26320.609607769205, -32952.841574292375, -15012.54916340699, -8857.683403215815, 187500.0, -44863.907380569864, -10869.608625126913, 0.598, -0.6880000000000001, 0.47000000000000003, 192.0, 0.0, 0.0, 0.0, 0.0, 0.0, 0.0, 0.0, 0.0, 0.0, 1.6635895186474953E9, 0.0, 2022-09-19 17:11:58.647
38.0, -9087.9957780833, -26326.35400609422, -32942.33625439838, -15009.330512205424, -8862.8913596739, 187500.0, -44853.51381939815, -10870.167418738296, 0.6, -0.6900000000000001, 0.468, 192.0, 18.0, 192.0, 234.0, 112.0, 14.0, 160.0, 0.0, 0.0, 0.0, 1.6635895186524692E9, 0.0, 2022-09-19 17:11:58.652
39.0, -9087.682853660925, -26321.10134614722, -32944.95140849965, -15016.214849497659, -8862.533731762616, 187500.0, -44847.59060711749, -10869.474514660182, 0.6, -0.6900000000000001, 0.468, 192.0, 0.0, 0.0, 0.0, 0.0, 0.0, 0.0, 0.0, 0.0, 0.0, 1.6635895186574583E9, 0.0, 2022-09-19 17:11:58.657
40.0, -9070.762583108257, -26310.841895442238, -32948.84061203487, -15018.628837898832, -8864.835961441513, 187500.0, -44845.19897046077, -10865.63001461387, 0.6, -0.6900000000000001, 0.468, 192.0, 0.0, 0.0, 0.0, 0.0, 0.0, 0.0, 0.0, 0.0, 0.0, 1.6635895186604843E9, 0.0, 2022-09-19 17:11:58.660
41.0, -9045.773332807223, -26304.69516571703, -32951.25460043605, -15015.253724486081, -8866.400583553384, 187500.0, -44845.28837743859, -10856.063467986998, 0.6, -0.6900000000000001, 0.468, 192.0, 0.0, 0.0, 0.0, 0.0, 0.0, 0.0, 0.0, 0.0, 0.0, 1.6635895186634846E9, 0.0, 2022-09-19 17:11:58.663
42.0, -9062.26892021524, -26320.274331602377, -32947.23128643409, -15013.197363996193, -8872.927292934333, 187500.0, -44849.11052574045, -10866.501732647626, 0.6, -0.6900000000000001, 0.468, 192.0, 0.0, 0.0, 0.0, 0.0, 0.0, 0.0, 0.0, 0.0, 0.0, 1.663589518668534E9, 0.0, 2022-09-19 17:11:58.668
43.0, -9089.470993217348, -26329.751471251428, -32939.09525145236, -15007.900000560285, -8877.442345314306, 187500.0, -44844.57312161602, -10881.924436321788, 0.6, -0.6900000000000001, 0.468, 192.0, 0.0, 0.0, 0.0, 0.0, 0.0, 0.0, 0.0, 0.0, 0.0, 1.663589518671564E9, 0.0, 2022-09-19 17:11:58.671
44.0, -9089.023958328242, -26320.564904280294, -32940.27989390849, -14998.10993648886, -8870.84858069999, 187500.0, -44835.520665111624, -10853.470665630182, 0.6, -0.6900000000000001, 0.468, 192.0, 0.0, 0.0, 0.0, 0.0, 0.0, 0.0, 0.0, 0.0, 0.0, 1.6635895186755087E9, 0.0, 2022-09-19 17:11:58.675
45.0, -9064.682908616413, -26310.573674508774, -32940.883391008785, -15000.613331867855, -8869.61923475495, 187500.0, -44829.12806619741, -10847.346287649429, 0.6, -0.6900000000000001, 0.468, 192.0, 0.0, 0.0, 0.0, 0.0, 0.0, 0.0, 0.0, 0.0, 0.0, 1.663589518679498E9, 0.0, 2022-09-19 17:11:58.679
46.0, -9043.247585683774, -26316.921569934082, -32947.63361783429, -15012.504459918078, -8873.553141779083, 187500.0, -44837.86759827943, -10855.683488331259, 0.6, -0.6900000000000001, 0.468, 192.0, 0.0, 0.0, 0.0, 0.0, 0.0, 0.0, 0.0, 0.0, 0.0, 1.663589518683553E9, 0.0, 2022-09-19 17:11:58.683
47.0, -9062.335975448606, -26339.318017878297, -32950.4275858912, -15021.311047233468, -8889.869915231457, 187500.0, -44853.15619148686, -10865.294738447039, 0.6, -0.6900000000000001, 0.468, 192.0, 0.0, 0.0, 0.0, 0.0, 0.0, 0.0, 0.0, 0.0, 0.0, 1.6635895186875415E9, 0.0, 2022-09-19 17:11:58.687
48.0, -9088.8451443726, -26346.492927848452, -32945.75607130004, -15016.438366942211, -8891.948627465801, 187500.0, -44849.244636207186, -10859.8632645444, 0.592, -0.686, 0.462, 192.0, 18.0, 128.0, 234.0, 144.0, 14.0, 112.0, 0.0, 0.0, 0.0, 1.6635895186915336E9, 0.0, 2022-09-19 17:11:58.691
49.0, -9092.667292674458, -26339.094500433745, -32949.33235041289, -15016.036035542016, -8877.487048803217, 187500.0, -44846.96475827274, -10858.231587199163, 0.592, -0.686, 0.462, 192.0, 0.0, 0.0, 0.0, 0.0, 0.0, 0.0, 0.0, 0.0, 0.0, 1.6635895186955905E9, 0.0, 2022-09-19 17:11:58.695
50.0, -9073.981234309822, -26327.605703783716, -32956.686074338686, -15020.707550133176, -8862.8913596739, 187500.0, -44850.429278663316, -10852.487188874149, 0.592, -0.686, 0.462, 192.0, 0.0, 0.0, 0.0, 0.0, 0.0, 0.0, 0.0, 0.0, 0.0, 1.663589518698645E9, 0.0, 2022-09-19 17:11:58.698
51.0, -9055.608100367559, -26330.377320096177, -32962.542231385974, -15028.240088014614, -8856.901092159878, 187500.0, -44860.44286017929, -10845.826369026467, 0.592, -0.686, 0.462, 192.0, 0.0, 0.0, 0.0, 0.0, 0.0, 0.0, 0.0, 0.0, 0.0, 1.6635895187036057E9, 0.0, 2022-09-19 17:11:58.703
52.0, -9073.981234309822, -26348.392826127154, -32950.67345508021, -15028.843585114908, -8864.344223063496, 187500.0, -44859.95112180128, -10852.420133640782, 0.592, -0.686, 0.462, 192.0, 0.0, 0.0, 0.0, 0.0, 0.0, 0.0, 0.0, 0.0, 0.0, 1.6635895187075608E9, 0.0, 2022-09-19 17:11:58.707
53.0, -9098.970484610854, -26354.897183763645, -32942.38095788729, -15029.894117104306, -8871.675595244837, 187500.0, -44852.530342642116, -10862.880750045866, 0.592, -0.686, 0.462, 192.0, 0.0, 0.0, 0.0, 0.0, 0.0, 0.0, 0.0, 0.0, 0.0, 1.6635895187116752E9, 0.0, 2022-09-19 17:11:58.711
54.0, -9108.894659149011, -26351.1197389507, -32943.20797243214, -15034.252707273092, -8873.821362712546, 187500.0, -44851.949197286274, -10863.305433190517, 0.592, -0.686, 0.462, 192.0, 0.0, 0.0, 0.0, 0.0, 0.0, 0.0, 0.0, 0.0, 0.0, 1.6635895187156644E9, 0.0, 2022-09-19 17:11:58.715
55.0, -9098.165821810464, -26343.29662839134, -32941.3751293868, -15038.521890464055, -8866.445287042296, 187500.0, -44846.16009547235, -10870.636805371858, 0.592, -0.686, 0.462, 192.0, 0.0, 0.0, 0.0, 0.0, 0.0, 0.0, 0.0, 0.0, 0.0, 1.663589518719571E9, 0.0, 2022-09-19 17:11:58.719
56.0, -9083.592484425602, -26342.626076057684, -32941.576295086896, -15040.31003002048, -8866.579397509027, 187500.0, -44844.43901114929, -10881.209180499218, 0.592, -0.686, 0.462, 192.0, 0.0, 0.0, 0.0, 0.0, 0.0, 0.0, 0.0, 0.0, 0.0, 1.6635895187236845E9, 0.0, 2022-09-19 17:11:58.723
57.0, -9107.71001669288, -26359.434587888074, -32941.03985321997, -15028.508308948078, -8881.733880249725, 187500.0, -44847.59060711749, -10859.125656977374, 0.592, -0.686, 0.462, 192.0, 0.0, 0.0, 0.0, 0.0, 0.0, 0.0, 0.0, 0.0, 0.0, 1.6635895187286067E9, 0.0, 2022-09-19 17:11:58.728
58.0, -9136.700229251413, -26365.469558891007, -32939.72110029711, -15020.774605366541, -8883.9467029508, 187500.0, -44843.88021753791, -10861.874921545377, 0.594, -0.6900000000000001, 0.462, 192.0, 18.0, 144.0, 234.0, 112.0, 14.0, 112.0, 0.0, 0.0, 0.0, 1.663589518731585E9, 0.0, 2022-09-19 17:11:58.731
59.0, -9142.690496765435, -26356.104177964233, -32941.82216427591, -15021.266343744559, -8879.431650570828, 187500.0, -44839.07459248002, -10861.316127933995, 0.594, -0.6900000000000001, 0.462, 192.0, 0.0, 0.0, 0.0, 0.0, 0.0, 0.0, 0.0, 0.0, 0.0, 1.6635895187356205E9, 0.0, 2022-09-19 17:11:58.735
60.0, -9133.012191416286, -26347.386997626665, -32943.05151022095, -15023.546221679, -8884.460793073273, 187500.0, -44836.34767965647, -10859.8632645444, 0.594, -0.6900000000000001, 0.462, 192.0, 0.0, 0.0, 0.0, 0.0, 0.0, 0.0, 0.0, 0.0, 0.0, 1.663589518739617E9, 0.0, 2022-09-19 17:11:58.739
61.0, -9124.071493634165, -26349.06337846081, -32949.64527483526, -15023.993256568107, -8886.718319263258, 187500.0, -44842.31559542604, -10861.696107589736, 0.594, -0.6900000000000001, 0.462, 192.0, 0.0, 0.0, 0.0, 0.0, 0.0, 0.0, 0.0, 0.0, 0.0, 1.6635895187436492E9, 0.0, 2022-09-19 17:11:58.743
62.0, -9153.687555037446, -26371.795102571858, -32950.29347542447, -15019.567611165956, -8897.178935668342, 187500.0, -44853.04443276458, -10864.311261691006, 0.594, -0.6900000000000001, 0.462, 192.0, 0.0, 0.0, 0.0, 0.0, 0.0, 0.0, 0.0, 0.0, 0.0, 1.663589518747609E9, 0.0, 2022-09-19 17:11:58.747
63.0, -9186.72343334239, -26380.847559076257, -32950.53934461348, -15018.964114065662, -8897.357749623985, 187500.0, -44852.507990897655, -10866.524084392082, 0.594, -0.6900000000000001, 0.462, 192.0, 0.0, 0.0, 0.0, 0.0, 0.0, 0.0, 0.0, 0.0, 0.0, 1.6635895187517223E9, 0.0, 2022-09-19 17:11:58.751
64.0, -9189.740918843856, -26367.324753680798, -32952.43924289218, -15013.845564585396, -8883.99140643971, 187500.0, -44844.86369429394, -10860.757334322612, 0.594, -0.6900000000000001, 0.462, 192.0, 0.0, 0.0, 0.0, 0.0, 0.0, 0.0, 0.0, 0.0, 0.0, 1.663589518754665E9, 0.0, 2022-09-19 17:11:58.754
65.0, -9172.306558168717, -26351.49971860644, -32953.42271964821, -15009.799898838986, -8867.339356820507, 187500.0, -44842.941444270786, -10853.29185167454, 0.594, -0.6900000000000001, 0.462, 192.0, 0.0, 0.0, 0.0, 0.0, 0.0, 0.0, 0.0, 0.0, 0.0, 1.6635895187586553E9, 0.0, 2022-09-19 17:11:58.758
66.0, -9162.114162697097, -26348.21401217151, -32950.96402775813, -15009.799898838986, -8870.580359766527, 187500.0, -44839.87925528041, -10851.81663654049, 0.594, -0.6900000000000001, 0.462, 192.0, 0.0, 0.0, 0.0, 0.0, 0.0, 0.0, 0.0, 0.0, 0.0, 1.6635895187636893E9, 0.0, 2022-09-19 17:11:58.763
67.0, -9188.399814176539, -26365.044875746356, -32947.454803878645, -15011.968018051151, -8893.736767022225, 187500.0, -44846.47301989472, -10867.395802425839, 0.594, -0.6900000000000001, 0.462, 192.0, 0.0, 0.0, 0.0, 0.0, 0.0, 0.0, 0.0, 0.0, 0.0, 1.663589518767698E9, 0.0, 2022-09-19 17:11:58.767
68.0, -9217.926468601998, -26377.47244566351, -32943.4761933656, -15009.911657561262, -8899.257647902687, 187500.0, -44848.01529026214, -10865.451200658226, 0.6, -0.686, 0.462, 192.0, 18.0, 192.0, 234.0, 144.0, 14.0, 112.0, 0.0, 0.0, 0.0, 1.6635895187716916E9, 0.0, 2022-09-19 17:11:58.771
69.0, -9220.54162270327, -26369.0234862594, -32943.05151022095, -15016.34895996439, -8888.372348352952, 187500.0, -44844.99780476067, -10874.168380995796, 0.6, -0.686, 0.462, 192.0, 0.0, 0.0, 0.0, 0.0, 0.0, 0.0, 0.0, 0.0, 0.0, 1.663589518775678E9, 0.0, 2022-09-19 17:11:58.775
70.0, -9201.542639916259, -26351.99145698446, -32938.98349273008, -15017.891230331807, -8886.293636118608, 187500.0, -44832.97256624372, -10857.471627887682, 0.6, -0.686, 0.462, 192.0, 0.0, 0.0, 0.0, 0.0, 0.0, 0.0, 0.0, 0.0, 0.0, 1.663589518779791E9, 0.0, 2022-09-19 17:11:58.779
71.0, -9183.840058307655, -26355.187756441566, -32947.275989923, -15026.697817647198, -8891.90392397689, 187500.0, -44839.58868260249, -10849.559110350503, 0.6, -0.686, 0.462, 192.0, 0.0, 0.0, 0.0, 0.0, 0.0, 0.0, 0.0, 0.0, 0.0, 1.6635895187827652E9, 0.0, 2022-09-19 17:11:58.782
72.0, -9202.123785272097, -26374.432608417585, -32942.31390265392, -15029.02239907055, -8901.179897925842, 187500.0, -44844.50606638266, -10859.639747099847, 0.6, -0.686, 0.462, 192.0, 0.0, 0.0, 0.0, 0.0, 0.0, 0.0, 0.0, 0.0, 0.0, 1.6635895187867153E9, 0.0, 2022-09-19 17:11:58.786
73.0, -9221.346285503661, -26377.494797407962, -32938.84938226335, -15028.821233370452, -8895.61431355647, 187500.0, -44839.58868260249, -10863.841875057446, 0.6, -0.686, 0.462, 192.0, 0.0, 0.0, 0.0, 0.0, 0.0, 0.0, 0.0, 0.0, 0.0, 1.6635895187917137E9, 0.0, 2022-09-19 17:11:58.791
74.0, -9216.317143001217, -26371.660992105128, -32951.008731247035, -15032.35280899439, -8890.629874542938, 187500.0, -44844.617825104935, -10862.47841864567, 0.6, -0.686, 0.462, 192.0, 0.0, 0.0, 0.0, 0.0, 0.0, 0.0, 0.0, 0.0, 0.0, 1.6635895187958248E9, 0.0, 2022-09-19 17:11:58.795
75.0, -9192.736052600867, -26365.78248331338, -32959.4800423956, -15041.539375965522, -8888.037072186122, 187500.0, -44847.03181350611, -10857.650441843325, 0.6, -0.686, 0.462, 192.0, 0.0, 0.0, 0.0, 0.0, 0.0, 0.0, 0.0, 0.0, 0.0, 1.6635895187997444E9, 0.0, 2022-09-19 17:11:58.799
76.0, -9169.892569767544, -26370.386942671175, -32964.75505408705, -15049.898928391807, -8888.484107075228, 187500.0, -44851.77038333063, -10857.516331376593, 0.6, -0.686, 0.462, 192.0, 0.0, 0.0, 0.0, 0.0, 0.0, 0.0, 0.0, 0.0, 0.0, 1.6635895188037727E9, 0.0, 2022-09-19 17:11:58.803
77.0, -9189.405642677028, -26393.968033071524, -32963.05632150845, -15051.083570847937, -8902.498650848705, 187500.0, -44858.63236887841, -10874.615415884902, 0.6, -0.686, 0.462, 192.0, 0.0, 0.0, 0.0, 0.0, 0.0, 0.0, 0.0, 0.0, 0.0, 1.663589518807807E9, 0.0, 2022-09-19 17:11:58.807
78.0, -9212.986733077376, -26403.355765742752, -32960.888202296286, -15044.333344022436, -8903.504479349194, 187500.0, -44857.961816544754, -10884.472535189692, 0.596, -0.6900000000000001, 0.466, 192.0, 18.0, 160.0, 234.0, 112.0, 14.0, 144.0, 0.0, 0.0, 0.0, 1.6635895188107755E9, 0.0, 2022-09-19 17:11:58.810
79.0, -9214.417244722516, -26402.685213409095, -32963.391597675276, -15042.522852721555, -8903.772700282658, 187500.0, -44856.79952583308, -10888.138221280364, 0.596, -0.6900000000000001, 0.466, 192.0, 0.0, 0.0, 0.0, 0.0, 0.0, 0.0, 0.0, 0.0, 0.0, 1.6635895188147385E9, 0.0, 2022-09-19 17:11:58.814
80.0, -9191.640817122558, -26393.476294693508, -32965.87264130982, -15036.554936951989, -8895.346092623007, 187500.0, -44855.525476399125, -10874.146029251342, 0.596, -0.6900000000000001, 0.466, 192.0, 0.0, 0.0, 0.0, 0.0, 0.0, 0.0, 0.0, 0.0, 0.0, 1.6635895188196907E9, 0.0, 2022-09-19 17:11:58.819
81.0, -9164.595206331636, -26386.167274256622, -32959.59180111787, -15026.943686836206, -8890.09343267601, 187500.0, -44853.133839742404, -10858.05277324352, 0.596, -0.6900000000000001, 0.466, 192.0, 0.0, 0.0, 0.0, 0.0, 0.0, 0.0, 0.0, 0.0, 0.0, 1.6635895188239164E9, 0.0, 2022-09-19 17:11:58.823
82.0, -9176.732203570868, -26403.400469231663, -32956.21668770513, -15018.561782665467, -8899.838793258523, 187500.0, -44859.30292121207, -10842.495959102627, 0.596, -0.6900000000000001, 0.466, 192.0, 0.0, 0.0, 0.0, 0.0, 0.0, 0.0, 0.0, 0.0, 0.0, 1.6635895188278153E9, 0.0, 2022-09-19 17:11:58.827
83.0, -9190.232657221874, -26408.787239645393, -32953.668588837216, -15015.633704141821, -8904.689121805326, 187500.0, -44856.844229321985, -10848.173302194275, 0.596, -0.6900000000000001, 0.466, 192.0, 0.0, 0.0, 0.0, 0.0, 0.0, 0.0, 0.0, 0.0, 0.0, 1.6635895188308532E9, 0.0, 2022-09-19 17:11:58.830
84.0, -9177.738032071356, -26396.918463339625, -32950.06995797992, -15012.035073284516, -8904.286790405129, 187500.0, -44847.25533095066, -10841.91481374679, 0.596, -0.6900000000000001, 0.466, 192.0, 0.0, 0.0, 0.0, 0.0, 0.0, 0.0, 0.0, 0.0, 0.0, 1.6635895188347943E9, 0.0, 2022-09-19 17:11:58.834
85.0, -9147.272604378773, -26385.161445756134, -32955.68024583819, -15016.706587875677, -8902.163374681875, 187500.0, -44845.64600534988, -10838.897328245323, 0.596, -0.6900000000000001, 0.466, 192.0, 0.0, 0.0, 0.0, 0.0, 0.0, 0.0, 0.0, 0.0, 0.0, 1.6635895188388972E9, 0.0, 2022-09-19 17:11:58.838
86.0, -9117.477729019849, -26394.526826682908, -32961.938734285686, -15024.820271112952, -8906.276095661653, 187500.0, -44856.6877671108, -10840.461950357194, 0.596, -0.6900000000000001, 0.466, 192.0, 0.0, 0.0, 0.0, 0.0, 0.0, 0.0, 0.0, 0.0, 0.0, 1.6635895188428524E9, 0.0, 2022-09-19 17:11:58.842
87.0, -9125.09967387911, -26418.9349316281, -32958.02717900601, -15025.088492046416, -8922.749331325214, 187500.0, -44861.538095657605, -10853.090685974443, 0.596, -0.6900000000000001, 0.466, 192.0, 0.0, 0.0, 0.0, 0.0, 0.0, 0.0, 0.0, 0.0, 0.0, 1.6635895188478596E9, 0.0, 2022-09-19 17:11:58.847
88.0, -9129.771188470268, -26420.633664206704, -32954.13797547078, -15019.902887332784, -8928.046694761122, 187500.0, -44851.323348441525, -10853.023630741076, 0.596, -0.6900000000000001, 0.466, 192.0, 0.0, 0.0, 0.0, 0.0, 0.0, 0.0, 0.0, 0.0, 0.0, 1.663589518851795E9, 0.0, 2022-09-19 17:11:58.851
89.0, -9114.348484796106, -26417.839696149793, -32958.74243482857, -15021.646323400299, -8924.917450537378, 187500.0, -44849.49050539619, -10848.709744061201, 0.592, -0.6900000000000001, 0.464, 192.0, 18.0, 128.0, 234.0, 112.0, 14.0, 128.0, 0.0, 0.0, 0.0, 1.6635895188558526E9, 0.0, 2022-09-19 17:11:58.855
90.0, -9083.27956000323, -26406.909693111145, -32964.62094362032, -15022.696855389699, -8921.251764446708, 187500.0, -44847.45649665076, -10841.981868980154, 0.592, -0.6900000000000001, 0.464, 192.0, 0.0, 0.0, 0.0, 0.0, 0.0, 0.0, 0.0, 0.0, 0.0, 1.6635895188588479E9, 0.0, 2022-09-19 17:11:58.858
91.0, -9049.684888086902, -26395.93498658359, -32960.48587089609, -15019.232334999126, -8914.278020176653, 187500.0, -44846.16009547235, -10841.37837187986, 0.592, -0.6900000000000001, 0.464, 192.0, 0.0, 0.0, 0.0, 0.0, 0.0, 0.0, 0.0, 0.0, 0.0, 1.6635895188628347E9, 0.0, 2022-09-19 17:11:58.862
92.0, -9054.334050933607, -26406.641472177682, -32955.18850746018, -15019.29939023249, -8922.279944691652, 187500.0, -44848.14940072887, -10865.25003495813, 0.592, -0.6900000000000001, 0.464, 192.0, 0.0, 0.0, 0.0, 0.0, 0.0, 0.0, 0.0, 0.0, 0.0, 1.6635895188668718E9, 0.0, 2022-09-19 17:11:58.866
93.0, -9062.894769059989, -26409.971882101523, -32956.50726038304, -15007.050634270983, -8919.061293490087, 187500.0, -44851.97154903073, -10839.724342790169, 0.592, -0.6900000000000001, 0.464, 192.0, 0.0, 0.0, 0.0, 0.0, 0.0, 0.0, 0.0, 0.0, 0.0, 1.6635895188708804E9, 0.0, 2022-09-19 17:11:58.870
94.0, -9050.847178798578, -26407.155562300155, -32960.463519151635, -15001.373291179336, -8908.265400918175, 187500.0, -44857.44772642228, -10815.562107033982, 0.592, -0.6900000000000001, 0.464, 192.0, 0.0, 0.0, 0.0, 0.0, 0.0, 0.0, 0.0, 0.0, 0.0, 1.663589518874869E9, 0.0, 2022-09-19 17:11:58.874
95.0, -9024.203899407852, -26410.217751290533, -32972.37699894631, -15017.287733231513, -8910.053540474599, 187500.0, -44865.15907825936, -10827.989676951132, 0.592, -0.6900000000000001, 0.464, 192.0, 0.0, 0.0, 0.0, 0.0, 0.0, 0.0, 0.0, 0.0, 0.0, 1.663589518879867E9, 0.0, 2022-09-19 17:11:58.879
96.0, -8990.117489113509, -26411.60355944676, -32970.81237683444, -15018.941762321207, -8914.568592854572, 187500.0, -44866.32136897104, -10824.972191449666, 0.592, -0.6900000000000001, 0.464, 192.0, 0.0, 0.0, 0.0, 0.0, 0.0, 0.0, 0.0, 0.0, 0.0, 1.663589518883825E9, 0.0, 2022-09-19 17:11:58.883
97.0, -8998.052358395144, -26427.18272533211, -32959.14476622877, -15016.371311708846, -8931.220642473774, 187500.0, -44869.584723661515, -10835.388104365838, 0.592, -0.6900000000000001, 0.464, 192.0, 0.0, 0.0, 0.0, 0.0, 0.0, 0.0, 0.0, 0.0, 0.0, 1.6635895188869476E9, 0.0, 2022-09-19 17:11:58.886
98.0, -9011.552812046148, -26430.915466656148, -32955.14380397127, -15015.83486984192, -8930.840662818035, 187500.0, -44864.13089801442, -10842.76418003609, 0.592, -0.6900000000000001, 0.464, 192.0, 0.0, 0.0, 0.0, 0.0, 0.0, 0.0, 0.0, 0.0, 0.0, 1.6635895188909006E9, 0.0, 2022-09-19 17:11:58.890
99.0, -8999.058186895632, -26422.555914229863, -32959.34593192887, -15018.226506498637, -8927.24203196073, 187500.0, -44857.69359561129, -10839.232604412151, 0.586, -0.686, 0.464, 192.0, 18.0, 80.0, 234.0, 144.0, 14.0, 128.0, 0.0, 0.0, 0.0, 1.6635895188948455E9, 0.0, 2022-09-19 17:11:58.894
100.0, -8973.465439494305, -26419.583132217307, -32973.159310002244, -15030.698779904698, -8929.343095939528, 187500.0, -44862.365110202445, -10842.04892421352, 0.586, -0.686, 0.464, 192.0, 0.0, 0.0, 0.0, 0.0, 0.0, 0.0, 0.0, 0.0, 0.0, 1.6635895188989315E9, 0.0, 2022-09-19 17:11:58.898
101.0, -8950.040811305144, -26418.018510105434, -32970.99119079008, -15032.5986781834, -8926.81734881608, 187500.0, -44862.34275845799, -10843.322973647473, 0.586, -0.686, 0.464, 192.0, 0.0, 0.0, 0.0, 0.0, 0.0, 0.0, 0.0, 0.0, 0.0, 1.66358951890293E9, 0.0, 2022-09-19 17:11:58.902
102.0, -8966.759916157713, -26435.765795202948, -32961.44699590767, -15030.587021182422, -8932.740561096736, 187500.0, -44863.773270103135, -10853.157741207808, 0.586, -0.686, 0.464, 192.0, 0.0, 0.0, 0.0, 0.0, 0.0, 0.0, 0.0, 0.0, 0.0, 1.663589518907644E9, 0.0, 2022-09-19 17:11:58.907
103.0, -8982.9202273989, -26439.073853382335, -32953.109795225835, -15025.334361235424, -8936.160377998398, 187500.0, -44860.97930204622, -10853.783590052557, 0.586, -0.686, 0.464, 192.0, 0.0, 0.0, 0.0, 0.0, 0.0, 0.0, 0.0, 0.0, 0.0, 1.6635895189119508E9, 0.0, 2022-09-19 17:11:58.911
104.0, -8977.622863962992, -26429.686120711103, -32956.66372259423, -15028.016570570062, -8935.802750087112, 187500.0, -44860.420508434836, -10850.76610455109, 0.586, -0.686, 0.464, 192.0, 0.0, 0.0, 0.0, 0.0, 0.0, 0.0, 0.0, 0.0, 0.0, 1.663589518915012E9, 0.0, 2022-09-19 17:11:58.915
105.0, -8949.34790722703, -26418.242027549986, -32960.24000170708, -15031.078759560438, -8933.902851808412, 187500.0, -44856.285435710604, -10854.364735408395, 0.586, -0.686, 0.464, 192.0, 0.0, 0.0, 0.0, 0.0, 0.0, 0.0, 0.0, 0.0, 0.0, 1.6635895189189363E9, 0.0, 2022-09-19 17:11:58.918
106.0, -8925.47624414876, -26417.772640916424, -32960.57527787391, -15023.434462956724, -8935.176901242365, 187500.0, -44857.69359561129, -10841.400723624316, 0.586, -0.686, 0.464, 192.0, 0.0, 0.0, 0.0, 0.0, 0.0, 0.0, 0.0, 0.0, 0.0, 1.663589518922963E9, 0.0, 2022-09-19 17:11:58.922
107.0, -8940.854244334012, -26436.726920214525, -32955.52378362701, -15016.930105320229, -8942.754142612714, 187500.0, -44860.6887293683, -10828.883746729345, 0.586, -0.686, 0.464, 192.0, 0.0, 0.0, 0.0, 0.0, 0.0, 0.0, 0.0, 0.0, 0.0, 1.6635895189270763E9, 0.0, 2022-09-19 17:11:58.927
108.0, -8954.958195085312, -26443.454795295573, -32954.60736210434, -15017.4441954427, -8944.586985658048, 187500.0, -44859.19116248979, -10844.14998819232, 0.586, -0.686, 0.464, 192.0, 0.0, 0.0, 0.0, 0.0, 0.0, 0.0, 0.0, 0.0, 0.0, 1.6635895189309185E9, 0.0, 2022-09-19 17:11:58.930
109.0, -8948.744410126736, -26437.84450743729, -32959.18946971768, -15018.83000359893, -8947.559767670604, 187500.0, -44857.58183688901, -10845.491092859638, 0.596, -0.682, 0.464, 192.0, 18.0, 160.0, 234.0, 176.0, 14.0, 128.0, 0.0, 0.0, 0.0, 1.6635895189360044E9, 0.0, 2022-09-19 17:11:58.936
110.0, -8920.04477024612, -26426.154545087167, -32965.02327502052, -15025.06614030196, -8937.38972394344, 187500.0, -44855.1902002323, -10841.065447457488, 0.596, -0.682, 0.464, 192.0, 0.0, 0.0, 0.0, 0.0, 0.0, 0.0, 0.0, 0.0, 0.0, 1.6635895189389956E9, 0.0, 2022-09-19 17:11:58.938
111.0, -8894.519078078161, -26426.668635209637, -32968.57720238891, -15027.949515336695, -8932.517043652182, 187500.0, -44855.74899384368, -10840.19372942373, 0.596, -0.682, 0.464, 192.0, 0.0, 0.0, 0.0, 0.0, 0.0, 0.0, 0.0, 0.0, 0.0, 1.663589518942999E9, 0.0, 2022-09-19 17:11:58.942
112.0, -8907.57249684006, -26447.008722663966, -32963.950391286664, -15023.434462956724, -8946.15160776992, 187500.0, -44857.38067118891, -10851.034325484554, 0.596, -0.682, 0.464, 192.0, 0.0, 0.0, 0.0, 0.0, 0.0, 0.0, 0.0, 0.0, 0.0, 1.6635895189469886E9, 0.0, 2022-09-19 17:11:58.946
113.0, -8920.156528968399, -26455.792958234902, -32961.31288544094, -15018.83000359893, -8946.665697892393, 187500.0, -44856.35249094397, -10852.151912707319, 0.596, -0.682, 0.464, 192.0, 0.0, 0.0, 0.0, 0.0, 0.0, 0.0, 0.0, 0.0, 0.0, 1.6635895189520192E9, 0.0, 2022-09-19 17:11:58.952
114.0, -8906.298447406107, -26442.024283650433, -32960.463519151635, -15011.319817461947, -8941.52479666767, 187500.0, -44852.4856391532, -10837.265650900084, 0.596, -0.682, 0.464, 192.0, 0.0, 0.0, 0.0, 0.0, 0.0, 0.0, 0.0, 0.0, 0.0, 1.6635895189550931E9, 0.0, 2022-09-19 17:11:58.955
115.0, -8874.380156323929, -26430.0884521113, -32965.33619944289, -15010.761023850564, -8944.09524728003, 187500.0, -44851.748031586176, -10824.994543194121, 0.596, -0.682, 0.464, 192.0, 0.0, 0.0, 0.0, 0.0, 0.0, 0.0, 0.0, 0.0, 0.0, 1.6635895189590125E9, 0.0, 2022-09-19 17:11:58.959
116.0, -8850.061458356555, -26440.57142026084, -32972.265240224035, -15021.73573037812, -8957.103962553021, 187500.0, -44862.32040671354, -10832.57178456447, 0.596, -0.682, 0.464, 192.0, 0.0, 0.0, 0.0, 0.0, 0.0, 0.0, 0.0, 0.0, 0.0, 1.6635895189630115E9, 0.0, 2022-09-19 17:11:58.963
117.0, -8864.411278296862, -26463.079626927334, -32966.2302692211, -15020.126404777338, -8968.436296991862, 187500.0, -44865.49435442619, -10845.468741115183, 0.596, -0.682, 0.464, 192.0, 0.0, 0.0, 0.0, 0.0, 0.0, 0.0, 0.0, 0.0, 0.0, 1.6635895189670112E9, 0.0, 2022-09-19 17:11:58.967
118.0, -8876.61533076946, -26469.852205497293, -32965.85028956536, -15028.329494992435, -8966.268177779697, 187500.0, -44861.76161310216, -10868.982776282166, 0.596, -0.682, 0.464, 192.0, 0.0, 0.0, 0.0, 0.0, 0.0, 0.0, 0.0, 0.0, 0.0, 1.663589518971056E9, 0.0, 2022-09-19 17:11:58.971
119.0, -8860.902054417378, -26463.169033905153, -32967.54902214396, -15026.675465902743, -8950.800770616625, 187500.0, -44859.30292121207, -10836.595098566426, 0.6, -0.684, 0.46, 192.0, 18.0, 192.0, 234.0, 160.0, 14.0, 96.0, 0.0, 0.0, 0.0, 1.6635895189750416E9, 0.0, 2022-09-19 17:11:58.975
120.0, -8832.492987214684, -26460.643286781706, -32974.83569083639, -15040.868823631863, -8948.900872337923, 187500.0, -44861.180467746315, -10833.242336898129, 0.6, -0.684, 0.46, 192.0, 0.0, 0.0, 0.0, 0.0, 0.0, 0.0, 0.0, 0.0, 0.0, 1.6635895189800708E9, 0.0, 2022-09-19 17:11:58.980
121.0, -8805.447376423763, -26463.057275182877, -32971.639391379285, -15046.479111490145, -8951.717192139291, 187500.0, -44856.12897349942, -10833.309392131496, 0.6, -0.684, 0.46, 192.0, 0.0, 0.0, 0.0, 0.0, 0.0, 0.0, 0.0, 0.0, 0.0, 1.663589518983176E9, 0.0, 2022-09-19 17:11:58.983
122.0, -8810.945905559767, -26475.28367939993, -32965.31384769843, -15038.007800341584, -8949.526721182672, 187500.0, -44856.084270010506, -10836.729209033158, 0.6, -0.684, 0.46, 192.0, 0.0, 0.0, 0.0, 0.0, 0.0, 0.0, 0.0, 0.0, 0.0, 1.663589518987095E9, 0.0, 2022-09-19 17:11:58.987
123.0, -8817.293800985075, -26474.61312706627, -32965.00092327606, -15036.286716018525, -8954.891139851945, 187500.0, -44856.576008388525, -10841.981868980154, 0.6, -0.684, 0.46, 192.0, 0.0, 0.0, 0.0, 0.0, 0.0, 0.0, 0.0, 0.0, 0.0, 1.6635895189910269E9, 0.0, 2022-09-19 17:11:58.991
124.0, -8800.418233921318, -26469.025190952445, -32969.56067914494, -15043.528681222044, -8956.43341021936, 187500.0, -44855.01138627665, -10846.09458995993, 0.6, -0.684, 0.46, 192.0, 0.0, 0.0, 0.0, 0.0, 0.0, 0.0, 0.0, 0.0, 0.0, 1.663589518995086E9, 0.0, 2022-09-19 17:11:58.995
125.0, -8760.341556112953, -26461.313839115362, -32975.77446410352, -15049.40719001379, -8950.107866538508, 187500.0, -44858.252389222675, -10839.366714878883, 0.6, -0.684, 0.46, 192.0, 0.0, 0.0, 0.0, 0.0, 0.0, 0.0, 0.0, 0.0, 0.0, 1.663589518999061E9, 0.0, 2022-09-19 17:11:58.999
126.0, -8726.29984930752, -26464.443083339105, -32976.62383039282, -15052.379972026345, -8951.516026439194, 187500.0, -44867.08132828252, -10838.71851428968, 0.6, -0.684, 0.46, 192.0, 0.0, 0.0, 0.0, 0.0, 0.0, 0.0, 0.0, 0.0, 0.0, 1.6635895190031247E9, 0.0, 2022-09-19 17:11:59.003
127.0, -8733.407704044308, -26483.397362637206, -32974.47806292511, -15051.821178414963, -8957.260424764208, 187500.0, -44872.11047078496, -10853.515369119094, 0.6, -0.684, 0.46, 192.0, 0.0, 0.0, 0.0, 0.0, 0.0, 0.0, 0.0, 0.0, 0.0, 1.6635895190080974E9, 0.0, 2022-09-19 17:11:59.008
128.0, -8734.033552889055, -26490.14758946271, -32974.83569083639, -15046.412056256779, -8954.421753218383, 187500.0, -44869.38355796142, -10853.470665630182, 0.6, -0.684, 0.46, 192.0, 0.0, 0.0, 0.0, 0.0, 0.0, 0.0, 0.0, 0.0, 0.0, 1.663589519011067E9, 0.0, 2022-09-19 17:11:59.011
129.0, -8706.138575808833, -26481.29629865841, -32974.634525136295, -15045.31682077847, -8945.10107578052, 187500.0, -44863.147421258385, -10846.787494038046, 0.596, -0.684, 0.462, 192.0, 18.0, 160.0, 234.0, 160.0, 14.0, 112.0, 0.0, 0.0, 0.0, 1.6635895190141423E9, 0.0, 2022-09-19 17:11:59.014
130.0, -8659.535188619517, -26459.503347814483, -32973.96397280264, -15047.239070801625, -8943.67056413538, 187500.0, -44857.961816544754, -10851.838988284944, 0.596, -0.684, 0.462, 192.0, 0.0, 0.0, 0.0, 0.0, 0.0, 0.0, 0.0, 0.0, 0.0, 1.6635895190191233E9, 0.0, 2022-09-19 17:11:59.019
131.0, -8619.860842211347, -26456.75408324648, -32974.500414669565, -15041.539375965522, -8945.793979858636, 187500.0, -44860.889895068394, -10845.222871926175, 0.596, -0.684, 0.462, 192.0, 0.0, 0.0, 0.0, 0.0, 0.0, 0.0, 0.0, 0.0, 0.0, 1.6635895190231388E9, 0.0, 2022-09-19 17:11:59.023
132.0, -8617.17863287671, -26475.28367939993, -32966.94552504367, -15031.056407815982, -8944.251709491218, 187500.0, -44863.6391596364, -10828.682581029247, 0.596, -0.684, 0.462, 192.0, 0.0, 0.0, 0.0, 0.0, 0.0, 0.0, 0.0, 0.0, 0.0, 1.6635895190271883E9, 0.0, 2022-09-19 17:11:59.027
133.0, -8609.377874061809, -26478.457627112584, -32969.02423727801, -15035.035018329028, -8943.357639713007, 187500.0, -44864.64498813689, -10831.878880486356, 0.596, -0.684, 0.462, 192.0, 0.0, 0.0, 0.0, 0.0, 0.0, 0.0, 0.0, 0.0, 0.0, 1.6635895190311673E9, 0.0, 2022-09-19 17:11:59.031
134.0, -8575.447925978653, -26467.10294092929, -32969.22540297811, -15033.336285750423, -8938.23909023274, 187500.0, -44857.91711305584, -10824.100473415909, 0.596, -0.684, 0.462, 192.0, 0.0, 0.0, 0.0, 0.0, 0.0, 0.0, 0.0, 0.0, 0.0, 1.6635895190351732E9, 0.0, 2022-09-19 17:11:59.035
135.0, -8521.982553241558, -26461.492653071007, -32979.95424031666, -15038.678352675242, -8936.272136720674, 187500.0, -44857.87240956693, -10819.451310569206, 0.596, -0.684, 0.462, 192.0, 0.0, 0.0, 0.0, 0.0, 0.0, 0.0, 0.0, 0.0, 0.0, 1.6635895190382047E9, 0.0, 2022-09-19 17:11:59.038
136.0, -8463.1974653241, -26463.303144371886, -32985.966859575135, -15046.613221956877, -8942.463569934795, 187500.0, -44861.15811600186, -10823.206403637696, 0.596, -0.684, 0.462, 192.0, 0.0, 0.0, 0.0, 0.0, 0.0, 0.0, 0.0, 0.0, 0.0, 1.6635895190421703E9, 0.0, 2022-09-19 17:11:59.042
137.0, -8435.034267310413, -26472.534414831927, -32987.6879438982, -15045.093303333915, -8951.985413072754, 187500.0, -44867.41660444935, -10825.978019950155, 0.596, -0.684, 0.462, 192.0, 0.0, 0.0, 0.0, 0.0, 0.0, 0.0, 0.0, 0.0, 0.0, 1.6635895190471756E9, 0.0, 2022-09-19 17:11:59.047
138.0, -8382.530019584898, -26455.636496023715, -32990.10193229937, -15037.180785796738, -8943.648212390926, 187500.0, -44865.18143000382, -10807.80605170799, 0.596, -0.684, 0.462, 192.0, 0.0, 0.0, 0.0, 0.0, 0.0, 0.0, 0.0, 0.0, 0.0, 1.663589519051204E9, 0.0, 2022-09-19 17:11:59.051
139.0, -8292.318378963279, -26440.683178983116, -33000.80841789346, -15039.304201519992, -8932.338229696541, 187500.0, -44868.13186027192, -10787.600074720393, 0.594, -0.686, 0.464, 192.0, 18.0, 144.0, 234.0, 144.0, 14.0, 128.0, 0.0, 0.0, 0.0, 1.6635895190552452E9, 0.0, 2022-09-19 17:11:59.055
140.0, -8231.119302644647, -26458.18459489162, -33001.94835686068, -15044.556861466988, -8942.217700745787, 187500.0, -44874.16683127485, -10794.126784101341, 0.594, -0.686, 0.464, 192.0, 0.0, 0.0, 0.0, 0.0, 0.0, 0.0, 0.0, 0.0, 0.0, 1.6635895190592368E9, 0.0, 2022-09-19 17:11:59.059
141.0, -8236.997811436393, -26494.729697076047, -32990.88424335531, -15043.148701566304, -8963.027174833676, 187500.0, -44877.07255805404, -10825.195708894218, 0.594, -0.686, 0.464, 192.0, 0.0, 0.0, 0.0, 0.0, 0.0, 0.0, 0.0, 0.0, 0.0, 1.66358951906324E9, 0.0, 2022-09-19 17:11:59.063
142.0, -8289.524410906364, -26527.765575380992, -32978.344914715875, -15036.174957296249, -8980.68505295337, 187500.0, -44876.64787490939, -10859.304470933017, 0.594, -0.686, 0.464, 192.0, 0.0, 0.0, 0.0, 0.0, 0.0, 0.0, 0.0, 0.0, 0.0, 1.6635895190662658E9, 0.0, 2022-09-19 17:11:59.066
143.0, -8322.068550833292, -26525.418642213186, -32974.366304202835, -15033.358637494879, -8970.783230159668, 187500.0, -44872.4904504407, -10879.041061287053, 0.594, -0.686, 0.464, 192.0, 0.0, 0.0, 0.0, 0.0, 0.0, 0.0, 0.0, 0.0, 0.0, 1.6635895190702915E9, 0.0, 2022-09-19 17:11:59.070
144.0, -8304.365969224687, -26502.955139035603, -32974.70158036966, -15029.558840937478, -8954.19823577383, 187500.0, -44868.46713643875, -10845.178168437264, 0.594, -0.686, 0.464, 192.0, 0.0, 0.0, 0.0, 0.0, 0.0, 0.0, 0.0, 0.0, 0.0, 1.6635895190752532E9, 0.0, 2022-09-19 17:11:59.075
145.0, -8268.804343796295, -26486.973641750057, -32976.66853388173, -15033.872727617352, -8946.375125214474, 187500.0, -44867.058976538065, -10833.018819453577, 0.594, -0.686, 0.464, 192.0, 0.0, 0.0, 0.0, 0.0, 0.0, 0.0, 0.0, 0.0, 0.0, 1.6635895190791895E9, 0.0, 2022-09-19 17:11:59.079
146.0, -8250.341802876212, -26488.895891773212, -32976.3332577149, -15040.645306187309, -8950.510197938705, 187500.0, -44868.46713643875, -10844.14998819232, 0.594, -0.686, 0.464, 192.0, 0.0, 0.0, 0.0, 0.0, 0.0, 0.0, 0.0, 0.0, 0.0, 1.663589519083329E9, 0.0, 2022-09-19 17:11:59.083
147.0, -8273.319396176266, -26515.673281630672, -32976.15444375926, -15042.45579748819, -8964.815314390102, 187500.0, -44877.49724119869, -10851.48136037366, 0.594, -0.686, 0.464, 192.0, 0.0, 0.0, 0.0, 0.0, 0.0, 0.0, 0.0, 0.0, 0.0, 1.663589519087246E9, 0.0, 2022-09-19 17:11:59.087
148.0, -8285.16582073758, -26515.1591915082, -32970.67826636771, -15034.342114250912, -8962.58013994457, 187500.0, -44869.80824110607, -10835.253993899107, 0.594, -0.686, 0.464, 192.0, 0.0, 0.0, 0.0, 0.0, 0.0, 0.0, 0.0, 0.0, 0.0, 1.663589519090273E9, 0.0, 2022-09-19 17:11:59.090
149.0, -8266.21154143948, -26499.602377367304, -32971.46057742364, -15042.969887610661, -8950.219625260786, 187500.0, -44862.56627590254, -10833.62231655387, 0.598, -0.684, 0.46, 192.0, 18.0, 176.0, 234.0, 160.0, 14.0, 96.0, 0.0, 0.0, 0.0, 1.6635895190943584E9, 0.0, 2022-09-19 17:11:59.094
150.0, -8238.093046914702, -26494.930862776146, -32978.65783913825, -15046.322649278958, -8954.891139851945, 187500.0, -44860.912246812855, -10828.369656606872, 0.598, -0.684, 0.46, 192.0, 0.0, 0.0, 0.0, 0.0, 0.0, 0.0, 0.0, 0.0, 0.0, 1.6635895190982199E9, 0.0, 2022-09-19 17:11:59.098
151.0, -8219.563450761254, -26500.049412256412, -32979.84248159439, -15047.909623135285, -8968.05631733612, 187500.0, -44862.20864799126, -10822.71466525968, 0.598, -0.684, 0.46, 192.0, 0.0, 0.0, 0.0, 0.0, 0.0, 0.0, 0.0, 0.0, 0.0, 1.6635895191032512E9, 0.0, 2022-09-19 17:11:59.103
152.0, -8232.125131145136, -26515.695633375126, -32975.46153968114, -15048.624878957855, -8990.25159958024, 187500.0, -44866.45547943777, -10836.773912522069, 0.598, -0.684, 0.46, 192.0, 0.0, 0.0, 0.0, 0.0, 0.0, 0.0, 0.0, 0.0, 0.0, 1.6635895191072903E9, 0.0, 2022-09-19 17:11:59.107
153.0, -8240.171759149047, -26517.327310720364, -32971.080597767905, -15048.736637680131, -8988.73168095728, 187500.0, -44861.180467746315, -10848.821502783478, 0.598, -0.684, 0.46, 192.0, 0.0, 0.0, 0.0, 0.0, 0.0, 0.0, 0.0, 0.0, 0.0, 1.6635895191113243E9, 0.0, 2022-09-19 17:11:59.111
154.0, -8230.895785200093, -26504.072726258368, -32970.49945241206, -15045.78620741203, -8969.464477236805, 187500.0, -44855.61488337695, -10843.322973647473, 0.598, -0.684, 0.46, 192.0, 0.0, 0.0, 0.0, 0.0, 0.0, 0.0, 0.0, 0.0, 0.0, 1.6635895191152446E9, 0.0, 2022-09-19 17:11:59.115
155.0, -8211.360360546156, -26492.71804007507, -32975.88622282579, -15045.562689967477, -8964.301224267629, 187500.0, -44857.69359561129, -10838.115017189386, 0.598, -0.684, 0.46, 192.0, 0.0, 0.0, 0.0, 0.0, 0.0, 0.0, 0.0, 0.0, 0.0, 1.663589519118318E9, 0.0, 2022-09-19 17:11:59.118
156.0, -8212.612058235653, -26503.022194268968, -32969.98536228959, -15045.83091090094, -8978.986320374766, 187500.0, -44855.68193861031, -10855.504674375616, 0.598, -0.684, 0.46, 192.0, 0.0, 0.0, 0.0, 0.0, 0.0, 0.0, 0.0, 0.0, 0.0, 1.6635895191223593E9, 0.0, 2022-09-19 17:11:59.122
157.0, -8262.277634415344, -26530.33602599335, -32962.49752789707, -15042.053466087995, -8999.661683995924, 187500.0, -44859.25821772316, -10878.10228801993, 0.598, -0.684, 0.46, 192.0, 0.0, 0.0, 0.0, 0.0, 0.0, 0.0, 0.0, 0.0, 0.0, 1.663589519126372E9, 0.0, 2022-09-19 17:11:59.126
158.0, -8306.891716348138, -26536.259238274008, -32959.72591158461, -15037.82898638594, -9004.266143353718, 187500.0, -44854.49729615418, -10874.615415884902, 0.598, -0.684, 0.46, 192.0, 0.0, 0.0, 0.0, 0.0, 0.0, 0.0, 0.0, 0.0, 0.0, 1.663589519130354E9, 0.0, 2022-09-19 17:11:59.130
159.0, -8321.196832799535, -26527.05031955842, -32960.038836006985, -15034.83385262893, -8991.793869947656, 187500.0, -44850.004595518665, -10857.471627887682, 0.604, -0.6900000000000001, 0.46, 192.0, 18.0, 224.0, 234.0, 112.0, 14.0, 96.0, 0.0, 0.0, 0.0, 1.6635895191353836E9, 0.0, 2022-09-19 17:11:59.135
160.0, -8314.245440273933, -26521.685900889148, -32962.4304726637, -15038.723056164154, -8983.926055899388, 187500.0, -44848.2835111956, -10850.274366173073, 0.604, -0.6900000000000001, 0.46, 192.0, 0.0, 0.0, 0.0, 0.0, 0.0, 0.0, 0.0, 0.0, 0.0, 1.6635895191393845E9, 0.0, 2022-09-19 17:11:59.139
161.0, -8313.954867596016, -26527.363243980795, -32969.67243786722, -15044.646268444809, -8988.754032701736, 187500.0, -44853.64792986488, -10854.34238366394, 0.604, -0.6900000000000001, 0.46, 192.0, 0.0, 0.0, 0.0, 0.0, 0.0, 0.0, 0.0, 0.0, 0.0, 1.6635895191433804E9, 0.0, 2022-09-19 17:11:59.143
162.0, -8347.571891256797, -26541.48954647655, -32971.080597767905, -15036.823157885452, -9000.242829351762, 187500.0, -44859.25821772316, -10859.282119188561, 0.604, -0.6900000000000001, 0.46, 192.0, 0.0, 0.0, 0.0, 0.0, 0.0, 0.0, 0.0, 0.0, 0.0, 1.6635895191463957E9, 0.0, 2022-09-19 17:11:59.146
163.0, -8363.955719942536, -26531.76653763849, -32961.357588929844, -15023.881497845829, -8987.122355356498, 187500.0, -44848.171752473325, -10852.487188874149, 0.604, -0.6900000000000001, 0.46, 192.0, 0.0, 0.0, 0.0, 0.0, 0.0, 0.0, 0.0, 0.0, 0.0, 1.663589519150354E9, 0.0, 2022-09-19 17:11:59.150
164.0, -8363.665147264617, -26525.306883490906, -32969.24775472257, -15024.999085068595, -8971.297320282141, 187500.0, -44852.4856391532, -10849.223834183675, 0.604, -0.6900000000000001, 0.46, 192.0, 0.0, 0.0, 0.0, 0.0, 0.0, 0.0, 0.0, 0.0, 0.0, 1.663589519154378E9, 0.0, 2022-09-19 17:11:59.154
165.0, -8344.532054010875, -26524.43516545715, -32973.025199535514, -15029.804710126486, -8961.417849232896, 187500.0, -44852.083307753004, -10843.881767258856, 0.604, -0.6900000000000001, 0.46, 192.0, 0.0, 0.0, 0.0, 0.0, 0.0, 0.0, 0.0, 0.0, 0.0, 1.6635895191583996E9, 0.0, 2022-09-19 17:11:59.158
166.0, -8333.780864927872, -26529.9113428487, -32970.879432067806, -15033.760968895074, -8968.145724313943, 187500.0, -44855.1902002323, -10847.14512194933, 0.604, -0.6900000000000001, 0.46, 192.0, 0.0, 0.0, 0.0, 0.0, 0.0, 0.0, 0.0, 0.0, 0.0, 1.6635895191633792E9, 0.0, 2022-09-19 17:11:59.163
167.0, -8359.865350707216, -26545.088177333855, -32961.96108603014, -15031.302277004992, -8980.506238997727, 187500.0, -44854.83257232101, -10862.031383756565, 0.604, -0.6900000000000001, 0.46, 192.0, 0.0, 0.0, 0.0, 0.0, 0.0, 0.0, 0.0, 0.0, 0.0, 1.6635895191673565E9, 0.0, 2022-09-19 17:11:59.167
168.0, -8377.523228826909, -26545.19993605613, -32960.70938834064, -15031.704608405187, -8985.0212913777, 187500.0, -44852.32917694202, -10877.901122319832, 0.604, -0.6900000000000001, 0.46, 192.0, 0.0, 0.0, 0.0, 0.0, 0.0, 0.0, 0.0, 0.0, 0.0, 1.6635895191714644E9, 0.0, 2022-09-19 17:11:59.171
169.0, -8368.537827555874, -26535.856906873814, -32961.04466450747, -15028.575364181444, -8971.297320282141, 187500.0, -44849.15522922936, -10849.983793495154, 0.606, -0.6920000000000001, 0.458, 192.0, 18.0, 240.0, 234.0, 96.0, 14.0, 80.0, 0.0, 0.0, 0.0, 1.663589519174332E9, 0.0, 2022-09-19 17:11:59.174
170.0, -8337.535957996364, -26523.988130568046, -32965.827937820904, -15032.486919461122, -8960.322613754584, 187500.0, -44845.109563482954, -10830.582479307948, 0.606, -0.6920000000000001, 0.458, 192.0, 0.0, 0.0, 0.0, 0.0, 0.0, 0.0, 0.0, 0.0, 0.0, 1.663589519178404E9, 0.0, 2022-09-19 17:11:59.178
171.0, -8317.665257175597, -26527.96674108109, -32964.71035059814, -15034.789149140019, -8963.63067193397, 187500.0, -44850.94336878579, -10836.751560777613, 0.606, -0.6920000000000001, 0.458, 192.0, 0.0, 0.0, 0.0, 0.0, 0.0, 0.0, 0.0, 0.0, 0.0, 1.6635895191824532E9, 0.0, 2022-09-19 17:11:59.182
172.0, -8336.485426006964, -26544.685845933658, -32962.408120919245, -15034.699742162198, -8974.247750550241, 187500.0, -44858.23003747821, -10851.593119095936, 0.606, -0.6920000000000001, 0.458, 192.0, 0.0, 0.0, 0.0, 0.0, 0.0, 0.0, 0.0, 0.0, 0.0, 1.663589519186458E9, 0.0, 2022-09-19 17:11:59.186
173.0, -8348.398905801643, -26543.635313944258, -32960.597629618365, -15034.878556117841, -8973.376032516484, 187500.0, -44855.033738021106, -10858.231587199163, 0.606, -0.6920000000000001, 0.458, 192.0, 0.0, 0.0, 0.0, 0.0, 0.0, 0.0, 0.0, 0.0, 0.0, 1.6635895191914077E9, 0.0, 2022-09-19 17:11:59.191
174.0, -8339.189987086056, -26535.49927896253, -32960.35176042936, -15034.073893317449, -8960.72494515478, 187500.0, -44849.80342981857, -10844.753485292613, 0.606, -0.6920000000000001, 0.458, 192.0, 0.0, 0.0, 0.0, 0.0, 0.0, 0.0, 0.0, 0.0, 0.0, 1.6635895191954489E9, 0.0, 2022-09-19 17:11:59.195
175.0, -8312.54670769533, -26533.644084172738, -32971.03589427899, -15038.052503830493, -8959.115619553999, 187500.0, -44850.31751994104, -10839.590232323437, 0.606, -0.6920000000000001, 0.458, 192.0, 0.0, 0.0, 0.0, 0.0, 0.0, 0.0, 0.0, 0.0, 0.0, 1.663589519198439E9, 0.0, 2022-09-19 17:11:59.198
176.0, -8296.900486576616, -26542.92005812169, -32975.79681584797, -15042.299335277003, -8972.146686571443, 187500.0, -44859.05705202306, -10853.805941797013, 0.606, -0.6920000000000001, 0.458, 192.0, 0.0, 0.0, 0.0, 0.0, 0.0, 0.0, 0.0, 0.0, 0.0, 1.6635895192024395E9, 0.0, 2022-09-19 17:11:59.202
177.0, -8315.184213541057, -26555.146462338744, -32970.18652798969, -15037.180785796738, -8987.390576289961, 187500.0, -44861.180467746315, -10859.259767444108, 0.606, -0.6920000000000001, 0.458, 192.0, 0.0, 0.0, 0.0, 0.0, 0.0, 0.0, 0.0, 0.0, 0.0, 1.66358951920643E9, 0.0, 2022-09-19 17:11:59.206
178.0, -8335.233728317467, -26558.610982729315, -32968.063112266434, -15031.88342236083, -8985.580084989082, 187500.0, -44857.24656072218, -10847.100418460419, 0.606, -0.6920000000000001, 0.458, 192.0, 0.0, 0.0, 0.0, 0.0, 0.0, 0.0, 0.0, 0.0, 0.0, 1.663589519210472E9, 0.0, 2022-09-19 17:11:59.210
179.0, -8332.707981194018, -26550.92198263669, -32966.69965585466, -15029.35767523738, -8975.16417207291, 187500.0, -44851.837438564, -10833.868185742878, 0.602, -0.6880000000000001, 0.456, 192.0, 18.0, 208.0, 234.0, 128.0, 14.0, 64.0, 0.0, 0.0, 0.0, 1.663589519214496E9, 0.0, 2022-09-19 17:11:59.214
180.0, -8309.283353004856, -26540.997808098535, -32968.95718204465, -15030.028227571038, -8961.842532377546, 187500.0, -44847.25533095066, -10832.102397930908, 0.602, -0.6880000000000001, 0.456, 192.0, 0.0, 0.0, 0.0, 0.0, 0.0, 0.0, 0.0, 0.0, 0.0, 1.6635895192194693E9, 0.0, 2022-09-19 17:11:59.219
181.0, -8300.812041856294, -26547.032779101468, -32967.61607737733, -15033.69391366171, -8970.067974337098, 187500.0, -44848.819953062535, -10860.10913373341, 0.602, -0.6880000000000001, 0.456, 192.0, 0.0, 0.0, 0.0, 0.0, 0.0, 0.0, 0.0, 0.0, 0.0, 1.6635895192234716E9, 0.0, 2022-09-19 17:11:59.223
182.0, -8328.818777658795, -26560.555584496928, -32962.94456278617, -15020.327570477435, -8984.194276832852, 187500.0, -44852.97737753122, -10848.665040572292, 0.602, -0.6880000000000001, 0.456, 192.0, 0.0, 0.0, 0.0, 0.0, 0.0, 0.0, 0.0, 0.0, 0.0, 1.663589519226545E9, 0.0, 2022-09-19 17:11:59.226
183.0, -8345.403772044632, -26560.041494374454, -32964.26331570903, -15019.187631510214, -8983.657834965925, 187500.0, -44854.609054876455, -10845.66990681528, 0.602, -0.6880000000000001, 0.456, 192.0, 0.0, 0.0, 0.0, 0.0, 0.0, 0.0, 0.0, 0.0, 0.0, 1.663589519230522E9, 0.0, 2022-09-19 17:11:59.230
184.0, -8338.74295219695, -26550.229078558576, -32962.78810057499, -15018.181803009726, -8973.621901705492, 187500.0, -44850.138705985395, -10840.752523035113, 0.602, -0.6880000000000001, 0.456, 192.0, 0.0, 0.0, 0.0, 0.0, 0.0, 0.0, 0.0, 0.0, 0.0, 1.6635895192345226E9, 0.0, 2022-09-19 17:11:59.234
185.0, -8312.993742584436, -26531.83359287186, -32953.735644070584, -15013.487936674112, -8957.908625353411, 187500.0, -44838.605205846456, -10827.185014150742, 0.602, -0.6880000000000001, 0.456, 192.0, 0.0, 0.0, 0.0, 0.0, 0.0, 0.0, 0.0, 0.0, 0.0, 1.6635895192385197E9, 0.0, 2022-09-19 17:11:59.238
186.0, -8301.080262789757, -26530.894819604735, -32955.367321415826, -15012.906791318273, -8956.276948008173, 187500.0, -44841.01919424763, -10826.514461817082, 0.602, -0.6880000000000001, 0.456, 192.0, 0.0, 0.0, 0.0, 0.0, 0.0, 0.0, 0.0, 0.0, 0.0, 1.663589519242523E9, 0.0, 2022-09-19 17:11:59.242
187.0, -8328.4164462586, -26550.765520425502, -32949.48881262408, -15013.130308762826, -8970.045622592643, 187500.0, -44845.28837743859, -10843.501787603116, 0.602, -0.6880000000000001, 0.456, 192.0, 0.0, 0.0, 0.0, 0.0, 0.0, 0.0, 0.0, 0.0, 0.0, 1.6635895192465167E9, 0.0, 2022-09-19 17:11:59.246
188.0, -8346.297841822845, -26555.25822106102, -32951.14284171377, -15012.705625618175, -8974.963006372811, 187500.0, -44844.908397782856, -10843.94882249222, 0.602, -0.6880000000000001, 0.456, 192.0, 0.0, 0.0, 0.0, 0.0, 0.0, 0.0, 0.0, 0.0, 0.0, 1.6635895192515593E9, 0.0, 2022-09-19 17:11:59.251
189.0, -8341.179292342578, -26552.553659981928, -32962.13989998578, -15017.533602420523, -8970.9173406264, 187500.0, -44847.411793161846, -10839.165549178786, 0.602, -0.6880000000000001, 0.456, 192.0, 0.0, 0.0, 0.0, 0.0, 0.0, 0.0, 0.0, 0.0, 0.0, 1.6635895192545907E9, 0.0, 2022-09-19 17:11:59.254
190.0, -8316.79353914184, -26547.099834334833, -32966.36437968783, -15020.841660599908, -8957.103962553021, 187500.0, -44842.91909252633, -10835.745732277124, 0.598, -0.682, 0.452, 192.0, 18.0, 176.0, 234.0, 176.0, 14.0, 32.0, 0.0, 0.0, 0.0, 1.6635895192585287E9, 0.0, 2022-09-19 17:11:59.258
191.0, -8305.50590819191, -26552.53130823747, -32966.85611806585, -15023.032131556527, -8955.829913119069, 187500.0, -44848.819953062535, -10838.472645100672, 0.598, -0.682, 0.452, 192.0, 0.0, 0.0, 0.0, 0.0, 0.0, 0.0, 0.0, 0.0, 0.0, 1.6635895192624834E9, 0.0, 2022-09-19 17:11:59.262
192.0, -8336.485426006964, -26575.084218392876, -32964.48683315359, -15023.412111212268, -8965.016480090198, 187500.0, -44858.29709271158, -10849.045020228032, 0.598, -0.682, 0.452, 192.0, 0.0, 0.0, 0.0, 0.0, 0.0, 0.0, 0.0, 0.0, 0.0, 1.663589519266536E9, 0.0, 2022-09-19 17:11:59.266
193.0, -8356.669051250106, -26578.481683550082, -32966.16321398773, -15027.435425214224, -8953.237110762253, 187500.0, -44859.52643865663, -10862.232549456663, 0.598, -0.682, 0.452, 192.0, 0.0, 0.0, 0.0, 0.0, 0.0, 0.0, 0.0, 0.0, 0.0, 1.6635895192705731E9, 0.0, 2022-09-19 17:11:59.270
194.0, -8354.433876804576, -26565.696485721648, -32963.83863256438, -15027.010742069573, -8945.034020547155, 187500.0, -44852.46328740875, -10857.225758698674, 0.598, -0.682, 0.452, 192.0, 0.0, 0.0, 0.0, 0.0, 0.0, 0.0, 0.0, 0.0, 0.0, 1.6635895192745593E9, 0.0, 2022-09-19 17:11:59.274
195.0, -8334.98785912846, -26556.085235605868, -32964.55388838695, -15029.089454303916, -8941.144817011931, 187500.0, -44846.47301989472, -10837.220947411173, 0.598, -0.682, 0.452, 192.0, 0.0, 0.0, 0.0, 0.0, 0.0, 0.0, 0.0, 0.0, 0.0, 1.663589519279588E9, 0.0, 2022-09-19 17:11:59.279
196.0, -8326.717713679995, -26563.72953220958, -32957.803661561455, -15034.140948550816, -8941.34598271203, 187500.0, -44846.18244721681, -10845.692258559735, 0.598, -0.682, 0.452, 192.0, 0.0, 0.0, 0.0, 0.0, 0.0, 0.0, 0.0, 0.0, 0.0, 1.6635895192826085E9, 0.0, 2022-09-19 17:11:59.282
197.0, -8356.758458227929, -26579.12988413929, -32952.3274841699, -15028.329494992435, -8947.492712437239, 187500.0, -44848.70819434025, -10853.045982485532, 0.598, -0.682, 0.452, 192.0, 0.0, 0.0, 0.0, 0.0, 0.0, 0.0, 0.0, 0.0, 0.0, 1.6635895192865987E9, 0.0, 2022-09-19 17:11:59.286
198.0, -8379.266664894421, -26580.225119617597, -32956.887240038785, -15029.648247915298, -8947.850340348523, 187500.0, -44853.491467653694, -10858.566863365992, 0.598, -0.682, 0.452, 192.0, 0.0, 0.0, 0.0, 0.0, 0.0, 0.0, 0.0, 0.0, 0.0, 1.6635895192905276E9, 0.0, 2022-09-19 17:11:59.290
199.0, -8378.931388727593, -26573.229023603086, -32957.69190283917, -15027.882460103328, -8945.43635194735, 187500.0, -44847.00946176165, -10845.960479493198, 0.598, -0.682, 0.452, 192.0, 0.0, 0.0, 0.0, 0.0, 0.0, 0.0, 0.0, 0.0, 0.0, 1.6635895192946203E9, 0.0, 2022-09-19 17:11:59.294
200.0, -8364.693327509562, -26567.97636365609, -32968.39838843327, -15033.78332063953, -8947.984450815255, 187500.0, -44852.373880430925, -10843.77000853658, 0.598, -0.6880000000000001, 0.462, 192.0, 18.0, 176.0, 234.0, 128.0, 14.0, 112.0, 0.0, 0.0, 0.0, 1.663589519298679E9, 0.0, 2022-09-19 17:11:59.298
201.0, -8362.79342923086, -26574.011334659022, -32964.218612220124, -15031.414035727268, -8954.555863685115, 187500.0, -44854.7878688321, -10841.62424106887, 0.598, -0.6880000000000001, 0.462, 192.0, 0.0, 0.0, 0.0, 0.0, 0.0, 0.0, 0.0, 0.0, 0.0, 1.663589519302654E9, 0.0, 2022-09-19 17:11:59.302
202.0, -8396.902191269659, -26590.55162555595, -32960.865850551825, -15031.145814793805, -8964.927073112378, 187500.0, -44856.285435710604, -10851.727229562668, 0.598, -0.6880000000000001, 0.462, 192.0, 0.0, 0.0, 0.0, 0.0, 0.0, 0.0, 0.0, 0.0, 0.0, 1.6635895193076782E9, 0.0, 2022-09-19 17:11:59.307
203.0, -8416.728188601517, -26577.520558538505, -32957.22251620561, -15024.820271112952, -8956.053430563621, 187500.0, -44845.958929772256, -10849.201482439219, 0.598, -0.6880000000000001, 0.462, 192.0, 0.0, 0.0, 0.0, 0.0, 0.0, 0.0, 0.0, 0.0, 0.0, 1.6635895193106787E9, 0.0, 2022-09-19 17:11:59.310
204.0, -8417.309333957355, -26560.667343219204, -32958.787138317486, -15024.775567624041, -8939.826064089068, 187500.0, -44841.66739483683, -10843.658249814302, 0.598, -0.6880000000000001, 0.462, 192.0, 0.0, 0.0, 0.0, 0.0, 0.0, 0.0, 0.0, 0.0, 0.0, 1.6635895193136473E9, 0.0, 2022-09-19 17:11:59.313
205.0, -8403.026569250414, -26552.44190125965, -32961.75992033004, -15030.162338037771, -8935.020439031177, 187500.0, -44839.74514481368, -10838.226775911662, 0.598, -0.6880000000000001, 0.462, 192.0, 0.0, 0.0, 0.0, 0.0, 0.0, 0.0, 0.0, 0.0, 0.0, 1.663589519318637E9, 0.0, 2022-09-19 17:11:59.318
206.0, -8404.85941229575, -26561.382599041775, -32965.492661654076, -15039.192442797716, -8954.421753218383, 187500.0, -44848.4846768957, -10867.999299526133, 0.598, -0.6880000000000001, 0.462, 192.0, 0.0, 0.0, 0.0, 0.0, 0.0, 0.0, 0.0, 0.0, 0.0, 1.663589519322709E9, 0.0, 2022-09-19 17:11:59.322
207.0, -8436.95651733357, -26574.21250035912, -32959.18946971768, -15034.4985764621, -8974.270102294697, 187500.0, -44850.04929900757, -10873.542532151048, 0.598, -0.6880000000000001, 0.462, 192.0, 0.0, 0.0, 0.0, 0.0, 0.0, 0.0, 0.0, 0.0, 0.0, 1.6635895193266597E9, 0.0, 2022-09-19 17:11:59.326
208.0, -8460.537607733919, -26570.88209043528, -32957.96012377264, -15026.206079269181, -8975.119468583998, 187500.0, -44846.33890942799, -10854.834122041955, 0.598, -0.6880000000000001, 0.462, 192.0, 0.0, 0.0, 0.0, 0.0, 0.0, 0.0, 0.0, 0.0, 0.0, 1.6635895193305948E9, 0.0, 2022-09-19 17:11:59.330
209.0, -8458.145971077201, -26561.82963393088, -32960.038836006985, -15025.714340891165, -8963.943596356345, 187500.0, -44842.49440938168, -10849.782627795057, 0.598, -0.6880000000000001, 0.462, 192.0, 0.0, 0.0, 0.0, 0.0, 0.0, 0.0, 0.0, 0.0, 0.0, 1.663589519334726E9, 0.0, 2022-09-19 17:11:59.334
210.0, -8438.610546423262, -26555.43703501666, -32960.664684851734, -15021.333398977924, -8949.258500249207, 187500.0, -44840.08042098051, -10835.186938665742, 0.602, -0.684, 0.458, 192.0, 18.0, 208.0, 234.0, 160.0, 14.0, 80.0, 0.0, 0.0, 0.0, 1.6635895193377256E9, 0.0, 2022-09-19 17:11:59.337
211.0, -8434.743694632494, -26564.176567098686, -32956.06022549394, -15016.036035542016, -8945.995145558732, 187500.0, -44842.00267100366, -10830.023685696566, 0.602, -0.684, 0.458, 192.0, 0.0, 0.0, 0.0, 0.0, 0.0, 0.0, 0.0, 0.0, 0.0, 1.663589519341724E9, 0.0, 2022-09-19 17:11:59.341
212.0, -8468.628939226739, -26579.73338123958, -32951.0757864804, -15008.704663360675, -8955.71815439679, 187500.0, -44843.88021753791, -10841.646592813326, 0.602, -0.684, 0.458, 192.0, 0.0, 0.0, 0.0, 0.0, 0.0, 0.0, 0.0, 0.0, 0.0, 1.6635895193467183E9, 0.0, 2022-09-19 17:11:59.346
213.0, -8494.48990756153, -26581.275651606997, -32954.786176059984, -15009.576381394432, -8957.796866631135, 187500.0, -44843.6343483489, -10849.603813839414, 0.602, -0.684, 0.458, 192.0, 0.0, 0.0, 0.0, 0.0, 0.0, 0.0, 0.0, 0.0, 0.0, 1.6635895193507347E9, 0.0, 2022-09-19 17:11:59.350
214.0, -8495.048701172913, -26568.311639822918, -32959.815318562425, -15013.711454118664, -8966.178770801875, 187500.0, -44842.96379601524, -10852.643651085336, 0.602, -0.684, 0.458, 192.0, 0.0, 0.0, 0.0, 0.0, 0.0, 0.0, 0.0, 0.0, 0.0, 1.6635895193547518E9, 0.0, 2022-09-19 17:11:59.354
215.0, -8480.855343443793, -26562.366075797807, -32966.34202794338, -15019.92523907724, -8968.436296991862, 187500.0, -44848.37291817342, -10845.312278903995, 0.602, -0.684, 0.458, 192.0, 0.0, 0.0, 0.0, 0.0, 0.0, 0.0, 0.0, 0.0, 0.0, 1.6635895193587377E9, 0.0, 2022-09-19 17:11:59.358
216.0, -8486.44327955762, -26574.9724596706, -32965.827937820904, -15028.843585114908, -8976.997015118244, 187500.0, -44853.82674382052, -10847.994488238632, 0.602, -0.684, 0.458, 192.0, 0.0, 0.0, 0.0, 0.0, 0.0, 0.0, 0.0, 0.0, 0.0, 1.6635895193626995E9, 0.0, 2022-09-19 17:11:59.362
217.0, -8522.094311963834, -26592.65268953475, -32960.01648426252, -15030.855242115886, -8982.182619831876, 187500.0, -44855.45842116576, -10856.57755810947, 0.602, -0.684, 0.458, 192.0, 0.0, 0.0, 0.0, 0.0, 0.0, 0.0, 0.0, 0.0, 0.0, 1.6635895193657625E9, 0.0, 2022-09-19 17:11:59.365
218.0, -8546.055382019924, -26596.251320392053, -32956.06022549394, -15035.102073562393, -8967.095192324543, 187500.0, -44850.563389130046, -10860.19854071123, 0.602, -0.684, 0.458, 192.0, 0.0, 0.0, 0.0, 0.0, 0.0, 0.0, 0.0, 0.0, 0.0, 1.663589519369734E9, 0.0, 2022-09-19 17:11:59.369
219.0, -8553.16323675671, -26597.748887270558, -32959.59180111787, -15047.373181268356, -8956.187541030353, 187500.0, -44845.89187453889, -10883.220837500196, 0.602, -0.684, 0.458, 192.0, 0.0, 0.0, 0.0, 0.0, 0.0, 0.0, 0.0, 0.0, 0.0, 1.6635895193747356E9, 0.0, 2022-09-19 17:11:59.374
220.0, -8539.50632089452, -26594.194959902165, -32966.72200759912, -15054.369277282869, -8952.499503195228, 187500.0, -44848.14940072887, -10875.777706596578, 0.608, -0.686, 0.46, 192.0, 19.0, 0.0, 234.0, 144.0, 14.0, 96.0, 0.0, 0.0, 0.0, 1.6635895193787017E9, 0.0, 2022-09-19 17:11:59.378
221.0, -8545.07190526389, -26604.767335029526, -32968.24192622208, -15056.135065094837, -8967.788096402657, 187500.0, -44858.07357526703, -10864.691241346747, 0.608, -0.686, 0.46, 192.0, 0.0, 0.0, 0.0, 0.0, 0.0, 0.0, 0.0, 0.0, 0.0, 1.6635895193827817E9, 0.0, 2022-09-19 17:11:59.382
222.0, -8584.947417372157, -26619.54183811448, -32959.748263329064, -15052.514082493077, -8984.864829166512, 187500.0, -44860.53226715711, -10881.566808410504, 0.608, -0.686, 0.46, 192.0, 0.0, 0.0, 0.0, 0.0, 0.0, 0.0, 0.0, 0.0, 0.0, 1.6635895193868077E9, 0.0, 2022-09-19 17:11:59.386
223.0, -8615.010513664545, -26619.586541603392, -32958.96595227312, -15048.043733602017, -8985.44597452235, 187500.0, -44857.06774676654, -10882.8185061, 0.608, -0.686, 0.46, 192.0, 0.0, 0.0, 0.0, 0.0, 0.0, 0.0, 0.0, 0.0, 0.0, 1.6635895193897576E9, 0.0, 2022-09-19 17:11:59.389
224.0, -8617.022170665523, -26606.82369551941, -32962.05049300796, -15045.987373112128, -8985.557733244626, 187500.0, -44852.73150834221, -10876.045927530042, 0.608, -0.686, 0.46, 192.0, 0.0, 0.0, 0.0, 0.0, 0.0, 0.0, 0.0, 0.0, 0.0, 1.6635895193937867E9, 0.0, 2022-09-19 17:11:59.393
225.0, -8592.658769209238, -26589.36698309982, -32968.688961111184, -15043.998067855606, -8977.265236051708, 187500.0, -44848.37291817342, -10859.304470933017, 0.608, -0.686, 0.46, 192.0, 0.0, 0.0, 0.0, 0.0, 0.0, 0.0, 0.0, 0.0, 0.0, 1.6635895193977835E9, 0.0, 2022-09-19 17:11:59.397
226.0, -8587.786088917981, -26596.430134347695, -32973.874565824815, -15045.897966134307, -8984.104869855031, 187500.0, -44857.5371334001, -10861.941976778744, 0.608, -0.686, 0.46, 192.0, 0.0, 0.0, 0.0, 0.0, 0.0, 0.0, 0.0, 0.0, 0.0, 1.6635895194027772E9, 0.0, 2022-09-19 17:11:59.402
227.0, -8622.453644568162, -26613.931550256202, -32964.39742617577, -15035.772625896052, -8991.011558891722, 187500.0, -44859.92877005682, -10869.519218149093, 0.608, -0.686, 0.46, 192.0, 0.0, 0.0, 0.0, 0.0, 0.0, 0.0, 0.0, 0.0, 0.0, 1.6635895194067488E9, 0.0, 2022-09-19 17:11:59.406
228.0, -8643.352525633874, -26608.231855420097, -32963.50335639755, -15027.457776958678, -8984.440146021861, 187500.0, -44858.47590666723, -10864.221854713185, 0.608, -0.686, 0.46, 192.0, 0.0, 0.0, 0.0, 0.0, 0.0, 0.0, 0.0, 0.0, 0.0, 1.6635895194107697E9, 0.0, 2022-09-19 17:11:59.410
229.0, -8639.932708732213, -26596.296023880965, -32967.034932021495, -15032.64338167231, -8979.053375608131, 187500.0, -44854.050261265074, -10861.33847967845, 0.608, -0.686, 0.46, 192.0, 0.0, 0.0, 0.0, 0.0, 0.0, 0.0, 0.0, 0.0, 0.0, 1.6635895194148088E9, 0.0, 2022-09-19 17:11:59.414
230.0, -8621.984257934602, -26588.472913321606, -32971.929964057206, -15039.058332330982, -8973.48779123876, 187500.0, -44853.849095564976, -10867.52991289257, 0.602, -0.686, 0.462, 192.0, 18.0, 208.0, 234.0, 144.0, 14.0, 112.0, 0.0, 0.0, 0.0, 1.6635895194177892E9, 0.0, 2022-09-19 17:11:59.417
231.0, -8622.833624223904, -26593.859683735336, -32963.950391286664, -15034.386817739824, -8979.858038408523, 187500.0, -44855.07844151002, -10872.760221095112, 0.602, -0.686, 0.462, 192.0, 0.0, 0.0, 0.0, 0.0, 0.0, 0.0, 0.0, 0.0, 0.0, 1.6635895194217975E9, 0.0, 2022-09-19 17:11:59.421
232.0, -8658.99874675259, -26601.280462894498, -32955.61319060483, -15018.986465810118, -8978.606340719025, 187500.0, -44855.234903721204, -10857.136351720852, 0.602, -0.686, 0.462, 192.0, 0.0, 0.0, 0.0, 0.0, 0.0, 0.0, 0.0, 0.0, 0.0, 1.663589519425854E9, 0.0, 2022-09-19 17:11:59.425
233.0, -8684.18916275372, -26596.251320392053, -32954.04856849296, -15018.964114065662, -8973.48779123876, 187500.0, -44849.62461586292, -10860.153837222319, 0.602, -0.686, 0.462, 192.0, 0.0, 0.0, 0.0, 0.0, 0.0, 0.0, 0.0, 0.0, 0.0, 1.6635895194308157E9, 0.0, 2022-09-19 17:11:59.430
234.0, -8689.374767467352, -26589.255224377543, -32957.40133016126, -15022.182765267225, -8963.988299845256, 187500.0, -44844.461362893744, -10859.617395355392, 0.602, -0.686, 0.462, 192.0, 0.0, 0.0, 0.0, 0.0, 0.0, 0.0, 0.0, 0.0, 0.0, 1.6635895194347987E9, 0.0, 2022-09-19 17:11:59.434
235.0, -8678.757688851081, -26582.572052785406, -32961.75992033004, -15032.531622950033, -8962.870712622489, 187500.0, -44841.30976692555, -10862.836046556957, 0.602, -0.686, 0.462, 192.0, 0.0, 0.0, 0.0, 0.0, 0.0, 0.0, 0.0, 0.0, 0.0, 1.6635895194387736E9, 0.0, 2022-09-19 17:11:59.438
236.0, -8686.893723832813, -26588.428209832695, -32961.357588929844, -15033.760968895074, -8969.240959792252, 187500.0, -44847.70236583977, -10871.642633872347, 0.602, -0.686, 0.462, 192.0, 0.0, 0.0, 0.0, 0.0, 0.0, 0.0, 0.0, 0.0, 0.0, 1.6635895194428177E9, 0.0, 2022-09-19 17:11:59.442
237.0, -8732.625392988371, -26603.672099551215, -32958.988304017585, -15030.095282804405, -8979.388651774962, 187500.0, -44856.06191826605, -10887.668834646802, 0.602, -0.686, 0.462, 192.0, 0.0, 0.0, 0.0, 0.0, 0.0, 0.0, 0.0, 0.0, 0.0, 1.6635895194458232E9, 0.0, 2022-09-19 17:11:59.445
238.0, -8767.762335272115, -26611.674024066215, -32952.57335335891, -15025.177899024236, -8973.085459838565, 187500.0, -44852.507990897655, -10891.289817248562, 0.602, -0.686, 0.462, 192.0, 0.0, 0.0, 0.0, 0.0, 0.0, 0.0, 0.0, 0.0, 0.0, 1.6635895194498577E9, 0.0, 2022-09-19 17:11:59.449
239.0, -8780.324015655997, -26607.538951341983, -32955.61319060483, -15019.746425121597, -8967.475171980283, 187500.0, -44850.272816452125, -10879.398689198339, 0.602, -0.686, 0.462, 192.0, 0.0, 0.0, 0.0, 0.0, 0.0, 0.0, 0.0, 0.0, 0.0, 1.6635895194538333E9, 0.0, 2022-09-19 17:11:59.453
240.0, -8780.59223658946, -26600.63226230529, -32963.50335639755, -15017.935933820718, -8968.659814436414, 187500.0, -44854.45259266527, -10867.887540803855, 0.596, -0.686, 0.46, 192.0, 18.0, 160.0, 234.0, 144.0, 14.0, 96.0, 0.0, 0.0, 0.0, 1.6635895194578593E9, 0.0, 2022-09-19 17:11:59.457
241.0, -8801.625228121904, -26612.054003721954, -32966.76671108803, -15020.059349543972, -8974.717137183803, 187500.0, -44864.466174181245, -10875.844761829945, 0.596, -0.686, 0.46, 192.0, 0.0, 0.0, 0.0, 0.0, 0.0, 0.0, 0.0, 0.0, 0.0, 1.6635895194628396E9, 0.0, 2022-09-19 17:11:59.462
242.0, -8856.677574715326, -26633.466974910138, -32959.77061507352, -15020.97577106664, -8981.847343665046, 187500.0, -44865.11437477045, -10894.10613704993, 0.596, -0.686, 0.46, 192.0, 0.0, 0.0, 0.0, 0.0, 0.0, 0.0, 0.0, 0.0, 0.0, 1.6635895194668856E9, 0.0, 2022-09-19 17:11:59.466
243.0, -8893.222676899753, -26633.9363615437, -32950.09230972437, -15017.980637309629, -8969.442125492349, 187500.0, -44854.27377870963, -10896.944808595754, 0.596, -0.686, 0.46, 192.0, 0.0, 0.0, 0.0, 0.0, 0.0, 0.0, 0.0, 0.0, 0.0, 1.6635895194699304E9, 0.0, 2022-09-19 17:11:59.469
244.0, -8908.600677085004, -26628.683701596703, -32951.992208003074, -15023.21094551217, -8965.195294045841, 187500.0, -44850.60809261895, -10904.097366821452, 0.596, -0.686, 0.46, 192.0, 0.0, 0.0, 0.0, 0.0, 0.0, 0.0, 0.0, 0.0, 0.0, 1.6635895194738708E9, 0.0, 2022-09-19 17:11:59.473
245.0, -8908.220697429264, -26626.113250984345, -32955.4790801381, -15024.484994946122, -8965.597625446037, 187500.0, -44850.80925831905, -10876.671776374791, 0.596, -0.686, 0.46, 192.0, 0.0, 0.0, 0.0, 0.0, 0.0, 0.0, 0.0, 0.0, 0.0, 1.6635895194778562E9, 0.0, 2022-09-19 17:11:59.477
246.0, -8928.069046505576, -26635.16570748874, -32957.602495861356, -15029.35767523738, -8978.941616885855, 187500.0, -44856.19602873278, -10868.28987220405, 0.596, -0.686, 0.46, 192.0, 0.0, 0.0, 0.0, 0.0, 0.0, 0.0, 0.0, 0.0, 0.0, 1.6635895194818604E9, 0.0, 2022-09-19 17:11:59.481
247.0, -8978.069898852098, -26646.69920762768, -32956.551963871956, -15034.364465995368, -8998.857021195534, 187500.0, -44859.45938342326, -10888.227628258184, 0.596, -0.686, 0.46, 192.0, 0.0, 0.0, 0.0, 0.0, 0.0, 0.0, 0.0, 0.0, 0.0, 1.6635895194859138E9, 0.0, 2022-09-19 17:11:59.485
248.0, -9008.177698633397, -26634.31634119944, -32946.896010267265, -15029.715303148665, -8994.990169404766, 187500.0, -44849.378746673916, -10886.528895679581, 0.596, -0.686, 0.46, 192.0, 0.0, 0.0, 0.0, 0.0, 0.0, 0.0, 0.0, 0.0, 0.0, 1.6635895194909177E9, 0.0, 2022-09-19 17:11:59.490
249.0, -9013.251544624753, -26620.391204403782, -32946.6277893338, -15030.989352582617, -8985.49067801126, 187500.0, -44845.98128151671, -10886.215971257207, 0.596, -0.686, 0.46, 192.0, 0.0, 0.0, 0.0, 0.0, 0.0, 0.0, 0.0, 0.0, 0.0, 1.6635895194949093E9, 0.0, 2022-09-19 17:11:59.494
250.0, -9002.813279964123, -26609.774125787513, -32956.21668770513, -15037.40430324129, -8977.868733152001, 187500.0, -44849.60226411847, -10881.186828754762, 0.594, -0.6900000000000001, 0.456, 192.0, 18.0, 144.0, 234.0, 112.0, 14.0, 64.0, 0.0, 0.0, 0.0, 1.6635895194979312E9, 0.0, 2022-09-19 17:11:59.497
251.0, -9012.044550424165, -26614.669157823224, -32959.79296681797, -15041.02528584305, -8982.316730298608, 187500.0, -44856.53130489961, -10879.957482809721, 0.594, -0.6900000000000001, 0.456, 192.0, 0.0, 0.0, 0.0, 0.0, 0.0, 0.0, 0.0, 0.0, 0.0, 1.6635895195019207E9, 0.0, 2022-09-19 17:11:59.501
252.0, -9050.422495653927, -26624.191000961186, -32956.97664701661, -15040.421788742757, -8992.799698448145, 187500.0, -44854.51964789863, -10888.24998000264, 0.594, -0.6900000000000001, 0.456, 192.0, 0.0, 0.0, 0.0, 0.0, 0.0, 0.0, 0.0, 0.0, 0.0, 1.6635895195059204E9, 0.0, 2022-09-19 17:11:59.505
253.0, -9078.65274890098, -26620.74883231507, -32956.23903944958, -15034.386817739824, -8991.30213156964, 187500.0, -44848.21645596224, -10880.53862816556, 0.594, -0.6900000000000001, 0.456, 192.0, 0.0, 0.0, 0.0, 0.0, 0.0, 0.0, 0.0, 0.0, 0.0, 1.6635895195099115E9, 0.0, 2022-09-19 17:11:59.509
254.0, -9081.111440791065, -26604.633224562793, -32959.18946971768, -15033.202175283692, -8996.39832930545, 187500.0, -44847.21062746175, -10874.905988562821, 0.594, -0.6900000000000001, 0.456, 192.0, 0.0, 0.0, 0.0, 0.0, 0.0, 0.0, 0.0, 0.0, 0.0, 1.66358951951393E9, 0.0, 2022-09-19 17:11:59.513
255.0, -9064.884074316511, -26588.383506343784, -32963.391597675276, -15037.672524174754, -9003.483832297783, 187500.0, -44847.03181350611, -10872.939035050755, 0.594, -0.6900000000000001, 0.456, 192.0, 0.0, 0.0, 0.0, 0.0, 0.0, 0.0, 0.0, 0.0, 0.0, 1.6635895195179608E9, 0.0, 2022-09-19 17:11:59.517
0.0, -9068.37094645154, -26593.524407568504, -32962.60928661934, -15037.560765452477, -9011.061073668132, 187500.0, -44848.75289782917, -10879.935131065266, 0.594, -0.6900000000000001, 0.456, 192.0, 0.0, 0.0, 0.0, 0.0, 0.0, 0.0, 0.0, 0.0, 0.0, 1.663589519522982E9, 0.0, 2022-09-19 17:11:59.522
1.0, -9102.211487556873, -26607.606006575348, -32954.33914117088, -15029.35767523738, -9021.92402147341, 187500.0, -44843.09790648198, -10900.63284643088, 0.594, -0.6900000000000001, 0.456, 192.0, 0.0, 0.0, 0.0, 0.0, 0.0, 0.0, 0.0, 0.0, 0.0, 1.6635895195259829E9, 0.0, 2022-09-19 17:11:59.525
2.0, -9124.607935501092, -26608.343614142374, -32953.176850459204, -15023.523869934545, -9016.626658037503, 187500.0, -44841.756801814656, -10882.77380261109, 0.594, -0.6900000000000001, 0.456, 192.0, 0.0, 0.0, 0.0, 0.0, 0.0, 0.0, 0.0, 0.0, 0.0, 1.6635895195299773E9, 0.0, 2022-09-19 17:11:59.529
3.0, -9127.915993680477, -26612.0316519775, -32955.836708049384, -15031.570497938455, -9015.799643492657, 187500.0, -44846.7859443171, -10878.906950820321, 0.594, -0.6900000000000001, 0.456, 192.0, 0.0, 0.0, 0.0, 0.0, 0.0, 0.0, 0.0, 0.0, 0.0, 1.6635895195339608E9, 0.0, 2022-09-19 17:11:59.533
4.0, -9111.554516739192, -26607.427192619707, -32953.82505104841, -15031.235221771625, -9008.35651258904, 187500.0, -44844.6848803383, -10861.67375584528, 0.606, -0.6900000000000001, 0.454, 192.0, 18.0, 240.0, 234.0, 112.0, 14.0, 48.0, 0.0, 0.0, 0.0, 1.66358951953807E9, 0.0, 2022-09-19 17:11:59.538
5.0, -9120.495214521316, -26620.815887548437, -32954.652065593255, -15039.058332330982, -9013.944448702867, 187500.0, -44854.7878688321, -10867.708726848214, 0.606, -0.6900000000000001, 0.454, 192.0, 0.0, 0.0, 0.0, 0.0, 0.0, 0.0, 0.0, 0.0, 0.0, 1.663589519541991E9, 0.0, 2022-09-19 17:11:59.541
6.0, -9156.995613216832, -26635.523335400027, -32940.48105960859, -15033.31393400597, -9014.883221969989, 187500.0, -44849.646967607376, -10875.733003107669, 0.606, -0.6900000000000001, 0.454, 192.0, 0.0, 0.0, 0.0, 0.0, 0.0, 0.0, 0.0, 0.0, 0.0, 1.6635895195459895E9, 0.0, 2022-09-19 17:11:59.545
7.0, -9182.566008873702, -26629.689530097192, -32939.542286341464, -15032.464567716666, -9016.73841675978, 187500.0, -44845.98128151671, -10885.657177645824, 0.606, -0.6900000000000001, 0.454, 192.0, 0.0, 0.0, 0.0, 0.0, 0.0, 0.0, 0.0, 0.0, 0.0, 1.6635895195510206E9, 0.0, 2022-09-19 17:11:59.551
8.0, -9190.187953732962, -26619.899466025767, -32948.43828063468, -15038.4995387196, -9019.465329583327, 187500.0, -44847.23297920621, -10886.953578824232, 0.606, -0.6900000000000001, 0.454, 192.0, 0.0, 0.0, 0.0, 0.0, 0.0, 0.0, 0.0, 0.0, 0.0, 1.6635895195540156E9, 0.0, 2022-09-19 17:11:59.554
9.0, -9179.190895460952, -26611.74107929958, -32951.72398706961, -15043.908660877785, -9016.827823737602, 187500.0, -44847.70236583977, -10880.58333165447, 0.606, -0.6900000000000001, 0.454, 192.0, 0.0, 0.0, 0.0, 0.0, 0.0, 0.0, 0.0, 0.0, 0.0, 1.6635895195580652E9, 0.0, 2022-09-19 17:11:59.558
10.0, -9189.673863610491, -26620.12298347032, -32946.672492822705, -15037.381951496835, -9019.286515627684, 187500.0, -44852.0386042641, -10883.556113667026, 0.606, -0.6900000000000001, 0.454, 192.0, 0.0, 0.0, 0.0, 0.0, 0.0, 0.0, 0.0, 0.0, 0.0, 1.663589519562011E9, 0.0, 2022-09-19 17:11:59.562
11.0, -9243.698029958967, -26642.787652348, -32942.559771842934, -15029.581192681933, -9016.559602804136, 187500.0, -44857.40302293337, -10894.843744616956, 0.606, -0.6900000000000001, 0.454, 192.0, 0.0, 0.0, 0.0, 0.0, 0.0, 0.0, 0.0, 0.0, 0.0, 1.663589519566106E9, 0.0, 2022-09-19 17:11:59.566
12.0, -9279.818448998743, -26644.575791904426, -32948.214763190124, -15030.83289037143, -9007.529498044194, 187500.0, -44860.26404622365, -10898.509430707625, 0.606, -0.6900000000000001, 0.454, 192.0, 0.0, 0.0, 0.0, 0.0, 0.0, 0.0, 0.0, 0.0, 0.0, 1.663589519570063E9, 0.0, 2022-09-19 17:11:59.570
13.0, -9296.31403640676, -26637.624399378827, -32949.84644053536, -15033.246878772603, -9002.433300308383, 187500.0, -44855.41371767685, -10900.074052819498, 0.606, -0.6900000000000001, 0.454, 192.0, 0.0, 0.0, 0.0, 0.0, 0.0, 0.0, 0.0, 0.0, 0.0, 1.6635895195740783E9, 0.0, 2022-09-19 17:11:59.574
14.0, -9290.413175870559, -26622.559323615948, -32952.75216731455, -15032.5986781834, -8996.487736283272, 187500.0, -44852.91032229785, -10903.024483087598, 0.602, -0.6960000000000001, 0.452, 192.0, 18.0, 208.0, 234.0, 64.0, 14.0, 32.0, 0.0, 0.0, 0.0, 1.6635895195790296E9, 0.0, 2022-09-19 17:11:59.579
15.0, -9304.673588833046, -26629.01897776353, -32948.19241144567, -15024.105015290383, -8995.571314760604, 187500.0, -44854.20672347626, -10876.20238974123, 0.602, -0.6960000000000001, 0.452, 192.0, 0.0, 0.0, 0.0, 0.0, 0.0, 0.0, 0.0, 0.0, 0.0, 1.6635895195821154E9, 0.0, 2022-09-19 17:11:59.582
16.0, -9351.768714400378, -26646.90037332778, -32943.02915847649, -15022.942724578706, -9001.427471807894, 187500.0, -44856.710118855255, -10872.156723994818, 0.602, -0.6960000000000001, 0.452, 192.0, 0.0, 0.0, 0.0, 0.0, 0.0, 0.0, 0.0, 0.0, 0.0, 1.6635895195861046E9, 0.0, 2022-09-19 17:11:59.586
17.0, -9377.875551924177, -26641.692416869693, -32942.04568172046, -15025.848451357897, -8991.68211122538, 187500.0, -44851.85979030845, -10874.10132576243, 0.602, -0.6960000000000001, 0.452, 192.0, 0.0, 0.0, 0.0, 0.0, 0.0, 0.0, 0.0, 0.0, 0.0, 1.6635895195901115E9, 0.0, 2022-09-19 17:11:59.590
18.0, -9383.75406071592, -26632.841126065392, -32947.85713527884, -15034.766797395563, -8986.317692556107, 187500.0, -44847.09886873947, -10872.156723994818, 0.602, -0.6960000000000001, 0.452, 192.0, 0.0, 0.0, 0.0, 0.0, 0.0, 0.0, 0.0, 0.0, 0.0, 1.663589519594154E9, 0.0, 2022-09-19 17:11:59.594
19.0, -9372.466429765991, -26627.342596929386, -32954.4285481487, -15044.534509722533, -8990.631579235982, 187500.0, -44847.6353106064, -10870.346232693939, 0.602, -0.6960000000000001, 0.452, 192.0, 0.0, 0.0, 0.0, 0.0, 0.0, 0.0, 0.0, 0.0, 0.0, 1.6635895195980709E9, 0.0, 2022-09-19 17:11:59.598
20.0, -9382.658825237611, -26634.383396432808, -32953.668588837216, -15051.374143525856, -9010.97166669031, 187500.0, -44851.92684554182, -10879.979834554177, 0.602, -0.6960000000000001, 0.452, 192.0, 0.0, 0.0, 0.0, 0.0, 0.0, 0.0, 0.0, 0.0, 0.0, 1.663589519603118E9, 0.0, 2022-09-19 17:11:59.603
21.0, -9420.43327336708, -26646.453338438674, -32953.7803475595, -15058.772570940564, -9023.578050563103, 187500.0, -44853.51381939815, -10903.225648787697, 0.602, -0.6960000000000001, 0.452, 192.0, 0.0, 0.0, 0.0, 0.0, 0.0, 0.0, 0.0, 0.0, 0.0, 1.663589519606126E9, 0.0, 2022-09-19 17:11:59.606
22.0, -9441.175692221606, -26639.300780212972, -32952.126318469804, -15054.816312171974, -9016.179623148397, 187500.0, -44849.31169144055, -10909.573544213003, 0.602, -0.6960000000000001, 0.452, 192.0, 0.0, 0.0, 0.0, 0.0, 0.0, 0.0, 0.0, 0.0, 0.0, 1.6635895196091597E9, 0.0, 2022-09-19 17:11:59.609
23.0, -9436.459474141535, -26627.052024251465, -32957.06605399443, -15051.284736548036, -9005.8754689545, 187500.0, -44846.51772338364, -10899.15763129683, 0.602, -0.6960000000000001, 0.452, 192.0, 0.0, 0.0, 0.0, 0.0, 0.0, 0.0, 0.0, 0.0, 0.0, 1.6635895196141393E9, 0.0, 2022-09-19 17:11:59.614
24.0, -9414.420654108602, -26614.93737875669, -32968.95718204465, -15057.967908140172, -9004.154384631442, 187500.0, -44847.59060711749, -10903.672683676801, 0.604, -0.6880000000000001, 0.458, 192.0, 18.0, 224.0, 234.0, 128.0, 14.0, 80.0, 0.0, 0.0, 0.0, 1.663589519618168E9, 0.0, 2022-09-19 17:11:59.618
25.0, -9414.800633764344, -26621.88877128229, -32969.56067914494, -15052.6034894709, -9014.50324231425, 187500.0, -44857.91711305584, -10883.377299711383, 0.604, -0.6880000000000001, 0.458, 192.0, 0.0, 0.0, 0.0, 0.0, 0.0, 0.0, 0.0, 0.0, 0.0, 1.6635895196232119E9, 0.0, 2022-09-19 17:11:59.623
26.0, -9443.321459689316, -26635.880963311312, -32958.76478657303, -15041.517024221066, -9019.711198772335, 187500.0, -44854.56435138755, -10881.34329096595, 0.604, -0.6880000000000001, 0.458, 192.0, 0.0, 0.0, 0.0, 0.0, 0.0, 0.0, 0.0, 0.0, 0.0, 1.663589519627176E9, 0.0, 2022-09-19 17:11:59.627
27.0, -9458.610052896745, -26635.925666800224, -32958.921248784216, -15043.59573645541, -9019.30886737214, 187500.0, -44848.61878736244, -10879.175171753785, 0.604, -0.6880000000000001, 0.458, 192.0, 0.0, 0.0, 0.0, 0.0, 0.0, 0.0, 0.0, 0.0, 0.0, 1.6635895196322255E9, 0.0, 2022-09-19 17:11:59.632
28.0, -9444.10377074525, -26624.481573639107, -32960.82114706292, -15046.16618706777, -9017.185451648886, 187500.0, -44844.37195591593, -10874.950692051732, 0.604, -0.6880000000000001, 0.458, 192.0, 0.0, 0.0, 0.0, 0.0, 0.0, 0.0, 0.0, 0.0, 0.0, 1.6635895196351924E9, 0.0, 2022-09-19 17:11:59.635
29.0, -9414.979447719985, -26613.752736300557, -32966.319676198924, -15052.31291679298, -9024.87445174151, 187500.0, -44843.90256928236, -10875.464782174204, 0.604, -0.6880000000000001, 0.458, 192.0, 0.0, 0.0, 0.0, 0.0, 0.0, 0.0, 0.0, 0.0, 0.0, 1.6635895196391408E9, 0.0, 2022-09-19 17:11:59.639
30.0, -9404.742348759455, -26619.22891369211, -32963.65981860874, -15049.004858613594, -9030.26122215524, 187500.0, -44847.52355188412, -10878.348157208939, 0.604, -0.6880000000000001, 0.458, 192.0, 0.0, 0.0, 0.0, 0.0, 0.0, 0.0, 0.0, 0.0, 0.0, 1.663589519642201E9, 0.0, 2022-09-19 17:11:59.642
31.0, -9430.133930460684, -26633.198753976674, -32954.56265861543, -15034.40916948428, -9031.602326822558, 187500.0, -44846.361261172446, -10877.409383941816, 0.604, -0.6880000000000001, 0.458, 192.0, 0.0, 0.0, 0.0, 0.0, 0.0, 0.0, 0.0, 0.0, 0.0, 1.6635895196462076E9, 0.0, 2022-09-19 17:11:59.646
32.0, -9436.995916008464, -26624.861553294846, -32958.18364121719, -15033.448044472701, -9033.479873356804, 187500.0, -44844.21549370474, -10873.05079377303, 0.604, -0.6880000000000001, 0.458, 192.0, 0.0, 0.0, 0.0, 0.0, 0.0, 0.0, 0.0, 0.0, 0.0, 1.6635895196501825E9, 0.0, 2022-09-19 17:11:59.650
33.0, -9420.701494300543, -26615.384413645796, -32960.70938834064, -15040.98058235414, -9036.07267571362, 187500.0, -44842.87438903742, -10872.290834461552, 0.604, -0.6880000000000001, 0.458, 192.0, 0.0, 0.0, 0.0, 0.0, 0.0, 0.0, 0.0, 0.0, 0.0, 1.6635895196542282E9, 0.0, 2022-09-19 17:11:59.654
34.0, -9387.196229362038, -26610.042346720977, -32962.05049300796, -15043.685143433231, -9029.83653901059, 187500.0, -44841.55563611456, -10866.613491369902, 0.604, -0.6880000000000001, 0.458, 192.0, 0.0, 0.0, 0.0, 0.0, 0.0, 0.0, 0.0, 0.0, 0.0, 1.6635895196582265E9, 0.0, 2022-09-19 17:11:59.658
35.0, -9379.820153691788, -26623.341634671884, -32959.01065576204, -15043.394570755312, -9035.290364657685, 187500.0, -44843.835514048995, -10868.692203604247, 0.602, -0.6900000000000001, 0.45, 192.0, 18.0, 208.0, 234.0, 112.0, 14.0, 16.0, 0.0, 0.0, 0.0, 1.6635895196622984E9, 0.0, 2022-09-19 17:11:59.662
36.0, -9404.205906892528, -26645.983951805112, -32959.43533890669, -15043.998067855606, -9037.391428636483, 187500.0, -44853.11148799795, -10876.448258930239, 0.602, -0.6900000000000001, 0.45, 192.0, 0.0, 0.0, 0.0, 0.0, 0.0, 0.0, 0.0, 0.0, 0.0, 1.6635895196651957E9, 0.0, 2022-09-19 17:11:59.665
37.0, -9406.642247038157, -26643.927591315223, -32959.14476622877, -15045.83091090094, -9029.41185586594, 187500.0, -44852.41858391984, -10891.669796904302, 0.602, -0.6900000000000001, 0.45, 192.0, 0.0, 0.0, 0.0, 0.0, 0.0, 0.0, 0.0, 0.0, 0.0, 1.6635895196692207E9, 0.0, 2022-09-19 17:11:59.669
38.0, -9391.264246852905, -26639.412538935252, -32960.37411217381, -15044.109826577882, -9022.751036018257, 187500.0, -44852.664453108846, -10885.992453812654, 0.602, -0.6900000000000001, 0.45, 192.0, 0.0, 0.0, 0.0, 0.0, 0.0, 0.0, 0.0, 0.0, 0.0, 1.663589519674208E9, 0.0, 2022-09-19 17:11:59.674
39.0, -9361.268205793882, -26633.154050487763, -32963.14572848627, -15039.617125942366, -9013.8773934695, 187500.0, -44850.16105772985, -10854.655308086314, 0.602, -0.6900000000000001, 0.45, 192.0, 0.0, 0.0, 0.0, 0.0, 0.0, 0.0, 0.0, 0.0, 0.0, 1.6635895196783159E9, 0.0, 2022-09-19 17:11:59.678
40.0, -9358.921272626076, -26647.302704727976, -32958.96595227312, -15038.991277097617, -9024.472120341316, 187500.0, -44853.44676416478, -10860.53381687806, 0.602, -0.6900000000000001, 0.45, 192.0, 0.0, 0.0, 0.0, 0.0, 0.0, 0.0, 0.0, 0.0, 0.0, 1.663589519682328E9, 0.0, 2022-09-19 17:11:59.682
41.0, -9382.837639193254, -26661.786635135013, -32948.3265219124, -15035.817329384963, -9034.351591390561, 187500.0, -44848.037642006595, -10877.118811263897, 0.602, -0.6900000000000001, 0.45, 192.0, 0.0, 0.0, 0.0, 0.0, 0.0, 0.0, 0.0, 0.0, 0.0, 1.663589519686304E9, 0.0, 2022-09-19 17:11:59.686
42.0, -9398.461508567514, -26660.0431990675, -32958.004827261546, -15039.192442797716, -9037.011448980744, 187500.0, -44854.07261300953, -10872.871979817388, 0.602, -0.6900000000000001, 0.45, 192.0, 0.0, 0.0, 0.0, 0.0, 0.0, 0.0, 0.0, 0.0, 0.0, 1.6635895196902652E9, 0.0, 2022-09-19 17:11:59.690
43.0, -9381.116554870196, -26639.390187190795, -32954.87558303781, -15032.5986781834, -9029.478911099304, 187500.0, -44849.19993271827, -10855.258805186606, 0.602, -0.6900000000000001, 0.45, 192.0, 0.0, 0.0, 0.0, 0.0, 0.0, 0.0, 0.0, 0.0, 0.0, 1.6635895196933005E9, 0.0, 2022-09-19 17:11:59.693
44.0, -9345.867853864176, -26625.30858818395, -32958.96595227312, -15031.190518282714, -9027.377847120506, 187500.0, -44843.36612741544, -10844.328802147962, 0.602, -0.6900000000000001, 0.45, 192.0, 0.0, 0.0, 0.0, 0.0, 0.0, 0.0, 0.0, 0.0, 0.0, 1.6635895196972957E9, 0.0, 2022-09-19 17:11:59.697
45.0, -9337.128321782151, -26632.79642257648, -32962.072844752416, -15035.482053218133, -9039.69365831538, 187500.0, -44850.205761218764, -10862.076087245476, 0.602, -0.686, 0.448, 192.0, 18.0, 208.0, 234.0, 144.0, 14.0, 0.0, 0.0, 0.0, 0.0, 1.6635895197023509E9, 0.0, 2022-09-19 17:11:59.702
46.0, -9356.194359802528, -26648.666161139747, -32961.13407148529, -15035.102073562393, -9054.065830000143, 187500.0, -44852.21741821974, -10878.10228801993, 0.602, -0.686, 0.448, 192.0, 0.0, 0.0, 0.0, 0.0, 0.0, 0.0, 0.0, 0.0, 0.0, 1.6635895197064047E9, 0.0, 2022-09-19 17:11:59.706
47.0, -9355.143827813128, -26643.59231514839, -32961.357588929844, -15035.839681129419, -9048.589652608593, 187500.0, -44847.52355188412, -10869.9662530382, 0.602, -0.686, 0.448, 192.0, 0.0, 0.0, 0.0, 0.0, 0.0, 0.0, 0.0, 0.0, 0.0, 1.663589519710327E9, 0.0, 2022-09-19 17:11:59.710
48.0, -9329.305211222794, -26624.436870150195, -32965.29149595398, -15040.31003002048, -9038.732533303802, 187500.0, -44844.193141960284, -10864.087744246453, 0.602, -0.686, 0.448, 192.0, 0.0, 0.0, 0.0, 0.0, 0.0, 0.0, 0.0, 0.0, 0.0, 1.6635895197143605E9, 0.0, 2022-09-19 17:11:59.714
49.0, -9291.620170071146, -26618.60306484736, -32977.47319668212, -15047.373181268356, -9045.773332807223, 187500.0, -44852.4856391532, -10850.587290595447, 0.602, -0.686, 0.448, 192.0, 0.0, 0.0, 0.0, 0.0, 0.0, 0.0, 0.0, 0.0, 0.0, 1.6635895197173617E9, 0.0, 2022-09-19 17:11:59.717
50.0, -9278.544399564791, -26627.387300418297, -32977.74141761559, -15050.971812125661, -9061.8889405595, 187500.0, -44857.7382991002, -10856.9128342763, 0.602, -0.686, 0.448, 192.0, 0.0, 0.0, 0.0, 0.0, 0.0, 0.0, 0.0, 0.0, 0.0, 1.663589519721391E9, 0.0, 2022-09-19 17:11:59.721
51.0, -9288.200353169485, -26628.326073685417, -32972.3322954574, -15051.128274336848, -9067.454524928871, 187500.0, -44854.3855374319, -10873.05079377303, 0.602, -0.686, 0.448, 192.0, 0.0, 0.0, 0.0, 0.0, 0.0, 0.0, 0.0, 0.0, 0.0, 1.6635895197253883E9, 0.0, 2022-09-19 17:11:59.725
52.0, -9281.874809488632, -26618.334843913897, -32973.13695825779, -15055.397457527812, -9066.292234217195, 187500.0, -44848.90936004035, -10886.797116613045, 0.602, -0.686, 0.448, 192.0, 0.0, 0.0, 0.0, 0.0, 0.0, 0.0, 0.0, 0.0, 0.0, 1.663589519729368E9, 0.0, 2022-09-19 17:11:59.729
53.0, -9256.818503954233, -26605.951977485656, -32976.3332577149, -15052.827006915451, -9067.990966795798, 187500.0, -44846.67418559482, -10861.271424445084, 0.602, -0.686, 0.448, 192.0, 0.0, 0.0, 0.0, 0.0, 0.0, 0.0, 0.0, 0.0, 0.0, 1.663589519734356E9, 0.0, 2022-09-19 17:11:59.734
54.0, -9215.02074182281, -26599.02293670451, -32980.60244090587, -15052.424675515256, -9064.325280705129, 187500.0, -44850.85396180797, -10849.961441750698, 0.602, -0.686, 0.448, 192.0, 0.0, 0.0, 0.0, 0.0, 0.0, 0.0, 0.0, 0.0, 0.0, 1.6635895197384555E9, 0.0, 2022-09-19 17:11:59.738
55.0, -9200.827384093689, -26614.736213056593, -32979.86483333884, -15049.965983625172, -9070.874341830533, 187500.0, -44859.21351423425, -10850.989621995643, 0.598, -0.686, 0.448, 192.0, 18.0, 176.0, 234.0, 144.0, 14.0, 0.0, 0.0, 0.0, 0.0, 1.6635895197423556E9, 0.0, 2022-09-19 17:11:59.742
56.0, -9213.925506344498, -26632.572905131925, -32975.14861525877, -15043.483977733134, -9074.092993032098, 187500.0, -44863.21447649175, -10857.829255798968, 0.598, -0.686, 0.448, 192.0, 0.0, 0.0, 0.0, 0.0, 0.0, 0.0, 0.0, 0.0, 0.0, 1.6635895197453623E9, 0.0, 2022-09-19 17:11:59.745
57.0, -9206.01298880732, -26628.102556240865, -32971.43822567919, -15042.433445743734, -9065.621681883536, 187500.0, -44860.26404622365, -10860.064430244498, 0.598, -0.686, 0.448, 192.0, 0.0, 0.0, 0.0, 0.0, 0.0, 0.0, 0.0, 0.0, 0.0, 1.6635895197494817E9, 0.0, 2022-09-19 17:11:59.749
58.0, -9179.727337327879, -26618.580713102903, -32970.588859389885, -15044.243937044614, -9062.961824293354, 187500.0, -44854.40788917636, -10855.39291565334, 0.598, -0.686, 0.448, 192.0, 0.0, 0.0, 0.0, 0.0, 0.0, 0.0, 0.0, 0.0, 0.0, 1.6635895197535164E9, 0.0, 2022-09-19 17:11:59.753
59.0, -9140.745894997823, -26614.60210258986, -32979.41779844974, -15052.379972026345, -9058.916158546945, 187500.0, -44855.54782814358, -10853.023630741076, 0.598, -0.686, 0.448, 192.0, 0.0, 0.0, 0.0, 0.0, 0.0, 0.0, 0.0, 0.0, 0.0, 1.6635895197584262E9, 0.0, 2022-09-19 17:11:59.758
60.0, -9126.70899947989, -26625.107422483856, -32978.25550773806, -15056.582099983943, -9062.715955104346, 187500.0, -44859.369976445436, -10859.706802333212, 0.598, -0.686, 0.448, 192.0, 0.0, 0.0, 0.0, 0.0, 0.0, 0.0, 0.0, 0.0, 0.0, 1.6635895197624428E9, 0.0, 2022-09-19 17:11:59.762
61.0, -9145.417409588983, -26642.072396525433, -32975.90857457025, -15057.11854185087, -9071.36608020855, 187500.0, -44864.57793290352, -10869.496866404637, 0.598, -0.686, 0.448, 192.0, 0.0, 0.0, 0.0, 0.0, 0.0, 0.0, 0.0, 0.0, 0.0, 1.6635895197663877E9, 0.0, 2022-09-19 17:11:59.766
62.0, -9142.466979320881, -26642.765300603547, -32978.00963854905, -15061.231262830648, -9067.208655739863, 187500.0, -44861.82866833552, -10875.889465318854, 0.598, -0.686, 0.448, 192.0, 0.0, 0.0, 0.0, 0.0, 0.0, 0.0, 0.0, 0.0, 0.0, 1.6635895197695923E9, 0.0, 2022-09-19 17:11:59.769
63.0, -9116.203679585897, -26632.662312109747, -32977.227327493114, -15061.41007678629, -9062.067754515143, 187500.0, -44855.07844151002, -10865.495904147137, 0.598, -0.686, 0.448, 192.0, 0.0, 0.0, 0.0, 0.0, 0.0, 0.0, 0.0, 0.0, 0.0, 1.6635895197734635E9, 0.0, 2022-09-19 17:11:59.773
64.0, -9074.897655832488, -26625.777974817513, -32977.11556877084, -15065.500446021611, -9063.900597560478, 187500.0, -44849.35639492946, -10864.758296580112, 0.598, -0.686, 0.448, 192.0, 0.0, 0.0, 0.0, 0.0, 0.0, 0.0, 0.0, 0.0, 0.0, 1.6635895197774508E9, 0.0, 2022-09-19 17:11:59.777
65.0, -9065.822847583633, -26637.64675112328, -32975.72976061461, -15063.488789020634, -9074.674138387936, 187500.0, -44854.72081359873, -10868.222816970685, 0.596, -0.6920000000000001, 0.448, 192.0, 18.0, 160.0, 234.0, 96.0, 14.0, 0.0, 0.0, 0.0, 0.0, 1.6635895197814343E9, 0.0, 2022-09-19 17:11:59.781
66.0, -9083.167801280952, -26650.297838484985, -32969.71714135613, -15057.967908140172, -9073.154219764974, 187500.0, -44858.69942411178, -10852.040153985043, 0.596, -0.6920000000000001, 0.448, 192.0, 0.0, 0.0, 0.0, 0.0, 0.0, 0.0, 0.0, 0.0, 0.0, 1.6635895197855468E9, 0.0, 2022-09-19 17:11:59.785
67.0, -9077.423402955937, -26640.910105813757, -32968.26427796653, -15051.798826670507, -9059.69846960288, 187500.0, -44855.77134558813, -10849.827331283966, 0.596, -0.6920000000000001, 0.448, 192.0, 0.0, 0.0, 0.0, 0.0, 0.0, 0.0, 0.0, 0.0, 0.0, 1.663589519790516E9, 0.0, 2022-09-19 17:11:59.790
68.0, -9050.824827054123, -26632.684663854205, -32966.94552504367, -15052.670544704264, -9056.03278351221, 187500.0, -44848.35056642897, -10840.819578268478, 0.596, -0.6920000000000001, 0.448, 192.0, 0.0, 0.0, 0.0, 0.0, 0.0, 0.0, 0.0, 0.0, 0.0, 1.6635895197944505E9, 0.0, 2022-09-19 17:11:59.794
69.0, -9014.369131847518, -26624.8839050393, -32969.65008612276, -15055.375105783358, -9061.710126603857, 187500.0, -44854.81022057655, -10839.970211979176, 0.596, -0.6920000000000001, 0.448, 192.0, 0.0, 0.0, 0.0, 0.0, 0.0, 0.0, 0.0, 0.0, 0.0, 1.6635895197974708E9, 0.0, 2022-09-19 17:11:59.797
70.0, -9001.919210185912, -26624.235704450097, -32963.10102499736, -15055.240995316624, -9076.574036666636, 187500.0, -44855.05608976556, -10856.510502876105, 0.596, -0.6920000000000001, 0.448, 192.0, 0.0, 0.0, 0.0, 0.0, 0.0, 0.0, 0.0, 0.0, 0.0, 1.663589519801453E9, 0.0, 2022-09-19 17:11:59.801
71.0, -9014.391483591973, -26635.500983655573, -32963.65981860874, -15057.722038951164, -9093.069624074653, 187500.0, -44857.24656072218, -10867.686375103758, 0.596, -0.6920000000000001, 0.448, 192.0, 0.0, 0.0, 0.0, 0.0, 0.0, 0.0, 0.0, 0.0, 0.0, 1.663589519805474E9, 0.0, 2022-09-19 17:11:59.805
72.0, -9012.938620202378, -26636.976198789624, -32962.899859297264, -15053.11757959337, -9081.625530913536, 187500.0, -44852.664453108846, -10857.00224125412, 0.596, -0.6920000000000001, 0.448, 192.0, 0.0, 0.0, 0.0, 0.0, 0.0, 0.0, 0.0, 0.0, 0.0, 1.6635895198095024E9, 0.0, 2022-09-19 17:11:59.809
73.0, -8993.78317520418, -26630.22597196412, -32963.257487208546, -15052.268213304069, -9071.053155786176, 187500.0, -44846.51772338364, -10842.294793402529, 0.596, -0.6920000000000001, 0.448, 192.0, 0.0, 0.0, 0.0, 0.0, 0.0, 0.0, 0.0, 0.0, 0.0, 1.6635895198134894E9, 0.0, 2022-09-19 17:11:59.813
74.0, -8957.036907319654, -26619.050099736465, -32968.1301674998, -15050.12244583636, -9069.823809841135, 187500.0, -44845.71306058324, -10831.633011297346, 0.596, -0.6920000000000001, 0.448, 192.0, 0.0, 0.0, 0.0, 0.0, 0.0, 0.0, 0.0, 0.0, 0.0, 1.663589519818504E9, 0.0, 2022-09-19 17:11:59.818
75.0, -8945.414000202894, -26623.140468971786, -32960.64233310727, -15044.847434144907, -9079.770336123745, 187500.0, -44847.81412456204, -10841.19955792422, 0.598, -0.6980000000000001, 0.454, 192.0, 18.0, 176.0, 234.0, 48.0, 14.0, 48.0, 0.0, 0.0, 0.0, 1.6635895198225873E9, 0.0, 2022-09-19 17:11:59.822
76.0, -8963.183637044864, -26632.394091176284, -32957.91542028373, -15045.428579500745, -9094.634246186524, 187500.0, -44848.35056642897, -10858.276290688073, 0.598, -0.6980000000000001, 0.454, 192.0, 0.0, 0.0, 0.0, 0.0, 0.0, 0.0, 0.0, 0.0, 0.0, 1.6635895198254783E9, 0.0, 2022-09-19 17:11:59.825
77.0, -8961.39549748844, -26626.895562040278, -32963.21278371964, -15040.935878865228, -9098.746967166302, 187500.0, -44848.30586294006, -10857.382220909862, 0.598, -0.6980000000000001, 0.454, 192.0, 0.0, 0.0, 0.0, 0.0, 0.0, 0.0, 0.0, 0.0, 0.0, 1.6635895198294866E9, 0.0, 2022-09-19 17:11:59.829
78.0, -8936.20508148731, -26613.03748047799, -32969.76184484504, -15044.06512308897, -9101.56328696767, 187500.0, -44846.562426872544, -10851.749581307124, 0.598, -0.6980000000000001, 0.454, 192.0, 0.0, 0.0, 0.0, 0.0, 0.0, 0.0, 0.0, 0.0, 0.0, 1.663589519833502E9, 0.0, 2022-09-19 17:11:59.833
79.0, -8895.256685645185, -26607.047212963967, -32977.60730714885, -15053.542262738021, -9099.37281601105, 187500.0, -44849.9375402853, -10853.537720863547, 0.598, -0.6980000000000001, 0.454, 192.0, 0.0, 0.0, 0.0, 0.0, 0.0, 0.0, 0.0, 0.0, 0.0, 1.6635895198375561E9, 0.0, 2022-09-19 17:11:59.837
80.0, -8883.164391894865, -26624.101593983367, -32974.38865594729, -15053.542262738021, -9099.61868520006, 187500.0, -44853.62557812042, -10860.57852036697, 0.598, -0.6980000000000001, 0.454, 192.0, 0.0, 0.0, 0.0, 0.0, 0.0, 0.0, 0.0, 0.0, 0.0, 1.6635895198414896E9, 0.0, 2022-09-19 17:11:59.841
81.0, -8894.47437458925, -26635.16570748874, -32965.91734479873, -15043.193405055215, -9091.70616766288, 187500.0, -44851.36805193044, -10842.987697480643, 0.598, -0.6980000000000001, 0.454, 192.0, 0.0, 0.0, 0.0, 0.0, 0.0, 0.0, 0.0, 0.0, 0.0, 1.663589519845526E9, 0.0, 2022-09-19 17:11:59.845
82.0, -8884.147868650898, -26626.761451573548, -32964.82210932042, -15040.667657931765, -9089.091013561609, 187500.0, -44846.294205939084, -10842.09362770243, 0.598, -0.6980000000000001, 0.454, 192.0, 0.0, 0.0, 0.0, 0.0, 0.0, 0.0, 0.0, 0.0, 0.0, 1.6635895198505354E9, 0.0, 2022-09-19 17:11:59.850
83.0, -8851.335507790507, -26613.59627408937, -32968.979533789105, -15038.901870119797, -9089.60510368408, 187500.0, -44841.332118670005, -10833.37644736486, 0.598, -0.6980000000000001, 0.454, 192.0, 0.0, 0.0, 0.0, 0.0, 0.0, 0.0, 0.0, 0.0, 0.0, 1.6635895198535264E9, 0.0, 2022-09-19 17:11:59.853
84.0, -8805.179155490297, -26604.40970711824, -32974.25454548056, -15039.907698620285, -9089.202772283885, 187500.0, -44841.22035994773, -10825.553336805504, 0.598, -0.6980000000000001, 0.454, 192.0, 0.0, 0.0, 0.0, 0.0, 0.0, 0.0, 0.0, 0.0, 0.0, 1.6635895198576672E9, 0.0, 2022-09-19 17:11:59.857
85.0, -8787.923608770801, -26618.35719565835, -32967.2808012105, -15036.934916607728, -9101.56328696767, 187500.0, -44842.71792682623, -10833.37644736486, 0.592, -0.6940000000000001, 0.456, 192.0, 18.0, 128.0, 234.0, 80.0, 14.0, 64.0, 0.0, 0.0, 0.0, 1.6635895198615518E9, 0.0, 2022-09-19 17:11:59.861
86.0, -8795.322036185507, -26631.634131864805, -32962.8775075528, -15033.202175283692, -9107.03946435922, 187500.0, -44846.02598500562, -10841.445427113227, 0.592, -0.6940000000000001, 0.456, 192.0, 0.0, 0.0, 0.0, 0.0, 0.0, 0.0, 0.0, 0.0, 0.0, 1.6635895198655694E9, 0.0, 2022-09-19 17:11:59.865
87.0, -8781.910989512324, -26623.989835261087, -32967.77253958852, -15036.30906776298, -9097.897600877, 187500.0, -44847.94823502877, -10842.42890386926, 0.592, -0.6940000000000001, 0.456, 192.0, 0.0, 0.0, 0.0, 0.0, 0.0, 0.0, 0.0, 0.0, 0.0, 1.6635895198695412E9, 0.0, 2022-09-19 17:11:59.869
88.0, -8747.377544328874, -26609.841181020878, -32970.41004543424, -15041.271155032058, -9086.833487371623, 187500.0, -44846.62948210591, -10835.589270065937, 0.592, -0.6940000000000001, 0.456, 192.0, 0.0, 0.0, 0.0, 0.0, 0.0, 0.0, 0.0, 0.0, 0.0, 1.6635895198746445E9, 0.0, 2022-09-19 17:11:59.874
89.0, -8706.29503802002, -26604.36500362933, -32970.47710066761, -15041.986410854628, -9079.27859774573, 187500.0, -44846.65183385037, -10828.079083928953, 0.592, -0.6940000000000001, 0.456, 192.0, 0.0, 0.0, 0.0, 0.0, 0.0, 0.0, 0.0, 0.0, 0.0, 1.6635895198777537E9, 0.0, 2022-09-19 17:11:59.877
90.0, -8695.275628003554, -26617.820753791424, -32968.15251924426, -15044.109826577882, -9083.056042558675, 187500.0, -44852.35152868647, -10839.52317709007, 0.592, -0.6940000000000001, 0.456, 192.0, 0.0, 0.0, 0.0, 0.0, 0.0, 0.0, 0.0, 0.0, 0.0, 1.6635895198808303E9, 0.0, 2022-09-19 17:11:59.880
91.0, -8705.95976185319, -26631.835297564903, -32963.14572848627, -15041.606431198888, -9082.22902801383, 187500.0, -44851.54686588608, -10851.838988284944, 0.592, -0.6940000000000001, 0.456, 192.0, 0.0, 0.0, 0.0, 0.0, 0.0, 0.0, 0.0, 0.0, 0.0, 1.6635895198856103E9, 0.0, 2022-09-19 17:11:59.885
92.0, -8703.72458740766, -26634.964541788646, -32966.96787678813, -15045.987373112128, -9080.977330324333, 187500.0, -44850.36222342995, -10869.496866404637, 0.592, -0.6940000000000001, 0.456, 192.0, 0.0, 0.0, 0.0, 0.0, 0.0, 0.0, 0.0, 0.0, 0.0, 1.6635895198895574E9, 0.0, 2022-09-19 17:11:59.889
93.0, -8680.925808063246, -26625.26388469504, -32967.012580277034, -15041.807596898985, -9072.394260453495, 187500.0, -44847.18827571729, -10859.215063955196, 0.592, -0.6940000000000001, 0.456, 192.0, 0.0, 0.0, 0.0, 0.0, 0.0, 0.0, 0.0, 0.0, 0.0, 1.6635895198937733E9, 0.0, 2022-09-19 17:11:59.893
94.0, -8645.341830890398, -26613.372756644818, -32974.992153047584, -15039.527718964544, -9069.26501622975, 187500.0, -44850.96572053024, -10829.956630463199, 0.592, -0.6940000000000001, 0.456, 192.0, 0.0, 0.0, 0.0, 0.0, 0.0, 0.0, 0.0, 0.0, 0.0, 1.6635895198975816E9, 0.0, 2022-09-19 17:11:59.897
95.0, -8639.731543032116, -26623.676910838716, -32971.505280912555, -15036.487881718622, -9080.999682068788, 187500.0, -44853.40206067587, -10836.505691588603, 0.596, -0.6920000000000001, 0.456, 192.0, 18.0, 160.0, 234.0, 96.0, 14.0, 64.0, 0.0, 0.0, 0.0, 1.6635895199017107E9, 0.0, 2022-09-19 17:11:59.901
96.0, -8662.99970901009, -26640.396015691284, -32963.4810046531, -15028.754178137086, -9096.46708923186, 187500.0, -44851.837438564, -10844.19469168123, 0.596, -0.6920000000000001, 0.456, 192.0, 0.0, 0.0, 0.0, 0.0, 0.0, 0.0, 0.0, 0.0, 0.0, 1.6635895199056647E9, 0.0, 2022-09-19 17:11:59.905
97.0, -8663.469095643652, -26632.08116675391, -32961.5811063744, -15023.546221679, -9098.344635766105, 187500.0, -44846.40596466136, -10847.882729516356, 0.596, -0.6920000000000001, 0.456, 192.0, 0.0, 0.0, 0.0, 0.0, 0.0, 0.0, 0.0, 0.0, 0.0, 1.6635895199086108E9, 0.0, 2022-09-19 17:11:59.908
98.0, -8641.407923866263, -26616.390242146284, -32959.01065576204, -15018.561782665467, -9087.414632727461, 187500.0, -44837.35350815696, -10840.730171290657, 0.596, -0.6920000000000001, 0.456, 192.0, 0.0, 0.0, 0.0, 0.0, 0.0, 0.0, 0.0, 0.0, 0.0, 1.6635895199138E9, 0.0, 2022-09-19 17:11:59.913
99.0, -8610.651923495761, -26605.9296257412, -32956.17198421621, -15019.947590821695, -9079.636225657014, 187500.0, -44829.373935386415, -10833.488206087137, 0.596, -0.6920000000000001, 0.456, 192.0, 0.0, 0.0, 0.0, 0.0, 0.0, 0.0, 0.0, 0.0, 0.0, 1.6635895199176655E9, 0.0, 2022-09-19 17:11:59.917
100.0, -8616.843356709882, -26622.46991663813, -32962.072844752416, -15027.63659091432, -9090.923856606943, 187500.0, -44841.041545992084, -10851.369601651384, 0.596, -0.6920000000000001, 0.456, 192.0, 0.0, 0.0, 0.0, 0.0, 0.0, 0.0, 0.0, 0.0, 0.0, 1.6635895199216516E9, 0.0, 2022-09-19 17:11:59.921
101.0, -8641.1397029328, -26634.718672599636, -32955.54613537146, -15020.998122811096, -9094.544839208704, 187500.0, -44839.67808958031, -10860.355002922417, 0.596, -0.6920000000000001, 0.456, 192.0, 0.0, 0.0, 0.0, 0.0, 0.0, 0.0, 0.0, 0.0, 0.0, 1.6635895199256313E9, 0.0, 2022-09-19 17:11:59.925
102.0, -8644.872444256836, -26627.387300418297, -32953.7803475595, -15010.87278257284, -9085.693548404402, 187500.0, -44834.67129882232, -10849.33559290595, 0.596, -0.6920000000000001, 0.456, 192.0, 0.0, 0.0, 0.0, 0.0, 0.0, 0.0, 0.0, 0.0, 0.0, 1.6635895199297023E9, 0.0, 2022-09-19 17:11:59.929
103.0, -8633.405999351264, -26621.329977670906, -32957.82601330591, -15016.63953264231, -9079.03272855672, 187500.0, -44837.621729090424, -10844.48526435915, 0.596, -0.6920000000000001, 0.456, 192.0, 0.0, 0.0, 0.0, 0.0, 0.0, 0.0, 0.0, 0.0, 0.0, 1.66358951993373E9, 0.0, 2022-09-19 17:11:59.933
104.0, -8606.1815746047, -26619.60889334785, -32964.5315366425, -15022.741558878608, -9069.98027205232, 187500.0, -44841.600339603465, -10855.77289530908, 0.596, -0.6920000000000001, 0.456, 192.0, 0.0, 0.0, 0.0, 0.0, 0.0, 0.0, 0.0, 0.0, 0.0, 1.6635895199367032E9, 0.0, 2022-09-19 17:11:59.936
105.0, -8604.12521411481, -26635.389224933297, -32960.01648426252, -15018.15945126527, -9077.8927895895, 187500.0, -44844.17079021583, -10859.662098844303, 0.596, -0.6900000000000001, 0.456, 192.0, 18.0, 160.0, 234.0, 112.0, 14.0, 64.0, 0.0, 0.0, 0.0, 1.6635895199407616E9, 0.0, 2022-09-19 17:11:59.940
106.0, -8629.807368493959, -26649.739044873604, -32955.43437664919, -15011.744500606597, -9083.883057103521, 187500.0, -44844.908397782856, -10847.726267305168, 0.596, -0.6900000000000001, 0.456, 192.0, 0.0, 0.0, 0.0, 0.0, 0.0, 0.0, 0.0, 0.0, 0.0, 1.6635895199456828E9, 0.0, 2022-09-19 17:11:59.945
107.0, -8634.322420873932, -26645.13458551581, -32960.75409182955, -15020.461680944167, -9086.27469376024, 187500.0, -44844.66252859384, -10852.800113296524, 0.596, -0.6900000000000001, 0.456, 192.0, 0.0, 0.0, 0.0, 0.0, 0.0, 0.0, 0.0, 0.0, 0.0, 1.6635895199496653E9, 0.0, 2022-09-19 17:11:59.949
108.0, -8617.223336365621, -26639.010207535055, -32968.10781575535, -15025.490823446611, -9074.674138387936, 187500.0, -44846.45066815027, -10845.044057970532, 0.596, -0.6900000000000001, 0.456, 192.0, 0.0, 0.0, 0.0, 0.0, 0.0, 0.0, 0.0, 0.0, 0.0, 1.663589519953775E9, 0.0, 2022-09-19 17:11:59.953
109.0, -8588.0766615959, -26640.79834709148, -32975.17096700322, -15037.02432358555, -9068.303891218173, 187500.0, -44849.42345016282, -10848.24035742764, 0.596, -0.6900000000000001, 0.456, 192.0, 0.0, 0.0, 0.0, 0.0, 0.0, 0.0, 0.0, 0.0, 0.0, 1.6635895199577088E9, 0.0, 2022-09-19 17:11:59.957
110.0, -8587.741385429072, -26660.490233956603, -32973.3828274468, -15038.03015208604, -9077.691623889403, 187500.0, -44852.105659497465, -10855.214101697697, 0.596, -0.6900000000000001, 0.456, 192.0, 0.0, 0.0, 0.0, 0.0, 0.0, 0.0, 0.0, 0.0, 0.0, 1.663589519961671E9, 0.0, 2022-09-19 17:11:59.961
111.0, -8606.002760649057, -26671.37553350634, -32966.05145526546, -15029.000047326095, -9076.037594799709, 187500.0, -44848.70819434025, -10851.011973740098, 0.596, -0.6900000000000001, 0.456, 192.0, 0.0, 0.0, 0.0, 0.0, 0.0, 0.0, 0.0, 0.0, 0.0, 1.6635895199648044E9, 0.0, 2022-09-19 17:11:59.964
112.0, -8601.107728613344, -26660.199661278686, -32957.96012377264, -15022.473337945145, -9064.258225471762, 187500.0, -44838.00170874616, -10841.445427113227, 0.596, -0.6900000000000001, 0.456, 192.0, 0.0, 0.0, 0.0, 0.0, 0.0, 0.0, 0.0, 0.0, 0.0, 1.6635895199687908E9, 0.0, 2022-09-19 17:11:59.968
113.0, -8577.660748679727, -26645.380454704817, -32964.03979826448, -15032.285753761025, -9065.80049583918, 187500.0, -44837.912301768345, -10840.797226524022, 0.596, -0.6900000000000001, 0.456, 192.0, 0.0, 0.0, 0.0, 0.0, 0.0, 0.0, 0.0, 0.0, 0.0, 1.6635895199736931E9, 0.0, 2022-09-19 17:11:59.973
114.0, -8543.50728315202, -26639.92662905772, -32967.83959482188, -15042.254631788092, -9075.501152932782, 187500.0, -44839.74514481368, -10840.57370907947, 0.596, -0.6900000000000001, 0.456, 192.0, 0.0, 0.0, 0.0, 0.0, 0.0, 0.0, 0.0, 0.0, 0.0, 1.6635895199777217E9, 0.0, 2022-09-19 17:11:59.977
115.0, -8538.321678438388, -26647.772091361534, -32963.63746686429, -15039.862995131374, -9089.22512402834, 187500.0, -44839.74514481368, -10847.279232416062, 0.59, -0.6900000000000001, 0.46, 192.0, 18.0, 112.0, 234.0, 112.0, 14.0, 96.0, 0.0, 0.0, 0.0, 1.6635895199817612E9, 0.0, 2022-09-19 17:11:59.981
116.0, -8549.899882066236, -26651.66129489676, -32959.07771099541, -15037.225489285647, -9092.823754885645, 187500.0, -44835.27479592262, -10851.973098751676, 0.59, -0.6900000000000001, 0.46, 192.0, 0.0, 0.0, 0.0, 0.0, 0.0, 0.0, 0.0, 0.0, 0.0, 1.6635895199857635E9, 0.0, 2022-09-19 17:11:59.985
117.0, -8547.485893665063, -26647.481518683617, -32969.44892042266, -15042.344038765912, -9089.627455428536, 187500.0, -44840.25923493615, -10856.331688920462, 0.59, -0.6900000000000001, 0.46, 192.0, 0.0, 0.0, 0.0, 0.0, 0.0, 0.0, 0.0, 0.0, 0.0, 1.6635895199887595E9, 0.0, 2022-09-19 17:11:59.988
118.0, -8518.003942728514, -26637.17736448972, -32972.30994371294, -15048.066085346472, -9084.397147225995, 187500.0, -44839.722793069224, -10870.323880949483, 0.59, -0.6900000000000001, 0.46, 192.0, 0.0, 0.0, 0.0, 0.0, 0.0, 0.0, 0.0, 0.0, 0.0, 1.663589519992741E9, 0.0, 2022-09-19 17:11:59.992
119.0, -8470.662947972172, -26632.32703594292, -32972.95814430215, -15043.774550411053, -9074.27180698774, 187500.0, -44839.81220004705, -10841.065447457488, 0.59, -0.6900000000000001, 0.46, 192.0, 0.0, 0.0, 0.0, 0.0, 0.0, 0.0, 0.0, 0.0, 0.0, 1.663589519996765E9, 0.0, 2022-09-19 17:11:59.996
120.0, -8452.58038670783, -26644.08405352641, -32973.181661746705, -15040.533547465033, -9074.27180698774, 187500.0, -44848.12704898442, -10831.834176997445, 0.59, -0.6900000000000001, 0.46, 192.0, 0.0, 0.0, 0.0, 0.0, 0.0, 0.0, 0.0, 0.0, 0.0, 1.6635895200017543E9, 0.0, 2022-09-19 17:12:00.001
121.0, -8447.394781994199, -26652.912992586254, -32967.0796355104, -15036.018495085062, -9070.807286597168, 187500.0, -44846.62948210591, -10832.9070607313, 0.59, -0.6900000000000001, 0.46, 192.0, 0.0, 0.0, 0.0, 0.0, 0.0, 0.0, 0.0, 0.0, 0.0, 1.6635895200057597E9, 0.0, 2022-09-19 17:12:00.005
122.0, -8411.341418187789, -26636.439756922693, -32965.492661654076, -15032.64338167231, -9060.12315274753, 187500.0, -44838.471095379726, -10817.864336712879, 0.59, -0.6900000000000001, 0.46, 192.0, 0.0, 0.0, 0.0, 0.0, 0.0, 0.0, 0.0, 0.0, 0.0, 1.6635895200098257E9, 0.0, 2022-09-19 17:12:00.009
123.0, -8353.316289581811, -26619.36302415884, -32973.00284779106, -15038.74540790861, -9053.775257322224, 187500.0, -44835.453609878256, -10809.281266842041, 0.59, -0.6900000000000001, 0.46, 192.0, 0.0, 0.0, 0.0, 0.0, 0.0, 0.0, 0.0, 0.0, 0.0, 1.663589520013862E9, 0.0, 2022-09-19 17:12:00.013
124.0, -8286.395166682621, -26621.285274181995, -32981.25064149507, -15045.450931245201, -9052.143579976986, 187500.0, -44845.33308092751, -10800.51938301556, 0.59, -0.6900000000000001, 0.46, 192.0, 0.0, 0.0, 0.0, 0.0, 0.0, 0.0, 0.0, 0.0, 0.0, 1.6635895200167947E9, 0.0, 2022-09-19 17:12:00.016
125.0, -8255.862683756672, -26647.36975996134, -32985.3857142193, -15051.329440036947, -9077.289292489206, 187500.0, -44860.621674134934, -10813.796319222012, 0.598, -0.6980000000000001, 0.466, 192.0, 18.0, 176.0, 234.0, 48.0, 14.0, 144.0, 0.0, 0.0, 0.0, 1.6635895200208204E9, 0.0, 2022-09-19 17:12:00.020
126.0, -8243.748038261896, -26669.14035906081, -32980.647144394774, -15048.513120235577, -9092.08614731862, 187500.0, -44859.39232818989, -10824.815729238479, 0.598, -0.6980000000000001, 0.466, 192.0, 0.0, 0.0, 0.0, 0.0, 0.0, 0.0, 0.0, 0.0, 0.0, 1.663589520024817E9, 0.0, 2022-09-19 17:12:00.024
127.0, -8215.942468159494, -26671.889623628813, -32980.91536532824, -15049.31778303597, -9087.124060049542, 187500.0, -44855.167848487836, -10832.19180490873, 0.598, -0.6980000000000001, 0.466, 192.0, 0.0, 0.0, 0.0, 0.0, 0.0, 0.0, 0.0, 0.0, 0.0, 1.663589520028813E9, 0.0, 2022-09-19 17:12:00.028
128.0, -8176.156363029047, -26664.93823110321, -32979.462501938644, -15042.679314932742, -9079.479763445826, 187500.0, -44849.7363745852, -10824.61456353838, 0.598, -0.6980000000000001, 0.466, 192.0, 0.0, 0.0, 0.0, 0.0, 0.0, 0.0, 0.0, 0.0, 0.0, 1.6635895200338488E9, 0.0, 2022-09-19 17:12:00.033
129.0, -8138.828949788684, -26663.217146780153, -32984.1340165298, -15045.138006822826, -9083.503077447782, 187500.0, -44853.51381939815, -10830.783645008045, 0.598, -0.6980000000000001, 0.466, 192.0, 0.0, 0.0, 0.0, 0.0, 0.0, 0.0, 0.0, 0.0, 0.0, 1.6635895200379138E9, 0.0, 2022-09-19 17:12:00.037
130.0, -8138.918356766505, -26683.646641212305, -32983.86579559634, -15052.871710404363, -9092.644940930002, 187500.0, -44859.14645900088, -10865.518255891593, 0.598, -0.6980000000000001, 0.466, 192.0, 0.0, 0.0, 0.0, 0.0, 0.0, 0.0, 0.0, 0.0, 0.0, 1.663589520040854E9, 0.0, 2022-09-19 17:12:00.040
131.0, -8155.458647663432, -26698.04116464152, -32978.09904552687, -15050.569480725466, -9089.828621128634, 187500.0, -44855.68193861031, -10878.974006053688, 0.598, -0.6980000000000001, 0.466, 192.0, 0.0, 0.0, 0.0, 0.0, 0.0, 0.0, 0.0, 0.0, 0.0, 1.6635895200448337E9, 0.0, 2022-09-19 17:12:00.044
132.0, -8142.785208557273, -26690.24040582662, -32980.937717072695, -15050.949460381205, -9082.720766391845, 187500.0, -44855.59253163249, -10857.561034865503, 0.598, -0.6980000000000001, 0.466, 192.0, 0.0, 0.0, 0.0, 0.0, 0.0, 0.0, 0.0, 0.0, 0.0, 1.6635895200490267E9, 0.0, 2022-09-19 17:12:00.049
133.0, -8097.835850457651, -26672.828396895933, -32978.12139727132, -15051.97764062615, -9073.690661631903, 187500.0, -44848.10469723996, -10840.283136401551, 0.598, -0.6980000000000001, 0.466, 192.0, 0.0, 0.0, 0.0, 0.0, 0.0, 0.0, 0.0, 0.0, 0.0, 1.6635895200528903E9, 0.0, 2022-09-19 17:12:00.052
134.0, -8030.981782791828, -26653.27062049754, -32985.408065963755, -15056.068009861472, -9066.403992939471, 187500.0, -44849.9375402853, -10827.050903684009, 0.598, -0.6980000000000001, 0.466, 192.0, 0.0, 0.0, 0.0, 0.0, 0.0, 0.0, 0.0, 0.0, 0.0, 1.6635895200569017E9, 0.0, 2022-09-19 17:12:00.056
135.0, -8013.34625641659, -26672.671934684746, -32984.983382819104, -15055.799788928009, -9084.79947862619, 187500.0, -44857.71594735575, -10829.219022896174, 0.598, -0.6980000000000001, 0.466, 192.0, 0.0, 0.0, 0.0, 0.0, 0.0, 0.0, 0.0, 0.0, 0.0, 1.6635895200618536E9, 0.0, 2022-09-19 17:12:00.061
136.0, -8044.370477720557, -26699.13640011983, -32977.89787982677, -15051.68706794823, -9102.524411979248, 187500.0, -44855.369014187934, -10846.116941704386, 0.596, -0.6920000000000001, 0.464, 192.0, 18.0, 160.0, 234.0, 96.0, 14.0, 128.0, 0.0, 0.0, 0.0, 1.663589520066012E9, 0.0, 2022-09-19 17:12:00.066
137.0, -8050.606614423587, -26695.04603088451, -32976.95910655965, -15049.273079547058, -9097.361159010072, 187500.0, -44849.75872632965, -10848.597985338925, 0.596, -0.6920000000000001, 0.464, 192.0, 0.0, 0.0, 0.0, 0.0, 0.0, 0.0, 0.0, 0.0, 0.0, 1.663589520068885E9, 0.0, 2022-09-19 17:12:00.068
138.0, -8034.714524115864, -26679.936251632724, -32977.47319668212, -15049.340134780425, -9088.822792628145, 187500.0, -44846.62948210591, -10849.33559290595, 0.596, -0.6920000000000001, 0.464, 192.0, 0.0, 0.0, 0.0, 0.0, 0.0, 0.0, 0.0, 0.0, 0.0, 1.663589520072889E9, 0.0, 2022-09-19 17:12:00.072
139.0, -8010.619343593043, -26673.02956259603, -32981.429455450714, -15048.356658024391, -9083.726594892334, 187500.0, -44849.512857140646, -10850.274366173073, 0.596, -0.6920000000000001, 0.464, 192.0, 0.0, 0.0, 0.0, 0.0, 0.0, 0.0, 0.0, 0.0, 0.0, 1.6635895200769908E9, 0.0, 2022-09-19 17:12:00.076
140.0, -8017.324866929635, -26689.793370937514, -32975.707408870156, -15040.77941665404, -9092.287313018718, 187500.0, -44854.966682787745, -10850.408476639805, 0.596, -0.6920000000000001, 0.464, 192.0, 0.0, 0.0, 0.0, 0.0, 0.0, 0.0, 0.0, 0.0, 0.0, 1.6635895200809023E9, 0.0, 2022-09-19 17:12:00.080
141.0, -8039.006059051283, -26701.125705376355, -32968.26427796653, -15035.325591006947, -9098.881077633034, 187500.0, -44851.99390077518, -10855.214101697697, 0.596, -0.6920000000000001, 0.464, 192.0, 0.0, 0.0, 0.0, 0.0, 0.0, 0.0, 0.0, 0.0, 0.0, 1.6635895200849054E9, 0.0, 2022-09-19 17:12:00.084
142.0, -8038.916652073462, -26695.157789606787, -32965.783234332, -15031.63755317182, -9091.37089149605, 187500.0, -44846.74124082819, -10854.610604597403, 0.596, -0.6920000000000001, 0.464, 192.0, 0.0, 0.0, 0.0, 0.0, 0.0, 0.0, 0.0, 0.0, 0.0, 1.663589520089929E9, 0.0, 2022-09-19 17:12:00.089
143.0, -8020.789387320207, -26685.099504601898, -32970.320638456426, -15035.951439851695, -9086.967597838355, 187500.0, -44845.33308092751, -10862.925453534777, 0.596, -0.6920000000000001, 0.464, 192.0, 0.0, 0.0, 0.0, 0.0, 0.0, 0.0, 0.0, 0.0, 0.0, 1.663589520094074E9, 0.0, 2022-09-19 17:12:00.094
144.0, -7991.10627068356, -26685.23361506863, -32974.34395245838, -15035.146777051305, -9092.51083046327, 187500.0, -44843.142609970884, -10833.62231655387, 0.596, -0.6920000000000001, 0.464, 192.0, 0.0, 0.0, 0.0, 0.0, 0.0, 0.0, 0.0, 0.0, 0.0, 1.663589520096933E9, 0.0, 2022-09-19 17:12:00.096
145.0, -7997.007131219761, -26709.19468512472, -32970.588859389885, -15036.621992185354, -9116.248383074806, 187500.0, -44846.80829606156, -10834.851662498912, 0.596, -0.6920000000000001, 0.464, 192.0, 0.0, 0.0, 0.0, 0.0, 0.0, 0.0, 0.0, 0.0, 0.0, 1.6635895201009684E9, 0.0, 2022-09-19 17:12:00.100
146.0, -8022.756340832275, -26719.43178408525, -32964.03979826448, -15035.88438461833, -9129.27945009225, 187500.0, -44843.58964485999, -10849.268537672584, 0.584, -0.6940000000000001, 0.46, 192.0, 18.0, 64.0, 234.0, 80.0, 14.0, 96.0, 0.0, 0.0, 0.0, 1.663589520104958E9, 0.0, 2022-09-19 17:12:00.104
147.0, -8028.187814734914, -26710.267568858573, -32961.53640288549, -15031.414035727268, -9121.858670933088, 187500.0, -44838.87342677992, -10849.313241161495, 0.584, -0.6940000000000001, 0.46, 192.0, 0.0, 0.0, 0.0, 0.0, 0.0, 0.0, 0.0, 0.0, 0.0, 1.6635895201089544E9, 0.0, 2022-09-19 17:12:00.108
148.0, -8015.112044228559, -26698.95758616419, -32958.205992961644, -15026.384893224824, -9097.987007854821, 187500.0, -44834.87246452242, -10842.540662591537, 0.584, -0.6940000000000001, 0.46, 192.0, 0.0, 0.0, 0.0, 0.0, 0.0, 0.0, 0.0, 0.0, 0.0, 1.6635895201130896E9, 0.0, 2022-09-19 17:12:00.113
149.0, -7994.1908114183925, -26695.04603088451, -32958.67537959521, -15024.842622857408, -9091.817926385156, 187500.0, -44836.25827267865, -10834.583441565448, 0.584, -0.6940000000000001, 0.46, 192.0, 0.0, 0.0, 0.0, 0.0, 0.0, 0.0, 0.0, 0.0, 0.0, 1.6635895201170201E9, 0.0, 2022-09-19 17:12:00.117
150.0, -8010.261715681758, -26711.586321781437, -32957.75895807254, -15025.177899024236, -9112.180365583941, 187500.0, -44842.20383670376, -10849.402648139316, 0.584, -0.6940000000000001, 0.46, 192.0, 0.0, 0.0, 0.0, 0.0, 0.0, 0.0, 0.0, 0.0, 0.0, 1.663589520122013E9, 0.0, 2022-09-19 17:12:00.122
151.0, -8045.443361454411, -26722.33751086444, -32956.21668770513, -15023.747387379097, -9121.791615699723, 187500.0, -44839.722793069224, -10860.220892455685, 0.584, -0.6940000000000001, 0.46, 192.0, 0.0, 0.0, 0.0, 0.0, 0.0, 0.0, 0.0, 0.0, 0.0, 1.663589520125014E9, 0.0, 2022-09-19 17:12:00.125
