%OpenBCI Raw EEG Data
%Number of channels = 8
%Sample Rate = 250 Hz
%Board = OpenBCI_GUI$BoardCytonSerial
Sample Index, EXG Channel 0, EXG Channel 1, EXG Channel 2, EXG Channel 3, EXG Channel 4, EXG Channel 5, EXG Channel 6, EXG Channel 7, Accel Channel 0, Accel Channel 1, Accel Channel 2, Other, Other, Other, Other, Other, Other, Other, Analog Channel 0, Analog Channel 1, Analog Channel 2, Timestamp, Other, Timestamp (Formatted)
29.0, 36551.65124555245, 29365.766568871328, 7184.141240613609, 15603.70810076095, 10366.917892327057, 187500.0, -110961.41320007005, 32946.20310618915, 0.0, 0.0, 0.0, 192.0, 0.0, 0.0, 0.0, 0.0, 0.0, 0.0, 0.0, 0.0, 0.0, 1.6635813507720096E9, 0.0, 2022-09-19 14:55:50.772
30.0, 36548.43259435089, 29370.348676484668, 7189.125679627143, 15610.99476945338, 10368.996604561402, 187500.0, -111035.21866026148, 32919.58217854288, 0.0, 0.0, 0.0, 192.0, 0.0, 0.0, 0.0, 0.0, 0.0, 0.0, 0.0, 0.0, 0.0, 1.6635813507720428E9, 0.0, 2022-09-19 14:55:50.772
31.0, 36552.43355660839, 29369.99104857338, 7188.343368571207, 15610.212458397444, 10373.221084263454, 187500.0, -111084.83953295226, 32909.5685970269, 0.504, -0.708, 0.52, 192.0, 15.0, 192.0, 233.0, 224.0, 16.0, 64.0, 0.0, 0.0, 0.0, 1.6635813507720582E9, 0.0, 2022-09-19 14:55:50.772
0.0, 0.0, 0.0, 0.0, 0.0, 0.0, 0.0, 0.0, 0.0, 0.502, -0.716, 0.522, 192.0, 15.0, 176.0, 233.0, 160.0, 16.0, 80.0, 0.0, 0.0, 0.0, 1.6635813508357031E9, 0.0, 2022-09-19 14:55:50.835
1.0, 38453.583532998986, 30421.35005251766, 6927.2302898443095, 16993.45016401412, 11539.579813430288, 187500.0, -118930.14537455385, 35223.979976651666, 0.502, -0.716, 0.522, 192.0, 0.0, 0.0, 0.0, 0.0, 0.0, 0.0, 0.0, 0.0, 0.0, 1.6635813508527637E9, 0.0, 2022-09-19 14:55:50.852
2.0, 38448.28616956308, 30420.098354828162, 6925.889185176991, 17000.178039095168, 11537.501101195945, 187500.0, -118931.50883096563, 35218.72731670467, 0.502, -0.716, 0.522, 192.0, 0.0, 0.0, 0.0, 0.0, 0.0, 0.0, 0.0, 0.0, 0.0, 1.6635813508557687E9, 0.0, 2022-09-19 14:55:50.855
3.0, 38450.11901260841, 30410.800029134756, 6932.818225958136, 17017.70180674813, 11544.76541814392, 187500.0, -118935.77801415659, 35221.40952603931, 0.502, -0.716, 0.522, 192.0, 0.0, 0.0, 0.0, 0.0, 0.0, 0.0, 0.0, 0.0, 0.0, 1.6635813508597655E9, 0.0, 2022-09-19 14:55:50.859
4.0, 38451.03543413108, 30397.50074118385, 6940.641336517494, 17023.89323996225, 11551.00155484695, 187500.0, -118933.98987460017, 35219.375517293876, 0.502, -0.716, 0.522, 192.0, 0.0, 0.0, 0.0, 0.0, 0.0, 0.0, 0.0, 0.0, 0.0, 1.6635813508627589E9, 0.0, 2022-09-19 14:55:50.862
5.0, 38442.809992171526, 30388.850616079646, 6940.686040006404, 17025.167289396202, 11553.95198511505, 187500.0, -118920.73529013817, 35213.139380590845, 0.502, -0.716, 0.522, 192.0, 0.0, 0.0, 0.0, 0.0, 0.0, 0.0, 0.0, 0.0, 0.0, 1.663581350866758E9, 0.0, 2022-09-19 14:55:50.866
6.0, 38439.16665782531, 30381.787464831767, 6930.85127244607, 17010.482193289066, 11544.027810576894, 187500.0, -118907.95009230974, 35204.84688339793, 0.502, -0.716, 0.522, 192.0, 0.0, 0.0, 0.0, 0.0, 0.0, 0.0, 0.0, 0.0, 0.0, 1.6635813508698945E9, 0.0, 2022-09-19 14:55:50.869
7.0, 38440.86539040392, 30397.7242586284, 6938.339106838597, 17013.79025146845, 11542.418484976111, 187500.0, -118916.13083078037, 35198.878967628356, 0.502, -0.716, 0.522, 192.0, 0.0, 0.0, 0.0, 0.0, 0.0, 0.0, 0.0, 0.0, 0.0, 1.6635813508738096E9, 0.0, 2022-09-19 14:55:50.873
8.0, 38434.338681022964, 30408.274282011305, 6934.047571903178, 17007.978797910073, 11542.038505320372, 187500.0, -118935.55449671204, 35188.68657215674, 0.498, -0.718, 0.528, 192.0, 15.0, 144.0, 233.0, 144.0, 16.0, 128.0, 0.0, 0.0, 0.0, 1.6635813508777544E9, 0.0, 2022-09-19 14:55:50.877
9.0, 38434.562198467516, 30402.239311008372, 6930.292478834686, 17005.22953334207, 11543.245499520957, 187500.0, -118935.73331066768, 35184.23857501013, 0.498, -0.718, 0.528, 192.0, 0.0, 0.0, 0.0, 0.0, 0.0, 0.0, 0.0, 0.0, 0.0, 1.6635813508818395E9, 0.0, 2022-09-19 14:55:50.881
10.0, 38442.60882647143, 30405.860293610134, 6940.954260939868, 17006.950617665127, 11551.716810669519, 187500.0, -118918.74598488165, 35188.08307505644, 0.498, -0.718, 0.528, 192.0, 0.0, 0.0, 0.0, 0.0, 0.0, 0.0, 0.0, 0.0, 0.0, 1.6635813508878126E9, 0.0, 2022-09-19 14:55:50.887
11.0, 38454.499954521656, 30436.616293980635, 6942.787103985203, 17004.514277519498, 11558.042354350371, 187500.0, -118897.17655148228, 35195.41444723779, 0.498, -0.718, 0.528, 192.0, 0.0, 0.0, 0.0, 0.0, 0.0, 0.0, 0.0, 0.0, 0.0, 1.6635813508908088E9, 0.0, 2022-09-19 14:55:50.890
12.0, 38445.402794528345, 30435.16343059104, 6940.909557450957, 17011.286856089457, 11553.124970570205, 187500.0, -118910.40878419981, 35184.73031338815, 0.498, -0.718, 0.528, 192.0, 0.0, 0.0, 0.0, 0.0, 0.0, 0.0, 0.0, 0.0, 0.0, 1.6635813508947682E9, 0.0, 2022-09-19 14:55:50.894
13.0, 38427.70021291974, 30404.809761620734, 6937.959127182857, 17022.730949250574, 11545.19010128857, 187500.0, -118939.823679903, 35168.27942946905, 0.498, -0.718, 0.528, 192.0, 0.0, 0.0, 0.0, 0.0, 0.0, 0.0, 0.0, 0.0, 0.0, 1.6635813508978593E9, 0.0, 2022-09-19 14:55:50.897
14.0, 38425.30857626302, 30393.20920624843, 6939.076714405623, 17034.644429045253, 11548.118179812214, 187500.0, -118942.1706130708, 35163.2502869666, 0.498, -0.718, 0.528, 192.0, 0.0, 0.0, 0.0, 0.0, 0.0, 0.0, 0.0, 0.0, 0.0, 1.663581350901804E9, 0.0, 2022-09-19 14:55:50.901
15.0, 38430.56123621002, 30392.672764381503, 6944.642298774994, 17036.47727209059, 11559.4281625066, 187500.0, -118923.55160993953, 35167.407711435284, 0.498, -0.718, 0.528, 192.0, 0.0, 0.0, 0.0, 0.0, 0.0, 0.0, 0.0, 0.0, 0.0, 1.663581350905798E9, 0.0, 2022-09-19 14:55:50.905
16.0, 38436.104468834936, 30399.35593597364, 6945.938699953402, 17026.910725463717, 11563.026793363904, 187500.0, -118903.05506027403, 35169.62053413636, 0.498, -0.718, 0.528, 192.0, 0.0, 0.0, 0.0, 0.0, 0.0, 0.0, 0.0, 0.0, 0.0, 1.663581350909846E9, 0.0, 2022-09-19 14:55:50.909
17.0, 38430.717698421206, 30405.435610465483, 6933.578185269616, 17011.868001445295, 11558.556444472844, 187500.0, -118904.19499924124, 35164.703150356196, 0.498, -0.718, 0.528, 192.0, 0.0, 0.0, 0.0, 0.0, 0.0, 0.0, 0.0, 0.0, 0.0, 1.663581350913834E9, 0.0, 2022-09-19 14:55:50.913
18.0, 38422.64871867284, 30405.569720932213, 6931.65593524646, 17006.28006533147, 11552.208549047537, 187500.0, -118920.82469711598, 35154.980141518135, 0.5, -0.712, 0.526, 192.0, 15.0, 160.0, 233.0, 192.0, 16.0, 112.0, 0.0, 0.0, 0.0, 1.663581350918837E9, 0.0, 2022-09-19 14:55:50.918
19.0, 38415.69732614724, 30393.902110326544, 6933.019391658234, 17005.40834729771, 11550.688630424576, 187500.0, -118928.17842104178, 35147.984045503625, 0.5, -0.712, 0.526, 192.0, 0.0, 0.0, 0.0, 0.0, 0.0, 0.0, 0.0, 0.0, 0.0, 1.6635813509217997E9, 0.0, 2022-09-19 14:55:50.921
20.0, 38424.95094835174, 30391.264604480817, 6934.472255047829, 17015.13135613577, 11562.62446196371, 187500.0, -118902.67508061828, 35161.86447881037, 0.5, -0.712, 0.526, 192.0, 0.0, 0.0, 0.0, 0.0, 0.0, 0.0, 0.0, 0.0, 0.0, 1.663581350925954E9, 0.0, 2022-09-19 14:55:50.925
21.0, 38431.54471296605, 30381.608650876125, 6928.057304389156, 17021.345141094345, 11567.899473655161, 187500.0, -118870.13094069135, 35175.36493246137, 0.5, -0.712, 0.526, 192.0, 0.0, 0.0, 0.0, 0.0, 0.0, 0.0, 0.0, 0.0, 0.0, 1.663581350929886E9, 0.0, 2022-09-19 14:55:50.929
22.0, 38431.276492032586, 30396.427857449995, 6932.37119106903, 17014.349045079834, 11569.24057832248, 187500.0, -118861.79374000953, 35180.61759240837, 0.5, -0.712, 0.526, 192.0, 0.0, 0.0, 0.0, 0.0, 0.0, 0.0, 0.0, 0.0, 0.0, 1.6635813509338615E9, 0.0, 2022-09-19 14:55:50.933
23.0, 38412.679840645775, 30393.902110326544, 6927.3420485665865, 16996.780573937962, 11556.164807816125, 187500.0, -118889.10757173391, 35159.942228787215, 0.5, -0.712, 0.526, 192.0, 0.0, 0.0, 0.0, 0.0, 0.0, 0.0, 0.0, 0.0, 0.0, 1.6635813509378843E9, 0.0, 2022-09-19 14:55:50.937
24.0, 38401.10163701793, 30387.64362187906, 6921.508243263751, 16988.93511163415, 11543.513720454423, 187500.0, -118905.37964169738, 35140.160934944266, 0.5, -0.712, 0.526, 192.0, 0.0, 0.0, 0.0, 0.0, 0.0, 0.0, 0.0, 0.0, 0.0, 1.6635813509419441E9, 0.0, 2022-09-19 14:55:50.941
25.0, 38424.68272741827, 30406.68730815498, 6932.080618391111, 17004.693091475143, 11557.148284572158, 187500.0, -118872.12024594788, 35159.651656109294, 0.5, -0.712, 0.526, 192.0, 0.0, 0.0, 0.0, 0.0, 0.0, 0.0, 0.0, 0.0, 0.0, 1.663581350946884E9, 0.0, 2022-09-19 14:55:50.946
26.0, 38446.296864306554, 30397.992479561864, 6935.411028314952, 17019.80287072693, 11567.47479051051, 187500.0, -118825.42745178074, 35190.16178729079, 0.5, -0.712, 0.526, 192.0, 0.0, 0.0, 0.0, 0.0, 0.0, 0.0, 0.0, 0.0, 0.0, 1.6635813509499457E9, 0.0, 2022-09-19 14:55:50.949
27.0, 38437.98201536918, 30388.157712001528, 6919.94362115188, 17014.08082414637, 11556.611842705232, 187500.0, -118820.57712323393, 35190.11708380188, 0.5, -0.712, 0.526, 192.0, 0.0, 0.0, 0.0, 0.0, 0.0, 0.0, 0.0, 0.0, 0.0, 1.6635813509539113E9, 0.0, 2022-09-19 14:55:50.953
28.0, 38434.04810834505, 30403.87098835361, 6927.967897411335, 17023.4685568176, 11556.81300840533, 187500.0, -118833.36232106238, 35182.49513894262, 0.498, -0.714, 0.528, 192.0, 15.0, 144.0, 233.0, 176.0, 16.0, 128.0, 0.0, 0.0, 0.0, 1.6635813509580443E9, 0.0, 2022-09-19 14:55:50.958
29.0, 38428.10254431993, 30404.653299409547, 6925.777426454714, 17023.289742861958, 11554.443723493066, 187500.0, -118841.87833569985, 35167.31830445746, 0.498, -0.714, 0.528, 192.0, 0.0, 0.0, 0.0, 0.0, 0.0, 0.0, 0.0, 0.0, 0.0, 1.6635813509619412E9, 0.0, 2022-09-19 14:55:50.961
30.0, 38425.48739021867, 30395.533787671782, 6919.183661840399, 17009.431661299666, 11550.398057746657, 187500.0, -118833.78700420703, 35158.55642063099, 0.498, -0.714, 0.528, 192.0, 0.0, 0.0, 0.0, 0.0, 0.0, 0.0, 0.0, 0.0, 0.0, 1.6635813509669137E9, 0.0, 2022-09-19 14:55:50.966
31.0, 38437.60203571344, 30382.10038925414, 6913.528670493206, 16999.976873395073, 11553.594357203765, 187500.0, -118795.3867072328, 35174.94024931672, 0.498, -0.714, 0.528, 192.0, 0.0, 0.0, 0.0, 0.0, 0.0, 0.0, 0.0, 0.0, 0.0, 1.663581350971991E9, 0.0, 2022-09-19 14:55:50.971
32.0, 38438.38434676938, 30391.73399111438, 6919.206013584854, 17006.6153414983, 11551.85092113625, 187500.0, -118785.35077397237, 35181.48931044213, 0.498, -0.714, 0.528, 192.0, 0.0, 0.0, 0.0, 0.0, 0.0, 0.0, 0.0, 0.0, 0.0, 1.6635813509749053E9, 0.0, 2022-09-19 14:55:50.974
33.0, 38431.768230410606, 30399.73591562938, 6920.36830429653, 17000.826239684375, 11546.352392000246, 187500.0, -118800.77347764654, 35170.58165914794, 0.498, -0.714, 0.528, 192.0, 0.0, 0.0, 0.0, 0.0, 0.0, 0.0, 0.0, 0.0, 0.0, 1.6635813509779315E9, 0.0, 2022-09-19 14:55:50.977
34.0, 38425.64385242985, 30406.754363388347, 6932.661763746949, 17010.482193289066, 11548.721676912508, 187500.0, -118816.46440225416, 35154.10842348438, 0.498, -0.714, 0.528, 192.0, 0.0, 0.0, 0.0, 0.0, 0.0, 0.0, 0.0, 0.0, 0.0, 1.6635813509819314E9, 0.0, 2022-09-19 14:55:50.981
35.0, 38427.141419308355, 30396.226691749896, 6938.629679516516, 17019.914629449206, 11552.968508359018, 187500.0, -118810.40707950677, 35148.63224609283, 0.498, -0.714, 0.528, 192.0, 0.0, 0.0, 0.0, 0.0, 0.0, 0.0, 0.0, 0.0, 0.0, 1.6635813509860065E9, 0.0, 2022-09-19 14:55:50.986
36.0, 38437.37851826889, 30400.853502852144, 6929.621926501028, 17013.27616134598, 11557.61767120572, 187500.0, -118778.22056749112, 35159.785766576024, 0.498, -0.714, 0.528, 192.0, 0.0, 0.0, 0.0, 0.0, 0.0, 0.0, 0.0, 0.0, 0.0, 1.6635813509899676E9, 0.0, 2022-09-19 14:55:50.989
37.0, 38436.77502116859, 30397.433685950484, 6921.530595008207, 17005.31894031989, 11555.516607226922, 187500.0, -118765.0330382625, 35162.82560382195, 0.498, -0.714, 0.528, 192.0, 0.0, 0.0, 0.0, 0.0, 0.0, 0.0, 0.0, 0.0, 0.0, 1.6635813509939215E9, 0.0, 2022-09-19 14:55:50.993
38.0, 38426.4708669747, 30381.139264242564, 6934.986345170301, 17026.597801041342, 11565.776057931907, 187500.0, -118780.20987274766, 35153.57198161745, 0.498, -0.71, 0.522, 192.0, 15.0, 144.0, 233.0, 208.0, 16.0, 80.0, 0.0, 0.0, 0.0, 1.663581350998014E9, 0.0, 2022-09-19 14:55:50.998
39.0, 38425.84501812995, 30381.00515377583, 6936.37215332653, 17028.631809786773, 11575.09673536977, 187500.0, -118776.41007619025, 35154.66721709576, 0.498, -0.71, 0.522, 192.0, 0.0, 0.0, 0.0, 0.0, 0.0, 0.0, 0.0, 0.0, 0.0, 1.6635813510010161E9, 0.0, 2022-09-19 14:55:51.001
40.0, 38427.47669547519, 30391.242252736363, 6937.400333571474, 17025.12258590729, 11575.09673536977, 187500.0, -118765.52477664052, 35149.43690889322, 0.498, -0.71, 0.522, 192.0, 0.0, 0.0, 0.0, 0.0, 0.0, 0.0, 0.0, 0.0, 0.0, 1.6635813510049636E9, 0.0, 2022-09-19 14:55:51.004
41.0, 38437.40087001334, 30398.238348750874, 6939.657859761461, 17018.79704222644, 11579.72354647202, 187500.0, -118735.86401174833, 35155.91891478526, 0.498, -0.71, 0.522, 192.0, 0.0, 0.0, 0.0, 0.0, 0.0, 0.0, 0.0, 0.0, 0.0, 1.663581351009012E9, 0.0, 2022-09-19 14:55:51.009
42.0, 38436.70796593523, 30399.758267373832, 6928.794911956181, 17019.467594560097, 11575.700232470064, 187500.0, -118722.31885460841, 35157.1482607303, 0.498, -0.71, 0.522, 192.0, 0.0, 0.0, 0.0, 0.0, 0.0, 0.0, 0.0, 0.0, 0.0, 1.6635813510139885E9, 0.0, 2022-09-19 14:55:51.013
43.0, 38425.30857626302, 30400.987613318877, 6929.353705567563, 17033.32567612239, 11575.47671502551, 187500.0, -118738.05448270495, 35144.89950476879, 0.498, -0.71, 0.522, 192.0, 0.0, 0.0, 0.0, 0.0, 0.0, 0.0, 0.0, 0.0, 0.0, 1.6635813510181162E9, 0.0, 2022-09-19 14:55:51.018
44.0, 38434.562198467516, 30408.073116311207, 6933.600537014072, 17039.405350614234, 11588.843058209784, 187500.0, -118728.10795642233, 35155.449528151694, 0.498, -0.71, 0.522, 192.0, 0.0, 0.0, 0.0, 0.0, 0.0, 0.0, 0.0, 0.0, 0.0, 1.6635813510219884E9, 0.0, 2022-09-19 14:55:51.021
45.0, 38435.120992078904, 30395.667898138512, 6926.336220066098, 17033.54919356694, 11593.20164837857, 187500.0, -118706.65028174524, 35163.294990455506, 0.498, -0.71, 0.522, 192.0, 0.0, 0.0, 0.0, 0.0, 0.0, 0.0, 0.0, 0.0, 0.0, 1.6635813510260117E9, 0.0, 2022-09-19 14:55:51.026
46.0, 38429.44364898725, 30387.353049201138, 6916.054417616656, 17017.724158492587, 11586.183200619604, 187500.0, -118689.99823212603, 35154.421347906755, 0.498, -0.71, 0.522, 192.0, 0.0, 0.0, 0.0, 0.0, 0.0, 0.0, 0.0, 0.0, 0.0, 1.6635813510290112E9, 0.0, 2022-09-19 14:55:51.029
47.0, 38425.956776852225, 30393.276261481795, 6904.967952366824, 17000.69212921764, 11581.86931393973, 187500.0, -118682.68921168915, 35149.749833315596, 0.498, -0.71, 0.522, 192.0, 0.0, 0.0, 0.0, 0.0, 0.0, 0.0, 0.0, 0.0, 0.0, 1.6635813510331187E9, 0.0, 2022-09-19 14:55:51.033
48.0, 38429.28718677607, 30394.63971789357, 6918.200185084365, 17028.810623742418, 11594.945084446083, 187500.0, -118687.18191232467, 35156.00832176308, 0.498, -0.708, 0.53, 192.0, 15.0, 144.0, 233.0, 224.0, 16.0, 144.0, 0.0, 0.0, 0.0, 1.66358135103709E9, 0.0, 2022-09-19 14:55:51.037
49.0, 38419.65358491583, 30387.598918390147, 6922.51407176424, 17031.604591799332, 11591.972302433527, 187500.0, -118708.75134572404, 35137.94811224319, 0.498, -0.708, 0.53, 192.0, 0.0, 0.0, 0.0, 0.0, 0.0, 0.0, 0.0, 0.0, 0.0, 1.6635813510420208E9, 0.0, 2022-09-19 14:55:51.042
50.0, 38428.057840831025, 30394.30444172674, 6919.831862429603, 17020.875754460783, 11591.01117742195, 187500.0, -118693.06042111642, 35140.40680413327, 0.498, -0.708, 0.53, 192.0, 0.0, 0.0, 0.0, 0.0, 0.0, 0.0, 0.0, 0.0, 0.0, 1.6635813510461278E9, 0.0, 2022-09-19 14:55:51.046
51.0, 38447.43680327378, 30407.73784014438, 6925.6433159879825, 17033.61624880031, 11600.644779282187, 187500.0, -118651.24030724053, 35163.67497011125, 0.498, -0.708, 0.53, 192.0, 0.0, 0.0, 0.0, 0.0, 0.0, 0.0, 0.0, 0.0, 0.0, 1.6635813510500891E9, 0.0, 2022-09-19 14:55:51.050
52.0, 38451.28130332009, 30409.146000045064, 6926.358571810552, 17039.874737247796, 11605.96449446255, 187500.0, -118632.26367619798, 35179.0529702965, 0.498, -0.708, 0.53, 192.0, 0.0, 0.0, 0.0, 0.0, 0.0, 0.0, 0.0, 0.0, 0.0, 1.6635813510541046E9, 0.0, 2022-09-19 14:55:51.054
53.0, 38443.34643403845, 30409.39186923407, 6922.782292697703, 17034.644429045253, 11597.67199726963, 187500.0, -118645.27239147096, 35172.794481849014, 0.498, -0.708, 0.53, 192.0, 0.0, 0.0, 0.0, 0.0, 0.0, 0.0, 0.0, 0.0, 0.0, 1.663581351057134E9, 0.0, 2022-09-19 14:55:51.057
54.0, 38428.43782048677, 30398.864197595623, 6924.995115398779, 17019.445242815644, 11583.255122095958, 187500.0, -118671.64744992822, 35150.44273739371, 0.498, -0.708, 0.53, 192.0, 0.0, 0.0, 0.0, 0.0, 0.0, 0.0, 0.0, 0.0, 0.0, 1.6635813510611153E9, 0.0, 2022-09-19 14:55:51.061
55.0, 38430.024794343095, 30401.546406930258, 6929.934850923401, 17020.071091660393, 11583.366880818234, 187500.0, -118669.70284816061, 35148.76635655956, 0.498, -0.708, 0.53, 192.0, 0.0, 0.0, 0.0, 0.0, 0.0, 0.0, 0.0, 0.0, 0.0, 1.663581351065146E9, 0.0, 2022-09-19 14:55:51.065
56.0, 38442.58647472697, 30392.739819614868, 6932.304135835664, 17028.542402808955, 11590.742956488486, 187500.0, -118635.61643786627, 35167.85474632439, 0.498, -0.708, 0.53, 192.0, 0.0, 0.0, 0.0, 0.0, 0.0, 0.0, 0.0, 0.0, 0.0, 1.663581351069134E9, 0.0, 2022-09-19 14:55:51.069
57.0, 38451.72833820919, 30391.35401145864, 6933.0417434026895, 17040.254716903535, 11603.036415938905, 187500.0, -118611.56596083236, 35189.580641934954, 0.498, -0.708, 0.53, 192.0, 0.0, 0.0, 0.0, 0.0, 0.0, 0.0, 0.0, 0.0, 0.0, 1.6635813510741668E9, 0.0, 2022-09-19 14:55:51.074
58.0, 38446.52038175111, 30409.660090167534, 6943.211787129854, 17047.653144318243, 11609.361959619757, 187500.0, -118634.18592622114, 35179.83528135244, 0.504, -0.72, 0.532, 192.0, 15.0, 192.0, 233.0, 128.0, 16.0, 160.0, 0.0, 0.0, 0.0, 1.6635813510781686E9, 0.0, 2022-09-19 14:55:51.078
59.0, 38423.94511985125, 30405.12268604311, 6944.70935400836, 17025.055530673926, 11597.739052502997, 187500.0, -118676.83305464186, 35143.2454756791, 0.504, -0.72, 0.532, 192.0, 0.0, 0.0, 0.0, 0.0, 0.0, 0.0, 0.0, 0.0, 0.0, 1.6635813510821624E9, 0.0, 2022-09-19 14:55:51.082
60.0, 38426.515570463605, 30384.40261893304, 6939.501397550273, 17019.534649793466, 11601.58355254931, 187500.0, -118670.37340049427, 35145.123022213345, 0.504, -0.72, 0.532, 192.0, 0.0, 0.0, 0.0, 0.0, 0.0, 0.0, 0.0, 0.0, 0.0, 1.663581351085146E9, 0.0, 2022-09-19 14:55:51.085
61.0, 38429.84598038745, 30369.58341235917, 6935.27691784822, 17031.71635052161, 11604.15400316167, 187500.0, -118650.68151362916, 35157.282371197034, 0.504, -0.72, 0.532, 192.0, 0.0, 0.0, 0.0, 0.0, 0.0, 0.0, 0.0, 0.0, 0.0, 1.6635813510892346E9, 0.0, 2022-09-19 14:55:51.089
62.0, 38427.47669547519, 30371.036275748764, 6940.3731155840305, 17036.343161623856, 11607.77498576343, 187500.0, -118648.89337407272, 35158.8469933089, 0.504, -0.72, 0.532, 192.0, 0.0, 0.0, 0.0, 0.0, 0.0, 0.0, 0.0, 0.0, 0.0, 1.6635813510931776E9, 0.0, 2022-09-19 14:55:51.093
63.0, 38423.520436706596, 30378.457054907925, 6948.084467421111, 17040.36647562581, 11608.266724141446, 187500.0, -118672.94385110664, 35151.73913857211, 0.504, -0.72, 0.532, 192.0, 0.0, 0.0, 0.0, 0.0, 0.0, 0.0, 0.0, 0.0, 0.0, 1.6635813510971572E9, 0.0, 2022-09-19 14:55:51.097
64.0, 38420.52530294959, 30367.05766523572, 6952.4654093343515, 17031.783405754974, 11603.706968272563, 187500.0, -118689.8641216593, 35145.01126349107, 0.504, -0.72, 0.532, 192.0, 0.0, 0.0, 0.0, 0.0, 0.0, 0.0, 0.0, 0.0, 0.0, 1.6635813511021988E9, 0.0, 2022-09-19 14:55:51.102
65.0, 38423.453381473235, 30369.561060614713, 6953.359479112563, 17026.888373719263, 11602.902305472173, 187500.0, -118690.89230190424, 35145.9947402471, 0.504, -0.72, 0.532, 192.0, 0.0, 0.0, 0.0, 0.0, 0.0, 0.0, 0.0, 0.0, 0.0, 1.6635813511062045E9, 0.0, 2022-09-19 14:55:51.106
66.0, 38442.40766077133, 30401.322889485706, 6952.577168056628, 17036.298458134945, 11616.402759123179, 187500.0, -118661.23153701205, 35167.631228879836, 0.504, -0.72, 0.532, 192.0, 0.0, 0.0, 0.0, 0.0, 0.0, 0.0, 0.0, 0.0, 0.0, 1.6635813511101708E9, 0.0, 2022-09-19 14:55:51.110
67.0, 38436.48444849068, 30403.133380786585, 6943.927042952424, 17027.827146986383, 11609.183145664114, 187500.0, -118658.16934802168, 35171.2522114816, 0.504, -0.72, 0.532, 192.0, 0.0, 0.0, 0.0, 0.0, 0.0, 0.0, 0.0, 0.0, 0.0, 1.6635813511131496E9, 0.0, 2022-09-19 14:55:51.113
68.0, 38418.915977348806, 30403.40160172005, 6946.095162164589, 17026.620152785796, 11600.242447881992, 187500.0, -118696.63670022925, 35151.60502810538, 0.498, -0.716, 0.53, 192.0, 15.0, 144.0, 233.0, 160.0, 16.0, 144.0, 0.0, 0.0, 0.0, 1.6635813511172168E9, 0.0, 2022-09-19 14:55:51.117
69.0, 38419.02773607108, 30407.916654100023, 6945.6034237865715, 17031.381074354777, 11604.936314217606, 187500.0, -118714.51809579351, 35151.49326938311, 0.498, -0.716, 0.53, 192.0, 0.0, 0.0, 0.0, 0.0, 0.0, 0.0, 0.0, 0.0, 0.0, 1.6635813511222498E9, 0.0, 2022-09-19 14:55:51.122
70.0, 38418.31248024851, 30403.66982265351, 6946.810417987159, 17026.888373719263, 11606.858564240762, 187500.0, -118723.05646217543, 35146.06179548047, 0.498, -0.716, 0.53, 192.0, 0.0, 0.0, 0.0, 0.0, 0.0, 0.0, 0.0, 0.0, 0.0, 1.6635813511272771E9, 0.0, 2022-09-19 14:55:51.127
71.0, 38424.3698029959, 30400.62998540759, 6946.430438331418, 17014.66196950221, 11611.239506154003, 187500.0, -118707.61140675681, 35154.421347906755, 0.498, -0.716, 0.53, 192.0, 0.0, 0.0, 0.0, 0.0, 0.0, 0.0, 0.0, 0.0, 0.0, 1.6635813511302202E9, 0.0, 2022-09-19 14:55:51.130
72.0, 38419.13949479336, 30402.239311008372, 6941.6695167624375, 16998.07697511637, 11601.181221149114, 187500.0, -118707.3655375678, 35157.03650200802, 0.498, -0.716, 0.53, 192.0, 0.0, 0.0, 0.0, 0.0, 0.0, 0.0, 0.0, 0.0, 0.0, 1.6635813511342833E9, 0.0, 2022-09-19 14:55:51.134
73.0, 38413.68566914626, 30422.64645369607, 6944.441133074896, 17004.290760074946, 11593.693386756586, 187500.0, -118731.10309017934, 35147.13467921432, 0.498, -0.716, 0.53, 192.0, 0.0, 0.0, 0.0, 0.0, 0.0, 0.0, 0.0, 0.0, 0.0, 1.6635813511373065E9, 0.0, 2022-09-19 14:55:51.137
74.0, 38419.251253515635, 30419.24898853886, 6955.70641228037, 17026.709559763618, 11598.677825770119, 187500.0, -118746.83871827587, 35146.08414722492, 0.498, -0.716, 0.53, 192.0, 0.0, 0.0, 0.0, 0.0, 0.0, 0.0, 0.0, 0.0, 0.0, 1.6635813511412337E9, 0.0, 2022-09-19 14:55:51.141
75.0, 38422.93929135076, 30407.02258432181, 6956.868702992047, 17035.113815678815, 11598.834287981306, 187500.0, -118752.27019217852, 35148.16285945927, 0.498, -0.716, 0.53, 192.0, 0.0, 0.0, 0.0, 0.0, 0.0, 0.0, 0.0, 0.0, 0.0, 1.6635813511452823E9, 0.0, 2022-09-19 14:55:51.145
76.0, 38431.67882343278, 30401.121723785607, 6955.527598324728, 17032.453958088634, 11601.963532205049, 187500.0, -118736.35575012634, 35157.75175783059, 0.498, -0.716, 0.53, 192.0, 0.0, 0.0, 0.0, 0.0, 0.0, 0.0, 0.0, 0.0, 0.0, 1.6635813511493444E9, 0.0, 2022-09-19 14:55:51.149
77.0, 38432.84111414446, 30397.567796417214, 6952.6442232899935, 17030.777577254485, 11599.81776473734, 187500.0, -118727.07977617739, 35164.0996532559, 0.498, -0.716, 0.53, 192.0, 0.0, 0.0, 0.0, 0.0, 0.0, 0.0, 0.0, 0.0, 0.0, 1.6635813511532912E9, 0.0, 2022-09-19 14:55:51.153
78.0, 38422.44755297274, 30390.9740318029, 6949.403220343974, 17031.872812732796, 11594.788622234897, 187500.0, -118752.20313694516, 35155.13660372932, 0.496, -0.712, 0.532, 192.0, 15.0, 128.0, 233.0, 192.0, 16.0, 160.0, 0.0, 0.0, 0.0, 1.6635813511572907E9, 0.0, 2022-09-19 14:55:51.157
79.0, 38425.062707074016, 30407.044936066264, 6954.5217698242395, 17042.959277982627, 11603.483450828011, 187500.0, -118763.31195393944, 35161.66331311027, 0.496, -0.712, 0.532, 192.0, 0.0, 0.0, 0.0, 0.0, 0.0, 0.0, 0.0, 0.0, 0.0, 1.663581351162252E9, 0.0, 2022-09-19 14:55:51.162
80.0, 38417.440762214756, 30408.184875033487, 6954.767639013248, 17030.4199493432, 11595.52622980192, 187500.0, -118783.67439313822, 35148.252266437084, 0.496, -0.712, 0.532, 192.0, 0.0, 0.0, 0.0, 0.0, 0.0, 0.0, 0.0, 0.0, 0.0, 1.663581351165396E9, 0.0, 2022-09-19 14:55:51.165
81.0, 38420.65941341632, 30400.674688896503, 6945.491665064295, 17014.28198984647, 11586.831401208807, 187500.0, -118784.45670419416, 35141.32322565594, 0.496, -0.712, 0.532, 192.0, 0.0, 0.0, 0.0, 0.0, 0.0, 0.0, 0.0, 0.0, 0.0, 1.6635813511693037E9, 0.0, 2022-09-19 14:55:51.169
82.0, 38426.04618383005, 30401.077020296696, 6938.115589394044, 17013.074995645882, 11589.535962287899, 187500.0, -118777.55001515747, 35147.40290014778, 0.496, -0.712, 0.532, 192.0, 0.0, 0.0, 0.0, 0.0, 0.0, 0.0, 0.0, 0.0, 0.0, 1.663581351173278E9, 0.0, 2022-09-19 14:55:51.173
83.0, 38414.22211101319, 30392.248081236852, 6927.0514758886675, 17004.514277519498, 11581.623444750721, 187500.0, -118803.1874660477, 35137.97046398764, 0.496, -0.712, 0.532, 192.0, 0.0, 0.0, 0.0, 0.0, 0.0, 0.0, 0.0, 0.0, 0.0, 1.6635813511773582E9, 0.0, 2022-09-19 14:55:51.177
84.0, 38418.44659071524, 30395.802008605246, 6942.831807474114, 17027.38011209728, 11594.319235601335, 187500.0, -118820.30890230047, 35141.25617042257, 0.496, -0.712, 0.532, 192.0, 0.0, 0.0, 0.0, 0.0, 0.0, 0.0, 0.0, 0.0, 0.0, 1.663581351181415E9, 0.0, 2022-09-19 14:55:51.181
85.0, 38418.93832909326, 30385.16257824452, 6939.791970228192, 17019.109966648815, 11595.168601890637, 187500.0, -118830.546001261, 35138.93158899922, 0.496, -0.712, 0.532, 192.0, 0.0, 0.0, 0.0, 0.0, 0.0, 0.0, 0.0, 0.0, 0.0, 1.6635813511853387E9, 0.0, 2022-09-19 14:55:51.185
86.0, 38422.84988437294, 30373.807892061224, 6934.673420747927, 17017.12066139229, 11595.325064101824, 187500.0, -118821.73941394562, 35144.38541464632, 0.496, -0.712, 0.532, 192.0, 0.0, 0.0, 0.0, 0.0, 0.0, 0.0, 0.0, 0.0, 0.0, 1.663581351189374E9, 0.0, 2022-09-19 14:55:51.189
87.0, 38432.12585832189, 30391.801046347744, 6942.362420840553, 17027.625981286285, 11601.360035104757, 187500.0, -118805.75791666006, 35158.24349620861, 0.496, -0.712, 0.532, 192.0, 0.0, 0.0, 0.0, 0.0, 0.0, 0.0, 0.0, 0.0, 0.0, 1.6635813511943848E9, 0.0, 2022-09-19 14:55:51.194
88.0, 38422.805180884025, 30408.229578522394, 6958.500380337284, 17035.13616742327, 11598.409604836655, 187500.0, -118835.01635015207, 35146.3970716473, 0.496, -0.712, 0.532, 192.0, 0.0, 0.0, 0.0, 0.0, 0.0, 0.0, 0.0, 0.0, 0.0, 1.6635813511974032E9, 0.0, 2022-09-19 14:55:51.197
89.0, 38405.348468464435, 30392.15867425903, 6953.739458768304, 17023.669722517698, 11581.846962195274, 187500.0, -118884.70427807621, 35116.53514105501, 0.504, -0.714, 0.534, 192.0, 15.0, 192.0, 233.0, 176.0, 16.0, 176.0, 0.0, 0.0, 0.0, 1.6635813512023933E9, 0.0, 2022-09-19 14:55:51.202
90.0, 38405.773151609086, 30387.6212701346, 6944.597595286084, 17025.189641140656, 11578.941235416083, 187500.0, -118896.77422008208, 35113.65176602027, 0.504, -0.714, 0.534, 192.0, 0.0, 0.0, 0.0, 0.0, 0.0, 0.0, 0.0, 0.0, 0.0, 1.6635813512063577E9, 0.0, 2022-09-19 14:55:51.206
91.0, 38416.27847150308, 30392.76217135932, 6948.956185454868, 17030.26348713201, 11589.49125879899, 187500.0, -118879.04928672902, 35129.07446969443, 0.504, -0.714, 0.534, 192.0, 0.0, 0.0, 0.0, 0.0, 0.0, 0.0, 0.0, 0.0, 0.0, 1.6635813512093804E9, 0.0, 2022-09-19 14:55:51.209
92.0, 38420.48059946068, 30401.300537741252, 6953.068906434644, 17026.195469641145, 11598.3872530922, 187500.0, -118865.88410924484, 35136.36113838686, 0.504, -0.714, 0.534, 192.0, 0.0, 0.0, 0.0, 0.0, 0.0, 0.0, 0.0, 0.0, 0.0, 1.6635813512154274E9, 0.0, 2022-09-19 14:55:51.215
93.0, 38407.851863843425, 30397.54544467276, 6949.917310466446, 17028.810623742418, 11594.162773390148, 187500.0, -118889.75577232311, 35122.77127775804, 0.504, -0.714, 0.534, 192.0, 0.0, 0.0, 0.0, 0.0, 0.0, 0.0, 0.0, 0.0, 0.0, 1.6635813512184167E9, 0.0, 2022-09-19 14:55:51.218
94.0, 38399.58171839496, 30388.381229446084, 6948.106819165567, 17035.203222656637, 11590.474735555023, 187500.0, -118923.73042389518, 35107.34857408387, 0.504, -0.714, 0.534, 192.0, 0.0, 0.0, 0.0, 0.0, 0.0, 0.0, 0.0, 0.0, 0.0, 1.6635813512214167E9, 0.0, 2022-09-19 14:55:51.221
95.0, 38404.65556438632, 30390.05761028023, 6952.398354100986, 17034.13033892278, 11594.430994323611, 187500.0, -118934.81688914502, 35106.16393162774, 0.504, -0.714, 0.534, 192.0, 0.0, 0.0, 0.0, 0.0, 0.0, 0.0, 0.0, 0.0, 0.0, 1.6635813512254255E9, 0.0, 2022-09-19 14:55:51.225
96.0, 38408.99180281065, 30392.96333705942, 6945.379906342019, 17030.79992899894, 11597.090851913794, 187500.0, -118924.57979018448, 35113.00356543107, 0.504, -0.714, 0.534, 192.0, 0.0, 0.0, 0.0, 0.0, 0.0, 0.0, 0.0, 0.0, 0.0, 1.6635813512294383E9, 0.0, 2022-09-19 14:55:51.229
97.0, 38422.067573317, 30408.16252328903, 6943.435304574407, 17039.047722702948, 11601.538849060398, 187500.0, -118911.52637142259, 35123.173609158235, 0.504, -0.714, 0.534, 192.0, 0.0, 0.0, 0.0, 0.0, 0.0, 0.0, 0.0, 0.0, 0.0, 1.6635813512334406E9, 0.0, 2022-09-19 14:55:51.233
98.0, 38413.68566914626, 30400.942909829966, 6946.050458675678, 17042.668705304706, 11595.883857713206, 187500.0, -118937.47674673519, 35113.3388415979, 0.504, -0.714, 0.534, 192.0, 0.0, 0.0, 0.0, 0.0, 0.0, 0.0, 0.0, 0.0, 0.0, 1.6635813512374096E9, 0.0, 2022-09-19 14:55:51.237
99.0, 38404.856730086416, 30402.39577321956, 6946.028106931223, 17053.352839154344, 11595.392119335189, 187500.0, -118968.76918897263, 35101.648879247776, 0.504, -0.716, 0.524, 192.0, 15.0, 192.0, 233.0, 160.0, 16.0, 96.0, 0.0, 0.0, 0.0, 1.6635813512414727E9, 0.0, 2022-09-19 14:55:51.241
100.0, 38406.28724173156, 30400.182950518487, 6946.162217397955, 17054.582185099385, 11599.303674614868, 187500.0, -118977.5310727991, 35102.72176298163, 0.504, -0.716, 0.524, 192.0, 0.0, 0.0, 0.0, 0.0, 0.0, 0.0, 0.0, 0.0, 0.0, 1.6635813512464912E9, 0.0, 2022-09-19 14:55:51.246
101.0, 38415.65262265833, 30395.354973716137, 6940.686040006404, 17045.619135572808, 11601.427090338122, 187500.0, -118963.29301158107, 35115.90929221026, 0.504, -0.716, 0.524, 192.0, 0.0, 0.0, 0.0, 0.0, 0.0, 0.0, 0.0, 0.0, 0.0, 1.6635813512494996E9, 0.0, 2022-09-19 14:55:51.249
102.0, 38412.121047034394, 30390.52699691379, 6932.684115491405, 17037.013713957516, 11592.15111638917, 187500.0, -118961.25900283564, 35114.45642882066, 0.504, -0.716, 0.524, 192.0, 0.0, 0.0, 0.0, 0.0, 0.0, 0.0, 0.0, 0.0, 0.0, 1.6635813512535129E9, 0.0, 2022-09-19 14:55:51.253
103.0, 38402.822721340985, 30398.953604573442, 6936.819188215636, 17035.113815678815, 11584.037433151894, 187500.0, -118988.99751770467, 35104.82282696043, 0.504, -0.716, 0.524, 192.0, 0.0, 0.0, 0.0, 0.0, 0.0, 0.0, 0.0, 0.0, 0.0, 1.6635813512574708E9, 0.0, 2022-09-19 14:55:51.257
104.0, 38391.73625609115, 30391.53282541428, 6936.1486358819775, 17032.90099297774, 11587.09962214227, 187500.0, -119022.7486518322, 35095.65861173375, 0.504, -0.716, 0.524, 192.0, 0.0, 0.0, 0.0, 0.0, 0.0, 0.0, 0.0, 0.0, 0.0, 1.6635813512614965E9, 0.0, 2022-09-19 14:55:51.261
105.0, 38389.14345373434, 30370.700999581935, 6940.864853962047, 17036.43256860168, 11594.363939090246, 187500.0, -119040.00419855169, 35092.9316989102, 0.504, -0.716, 0.524, 192.0, 0.0, 0.0, 0.0, 0.0, 0.0, 0.0, 0.0, 0.0, 0.0, 1.6635813512654867E9, 0.0, 2022-09-19 14:55:51.265
106.0, 38396.20660498221, 30383.419142177005, 6936.75213298227, 17030.75522551003, 11597.91786645864, 187500.0, -119031.93521880332, 35096.820902445426, 0.504, -0.716, 0.524, 192.0, 0.0, 0.0, 0.0, 0.0, 0.0, 0.0, 0.0, 0.0, 0.0, 1.6635813512695992E9, 0.0, 2022-09-19 14:55:51.269
107.0, 38407.69540163224, 30393.857406837633, 6933.958164925357, 17031.112853421313, 11600.242447881992, 187500.0, -119017.27247444064, 35106.722725239124, 0.504, -0.716, 0.524, 192.0, 0.0, 0.0, 0.0, 0.0, 0.0, 0.0, 0.0, 0.0, 0.0, 1.663581351273452E9, 0.0, 2022-09-19 14:55:51.273
108.0, 38410.578776666975, 30386.458979422925, 6938.719086494338, 17035.337333123367, 11598.29784611438, 187500.0, -119026.21317222276, 35112.9365101977, 0.504, -0.716, 0.524, 192.0, 0.0, 0.0, 0.0, 0.0, 0.0, 0.0, 0.0, 0.0, 0.0, 1.663581351276507E9, 0.0, 2022-09-19 14:55:51.276
109.0, 38400.654602128816, 30379.887566553065, 6936.863891704547, 17031.917516221703, 11592.508744300456, 187500.0, -119054.71164640327, 35105.80630371646, 0.506, -0.718, 0.516, 192.0, 15.0, 208.0, 233.0, 144.0, 16.0, 32.0, 0.0, 0.0, 0.0, 1.6635813512804978E9, 0.0, 2022-09-19 14:55:51.280
110.0, 38399.93934630625, 30385.58726138917, 6938.428513816419, 17044.121568694303, 11591.77113673343, 187500.0, -119074.1576640794, 35098.60904200185, 0.506, -0.718, 0.516, 192.0, 0.0, 0.0, 0.0, 0.0, 0.0, 0.0, 0.0, 0.0, 0.0, 1.6635813512855396E9, 0.0, 2022-09-19 14:55:51.285
111.0, 38409.885872588864, 30392.62806089259, 6934.136978881, 17053.643411832265, 11594.3862908347, 187500.0, -119071.78837916713, 35100.46423679164, 0.506, -0.718, 0.516, 192.0, 0.0, 0.0, 0.0, 0.0, 0.0, 0.0, 0.0, 0.0, 0.0, 1.6635813512905142E9, 0.0, 2022-09-19 14:55:51.290
112.0, 38423.00634658412, 30387.464807923414, 6927.006772399756, 17054.403371143744, 11594.945084446083, 187500.0, -119057.41620748237, 35111.66246076375, 0.506, -0.718, 0.516, 192.0, 0.0, 0.0, 0.0, 0.0, 0.0, 0.0, 0.0, 0.0, 0.0, 1.663581351294533E9, 0.0, 2022-09-19 14:55:51.294
113.0, 38432.03645134407, 30390.34818295815, 6930.717161979337, 17062.76292357003, 11598.074328669827, 187500.0, -119064.03232384114, 35119.37381260083, 0.506, -0.718, 0.516, 192.0, 0.0, 0.0, 0.0, 0.0, 0.0, 0.0, 0.0, 0.0, 0.0, 1.6635813512984917E9, 0.0, 2022-09-19 14:55:51.298
114.0, 38425.755611152126, 30387.308345712227, 6933.958164925357, 17058.359629912335, 11593.268703611935, 187500.0, -119096.35294632352, 35109.248472362575, 0.506, -0.718, 0.516, 192.0, 0.0, 0.0, 0.0, 0.0, 0.0, 0.0, 0.0, 0.0, 0.0, 1.6635813513015397E9, 0.0, 2022-09-19 14:55:51.301
115.0, 38419.92180584929, 30384.246156721852, 6943.480008063318, 17051.832920531382, 11594.073366412327, 187500.0, -119117.45299308932, 35098.31846932393, 0.506, -0.718, 0.516, 192.0, 0.0, 0.0, 0.0, 0.0, 0.0, 0.0, 0.0, 0.0, 0.0, 1.663581351304554E9, 0.0, 2022-09-19 14:55:51.304
116.0, 38419.85475061593, 30373.360857172116, 6940.686040006404, 17043.383961127278, 11592.106412900259, 187500.0, -119119.12937392347, 35091.85881517635, 0.506, -0.718, 0.516, 192.0, 0.0, 0.0, 0.0, 0.0, 0.0, 0.0, 0.0, 0.0, 0.0, 1.6635813513084948E9, 0.0, 2022-09-19 14:55:51.308
117.0, 38431.41060249932, 30370.522185626294, 6946.318679609142, 17049.955373997138, 11600.443613582089, 187500.0, -119101.7620684817, 35104.576957771416, 0.506, -0.718, 0.516, 192.0, 0.0, 0.0, 0.0, 0.0, 0.0, 0.0, 0.0, 0.0, 0.0, 1.6635813513135471E9, 0.0, 2022-09-19 14:55:51.313
118.0, 38436.12682057939, 30379.351124686138, 6945.871644720036, 17049.865967019316, 11602.991712449993, 187500.0, -119106.65710051742, 35111.14837064128, 0.506, -0.718, 0.516, 192.0, 0.0, 0.0, 0.0, 0.0, 0.0, 0.0, 0.0, 0.0, 0.0, 1.6635813513175783E9, 0.0, 2022-09-19 14:55:51.317
119.0, 38419.20655002672, 30377.048895007243, 6935.813359715147, 17047.831958273884, 11593.425165823122, 187500.0, -119146.10792948103, 35092.88699542129, 0.516, -0.72, 0.518, 192.0, 16.0, 32.0, 233.0, 128.0, 16.0, 48.0, 0.0, 0.0, 0.0, 1.6635813513215256E9, 0.0, 2022-09-19 14:55:51.321
120.0, 38413.2162825127, 30363.324923911685, 6934.695772492382, 17043.65218206074, 11590.407680321656, 187500.0, -119167.31973496912, 35082.761655183036, 0.516, -0.72, 0.518, 192.0, 0.0, 0.0, 0.0, 0.0, 0.0, 0.0, 0.0, 0.0, 0.0, 1.6635813513256924E9, 0.0, 2022-09-19 14:55:51.325
121.0, 38416.18906452526, 30368.622287347593, 6929.3984090564745, 17034.59972555634, 11585.758517474953, 187500.0, -119168.01263904723, 35082.3816755273, 0.516, -0.72, 0.518, 192.0, 0.0, 0.0, 0.0, 0.0, 0.0, 0.0, 0.0, 0.0, 0.0, 1.663581351328578E9, 0.0, 2022-09-19 14:55:51.328
122.0, 38429.600111198444, 30390.39288644706, 6936.3274498376195, 17037.259583146522, 11591.748784988975, 187500.0, -119154.28866795167, 35093.311678565944, 0.516, -0.72, 0.518, 192.0, 0.0, 0.0, 0.0, 0.0, 0.0, 0.0, 0.0, 0.0, 0.0, 1.6635813513326783E9, 0.0, 2022-09-19 14:55:51.332
123.0, 38437.08794559097, 30388.604746890636, 6941.110723151055, 17043.518071594008, 11596.107375157759, 187500.0, -119164.41400818992, 35094.27280357752, 0.516, -0.72, 0.518, 192.0, 0.0, 0.0, 0.0, 0.0, 0.0, 0.0, 0.0, 0.0, 0.0, 1.6635813513366673E9, 0.0, 2022-09-19 14:55:51.336
124.0, 38432.03645134407, 30382.189796231964, 6938.652031260972, 17045.797949528453, 11596.4873548135, 187500.0, -119193.87360738202, 35087.63433547429, 0.516, -0.72, 0.518, 192.0, 0.0, 0.0, 0.0, 0.0, 0.0, 0.0, 0.0, 0.0, 0.0, 1.6635813513408048E9, 0.0, 2022-09-19 14:55:51.340
125.0, 38426.739087908165, 30392.672764381503, 6934.22638585882, 17035.292629634456, 11589.021872165427, 187500.0, -119216.35946230406, 35076.681980691195, 0.516, -0.72, 0.518, 192.0, 0.0, 0.0, 0.0, 0.0, 0.0, 0.0, 0.0, 0.0, 0.0, 1.6635813513456836E9, 0.0, 2022-09-19 14:55:51.345
126.0, 38436.64091070186, 30406.30732849924, 6932.728818980315, 17029.637638287262, 11588.664244254142, 187500.0, -119209.09514535608, 35083.36515228333, 0.516, -0.72, 0.518, 192.0, 0.0, 0.0, 0.0, 0.0, 0.0, 0.0, 0.0, 0.0, 0.0, 1.663581351349656E9, 0.0, 2022-09-19 14:55:51.349
127.0, 38459.68555923529, 30414.577473947702, 6945.6034237865715, 17056.75030431155, 11606.992674707493, 187500.0, -119180.10493279755, 35110.433114818705, 0.516, -0.72, 0.518, 192.0, 0.0, 0.0, 0.0, 0.0, 0.0, 0.0, 0.0, 0.0, 0.0, 1.6635813513536973E9, 0.0, 2022-09-19 14:55:51.353
128.0, 38458.43386154579, 30405.50266569885, 6940.306060350664, 17057.465560134122, 11610.077215442327, 187500.0, -119186.1846072894, 35116.89276896629, 0.516, -0.72, 0.518, 192.0, 0.0, 0.0, 0.0, 0.0, 0.0, 0.0, 0.0, 0.0, 0.0, 1.663581351356834E9, 0.0, 2022-09-19 14:55:51.356
129.0, 38441.64770145985, 30392.53865391477, 6942.630641774016, 17056.727952567097, 11603.371692105735, 187500.0, -119229.05525315467, 35097.446751290176, 0.508, -0.718, 0.514, 192.0, 15.0, 224.0, 233.0, 144.0, 16.0, 16.0, 0.0, 0.0, 0.0, 1.6635813513606913E9, 0.0, 2022-09-19 14:55:51.360
130.0, 38439.90426539234, 30391.219900991906, 6949.313813366153, 17062.94173752567, 11601.471793827033, 187500.0, -119249.12711967554, 35093.28932682149, 0.508, -0.718, 0.514, 192.0, 0.0, 0.0, 0.0, 0.0, 0.0, 0.0, 0.0, 0.0, 0.0, 1.6635813513666284E9, 0.0, 2022-09-19 14:55:51.366
131.0, 38444.978111383694, 30391.421066692004, 6944.888167964002, 17052.45876937613, 11603.595209550287, 187500.0, -119242.93568646142, 35102.87822519281, 0.508, -0.718, 0.514, 192.0, 0.0, 0.0, 0.0, 0.0, 0.0, 0.0, 0.0, 0.0, 0.0, 1.6635813513697395E9, 0.0, 2022-09-19 14:55:51.369
132.0, 38448.15205909635, 30391.085790525176, 6936.260394604254, 17041.394655870754, 11605.673921784632, 187500.0, -119225.92600893092, 35113.40589683127, 0.508, -0.718, 0.514, 192.0, 0.0, 0.0, 0.0, 0.0, 0.0, 0.0, 0.0, 0.0, 0.0, 1.6635813513746924E9, 0.0, 2022-09-19 14:55:51.374
133.0, 38438.58551246947, 30386.168406745008, 6927.945545666879, 17032.677475533186, 11595.369767590735, 187500.0, -119239.76173874877, 35108.555568284464, 0.508, -0.718, 0.514, 192.0, 0.0, 0.0, 0.0, 0.0, 0.0, 0.0, 0.0, 0.0, 0.0, 1.6635813513776577E9, 0.0, 2022-09-19 14:55:51.377
134.0, 38431.94704436625, 30385.54255790026, 6935.254566103765, 17040.27706864799, 11600.06363392635, 187500.0, -119266.40501813949, 35106.61096651685, 0.508, -0.718, 0.514, 192.0, 0.0, 0.0, 0.0, 0.0, 0.0, 0.0, 0.0, 0.0, 0.0, 1.663581351381693E9, 0.0, 2022-09-19 14:55:51.381
135.0, 38422.73812565066, 30382.279203209786, 6937.176816126921, 17026.821318485894, 11598.610770536754, 187500.0, -119296.49046617633, 35090.49535876457, 0.508, -0.718, 0.514, 192.0, 0.0, 0.0, 0.0, 0.0, 0.0, 0.0, 0.0, 0.0, 0.0, 1.6635813513847325E9, 0.0, 2022-09-19 14:55:51.384
136.0, 38416.099657547435, 30378.166482230008, 6932.259432346754, 17015.868963702796, 11589.826534965818, 187500.0, -119309.54388493823, 35080.01239061503, 0.508, -0.718, 0.514, 192.0, 0.0, 0.0, 0.0, 0.0, 0.0, 0.0, 0.0, 0.0, 0.0, 1.6635813513886828E9, 0.0, 2022-09-19 14:55:51.388
137.0, 38432.43878274426, 30386.995421289856, 6940.194301628388, 17030.487004576564, 11602.030587438416, 187500.0, -119292.06482077419, 35101.1347891253, 0.508, -0.718, 0.514, 192.0, 0.0, 0.0, 0.0, 0.0, 0.0, 0.0, 0.0, 0.0, 0.0, 1.6635813513926775E9, 0.0, 2022-09-19 14:55:51.392
138.0, 38439.390175269866, 30385.877834067087, 6946.765714498248, 17046.04381871746, 11610.367788120246, 187500.0, -119293.2047597414, 35114.90346370977, 0.508, -0.718, 0.514, 192.0, 0.0, 0.0, 0.0, 0.0, 0.0, 0.0, 0.0, 0.0, 0.0, 1.6635813513966877E9, 0.0, 2022-09-19 14:55:51.396
139.0, 38429.33189026498, 30383.329735199182, 6946.631604031516, 17054.448074632655, 11609.026683452927, 187500.0, -119327.62644620257, 35107.28151885051, 0.508, -0.716, 0.514, 192.0, 15.0, 224.0, 233.0, 160.0, 16.0, 16.0, 0.0, 0.0, 0.0, 1.663581351401853E9, 0.0, 2022-09-19 14:55:51.401
140.0, 38414.356221479924, 30365.761264057313, 6937.757961482759, 17047.071998962405, 11601.494145571489, 187500.0, -119363.94803094245, 35092.86464367684, 0.508, -0.716, 0.514, 192.0, 0.0, 0.0, 0.0, 0.0, 0.0, 0.0, 0.0, 0.0, 0.0, 1.6635813514057696E9, 0.0, 2022-09-19 14:55:51.405
141.0, 38414.51268369111, 30365.157766957018, 6936.886243449002, 17045.03799021697, 11601.851773482773, 187500.0, -119376.88969098208, 35092.0823326209, 0.508, -0.716, 0.514, 192.0, 0.0, 0.0, 0.0, 0.0, 0.0, 0.0, 0.0, 0.0, 0.0, 1.6635813514087336E9, 0.0, 2022-09-19 14:55:51.408
142.0, 38423.386326239866, 30384.983764288878, 6937.914423693946, 17044.568603583408, 11604.82455549533, 187500.0, -119374.07337118071, 35098.56433851294, 0.508, -0.716, 0.514, 192.0, 0.0, 0.0, 0.0, 0.0, 0.0, 0.0, 0.0, 0.0, 0.0, 1.6635813514128053E9, 0.0, 2022-09-19 14:55:51.412
143.0, 38431.7235269217, 30400.40646796304, 6942.071848162634, 17045.730894295084, 11613.049997454882, 187500.0, -119384.22106316342, 35103.05703914846, 0.508, -0.716, 0.514, 192.0, 0.0, 0.0, 0.0, 0.0, 0.0, 0.0, 0.0, 0.0, 0.0, 1.6635813514167657E9, 0.0, 2022-09-19 14:55:51.416
144.0, 38424.45920997372, 30405.815590121223, 6941.3789440845185, 17043.942754738662, 11609.361959619757, 187500.0, -119425.30356947226, 35091.25531807605, 0.508, -0.716, 0.514, 192.0, 0.0, 0.0, 0.0, 0.0, 0.0, 0.0, 0.0, 0.0, 0.0, 1.6635813514207602E9, 0.0, 2022-09-19 14:55:51.420
145.0, 38421.26291051661, 30411.582340190693, 6945.201092386376, 17057.063228733925, 11615.15106143368, 187500.0, -119457.73595067691, 35089.333068052896, 0.508, -0.716, 0.514, 192.0, 0.0, 0.0, 0.0, 0.0, 0.0, 0.0, 0.0, 0.0, 0.0, 1.6635813514247344E9, 0.0, 2022-09-19 14:55:51.424
146.0, 38414.33386973546, 30400.719392385414, 6943.524711552229, 17043.160443682726, 11610.501898586977, 187500.0, -119482.61344225568, 35080.97351562661, 0.508, -0.716, 0.514, 192.0, 0.0, 0.0, 0.0, 0.0, 0.0, 0.0, 0.0, 0.0, 0.0, 1.6635813514297893E9, 0.0, 2022-09-19 14:55:51.429
147.0, 38409.2153202552, 30379.8205113197, 6937.623851016027, 17037.3713418688, 11605.651570040176, 187500.0, -119494.81749472827, 35072.2786870335, 0.508, -0.716, 0.514, 192.0, 0.0, 0.0, 0.0, 0.0, 0.0, 0.0, 0.0, 0.0, 0.0, 1.663581351433785E9, 0.0, 2022-09-19 14:55:51.433
148.0, 38398.6652968723, 30361.67089482199, 6927.140882866488, 17037.594859313354, 11596.263837368946, 187500.0, -119521.08079446325, 35058.8229368714, 0.508, -0.716, 0.514, 192.0, 0.0, 0.0, 0.0, 0.0, 0.0, 0.0, 0.0, 0.0, 0.0, 1.6635813514367905E9, 0.0, 2022-09-19 14:55:51.436
149.0, 38388.3611426784, 30372.042104249253, 6922.804644442159, 17033.839766244862, 11594.81097397935, 187500.0, -119572.75802764393, 35041.299169218444, 0.506, -0.716, 0.518, 192.0, 15.0, 208.0, 233.0, 160.0, 16.0, 48.0, 0.0, 0.0, 0.0, 1.6635813514407768E9, 0.0, 2022-09-19 14:55:51.440
150.0, 38395.87132881538, 30387.64362187906, 6936.126284137522, 17044.590955327865, 11605.226886895525, 187500.0, -119605.61509199323, 35037.946407550146, 0.506, -0.716, 0.518, 192.0, 0.0, 0.0, 0.0, 0.0, 0.0, 0.0, 0.0, 0.0, 0.0, 1.6635813514458165E9, 0.0, 2022-09-19 14:55:51.445
151.0, 38400.252270728626, 30376.244232206853, 6937.489740549296, 17046.669667562208, 11607.015026451949, 187500.0, -119621.4848305565, 35041.9697215521, 0.506, -0.716, 0.518, 192.0, 0.0, 0.0, 0.0, 0.0, 0.0, 0.0, 0.0, 0.0, 0.0, 1.6635813514498785E9, 0.0, 2022-09-19 14:55:51.449
152.0, 38405.907262075816, 30372.936174027465, 6934.360496325553, 17046.26733616201, 11604.601038050776, 187500.0, -119623.20591487955, 35049.14463152226, 0.506, -0.716, 0.518, 192.0, 0.0, 0.0, 0.0, 0.0, 0.0, 0.0, 0.0, 0.0, 0.0, 1.6635813514528048E9, 0.0, 2022-09-19 14:55:51.452
153.0, 38402.062762029505, 30368.845804792145, 6934.539310281195, 17038.019542458005, 11600.935351960106, 187500.0, -119642.9425052336, 35047.89293383276, 0.506, -0.716, 0.518, 192.0, 0.0, 0.0, 0.0, 0.0, 0.0, 0.0, 0.0, 0.0, 0.0, 1.6635813514588027E9, 0.0, 2022-09-19 14:55:51.458
154.0, 38388.11527348939, 30363.749607056336, 6941.177778384421, 17043.272202405, 11603.729320017019, 187500.0, -119692.31750873537, 35036.58295113837, 0.506, -0.716, 0.518, 192.0, 0.0, 0.0, 0.0, 0.0, 0.0, 0.0, 0.0, 0.0, 0.0, 1.6635813514618032E9, 0.0, 2022-09-19 14:55:51.461
155.0, 38386.662410099794, 30398.014831306322, 6948.1291709100215, 17033.99622845605, 11609.563125319853, 187500.0, -119733.33295981085, 35025.87646554428, 0.506, -0.716, 0.518, 192.0, 0.0, 0.0, 0.0, 0.0, 0.0, 0.0, 0.0, 0.0, 0.0, 1.6635813514648888E9, 0.0, 2022-09-19 14:55:51.464
156.0, 38400.095808517435, 30418.332567016194, 6944.999926686279, 17024.541440551453, 11609.004331708471, 187500.0, -119748.95682918512, 35028.4692679011, 0.506, -0.716, 0.518, 192.0, 0.0, 0.0, 0.0, 0.0, 0.0, 0.0, 0.0, 0.0, 0.0, 1.6635813514688284E9, 0.0, 2022-09-19 14:55:51.468
157.0, 38407.65069814333, 30384.894357311056, 6943.770580741237, 17058.516092123522, 11615.084006200315, 187500.0, -119745.17938437217, 35048.004692555034, 0.506, -0.716, 0.518, 192.0, 0.0, 0.0, 0.0, 0.0, 0.0, 0.0, 0.0, 0.0, 0.0, 1.6635813514728253E9, 0.0, 2022-09-19 14:55:51.472
158.0, 38401.36985795139, 30371.952697271434, 6943.055324918667, 17068.48497015059, 11615.262820155958, 187500.0, -119770.23568990656, 35045.3224832204, 0.506, -0.716, 0.518, 192.0, 0.0, 0.0, 0.0, 0.0, 0.0, 0.0, 0.0, 0.0, 0.0, 1.6635813514768662E9, 0.0, 2022-09-19 14:55:51.476
159.0, 38383.84609029843, 30351.746720283834, 6943.211787129854, 17063.880510792795, 11615.799262022885, 187500.0, -119827.29969350097, 35027.84341905635, 0.504, -0.712, 0.524, 192.0, 15.0, 192.0, 233.0, 192.0, 16.0, 96.0, 0.0, 0.0, 0.0, 1.6635813514808376E9, 0.0, 2022-09-19 14:55:51.480
160.0, 38372.22318318167, 30341.82254574568, 6944.776409241726, 17059.544272368465, 11617.945029490595, 187500.0, -119877.81463596996, 35017.71807881809, 0.504, -0.712, 0.524, 192.0, 0.0, 0.0, 0.0, 0.0, 0.0, 0.0, 0.0, 0.0, 0.0, 1.6635813514848337E9, 0.0, 2022-09-19 14:55:51.484
161.0, 38380.20275595221, 30374.031409505777, 6947.123342409533, 17062.405295658744, 11623.331799904323, 187500.0, -119897.64063330182, 35026.39055566675, 0.504, -0.712, 0.524, 192.0, 0.0, 0.0, 0.0, 0.0, 0.0, 0.0, 0.0, 0.0, 0.0, 1.6635813514898393E9, 0.0, 2022-09-19 14:55:51.489
162.0, 38398.79940733903, 30399.95943307393, 6951.66074653396, 17064.081676492893, 11631.087855230315, 187500.0, -119899.16055192478, 35044.093137275355, 0.504, -0.712, 0.524, 192.0, 0.0, 0.0, 0.0, 0.0, 0.0, 0.0, 0.0, 0.0, 0.0, 1.6635813514928722E9, 0.0, 2022-09-19 14:55:51.492
163.0, 38391.7586078356, 30410.978843090397, 6947.682136020915, 17038.04189420246, 11619.353189391279, 187500.0, -119933.67164536378, 35032.51493364751, 0.504, -0.712, 0.524, 192.0, 0.0, 0.0, 0.0, 0.0, 0.0, 0.0, 0.0, 0.0, 0.0, 1.6635813514968405E9, 0.0, 2022-09-19 14:55:51.496
164.0, 38374.19013669374, 30404.474485453906, 6948.062115676656, 17039.740626781062, 11606.836212496306, 187500.0, -120001.39743106335, 35007.77155253548, 0.504, -0.712, 0.524, 192.0, 0.0, 0.0, 0.0, 0.0, 0.0, 0.0, 0.0, 0.0, 0.0, 1.663581351500826E9, 0.0, 2022-09-19 14:55:51.500
165.0, 38368.73631104664, 30379.14995898604, 6948.956185454868, 17062.71822008112, 11608.557296819365, 187500.0, -120049.587792109, 35001.73658153255, 0.504, -0.712, 0.524, 192.0, 0.0, 0.0, 0.0, 0.0, 0.0, 0.0, 0.0, 0.0, 0.0, 1.6635813515048952E9, 0.0, 2022-09-19 14:55:51.504
166.0, 38368.37868313536, 30365.82831929068, 6949.246758132787, 17069.93783354018, 11611.373616620735, 187500.0, -120080.5449581796, 35002.295375143935, 0.504, -0.712, 0.524, 192.0, 0.0, 0.0, 0.0, 0.0, 0.0, 0.0, 0.0, 0.0, 0.0, 1.6635813515090053E9, 0.0, 2022-09-19 14:55:51.509
167.0, 38368.60220057991, 30349.176269671476, 6938.786141727704, 17056.884414778284, 11604.332817117313, 187500.0, -120098.73927816622, 35007.10100020182, 0.504, -0.712, 0.524, 192.0, 0.0, 0.0, 0.0, 0.0, 0.0, 0.0, 0.0, 0.0, 0.0, 1.66358135151291E9, 0.0, 2022-09-19 14:55:51.512
168.0, 38376.51471811709, 30368.57758385868, 6944.37407784153, 17056.102103722347, 11605.517459573444, 187500.0, -120117.4029847864, 35014.96881425009, 0.504, -0.712, 0.524, 192.0, 0.0, 0.0, 0.0, 0.0, 0.0, 0.0, 0.0, 0.0, 0.0, 1.6635813515178797E9, 0.0, 2022-09-19 14:55:51.517
169.0, 38373.92191576027, 30381.318078198205, 6949.403220343974, 17070.876606807306, 11602.63408453871, 187500.0, -120172.05299997963, 35003.85999725581, 0.5, -0.716, 0.526, 192.0, 15.0, 160.0, 233.0, 160.0, 16.0, 112.0, 0.0, 0.0, 0.0, 1.6635813515209901E9, 0.0, 2022-09-19 14:55:51.520
170.0, 38367.68577905724, 30378.099426996643, 6941.960089440357, 17063.835807303883, 11598.29784611438, 187500.0, -120226.72536691731, 34991.70064827212, 0.5, -0.716, 0.526, 192.0, 0.0, 0.0, 0.0, 0.0, 0.0, 0.0, 0.0, 0.0, 0.0, 1.6635813515239284E9, 0.0, 2022-09-19 14:55:51.523
171.0, 38362.92485748826, 30366.945906513443, 6933.0417434026895, 17050.6259263308, 11592.709910000553, 187500.0, -120261.07999814511, 34984.63749702424, 0.5, -0.716, 0.526, 192.0, 0.0, 0.0, 0.0, 0.0, 0.0, 0.0, 0.0, 0.0, 0.0, 1.6635813515289123E9, 0.0, 2022-09-19 14:55:51.528
172.0, 38369.67508431376, 30365.761264057313, 6942.697697007382, 17056.079751977893, 11597.336721102802, 187500.0, -120274.69221051839, 34990.29248837143, 0.5, -0.716, 0.526, 192.0, 0.0, 0.0, 0.0, 0.0, 0.0, 0.0, 0.0, 0.0, 0.0, 1.6635813515329168E9, 0.0, 2022-09-19 14:55:51.532
173.0, 38374.77128204957, 30378.926441541487, 6948.799723243681, 17053.95633625464, 11601.471793827033, 187500.0, -120298.98855674131, 34989.5101773155, 0.5, -0.716, 0.526, 192.0, 0.0, 0.0, 0.0, 0.0, 0.0, 0.0, 0.0, 0.0, 0.0, 1.6635813515370948E9, 0.0, 2022-09-19 14:55:51.537
174.0, 38369.49627035812, 30382.167444487506, 6946.095162164589, 17048.256641418535, 11598.163735647648, 187500.0, -120351.44810097791, 34976.0544271534, 0.5, -0.716, 0.526, 192.0, 0.0, 0.0, 0.0, 0.0, 0.0, 0.0, 0.0, 0.0, 0.0, 1.6635813515409348E9, 0.0, 2022-09-19 14:55:51.540
175.0, 38363.21543016618, 30366.610630346615, 6941.445999317885, 17059.43251364619, 11599.080157170316, 187500.0, -120401.56071204672, 34968.49953752751, 0.5, -0.716, 0.526, 192.0, 0.0, 0.0, 0.0, 0.0, 0.0, 0.0, 0.0, 0.0, 0.0, 1.6635813515459175E9, 0.0, 2022-09-19 14:55:51.545
176.0, 38365.38354937834, 30364.19664194544, 6943.99409818579, 17071.18953122968, 11607.39500610769, 187500.0, -120430.17094494951, 34971.29350558442, 0.5, -0.716, 0.526, 192.0, 0.0, 0.0, 0.0, 0.0, 0.0, 0.0, 0.0, 0.0, 0.0, 1.663581351549125E9, 0.0, 2022-09-19 14:55:51.549
177.0, 38366.99287497913, 30363.704903567424, 6934.986345170301, 17061.220653202614, 11602.254104882968, 187500.0, -120449.43814866999, 34970.73471197304, 0.5, -0.716, 0.526, 192.0, 0.0, 0.0, 0.0, 0.0, 0.0, 0.0, 0.0, 0.0, 0.0, 1.6635813515529644E9, 0.0, 2022-09-19 14:55:51.552
178.0, 38367.663427312786, 30369.136377470062, 6936.461560304351, 17061.66768809172, 11601.069462426838, 187500.0, -120470.51584369133, 34972.74636897402, 0.5, -0.716, 0.526, 192.0, 0.0, 0.0, 0.0, 0.0, 0.0, 0.0, 0.0, 0.0, 0.0, 1.6635813515570245E9, 0.0, 2022-09-19 14:55:51.557
179.0, 38368.73631104664, 30379.172310730497, 6944.262319119253, 17070.653089362753, 11604.712796773052, 187500.0, -120513.87822793463, 34967.49370902702, 0.502, -0.716, 0.52, 192.0, 15.0, 176.0, 233.0, 160.0, 16.0, 64.0, 0.0, 0.0, 0.0, 1.6635813515610125E9, 0.0, 2022-09-19 14:55:51.561
180.0, 38369.92095350277, 30380.91574679801, 6940.887205706502, 17064.640470104274, 11607.4397095966, 187500.0, -120562.42621689156, 34959.49178451202, 0.502, -0.716, 0.52, 192.0, 0.0, 0.0, 0.0, 0.0, 0.0, 0.0, 0.0, 0.0, 0.0, 1.663581351564974E9, 0.0, 2022-09-19 14:55:51.564
181.0, 38373.2066599377, 30380.558118886725, 6939.054362661167, 17061.444170647166, 11615.016950966949, 187500.0, -120588.84597883774, 34962.28575256893, 0.502, -0.716, 0.52, 192.0, 0.0, 0.0, 0.0, 0.0, 0.0, 0.0, 0.0, 0.0, 0.0, 1.6635813515689983E9, 0.0, 2022-09-19 14:55:51.568
182.0, 38377.654657084306, 30374.366685672605, 6937.310926593653, 17058.85136829035, 11620.783701036418, 187500.0, -120596.73614463046, 34971.114691628776, 0.502, -0.716, 0.52, 192.0, 0.0, 0.0, 0.0, 0.0, 0.0, 0.0, 0.0, 0.0, 0.0, 1.6635813515720465E9, 0.0, 2022-09-19 14:55:51.572
183.0, 38381.76737806408, 30372.779711816278, 6938.115589394044, 17060.371286913312, 11620.090796958304, 187500.0, -120603.44166796705, 34982.87170921227, 0.502, -0.716, 0.52, 192.0, 0.0, 0.0, 0.0, 0.0, 0.0, 0.0, 0.0, 0.0, 0.0, 1.6635813515760128E9, 0.0, 2022-09-19 14:55:51.576
184.0, 38377.05115998402, 30382.748589843344, 6936.998002171279, 17056.70560082264, 11613.832308510819, 187500.0, -120643.20542135304, 34976.859089953796, 0.502, -0.716, 0.52, 192.0, 0.0, 0.0, 0.0, 0.0, 0.0, 0.0, 0.0, 0.0, 0.0, 1.66358135157998E9, 0.0, 2022-09-19 14:55:51.579
185.0, 38377.92287801777, 30393.34331671516, 6949.738496510804, 17060.03601074648, 11619.956686491572, 187500.0, -120682.34332589428, 34972.9028311852, 0.502, -0.716, 0.52, 192.0, 0.0, 0.0, 0.0, 0.0, 0.0, 0.0, 0.0, 0.0, 0.0, 1.6635813515840924E9, 0.0, 2022-09-19 14:55:51.584
186.0, 38380.806253052506, 30397.50074118385, 6958.790953015203, 17070.451923662655, 11626.461044128066, 187500.0, -120710.46182041906, 34968.72305497206, 0.502, -0.716, 0.52, 192.0, 0.0, 0.0, 0.0, 0.0, 0.0, 0.0, 0.0, 0.0, 0.0, 1.6635813515890648E9, 0.0, 2022-09-19 14:55:51.589
187.0, 38382.21441295319, 30386.324868956195, 6946.966880198345, 17059.90190027975, 11622.482433615021, 187500.0, -120720.29658797939, 34968.23131659404, 0.502, -0.716, 0.52, 192.0, 0.0, 0.0, 0.0, 0.0, 0.0, 0.0, 0.0, 0.0, 0.0, 1.6635813515930545E9, 0.0, 2022-09-19 14:55:51.593
188.0, 38380.672142585776, 30371.907993782523, 6937.2662231047425, 17047.13905419577, 11617.028607967926, 187500.0, -120726.13039328223, 34975.87561319776, 0.502, -0.716, 0.52, 192.0, 0.0, 0.0, 0.0, 0.0, 0.0, 0.0, 0.0, 0.0, 0.0, 1.6635813515971627E9, 0.0, 2022-09-19 14:55:51.597
189.0, 38373.45252912671, 30368.219955947396, 6940.171949883932, 17045.28385940598, 11618.25795391297, 187500.0, -120757.6016494753, 34974.400398063706, 0.502, -0.716, 0.52, 192.0, 0.0, 0.0, 0.0, 0.0, 0.0, 0.0, 0.0, 0.0, 0.0, 1.6635813516011252E9, 0.0, 2022-09-19 14:55:51.601
190.0, 38370.792671536525, 30366.811796046713, 6943.815284230147, 17049.66480131922, 11621.5436603479, 187500.0, -120793.6550132817, 34973.17105211867, 0.502, -0.716, 0.51, 192.0, 15.0, 176.0, 233.0, 160.0, 15.0, 240.0, 0.0, 0.0, 0.0, 1.6635813516040545E9, 0.0, 2022-09-19 14:55:51.604
191.0, 38375.128909960855, 30369.896336781545, 6939.389638827996, 17055.476254877598, 11623.711779560064, 187500.0, -120815.78324029247, 34974.48980504153, 0.502, -0.716, 0.51, 192.0, 0.0, 0.0, 0.0, 0.0, 0.0, 0.0, 0.0, 0.0, 0.0, 1.6635813516080854E9, 0.0, 2022-09-19 14:55:51.608
192.0, 38384.04725599853, 30367.795272802745, 6943.100028407577, 17061.444170647166, 11630.886689530218, 187500.0, -120820.92414151719, 34982.514081300986, 0.502, -0.716, 0.51, 192.0, 0.0, 0.0, 0.0, 0.0, 0.0, 0.0, 0.0, 0.0, 0.0, 1.6635813516131632E9, 0.0, 2022-09-19 14:55:51.613
193.0, 38381.38739840835, 30356.48529010836, 6937.377981827019, 17050.648278075252, 11625.030532482926, 187500.0, -120833.35171143434, 34983.631668523754, 0.502, -0.716, 0.51, 192.0, 0.0, 0.0, 0.0, 0.0, 0.0, 0.0, 0.0, 0.0, 0.0, 1.6635813516171021E9, 0.0, 2022-09-19 14:55:51.617
194.0, 38377.989933251134, 30366.320057668694, 6937.355630082564, 17049.888318763773, 11618.906154502172, 187500.0, -120870.50031071906, 34977.86491845428, 0.502, -0.716, 0.51, 192.0, 0.0, 0.0, 0.0, 0.0, 0.0, 0.0, 0.0, 0.0, 0.0, 1.6635813516210728E9, 0.0, 2022-09-19 14:55:51.621
195.0, 38372.71492155969, 30362.475557622383, 6938.964955683346, 17060.214824702125, 11619.710817302564, 187500.0, -120916.32138685243, 34968.56659276087, 0.502, -0.716, 0.51, 192.0, 0.0, 0.0, 0.0, 0.0, 0.0, 0.0, 0.0, 0.0, 0.0, 1.6635813516251054E9, 0.0, 2022-09-19 14:55:51.625
196.0, 38378.23580244015, 30368.644639092046, 6944.128208652522, 17067.546196883464, 11626.796320294896, 187500.0, -120938.047282463, 34969.572421261364, 0.502, -0.716, 0.51, 192.0, 0.0, 0.0, 0.0, 0.0, 0.0, 0.0, 0.0, 0.0, 0.0, 1.6635813516282017E9, 0.0, 2022-09-19 14:55:51.628
197.0, 38394.55257589252, 30389.811741091224, 6947.860949976558, 17071.23423471859, 11636.675791344142, 187500.0, -120933.91220973876, 34984.749255746516, 0.502, -0.716, 0.51, 192.0, 0.0, 0.0, 0.0, 0.0, 0.0, 0.0, 0.0, 0.0, 0.0, 1.6635813516321833E9, 0.0, 2022-09-19 14:55:51.632
198.0, 38401.72748586267, 30390.1246655136, 6942.451827818374, 17059.61132760183, 11631.870166286251, 187500.0, -120934.20278241669, 34995.2098721516, 0.502, -0.716, 0.51, 192.0, 0.0, 0.0, 0.0, 0.0, 0.0, 0.0, 0.0, 0.0, 0.0, 1.663581351636074E9, 0.0, 2022-09-19 14:55:51.636
199.0, 38389.4116746678, 30377.607688618624, 6936.461560304351, 17053.95633625464, 11614.77108177794, 187500.0, -120972.89365206881, 34982.581136534354, 0.502, -0.716, 0.51, 192.0, 0.0, 0.0, 0.0, 0.0, 0.0, 0.0, 0.0, 0.0, 0.0, 1.663581351640135E9, 0.0, 2022-09-19 14:55:51.640
200.0, 38386.394189166334, 30375.998363017843, 6942.362420840553, 17058.784313056985, 11611.328913131823, 187500.0, -121013.6185304664, 34975.29446784192, 0.512, -0.72, 0.52, 192.0, 16.0, 0.0, 233.0, 128.0, 16.0, 64.0, 0.0, 0.0, 0.0, 1.6635813516451287E9, 0.0, 2022-09-19 14:55:51.645
201.0, 38377.96758150668, 30362.34144715565, 6941.401295828974, 17049.12835945229, 11601.62825603822, 187500.0, -121046.94498144925, 34964.92325841466, 0.512, -0.72, 0.52, 192.0, 0.0, 0.0, 0.0, 0.0, 0.0, 0.0, 0.0, 0.0, 0.0, 1.6635813516491055E9, 0.0, 2022-09-19 14:55:51.649
202.0, 38378.23580244015, 30353.19958367343, 6940.931909195413, 17044.18862392767, 11601.985883949505, 187500.0, -121058.21026065473, 34966.26436308198, 0.512, -0.72, 0.52, 192.0, 0.0, 0.0, 0.0, 0.0, 0.0, 0.0, 0.0, 0.0, 0.0, 1.6635813516531668E9, 0.0, 2022-09-19 14:55:51.653
203.0, 38396.58658463795, 30374.09846473914, 6940.574281284128, 17050.201243186148, 11611.351264876279, 187500.0, -121052.1752896518, 34984.615145279786, 0.512, -0.72, 0.52, 192.0, 0.0, 0.0, 0.0, 0.0, 0.0, 0.0, 0.0, 0.0, 0.0, 1.6635813516561346E9, 0.0, 2022-09-19 14:55:51.656
204.0, 38398.53118640556, 30375.081941495177, 6938.070885905134, 17051.162368197725, 11610.703064287074, 187500.0, -121078.30447892005, 34984.749255746516, 0.512, -0.72, 0.52, 192.0, 0.0, 0.0, 0.0, 0.0, 0.0, 0.0, 0.0, 0.0, 0.0, 1.663581351660237E9, 0.0, 2022-09-19 14:55:51.660
205.0, 38397.570061393984, 30377.898261296545, 6944.75405749727, 17057.353801411846, 11612.982942221517, 187500.0, -121116.88358984991, 34980.30125859991, 0.512, -0.72, 0.52, 192.0, 0.0, 0.0, 0.0, 0.0, 0.0, 0.0, 0.0, 0.0, 0.0, 1.663581351664153E9, 0.0, 2022-09-19 14:55:51.664
206.0, 38396.58658463795, 30372.712656582913, 6942.004792929268, 17052.592879842865, 11612.558259076866, 187500.0, -121140.30821803908, 34977.97667717656, 0.512, -0.72, 0.52, 192.0, 0.0, 0.0, 0.0, 0.0, 0.0, 0.0, 0.0, 0.0, 0.0, 1.6635813516682713E9, 0.0, 2022-09-19 14:55:51.668
207.0, 38411.159922022816, 30383.799121832744, 6953.180665156921, 17059.879548535293, 11625.656381327675, 187500.0, -121133.20036330228, 34995.4110378517, 0.512, -0.72, 0.52, 192.0, 0.0, 0.0, 0.0, 0.0, 0.0, 0.0, 0.0, 0.0, 0.0, 1.6635813516731825E9, 0.0, 2022-09-19 14:55:51.673
208.0, 38414.33386973546, 30383.91088055502, 6953.828865746125, 17051.743513553563, 11626.103416216782, 187500.0, -121134.69793018079, 35001.110732687805, 0.512, -0.72, 0.52, 192.0, 0.0, 0.0, 0.0, 0.0, 0.0, 0.0, 0.0, 0.0, 0.0, 1.663581351677226E9, 0.0, 2022-09-19 14:55:51.677
209.0, 38407.874215587886, 30381.00515377583, 6959.2826913932195, 17050.938850753173, 11624.404683638179, 187500.0, -121164.76102647318, 34994.3605058623, 0.512, -0.72, 0.52, 192.0, 0.0, 0.0, 0.0, 0.0, 0.0, 0.0, 0.0, 0.0, 0.0, 1.663581351681248E9, 0.0, 2022-09-19 14:55:51.681
210.0, 38403.582680652464, 30382.92740379899, 6964.200075173388, 17061.33241192489, 11621.811881281363, 187500.0, -121205.03886998164, 34988.28083137045, 0.508, -0.714, 0.52, 192.0, 15.0, 224.0, 233.0, 176.0, 16.0, 64.0, 0.0, 0.0, 0.0, 1.6635813516842847E9, 0.0, 2022-09-19 14:55:51.684
211.0, 38411.80812261202, 30395.24321499386, 6963.395412372996, 17054.246908932557, 11622.750654548485, 187500.0, -121217.3099776876, 34995.14281691823, 0.508, -0.714, 0.52, 192.0, 0.0, 0.0, 0.0, 0.0, 0.0, 0.0, 0.0, 0.0, 0.0, 1.6635813516882548E9, 0.0, 2022-09-19 14:55:51.688
212.0, 38421.50877970562, 30399.11006678463, 6958.053345448178, 17039.2712401475, 11621.074273714337, 187500.0, -121216.0582799981, 35004.08351470036, 0.508, -0.714, 0.52, 192.0, 0.0, 0.0, 0.0, 0.0, 0.0, 0.0, 0.0, 0.0, 0.0, 1.6635813516922889E9, 0.0, 2022-09-19 14:55:51.692
213.0, 38425.46503847421, 30388.29182246826, 6957.114572181055, 17038.444225602656, 11619.688465558109, 187500.0, -121213.01844275219, 35012.80069503793, 0.508, -0.714, 0.52, 192.0, 0.0, 0.0, 0.0, 0.0, 0.0, 0.0, 0.0, 0.0, 0.0, 1.663581351696267E9, 0.0, 2022-09-19 14:55:51.696
214.0, 38417.75368663713, 30373.807892061224, 6957.293386136697, 17042.109911693326, 11618.05678821287, 187500.0, -121237.5606581641, 35013.895930516235, 0.508, -0.714, 0.52, 192.0, 0.0, 0.0, 0.0, 0.0, 0.0, 0.0, 0.0, 0.0, 0.0, 1.66358135170127E9, 0.0, 2022-09-19 14:55:51.701
215.0, 38407.9636225657, 30373.45026414994, 6958.120400681544, 17045.954411739636, 11615.82161376734, 187500.0, -121277.48087376129, 35007.324517646375, 0.508, -0.714, 0.52, 192.0, 0.0, 0.0, 0.0, 0.0, 0.0, 0.0, 0.0, 0.0, 0.0, 1.6635813517053113E9, 0.0, 2022-09-19 14:55:51.705
216.0, 38403.448570185734, 30363.34727565614, 6948.2409296322985, 17038.645391302754, 11611.641837554198, 187500.0, -121299.16206588293, 35004.30703214491, 0.508, -0.714, 0.52, 192.0, 0.0, 0.0, 0.0, 0.0, 0.0, 0.0, 0.0, 0.0, 0.0, 1.6635813517083142E9, 0.0, 2022-09-19 14:55:51.708
217.0, 38420.65941341632, 30371.595069360148, 6948.0397639322, 17043.540423338465, 11611.977113721028, 187500.0, -121289.59551925607, 35019.32740441888, 0.508, -0.714, 0.52, 192.0, 0.0, 0.0, 0.0, 0.0, 0.0, 0.0, 0.0, 0.0, 0.0, 1.663581351712316E9, 0.0, 2022-09-19 14:55:51.712
218.0, 38439.99367237016, 30382.43566542097, 6953.04655469019, 17041.931097737684, 11613.20645966607, 187500.0, -121272.22821381429, 35035.68888136016, 0.508, -0.714, 0.52, 192.0, 0.0, 0.0, 0.0, 0.0, 0.0, 0.0, 0.0, 0.0, 0.0, 1.6635813517163029E9, 0.0, 2022-09-19 14:55:51.716
219.0, 38438.25023630264, 30384.78259858878, 6952.577168056628, 17037.930135480183, 11605.785680506908, 187500.0, -121288.45558028885, 35034.660701115215, 0.508, -0.714, 0.52, 192.0, 0.0, 0.0, 0.0, 0.0, 0.0, 0.0, 0.0, 0.0, 0.0, 1.663581351720291E9, 0.0, 2022-09-19 14:55:51.720
220.0, 38433.288149033564, 30384.983764288878, 6952.3536506120745, 17044.41214137222, 11599.86246822625, 187500.0, -121316.79759225817, 35028.6704336012, 0.498, -0.712, 0.52, 192.0, 15.0, 144.0, 233.0, 192.0, 16.0, 64.0, 0.0, 0.0, 0.0, 1.6635813517243285E9, 0.0, 2022-09-19 14:55:51.724
221.0, 38435.255102545634, 30376.043066506754, 6948.196226143387, 17036.70078953514, 11592.374633833722, 187500.0, -121323.79368827268, 35029.40804116822, 0.498, -0.712, 0.52, 192.0, 0.0, 0.0, 0.0, 0.0, 0.0, 0.0, 0.0, 0.0, 0.0, 1.6635813517292404E9, 0.0, 2022-09-19 14:55:51.729
222.0, 38434.42808800079, 30356.351179641628, 6946.341031353597, 17025.860193474316, 11583.523343029421, 187500.0, -121324.33013013961, 35024.42360215469, 0.498, -0.712, 0.52, 192.0, 0.0, 0.0, 0.0, 0.0, 0.0, 0.0, 0.0, 0.0, 0.0, 1.6635813517333195E9, 0.0, 2022-09-19 14:55:51.733
223.0, 38447.1238788514, 30363.794310545247, 6947.4809703208175, 17029.637638287262, 11586.764345975442, 187500.0, -121301.37488858402, 35041.522686663, 0.498, -0.712, 0.52, 192.0, 0.0, 0.0, 0.0, 0.0, 0.0, 0.0, 0.0, 0.0, 0.0, 1.6635813517362845E9, 0.0, 2022-09-19 14:55:51.736
224.0, 38448.532038752084, 30367.05766523572, 6949.447923832885, 17033.593897055853, 11585.15502037466, 187500.0, -121306.1805136419, 35044.22724774209, 0.498, -0.712, 0.52, 192.0, 0.0, 0.0, 0.0, 0.0, 0.0, 0.0, 0.0, 0.0, 0.0, 1.66358135174034E9, 0.0, 2022-09-19 14:55:51.740
225.0, 38440.23954155917, 30366.141243713053, 6950.833731989113, 17041.1711384262, 11582.137534873193, 187500.0, -121336.33301691212, 35031.17382898019, 0.498, -0.712, 0.52, 192.0, 0.0, 0.0, 0.0, 0.0, 0.0, 0.0, 0.0, 0.0, 0.0, 1.6635813517443461E9, 0.0, 2022-09-19 14:55:51.744
226.0, 38442.7205851937, 30361.35797039962, 6954.097086679589, 17042.84751926035, 11584.663281996642, 187500.0, -121346.10072923909, 35030.83855281336, 0.498, -0.712, 0.52, 192.0, 0.0, 0.0, 0.0, 0.0, 0.0, 0.0, 0.0, 0.0, 0.0, 1.663581351748289E9, 0.0, 2022-09-19 14:55:51.748
227.0, 38447.59326548496, 30368.95756351442, 6945.514016808751, 17035.314981378913, 11579.38827030519, 187500.0, -121337.94234251289, 35035.06303251541, 0.498, -0.712, 0.52, 192.0, 0.0, 0.0, 0.0, 0.0, 0.0, 0.0, 0.0, 0.0, 0.0, 1.6635813517523732E9, 0.0, 2022-09-19 14:55:51.752
228.0, 38456.98099815619, 30392.76217135932, 6936.193339370888, 17026.687208019164, 11570.916959156628, 187500.0, -121318.9880632148, 35043.98137855308, 0.498, -0.712, 0.52, 192.0, 0.0, 0.0, 0.0, 0.0, 0.0, 0.0, 0.0, 0.0, 0.0, 1.6635813517573538E9, 0.0, 2022-09-19 14:55:51.757
229.0, 38452.75651845414, 30386.34722070065, 6930.784217212703, 17020.048739915936, 11561.350412529757, 187500.0, -121327.10174645207, 35041.74620410755, 0.498, -0.712, 0.52, 192.0, 0.0, 0.0, 0.0, 0.0, 0.0, 0.0, 0.0, 0.0, 0.0, 1.6635813517614365E9, 0.0, 2022-09-19 14:55:51.761
230.0, 38434.02575660059, 30371.57271761569, 6919.675400218416, 17010.661007244707, 11549.28047052389, 187500.0, -121366.08318878213, 35020.42263989719, 0.498, -0.716, 0.516, 192.0, 15.0, 144.0, 233.0, 160.0, 16.0, 32.0, 0.0, 0.0, 0.0, 1.6635813517643168E9, 0.0, 2022-09-19 14:55:51.764
231.0, 38441.15596308184, 30361.648543077536, 6928.951374167368, 17026.575449296888, 11560.054011351349, 187500.0, -121371.26879349576, 35023.23895969855, 0.498, -0.716, 0.516, 192.0, 0.0, 0.0, 0.0, 0.0, 0.0, 0.0, 0.0, 0.0, 0.0, 1.6635813517683356E9, 0.0, 2022-09-19 14:55:51.768
232.0, 38453.09179462097, 30364.8671942791, 6932.304135835664, 17034.912649978716, 11565.329023042801, 187500.0, -121357.16484274446, 35033.76663133701, 0.498, -0.716, 0.516, 192.0, 0.0, 0.0, 0.0, 0.0, 0.0, 0.0, 0.0, 0.0, 0.0, 1.6635813517723489E9, 0.0, 2022-09-19 14:55:51.772
233.0, 38456.578666755995, 30370.9692205154, 6925.933888665902, 17027.22364988609, 11558.601147961754, 187500.0, -121342.90442978198, 35040.00276804004, 0.498, -0.716, 0.516, 192.0, 0.0, 0.0, 0.0, 0.0, 0.0, 0.0, 0.0, 0.0, 0.0, 1.6635813517763906E9, 0.0, 2022-09-19 14:55:51.776
234.0, 38465.07232964901, 30385.58726138917, 6925.062170632144, 17029.548231309444, 11561.23865380748, 187500.0, -121332.62262733253, 35051.55861992343, 0.498, -0.716, 0.516, 192.0, 0.0, 0.0, 0.0, 0.0, 0.0, 0.0, 0.0, 0.0, 0.0, 1.6635813517803602E9, 0.0, 2022-09-19 14:55:51.780
235.0, 38460.020835402116, 30383.597956132646, 6918.714275206838, 17017.679455003676, 11549.5263397129, 187500.0, -121351.8451275641, 35042.349701207844, 0.498, -0.716, 0.516, 192.0, 0.0, 0.0, 0.0, 0.0, 0.0, 0.0, 0.0, 0.0, 0.0, 1.6635813517843523E9, 0.0, 2022-09-19 14:55:51.784
236.0, 38456.66807373382, 30367.951735013932, 6918.781330440203, 17022.172155639193, 11541.27854600889, 187500.0, -121362.9986480473, 35037.72289010559, 0.498, -0.716, 0.516, 192.0, 0.0, 0.0, 0.0, 0.0, 0.0, 0.0, 0.0, 0.0, 0.0, 1.6635813517893987E9, 0.0, 2022-09-19 14:55:51.789
237.0, 38454.701120221755, 30358.228726175872, 6917.104949606055, 17022.373321339288, 11534.640077905666, 187500.0, -121355.66727586596, 35043.199067497146, 0.498, -0.716, 0.516, 192.0, 0.0, 0.0, 0.0, 0.0, 0.0, 0.0, 0.0, 0.0, 0.0, 1.6635813517924385E9, 0.0, 2022-09-19 14:55:51.792
238.0, 38466.301675594055, 30362.252040177827, 6915.875603661014, 17029.83880398736, 11537.970487829505, 187500.0, -121318.42926960341, 35067.18248929769, 0.498, -0.716, 0.516, 192.0, 0.0, 0.0, 0.0, 0.0, 0.0, 0.0, 0.0, 0.0, 0.0, 1.6635813517963512E9, 0.0, 2022-09-19 14:55:51.796
239.0, 38453.73999521017, 30371.662124593513, 6908.365417524031, 17012.42679505668, 11523.687723122564, 187500.0, -121329.33692089761, 35052.40798621273, 0.498, -0.716, 0.516, 192.0, 0.0, 0.0, 0.0, 0.0, 0.0, 0.0, 0.0, 0.0, 0.0, 1.663581351800411E9, 0.0, 2022-09-19 14:55:51.800
240.0, 38435.70213743474, 30369.561060614713, 6898.731815663793, 16995.953559393118, 11510.14256598265, 187500.0, -121364.65267713698, 35028.0669365009, 0.5, -0.718, 0.522, 192.0, 15.0, 160.0, 233.0, 144.0, 16.0, 80.0, 0.0, 0.0, 0.0, 1.6635813518044076E9, 0.0, 2022-09-19 14:55:51.804
241.0, 38433.6234252004, 30356.217069174898, 6905.41498725593, 17013.387920068257, 11519.060912020315, 187500.0, -121373.30280224119, 35027.48579114507, 0.5, -0.718, 0.522, 192.0, 0.0, 0.0, 0.0, 0.0, 0.0, 0.0, 0.0, 0.0, 0.0, 1.6635813518084352E9, 0.0, 2022-09-19 14:55:51.808
242.0, 38438.92078863631, 30358.25107792033, 6903.2245162993095, 17006.28006533147, 11521.385493443668, 187500.0, -121365.01030504827, 35031.19618072465, 0.5, -0.718, 0.522, 192.0, 0.0, 0.0, 0.0, 0.0, 0.0, 0.0, 0.0, 0.0, 0.0, 1.6635813518123631E9, 0.0, 2022-09-19 14:55:51.812
243.0, 38460.04318714657, 30367.795272802745, 6911.27114430322, 17021.166327138704, 11535.444740706056, 187500.0, -121326.36413888505, 35060.812242127926, 0.5, -0.718, 0.522, 192.0, 0.0, 0.0, 0.0, 0.0, 0.0, 0.0, 0.0, 0.0, 0.0, 1.6635813518173985E9, 0.0, 2022-09-19 14:55:51.817
244.0, 38461.00431215815, 30361.067397721697, 6913.46161525984, 17042.780464026986, 11541.18913903107, 187500.0, -121309.5779787991, 35079.36419002583, 0.5, -0.718, 0.522, 192.0, 0.0, 0.0, 0.0, 0.0, 0.0, 0.0, 0.0, 0.0, 0.0, 1.6635813518204288E9, 0.0, 2022-09-19 14:55:51.820
245.0, 38439.591340969964, 30358.608705831615, 6910.220612313821, 17035.113815678815, 11527.778092357887, 187500.0, -121340.51279312525, 35058.84528861586, 0.5, -0.718, 0.522, 192.0, 0.0, 0.0, 0.0, 0.0, 0.0, 0.0, 0.0, 0.0, 0.0, 1.6635813518244164E9, 0.0, 2022-09-19 14:55:51.824
246.0, 38421.37466923889, 30343.074243435174, 6900.385844753486, 17014.013768913006, 11514.590563129255, 187500.0, -121370.10650278408, 35033.520762148, 0.5, -0.718, 0.522, 192.0, 0.0, 0.0, 0.0, 0.0, 0.0, 0.0, 0.0, 0.0, 0.0, 1.6635813518284547E9, 0.0, 2022-09-19 14:55:51.828
247.0, 38431.74587866615, 30358.653409320523, 6905.616152956028, 17001.429736784667, 11521.050217276837, 187500.0, -121355.89079331051, 35039.37691919529, 0.5, -0.718, 0.522, 192.0, 0.0, 0.0, 0.0, 0.0, 0.0, 0.0, 0.0, 0.0, 0.0, 1.6635813518324428E9, 0.0, 2022-09-19 14:55:51.832
248.0, 38451.39306204236, 30380.781636331278, 6906.264353545232, 17006.861210687304, 11532.069627293306, 187500.0, -121320.55268532666, 35058.46530896012, 0.5, -0.718, 0.522, 192.0, 0.0, 0.0, 0.0, 0.0, 0.0, 0.0, 0.0, 0.0, 0.0, 1.6635813518364205E9, 0.0, 2022-09-19 14:55:51.836
249.0, 38458.61267550143, 30375.663086851015, 6899.491774975273, 17022.395673083745, 11532.203737760037, 187500.0, -121303.74417349628, 35075.2291173016, 0.5, -0.718, 0.522, 192.0, 0.0, 0.0, 0.0, 0.0, 0.0, 0.0, 0.0, 0.0, 0.0, 1.6635813518404896E9, 0.0, 2022-09-19 14:55:51.840
250.0, 38445.55925673953, 30359.323961654183, 6902.643370943471, 17036.61138255732, 11529.052141791839, 187500.0, -121325.69358655138, 35069.90940212124, 0.496, -0.72, 0.52, 192.0, 15.0, 128.0, 233.0, 128.0, 16.0, 64.0, 0.0, 0.0, 0.0, 1.6635813518454466E9, 0.0, 2022-09-19 14:55:51.845
251.0, 38434.18221881178, 30360.06156922121, 6899.782347653192, 17028.47534757559, 11529.320362725302, 187500.0, -121349.56524962965, 35056.49835544805, 0.496, -0.72, 0.52, 192.0, 0.0, 0.0, 0.0, 0.0, 0.0, 0.0, 0.0, 0.0, 0.0, 1.663581351848503E9, 0.0, 2022-09-19 14:55:51.848
252.0, 38430.74005016566, 30364.353104156628, 6893.3003417611535, 17016.13718463626, 11533.589545916266, 187500.0, -121356.0919590106, 35049.56931466691, 0.496, -0.72, 0.52, 192.0, 0.0, 0.0, 0.0, 0.0, 0.0, 0.0, 0.0, 0.0, 0.0, 1.6635813518514948E9, 0.0, 2022-09-19 14:55:51.851
253.0, 38439.3231200365, 30369.829281548176, 6893.814431883626, 17020.36166433831, 11544.921880355107, 187500.0, -121337.36119715706, 35059.269971760514, 0.496, -0.72, 0.52, 192.0, 0.0, 0.0, 0.0, 0.0, 0.0, 0.0, 0.0, 0.0, 0.0, 1.6635813518566148E9, 0.0, 2022-09-19 14:55:51.856
254.0, 38437.98201536918, 30360.10627271012, 6894.641446428472, 17028.318885364402, 11552.499121725456, 187500.0, -121328.17463018592, 35068.79181489847, 0.496, -0.72, 0.52, 192.0, 0.0, 0.0, 0.0, 0.0, 0.0, 0.0, 0.0, 0.0, 0.0, 1.6635813518604932E9, 0.0, 2022-09-19 14:55:51.860
255.0, 38431.81293389951, 30365.850671035132, 6903.828013399603, 17034.689132534164, 11556.4777322385, 187500.0, -121349.67700835194, 35063.51680320702, 0.496, -0.72, 0.52, 192.0, 0.0, 0.0, 0.0, 0.0, 0.0, 0.0, 0.0, 0.0, 0.0, 1.663581351864572E9, 0.0, 2022-09-19 14:55:51.864
0.0, 38418.58070118198, 30347.678702792968, 6911.181737325399, 17038.66774304721, 11551.627403691698, 187500.0, -121382.98110759034, 35045.94833206515, 0.496, -0.72, 0.52, 192.0, 0.0, 0.0, 0.0, 0.0, 0.0, 0.0, 0.0, 0.0, 0.0, 1.663581351868504E9, 0.0, 2022-09-19 14:55:51.868
1.0, 38412.41161971231, 30330.937246195943, 6913.707484448849, 17038.377170369287, 11551.33683101378, 187500.0, -121392.79352340622, 35038.728718606086, 0.496, -0.72, 0.52, 192.0, 0.0, 0.0, 0.0, 0.0, 0.0, 0.0, 0.0, 0.0, 0.0, 1.6635813518714814E9, 0.0, 2022-09-19 14:55:51.871
2.0, 38422.49225646165, 30354.13835694055, 6915.719141449827, 17033.839766244862, 11560.635156707187, 187500.0, -121373.43691270793, 35047.26708498801, 0.496, -0.72, 0.52, 192.0, 0.0, 0.0, 0.0, 0.0, 0.0, 0.0, 0.0, 0.0, 0.0, 1.66358135187556E9, 0.0, 2022-09-19 14:55:51.875
3.0, 38422.62636692839, 30355.52416509678, 6912.6122489705385, 17027.84949873084, 11562.199778819058, 187500.0, -121370.12885452854, 35050.30692223393, 0.496, -0.72, 0.52, 192.0, 0.0, 0.0, 0.0, 0.0, 0.0, 0.0, 0.0, 0.0, 0.0, 1.6635813518795516E9, 0.0, 2022-09-19 14:55:51.879
4.0, 38414.55738718002, 30360.508604110317, 6916.009714127746, 17032.56571681091, 11567.675956210609, 187500.0, -121398.53792173123, 35041.3215209629, 0.504, -0.72, 0.518, 192.0, 15.0, 192.0, 233.0, 128.0, 16.0, 48.0, 0.0, 0.0, 0.0, 1.663581351884519E9, 0.0, 2022-09-19 14:55:51.884
5.0, 38412.43397145677, 30368.801101303234, 6924.4139700429405, 17038.064245946916, 11578.248331337969, 187500.0, -121422.2084191094, 35038.572256394895, 0.504, -0.72, 0.518, 192.0, 0.0, 0.0, 0.0, 0.0, 0.0, 0.0, 0.0, 0.0, 0.0, 1.663581351888595E9, 0.0, 2022-09-19 14:55:51.888
6.0, 38416.92667209228, 30375.931307784478, 6931.186548612899, 17039.76297852552, 11589.133630887703, 187500.0, -121421.62727375356, 35045.16602100921, 0.504, -0.72, 0.518, 192.0, 0.0, 0.0, 0.0, 0.0, 0.0, 0.0, 0.0, 0.0, 0.0, 1.6635813518925955E9, 0.0, 2022-09-19 14:55:51.892
7.0, 38428.01313734212, 30374.67961009498, 6929.174891611921, 17033.12451042229, 11593.29105535639, 187500.0, -121407.81389568018, 35057.14655603726, 0.504, -0.72, 0.518, 192.0, 0.0, 0.0, 0.0, 0.0, 0.0, 0.0, 0.0, 0.0, 0.0, 1.663581351896602E9, 0.0, 2022-09-19 14:55:51.896
8.0, 38426.29205301905, 30374.09846473914, 6921.351781052564, 17036.074940690392, 11594.207476879059, 187500.0, -121412.15013410451, 35064.05324507395, 0.504, -0.72, 0.518, 192.0, 0.0, 0.0, 0.0, 0.0, 0.0, 0.0, 0.0, 0.0, 0.0, 1.6635813518995776E9, 0.0, 2022-09-19 14:55:51.899
9.0, 38418.24542501514, 30378.68057235248, 6924.190452598388, 17042.333429137878, 11598.856639725762, 187500.0, -121441.78854725225, 35058.778233382494, 0.504, -0.72, 0.518, 192.0, 0.0, 0.0, 0.0, 0.0, 0.0, 0.0, 0.0, 0.0, 0.0, 1.6635813519036255E9, 0.0, 2022-09-19 14:55:51.903
10.0, 38411.60695691192, 30364.39780764554, 6918.580164740106, 17038.75715002503, 11595.034491423905, 187500.0, -121466.88955627556, 35053.10089029084, 0.504, -0.72, 0.518, 192.0, 0.0, 0.0, 0.0, 0.0, 0.0, 0.0, 0.0, 0.0, 0.0, 1.6635813519076777E9, 0.0, 2022-09-19 14:55:51.907
11.0, 38424.012175084616, 30361.223859932885, 6930.583051512605, 17054.291612421468, 11609.071386941838, 187500.0, -121460.54166085026, 35066.48958521958, 0.504, -0.72, 0.518, 192.0, 0.0, 0.0, 0.0, 0.0, 0.0, 0.0, 0.0, 0.0, 0.0, 1.663581351912639E9, 0.0, 2022-09-19 14:55:51.912
12.0, 38434.785715912076, 30372.533842627272, 6930.448941045874, 17052.99521124306, 11615.016950966949, 187500.0, -121442.30263737473, 35077.88897489178, 0.504, -0.72, 0.518, 192.0, 0.0, 0.0, 0.0, 0.0, 0.0, 0.0, 0.0, 0.0, 0.0, 1.6635813519166515E9, 0.0, 2022-09-19 14:55:51.916
13.0, 38436.64091070186, 30377.518281640805, 6928.392580555986, 17054.80570254394, 11614.636971311209, 187500.0, -121438.59224779514, 35085.28740230649, 0.504, -0.72, 0.518, 192.0, 0.0, 0.0, 0.0, 0.0, 0.0, 0.0, 0.0, 0.0, 0.0, 1.6635813519206514E9, 0.0, 2022-09-19 14:55:51.920
14.0, 38430.293015276555, 30375.707790339922, 6930.918327679436, 17057.823188045408, 11611.306561387368, 187500.0, -121469.86233828812, 35077.732512680595, 0.51, -0.722, 0.52, 192.0, 15.0, 240.0, 233.0, 112.0, 16.0, 64.0, 0.0, 0.0, 0.0, 1.6635813519246247E9, 0.0, 2022-09-19 14:55:51.924
15.0, 38428.191951297755, 30382.636831121068, 6941.46835106234, 17065.42278116021, 11617.00625622347, 187500.0, -121497.89142583507, 35072.30103877796, 0.51, -0.722, 0.52, 192.0, 0.0, 0.0, 0.0, 0.0, 0.0, 0.0, 0.0, 0.0, 0.0, 1.6635813519276211E9, 0.0, 2022-09-19 14:55:51.927
16.0, 38429.89068387636, 30379.105255497132, 6940.060191161656, 17061.66768809172, 11621.118977203249, 187500.0, -121504.88752184958, 35071.80930039994, 0.51, -0.722, 0.52, 192.0, 0.0, 0.0, 0.0, 0.0, 0.0, 0.0, 0.0, 0.0, 0.0, 1.6635813519336617E9, 0.0, 2022-09-19 14:55:51.933
17.0, 38438.58551246947, 30382.815645076713, 6930.784217212703, 17044.590955327865, 11620.962514992061, 187500.0, -121491.94586180996, 35079.76652142603, 0.51, -0.722, 0.52, 192.0, 0.0, 0.0, 0.0, 0.0, 0.0, 0.0, 0.0, 0.0, 0.0, 1.663581351936643E9, 0.0, 2022-09-19 14:55:51.936
18.0, 38447.70502420724, 30393.745648115357, 6934.539310281195, 17041.931097737684, 11622.705951059575, 187500.0, -121476.94784128045, 35092.10468436535, 0.51, -0.722, 0.52, 192.0, 0.0, 0.0, 0.0, 0.0, 0.0, 0.0, 0.0, 0.0, 0.0, 1.6635813519416852E9, 0.0, 2022-09-19 14:55:51.941
19.0, 38439.099602591945, 30394.59501440466, 6940.239005117298, 17046.89318500676, 11620.001389980484, 187500.0, -121505.78159162779, 35081.59936447136, 0.51, -0.722, 0.52, 192.0, 0.0, 0.0, 0.0, 0.0, 0.0, 0.0, 0.0, 0.0, 0.0, 1.663581351945659E9, 0.0, 2022-09-19 14:55:51.945
20.0, 38426.739087908165, 30378.81468281921, 6936.3274498376195, 17055.878586277795, 11614.949895733584, 187500.0, -121540.42679553352, 35068.300076520456, 0.51, -0.722, 0.52, 192.0, 0.0, 0.0, 0.0, 0.0, 0.0, 0.0, 0.0, 0.0, 0.0, 1.6635813519487317E9, 0.0, 2022-09-19 14:55:51.948
21.0, 38426.56027395252, 30365.67185707949, 6929.241946845287, 17058.09140897887, 11617.743863790496, 187500.0, -121547.10996712565, 35069.685884676685, 0.51, -0.722, 0.52, 192.0, 0.0, 0.0, 0.0, 0.0, 0.0, 0.0, 0.0, 0.0, 0.0, 1.66358135195476E9, 0.0, 2022-09-19 14:55:51.954
22.0, 38428.99661409815, 30362.855537278123, 6928.794911956181, 17059.588975857376, 11631.579593608332, 187500.0, -121533.83303091921, 35084.05805636145, 0.51, -0.722, 0.52, 192.0, 0.0, 0.0, 0.0, 0.0, 0.0, 0.0, 0.0, 0.0, 0.0, 1.6635813519577155E9, 0.0, 2022-09-19 14:55:51.957
23.0, 38424.10158206244, 30361.045045977244, 6926.023295643723, 17059.141940968268, 11632.428959897634, 187500.0, -121538.07986236572, 35084.32627729491, 0.51, -0.722, 0.52, 192.0, 0.0, 0.0, 0.0, 0.0, 0.0, 0.0, 0.0, 0.0, 0.0, 1.6635813519607234E9, 0.0, 2022-09-19 14:55:51.960
24.0, 38414.93736683576, 30362.63201983357, 6923.877528176014, 17059.454865390642, 11632.272497686447, 187500.0, -121573.70854302747, 35073.888012634285, 0.508, -0.718, 0.52, 192.0, 15.0, 224.0, 233.0, 144.0, 16.0, 64.0, 0.0, 0.0, 0.0, 1.6635813519636505E9, 0.0, 2022-09-19 14:55:51.963
25.0, 38411.69636388974, 30364.129586712075, 6925.531557265706, 17057.264394434023, 11635.222927954546, 187500.0, -121599.16717996207, 35070.35643701034, 0.508, -0.718, 0.52, 192.0, 0.0, 0.0, 0.0, 0.0, 0.0, 0.0, 0.0, 0.0, 0.0, 1.6635813519677308E9, 0.0, 2022-09-19 14:55:51.967
26.0, 38416.79256162555, 30366.074188479688, 6924.033990387201, 17053.129321709792, 11635.379390165734, 187500.0, -121605.11274398718, 35075.0279516015, 0.508, -0.718, 0.52, 192.0, 0.0, 0.0, 0.0, 0.0, 0.0, 0.0, 0.0, 0.0, 0.0, 1.6635813519727368E9, 0.0, 2022-09-19 14:55:51.972
27.0, 38426.314404763514, 30372.0197525048, 6922.447016530874, 17055.74447581106, 11643.314259447368, 187500.0, -121593.75805780389, 35086.06971336243, 0.508, -0.718, 0.52, 192.0, 0.0, 0.0, 0.0, 0.0, 0.0, 0.0, 0.0, 0.0, 0.0, 1.6635813519767373E9, 0.0, 2022-09-19 14:55:51.976
28.0, 38427.40964024182, 30376.512453140316, 6921.1282636080105, 17051.587051342376, 11647.270518215957, 187500.0, -121594.22744443745, 35089.55658549745, 0.508, -0.718, 0.52, 192.0, 0.0, 0.0, 0.0, 0.0, 0.0, 0.0, 0.0, 0.0, 0.0, 1.6635813519807315E9, 0.0, 2022-09-19 14:55:51.980
29.0, 38418.37953548188, 30377.451226407436, 6922.379961297508, 17048.70367630764, 11642.129616991237, 187500.0, -121626.68217738655, 35081.1299778378, 0.508, -0.718, 0.52, 192.0, 0.0, 0.0, 0.0, 0.0, 0.0, 0.0, 0.0, 0.0, 0.0, 1.6635813519837565E9, 0.0, 2022-09-19 14:55:51.983
30.0, 38404.81202659751, 30357.334656397663, 6923.944583409379, 17044.635658816776, 11634.30650643188, 187500.0, -121666.62474472818, 35064.924963107704, 0.508, -0.718, 0.52, 192.0, 0.0, 0.0, 0.0, 0.0, 0.0, 0.0, 0.0, 0.0, 0.0, 1.6635813519877737E9, 0.0, 2022-09-19 14:55:51.987
31.0, 38411.316384234, 30360.95563899942, 6930.381885812508, 17054.112798465827, 11640.497939645998, 187500.0, -121678.49352103396, 35067.54011720898, 0.508, -0.718, 0.52, 192.0, 0.0, 0.0, 0.0, 0.0, 0.0, 0.0, 0.0, 0.0, 0.0, 1.6635813519917607E9, 0.0, 2022-09-19 14:55:51.991
32.0, 38422.045221572545, 30365.49304312385, 6937.109760893555, 17065.109856737836, 11648.455160672089, 187500.0, -121672.65971573112, 35079.07361734791, 0.508, -0.718, 0.52, 192.0, 0.0, 0.0, 0.0, 0.0, 0.0, 0.0, 0.0, 0.0, 0.0, 1.663581351995802E9, 0.0, 2022-09-19 14:55:51.995
33.0, 38431.00827109913, 30364.53191811227, 6937.400333571474, 17060.371286913312, 11649.013954283471, 187500.0, -121664.7695499384, 35087.07554186291, 0.508, -0.718, 0.52, 192.0, 0.0, 0.0, 0.0, 0.0, 0.0, 0.0, 0.0, 0.0, 0.0, 1.663581352000808E9, 0.0, 2022-09-19 14:55:52.000
34.0, 38417.82074187049, 30355.166537185498, 6937.892071949491, 17061.868853791817, 11645.281212959435, 187500.0, -121697.6713177766, 35075.65380044625, 0.508, -0.718, 0.52, 192.0, 0.0, 0.0, 0.0, 0.0, 0.0, 0.0, 0.0, 0.0, 0.0, 1.6635813520047765E9, 0.0, 2022-09-19 14:55:52.004
35.0, 38408.902395832825, 30353.870136007088, 6940.306060350664, 17060.70656308014, 11646.30939320438, 187500.0, -121737.01038801795, 35066.48958521958, 0.504, -0.716, 0.518, 192.0, 15.0, 192.0, 233.0, 160.0, 16.0, 48.0, 0.0, 0.0, 0.0, 1.6635813520088203E9, 0.0, 2022-09-19 14:55:52.008
36.0, 38412.70219239023, 30365.49304312385, 6944.776409241726, 17068.306156194943, 11650.82444558435, 187500.0, -121753.99771380398, 35067.18248929769, 0.504, -0.716, 0.518, 192.0, 0.0, 0.0, 0.0, 0.0, 0.0, 0.0, 0.0, 0.0, 0.0, 1.6635813520117748E9, 0.0, 2022-09-19 14:55:52.011
37.0, 38419.877102360384, 30364.978953001377, 6946.117513909044, 17068.172045728214, 11652.120846762758, 187500.0, -121755.02589404893, 35072.25633528904, 0.504, -0.716, 0.518, 192.0, 0.0, 0.0, 0.0, 0.0, 0.0, 0.0, 0.0, 0.0, 0.0, 1.663581352016756E9, 0.0, 2022-09-19 14:55:52.016
38.0, 38421.66524191681, 30359.078092465177, 6940.239005117298, 17065.959223027137, 11650.176244995147, 187500.0, -121757.77515861693, 35075.54204172397, 0.504, -0.716, 0.518, 192.0, 0.0, 0.0, 0.0, 0.0, 0.0, 0.0, 0.0, 0.0, 0.0, 1.6635813520218167E9, 0.0, 2022-09-19 14:55:52.021
39.0, 38412.121047034394, 30352.573734828682, 6933.846406203081, 17067.23327246109, 11650.265651972968, 187500.0, -121791.21336832206, 35067.00367534205, 0.504, -0.716, 0.518, 192.0, 0.0, 0.0, 0.0, 0.0, 0.0, 0.0, 0.0, 0.0, 0.0, 1.663581352024907E9, 0.0, 2022-09-19 14:55:52.024
40.0, 38405.08024753097, 30350.964409227898, 6935.3886765704965, 17058.717257823617, 11651.271480473457, 187500.0, -121830.88771473024, 35055.58193392539, 0.504, -0.716, 0.518, 192.0, 0.0, 0.0, 0.0, 0.0, 0.0, 0.0, 0.0, 0.0, 0.0, 1.6635813520299237E9, 0.0, 2022-09-19 14:55:52.029
41.0, 38403.873253330385, 30344.52710682477, 6934.785179470204, 17055.18568219968, 11652.21025374058, 187500.0, -121849.66318007269, 35052.22917225709, 0.504, -0.716, 0.518, 192.0, 0.0, 0.0, 0.0, 0.0, 0.0, 0.0, 0.0, 0.0, 0.0, 1.663581352033843E9, 0.0, 2022-09-19 14:55:52.033
42.0, 38410.04233480005, 30350.38326387206, 6931.633583502005, 17059.94660376866, 11654.512483419478, 187500.0, -121852.4124446407, 35056.341893236866, 0.504, -0.716, 0.518, 192.0, 0.0, 0.0, 0.0, 0.0, 0.0, 0.0, 0.0, 0.0, 0.0, 1.6635813520368056E9, 0.0, 2022-09-19 14:55:52.036
43.0, 38418.31248024851, 30370.321019926196, 6922.4693682753295, 17050.00007748605, 11647.963422294071, 187500.0, -121849.46201437259, 35063.13682355128, 0.504, -0.716, 0.518, 192.0, 0.0, 0.0, 0.0, 0.0, 0.0, 0.0, 0.0, 0.0, 0.0, 1.6635813520408177E9, 0.0, 2022-09-19 14:55:52.040
44.0, 38410.154093522324, 30367.392941402548, 6921.508243263751, 17055.230385688592, 11638.709800089575, 187500.0, -121882.25202348853, 35051.2233437566, 0.504, -0.716, 0.518, 192.0, 0.0, 0.0, 0.0, 0.0, 0.0, 0.0, 0.0, 0.0, 0.0, 1.663581352043862E9, 0.0, 2022-09-19 14:55:52.043
45.0, 38396.117198004395, 30353.758377284812, 6915.294458305176, 17050.38005714179, 11630.35024766329, 187500.0, -121926.39671878777, 35034.54894239294, 0.504, -0.714, 0.518, 192.0, 15.0, 192.0, 233.0, 176.0, 16.0, 48.0, 0.0, 0.0, 0.0, 1.6635813520478165E9, 0.0, 2022-09-19 14:55:52.047
46.0, 38394.574927636975, 30342.023711445778, 6908.276010546209, 17045.32856289489, 11629.120901718248, 187500.0, -121940.8806491948, 35034.63834937076, 0.504, -0.714, 0.518, 192.0, 0.0, 0.0, 0.0, 0.0, 0.0, 0.0, 0.0, 0.0, 0.0, 1.6635813520518436E9, 0.0, 2022-09-19 14:55:52.051
47.0, 38410.89170108935, 30349.064510949196, 6923.430493286907, 17058.09140897887, 11640.430884412634, 187500.0, -121927.24608507707, 35054.374939724796, 0.504, -0.714, 0.518, 192.0, 0.0, 0.0, 0.0, 0.0, 0.0, 0.0, 0.0, 0.0, 0.0, 1.6635813520558622E9, 0.0, 2022-09-19 14:55:52.055
48.0, 38417.03843081456, 30361.737950055358, 6923.65401073146, 17057.018525245014, 11636.027590754939, 187500.0, -121925.68146296519, 35061.25927701703, 0.504, -0.714, 0.518, 192.0, 0.0, 0.0, 0.0, 0.0, 0.0, 0.0, 0.0, 0.0, 0.0, 1.6635813520608869E9, 0.0, 2022-09-19 14:55:52.060
49.0, 38401.36985795139, 30347.701054537425, 6922.1787955974105, 17053.486949621078, 11623.756483048974, 187500.0, -121966.07106519594, 35045.61305589832, 0.504, -0.714, 0.518, 192.0, 0.0, 0.0, 0.0, 0.0, 0.0, 0.0, 0.0, 0.0, 0.0, 1.663581352063839E9, 0.0, 2022-09-19 14:55:52.063
50.0, 38394.4631689147, 30341.286103878752, 6926.604440999561, 17052.95050775415, 11620.53783184741, 187500.0, -122004.06903076996, 35039.913361062216, 0.504, -0.714, 0.518, 192.0, 0.0, 0.0, 0.0, 0.0, 0.0, 0.0, 0.0, 0.0, 0.0, 1.6635813520680132E9, 0.0, 2022-09-19 14:55:52.068
51.0, 38402.55450040752, 30354.9653714854, 6933.868757947535, 17062.986441014582, 11629.567936607355, 187500.0, -122020.65402515579, 35045.81422159842, 0.504, -0.714, 0.518, 192.0, 0.0, 0.0, 0.0, 0.0, 0.0, 0.0, 0.0, 0.0, 0.0, 1.6635813520719156E9, 0.0, 2022-09-19 14:55:52.071
52.0, 38411.83047435647, 30364.48721462336, 6934.9192899369355, 17062.651164847754, 11635.893480288207, 187500.0, -122021.43633621173, 35054.62080891381, 0.504, -0.714, 0.518, 192.0, 0.0, 0.0, 0.0, 0.0, 0.0, 0.0, 0.0, 0.0, 0.0, 1.6635813520759115E9, 0.0, 2022-09-19 14:55:52.075
53.0, 38419.318308749, 30360.91093551051, 6932.304135835664, 17060.885377035782, 11637.860433800273, 187500.0, -122016.69776638721, 35065.05907357443, 0.504, -0.714, 0.518, 192.0, 0.0, 0.0, 0.0, 0.0, 0.0, 0.0, 0.0, 0.0, 0.0, 1.6635813520799737E9, 0.0, 2022-09-19 14:55:52.079
54.0, 38415.92084359179, 30347.94692372643, 6934.382848070008, 17065.355725926845, 11639.760332078975, 187500.0, -122039.4071387538, 35067.47306197561, 0.504, -0.714, 0.518, 192.0, 0.0, 0.0, 0.0, 0.0, 0.0, 0.0, 0.0, 0.0, 0.0, 1.6635813520839577E9, 0.0, 2022-09-19 14:55:52.083
55.0, 38403.113294018905, 30342.67191203498, 6934.293441092186, 17065.400429415757, 11640.58734662382, 187500.0, -122087.0163544436, 35054.71021589163, 0.506, -0.716, 0.516, 192.0, 15.0, 208.0, 233.0, 160.0, 16.0, 32.0, 0.0, 0.0, 0.0, 1.6635813520889313E9, 0.0, 2022-09-19 14:55:52.088
56.0, 38401.03458178456, 30349.265676649295, 6932.661763746949, 17062.51705438102, 11642.330782691335, 187500.0, -122112.49734312265, 35051.49156469006, 0.506, -0.716, 0.516, 192.0, 0.0, 0.0, 0.0, 0.0, 0.0, 0.0, 0.0, 0.0, 0.0, 1.6635813520929372E9, 0.0, 2022-09-19 14:55:52.092
57.0, 38415.7196778917, 30372.466787393903, 6930.136016623499, 17057.018525245014, 11649.460989172578, 187500.0, -122108.18345644277, 35062.756843895535, 0.506, -0.716, 0.516, 192.0, 0.0, 0.0, 0.0, 0.0, 0.0, 0.0, 0.0, 0.0, 0.0, 1.663581352096953E9, 0.0, 2022-09-19 14:55:52.096
58.0, 38433.53401822258, 30385.140226500065, 6934.338144581097, 17070.161350984734, 11659.07223928836, 187500.0, -122099.39922087184, 35082.828710416405, 0.506, -0.716, 0.516, 192.0, 0.0, 0.0, 0.0, 0.0, 0.0, 0.0, 0.0, 0.0, 0.0, 1.6635813520999067E9, 0.0, 2022-09-19 14:55:52.099
59.0, 38421.26291051661, 30360.799176788234, 6927.878490433513, 17074.922272553715, 11652.746695607508, 187500.0, -122135.76550910063, 35074.98324811259, 0.506, -0.716, 0.516, 192.0, 0.0, 0.0, 0.0, 0.0, 0.0, 0.0, 0.0, 0.0, 0.0, 1.6635813521039643E9, 0.0, 2022-09-19 14:55:52.103
60.0, 38412.612785412406, 30355.993551730342, 6929.309002078653, 17086.634586648295, 11654.333669463835, 187500.0, -122180.98308813371, 35063.09212006237, 0.506, -0.716, 0.516, 192.0, 0.0, 0.0, 0.0, 0.0, 0.0, 0.0, 0.0, 0.0, 0.0, 1.6635813521100037E9, 0.0, 2022-09-19 14:55:52.110
61.0, 38412.00928831212, 30360.173327943485, 6934.807531214658, 17090.76965937253, 11658.982832310538, 187500.0, -122208.16280939136, 35061.48279446158, 0.506, -0.716, 0.516, 192.0, 0.0, 0.0, 0.0, 0.0, 0.0, 0.0, 0.0, 0.0, 0.0, 1.6635813521129503E9, 0.0, 2022-09-19 14:55:52.112
62.0, 38425.330928007475, 30367.169423957996, 6933.108798636055, 17087.79687735997, 11667.588253925831, 187500.0, -122205.21237912326, 35076.279649291, 0.506, -0.716, 0.516, 192.0, 0.0, 0.0, 0.0, 0.0, 0.0, 0.0, 0.0, 0.0, 0.0, 1.6635813521169846E9, 0.0, 2022-09-19 14:55:52.116
63.0, 38438.2725880471, 30376.557156629224, 6935.947470181879, 17086.4334209482, 11674.293777262423, 187500.0, -122191.93544291682, 35092.10468436535, 0.506, -0.716, 0.516, 192.0, 0.0, 0.0, 0.0, 0.0, 0.0, 0.0, 0.0, 0.0, 0.0, 1.6635813521200116E9, 0.0, 2022-09-19 14:55:52.120
64.0, 38429.15307630933, 30374.657258350526, 6935.746304481781, 17084.891150580785, 11668.191751026125, 187500.0, -122216.20943739527, 35088.79662618597, 0.506, -0.716, 0.516, 192.0, 0.0, 0.0, 0.0, 0.0, 0.0, 0.0, 0.0, 0.0, 0.0, 1.663581352124009E9, 0.0, 2022-09-19 14:55:52.124
65.0, 38414.73620113566, 30368.599935603135, 6935.500435292774, 17080.57726390091, 11661.486227689533, 187500.0, -122261.78464433964, 35074.42445450121, 0.506, -0.716, 0.52, 192.0, 15.0, 208.0, 233.0, 160.0, 16.0, 64.0, 0.0, 0.0, 0.0, 1.6635813521279857E9, 0.0, 2022-09-19 14:55:52.127
66.0, 38409.6176516554, 30365.604801846126, 6939.724914994827, 17071.211882974134, 11661.821503856363, 187500.0, -122289.27729001967, 35067.85304163135, 0.506, -0.716, 0.52, 192.0, 0.0, 0.0, 0.0, 0.0, 0.0, 0.0, 0.0, 0.0, 0.0, 1.66358135213199E9, 0.0, 2022-09-19 14:55:52.131
67.0, 38416.390230225355, 30374.187871716964, 6945.268147619742, 17080.689022623184, 11669.197579526613, 187500.0, -122296.40749650092, 35072.32339052241, 0.506, -0.716, 0.52, 192.0, 0.0, 0.0, 0.0, 0.0, 0.0, 0.0, 0.0, 0.0, 0.0, 1.6635813521359615E9, 0.0, 2022-09-19 14:55:52.135
68.0, 38428.7730966536, 30391.91280507002, 6937.780313227215, 17072.508284152544, 11667.632957414742, 187500.0, -122289.09847606403, 35080.90646039325, 0.506, -0.716, 0.52, 192.0, 0.0, 0.0, 0.0, 0.0, 0.0, 0.0, 0.0, 0.0, 0.0, 1.66358135213997E9, 0.0, 2022-09-19 14:55:52.139
69.0, 38425.24152102965, 30380.848691564646, 6932.75117072477, 17086.232255248102, 11661.64268990072, 187500.0, -122310.69026120786, 35077.732512680595, 0.506, -0.716, 0.52, 192.0, 0.0, 0.0, 0.0, 0.0, 0.0, 0.0, 0.0, 0.0, 0.0, 1.6635813521449728E9, 0.0, 2022-09-19 14:55:52.144
70.0, 38410.019983055594, 30357.87109826459, 6925.553909010161, 17086.52282792602, 11650.891500817717, 187500.0, -122352.82329950611, 35064.76850089651, 0.506, -0.716, 0.52, 192.0, 0.0, 0.0, 0.0, 0.0, 0.0, 0.0, 0.0, 0.0, 0.0, 1.6635813521480832E9, 0.0, 2022-09-19 14:55:52.148
71.0, 38410.869349344895, 30354.33952264065, 6931.588880013094, 17091.551970428463, 11654.177207252647, 187500.0, -122376.69496258438, 35060.43226247219, 0.506, -0.716, 0.52, 192.0, 0.0, 0.0, 0.0, 0.0, 0.0, 0.0, 0.0, 0.0, 0.0, 1.6635813521510475E9, 0.0, 2022-09-19 14:55:52.151
72.0, 38423.05105007304, 30351.322037139184, 6938.026182416223, 17098.77158388753, 11664.883692846739, 187500.0, -122379.75715157475, 35065.99784684156, 0.506, -0.716, 0.52, 192.0, 0.0, 0.0, 0.0, 0.0, 0.0, 0.0, 0.0, 0.0, 0.0, 1.6635813521560535E9, 0.0, 2022-09-19 14:55:52.156
73.0, 38433.64577694485, 30355.278295907774, 6935.366324826041, 17086.14284827028, 11670.203408027102, 187500.0, -122370.12354971452, 35076.9278498802, 0.506, -0.716, 0.52, 192.0, 0.0, 0.0, 0.0, 0.0, 0.0, 0.0, 0.0, 0.0, 0.0, 1.66358135216002E9, 0.0, 2022-09-19 14:55:52.160
74.0, 38428.08019257548, 30376.668915351504, 6932.929984680412, 17084.019432547026, 11665.978928325048, 187500.0, -122393.1905499924, 35073.3292190229, 0.506, -0.716, 0.52, 192.0, 0.0, 0.0, 0.0, 0.0, 0.0, 0.0, 0.0, 0.0, 0.0, 1.6635813521640575E9, 0.0, 2022-09-19 14:55:52.164
75.0, 38421.93346285027, 30388.805912590735, 6942.205958629365, 17091.216694261635, 11673.444410973121, 187500.0, -122435.12242259055, 35064.2767625185, 0.504, -0.716, 0.516, 192.0, 15.0, 192.0, 233.0, 160.0, 16.0, 32.0, 0.0, 0.0, 0.0, 1.663581352168085E9, 0.0, 2022-09-19 14:55:52.168
76.0, 38419.944157593745, 30394.59501440466, 6947.99506044329, 17090.680252394708, 11679.83700988734, 187500.0, -122462.50330954831, 35060.83459387238, 0.504, -0.716, 0.516, 192.0, 0.0, 0.0, 0.0, 0.0, 0.0, 0.0, 0.0, 0.0, 0.0, 1.663581352172064E9, 0.0, 2022-09-19 14:55:52.172
77.0, 38415.898491847336, 30369.829281548176, 6938.406162071963, 17081.203112745658, 11676.752469152507, 187500.0, -122476.96488821089, 35054.732567636085, 0.504, -0.716, 0.516, 192.0, 0.0, 0.0, 0.0, 0.0, 0.0, 0.0, 0.0, 0.0, 0.0, 1.6635813521770537E9, 0.0, 2022-09-19 14:55:52.177
78.0, 38425.77796289659, 30358.698112809434, 6942.742400496292, 17100.671482166228, 11685.089669834337, 187500.0, -122470.81815848568, 35068.94827710966, 0.504, -0.716, 0.516, 192.0, 0.0, 0.0, 0.0, 0.0, 0.0, 0.0, 0.0, 0.0, 0.0, 1.6635813521800964E9, 0.0, 2022-09-19 14:55:52.180
79.0, 38417.79839012604, 30354.00424647382, 6938.048534160678, 17101.00675833306, 11675.07608831836, 187500.0, -122495.74035355335, 35065.483756719084, 0.504, -0.716, 0.516, 192.0, 0.0, 0.0, 0.0, 0.0, 0.0, 0.0, 0.0, 0.0, 0.0, 1.6635813521841123E9, 0.0, 2022-09-19 14:55:52.184
80.0, 38412.00928831212, 30358.787519787256, 6946.832769731614, 17105.968845602136, 11673.444410973121, 187500.0, -122541.0696913087, 35055.51487869202, 0.504, -0.716, 0.516, 192.0, 0.0, 0.0, 0.0, 0.0, 0.0, 0.0, 0.0, 0.0, 0.0, 1.663581352188126E9, 0.0, 2022-09-19 14:55:52.188
81.0, 38403.82854984147, 30357.088787208653, 6944.128208652522, 17102.2361042781, 11667.632957414742, 187500.0, -122581.4816452839, 35044.36135820882, 0.504, -0.716, 0.516, 192.0, 0.0, 0.0, 0.0, 0.0, 0.0, 0.0, 0.0, 0.0, 0.0, 1.6635813521921103E9, 0.0, 2022-09-19 14:55:52.192
82.0, 38402.822721340985, 30347.611647559603, 6938.003830671768, 17094.904732096762, 11664.280195746445, 187500.0, -122600.30181411527, 35044.83074484238, 0.504, -0.716, 0.516, 192.0, 0.0, 0.0, 0.0, 0.0, 0.0, 0.0, 0.0, 0.0, 0.0, 1.6635813521960948E9, 0.0, 2022-09-19 14:55:52.196
83.0, 38415.65262265833, 30364.040179734253, 6942.4294760739185, 17100.29150251049, 11668.974062082061, 187500.0, -122598.7371920034, 35057.660646159726, 0.504, -0.716, 0.516, 192.0, 0.0, 0.0, 0.0, 0.0, 0.0, 0.0, 0.0, 0.0, 0.0, 1.6635813521991177E9, 0.0, 2022-09-19 14:55:52.199
84.0, 38421.2182070277, 30372.8691187941, 6942.4294760739185, 17104.068947323438, 11668.21410277058, 187500.0, -122619.3455003912, 35061.21457352812, 0.504, -0.716, 0.516, 192.0, 0.0, 0.0, 0.0, 0.0, 0.0, 0.0, 0.0, 0.0, 0.0, 1.6635813522031112E9, 0.0, 2022-09-19 14:55:52.203
85.0, 38416.63609941436, 30371.259793193316, 6944.9552231973685, 17100.179743788212, 11660.055716044393, 187500.0, -122674.39784698462, 35043.93667506417, 0.502, -0.72, 0.518, 192.0, 15.0, 176.0, 233.0, 128.0, 16.0, 48.0, 0.0, 0.0, 0.0, 1.663581352207106E9, 0.0, 2022-09-19 14:55:52.207
86.0, 38405.46022718671, 30359.167499442996, 6935.27691784822, 17094.345938485378, 11653.841931085817, 187500.0, -122718.25196960593, 35031.28558770246, 0.502, -0.72, 0.518, 192.0, 0.0, 0.0, 0.0, 0.0, 0.0, 0.0, 0.0, 0.0, 0.0, 1.6635813522121322E9, 0.0, 2022-09-19 14:55:52.212
87.0, 38415.22793951368, 30369.382246659072, 6944.1952638858875, 17100.917351355238, 11664.235492257536, 187500.0, -122731.70771976802, 35038.88518081727, 0.502, -0.72, 0.518, 192.0, 0.0, 0.0, 0.0, 0.0, 0.0, 0.0, 0.0, 0.0, 0.0, 1.6635813522161343E9, 0.0, 2022-09-19 14:55:52.216
88.0, 38426.672032674796, 30374.165519972506, 6952.823037245636, 17114.842488150894, 11676.59600694132, 187500.0, -122733.2723418799, 35052.11741353481, 0.502, -0.72, 0.518, 192.0, 0.0, 0.0, 0.0, 0.0, 0.0, 0.0, 0.0, 0.0, 0.0, 1.6635813522201333E9, 0.0, 2022-09-19 14:55:52.220
89.0, 38423.94511985125, 30373.24909844984, 6956.913406480958, 17113.47903173912, 11676.685413919142, 187500.0, -122760.0273799929, 35050.57514316739, 0.502, -0.72, 0.518, 192.0, 0.0, 0.0, 0.0, 0.0, 0.0, 0.0, 0.0, 0.0, 0.0, 1.6635813522242103E9, 0.0, 2022-09-19 14:55:52.224
90.0, 38408.74593362164, 30370.253964692827, 6961.316700138653, 17104.515982212542, 11668.750544637507, 187500.0, -122825.27212205794, 35028.0669365009, 0.502, -0.72, 0.518, 192.0, 0.0, 0.0, 0.0, 0.0, 0.0, 0.0, 0.0, 0.0, 0.0, 1.6635813522271757E9, 0.0, 2022-09-19 14:55:52.227
91.0, 38399.78288409506, 30356.261772663805, 6962.993080972801, 17094.05536580746, 11662.559111423387, 187500.0, -122874.22244241506, 35014.49942761653, 0.502, -0.72, 0.518, 192.0, 0.0, 0.0, 0.0, 0.0, 0.0, 0.0, 0.0, 0.0, 0.0, 1.6635813522311225E9, 0.0, 2022-09-19 14:55:52.231
92.0, 38392.74208459164, 30351.277333650272, 6956.823999503136, 17077.403316188254, 11655.205387497592, 187500.0, -122908.46531492058, 35004.463494356096, 0.502, -0.72, 0.518, 192.0, 0.0, 0.0, 0.0, 0.0, 0.0, 0.0, 0.0, 0.0, 0.0, 1.6635813522353237E9, 0.0, 2022-09-19 14:55:52.235
93.0, 38396.810102082505, 30367.169423957996, 6952.532464567717, 17075.369307442823, 11659.988660811026, 187500.0, -122921.45167844913, 35011.817218281896, 0.502, -0.72, 0.518, 192.0, 0.0, 0.0, 0.0, 0.0, 0.0, 0.0, 0.0, 0.0, 0.0, 1.6635813522392251E9, 0.0, 2022-09-19 14:55:52.239
94.0, 38408.25419524362, 30386.72720035639, 6964.423592617941, 17092.066060550937, 11672.706803406098, 187500.0, -122943.33403627087, 35028.11163998981, 0.502, -0.72, 0.518, 192.0, 0.0, 0.0, 0.0, 0.0, 0.0, 0.0, 0.0, 0.0, 0.0, 1.6635813522441485E9, 0.0, 2022-09-19 14:55:52.244
95.0, 38396.92186080478, 30382.368610187605, 6968.75983104227, 17092.66955765123, 11667.320032992367, 187500.0, -123008.84699926937, 35016.04169798395, 0.5, -0.72, 0.516, 192.0, 15.0, 160.0, 233.0, 128.0, 16.0, 32.0, 0.0, 0.0, 0.0, 1.6635813522482798E9, 0.0, 2022-09-19 14:55:52.248
96.0, 38383.533165876055, 30367.90703152502, 6967.351671141586, 17089.629720405308, 11662.089724789827, 187500.0, -123074.82934890145, 34996.59568030783, 0.5, -0.72, 0.516, 192.0, 0.0, 0.0, 0.0, 0.0, 0.0, 0.0, 0.0, 0.0, 0.0, 1.6635813522522502E9, 0.0, 2022-09-19 14:55:52.252
97.0, 38384.67310484328, 30359.90510701002, 6966.4352496189185, 17093.3848134738, 11666.604777169798, 187500.0, -123108.08874465094, 34995.94747971863, 0.5, -0.72, 0.516, 192.0, 0.0, 0.0, 0.0, 0.0, 0.0, 0.0, 0.0, 0.0, 0.0, 1.6635813522552545E9, 0.0, 2022-09-19 14:55:52.255
98.0, 38393.18911948075, 30372.91382228301, 6971.263226421264, 17091.887246595295, 11675.389012740734, 187500.0, -123121.25392213512, 35009.38087813627, 0.5, -0.72, 0.516, 192.0, 0.0, 0.0, 0.0, 0.0, 0.0, 0.0, 0.0, 0.0, 0.0, 1.6635813522592213E9, 0.0, 2022-09-19 14:55:52.259
99.0, 38394.37376193688, 30384.33556369967, 6966.479953107829, 17085.874627336816, 11675.523123207466, 187500.0, -123156.86025105242, 35012.97950899357, 0.5, -0.72, 0.516, 192.0, 0.0, 0.0, 0.0, 0.0, 0.0, 0.0, 0.0, 0.0, 0.0, 1.663581352263231E9, 0.0, 2022-09-19 14:55:52.263
100.0, 38374.61481983839, 30368.264659436307, 6952.733630267815, 17085.986386059092, 11667.252977759003, 187500.0, -123229.30225483207, 34996.99801170803, 0.5, -0.72, 0.516, 192.0, 0.0, 0.0, 0.0, 0.0, 0.0, 0.0, 0.0, 0.0, 0.0, 1.6635813522692304E9, 0.0, 2022-09-19 14:55:52.269
101.0, 38362.09784294341, 30359.502775609828, 6948.151522654477, 17091.619025661832, 11662.268538745468, 187500.0, -123290.79190382862, 34985.06218016889, 0.5, -0.72, 0.516, 192.0, 0.0, 0.0, 0.0, 0.0, 0.0, 0.0, 0.0, 0.0, 0.0, 1.6635813522732446E9, 0.0, 2022-09-19 14:55:52.273
102.0, 38369.22804942466, 30356.37353138608, 6955.058211691166, 17099.844467621384, 11668.59408242632, 187500.0, -123316.96579658578, 34994.338154117846, 0.5, -0.72, 0.516, 192.0, 0.0, 0.0, 0.0, 0.0, 0.0, 0.0, 0.0, 0.0, 0.0, 1.6635813522762337E9, 0.0, 2022-09-19 14:55:52.276
103.0, 38381.36504666389, 30359.502775609828, 6958.4556768483735, 17095.95526408616, 11674.561998195888, 187500.0, -123331.47207873728, 35009.73850604755, 0.5, -0.72, 0.516, 192.0, 0.0, 0.0, 0.0, 0.0, 0.0, 0.0, 0.0, 0.0, 0.0, 1.6635813522812743E9, 0.0, 2022-09-19 14:55:52.281
104.0, 38384.20371820971, 30369.672819336993, 6961.406107116474, 17098.615121676343, 11677.490076719532, 187500.0, -123360.90932618492, 35017.44985788463, 0.5, -0.72, 0.516, 192.0, 0.0, 0.0, 0.0, 0.0, 0.0, 0.0, 0.0, 0.0, 0.0, 1.663581352285268E9, 0.0, 2022-09-19 14:55:52.285
105.0, 38367.730482546154, 30360.24038317685, 6955.438191346907, 17099.35272924337, 11666.135390536236, 187500.0, -123429.99856829627, 35000.909566987706, 0.494, -0.716, 0.524, 192.0, 15.0, 112.0, 233.0, 160.0, 16.0, 96.0, 0.0, 0.0, 0.0, 1.6635813522883947E9, 0.0, 2022-09-19 14:55:52.288
106.0, 38351.59252304942, 30342.962484712898, 6943.748228996781, 17092.267226251035, 11653.327840963346, 187500.0, -123506.24036863333, 34978.937802188135, 0.494, -0.716, 0.524, 192.0, 0.0, 0.0, 0.0, 0.0, 0.0, 0.0, 0.0, 0.0, 0.0, 1.6635813522912426E9, 0.0, 2022-09-19 14:55:52.291
107.0, 38347.01041543608, 30338.402728844016, 6943.927042952424, 17088.556836671454, 11651.763218851474, 187500.0, -123552.32966570016, 34974.176880619154, 0.494, -0.716, 0.524, 192.0, 0.0, 0.0, 0.0, 0.0, 0.0, 0.0, 0.0, 0.0, 0.0, 1.6635813522952576E9, 0.0, 2022-09-19 14:55:52.295
108.0, 38356.28638938504, 30352.618438317593, 6951.683098278416, 17084.3323569694, 11651.07031477336, 187500.0, -123576.35779098963, 34982.55878478989, 0.494, -0.716, 0.524, 192.0, 0.0, 0.0, 0.0, 0.0, 0.0, 0.0, 0.0, 0.0, 0.0, 1.6635813522992463E9, 0.0, 2022-09-19 14:55:52.299
109.0, 38367.41755812378, 30357.357008142117, 6958.18745591491, 17086.47812443711, 11653.841931085817, 187500.0, -123604.2751198143, 34993.64525003973, 0.494, -0.716, 0.524, 192.0, 0.0, 0.0, 0.0, 0.0, 0.0, 0.0, 0.0, 0.0, 0.0, 1.6635813523042831E9, 0.0, 2022-09-19 14:55:52.304
110.0, 38354.721767273164, 30351.29968539473, 6959.483857093318, 17084.15354301376, 11646.465855415567, 187500.0, -123673.67728634803, 34977.44023530963, 0.494, -0.716, 0.524, 192.0, 0.0, 0.0, 0.0, 0.0, 0.0, 0.0, 0.0, 0.0, 0.0, 1.6635813523072786E9, 0.0, 2022-09-19 14:55:52.307
111.0, 38346.16104914678, 30350.00328421632, 6957.829828003625, 17079.705545867153, 11643.4483699141, 187500.0, -123740.46429878048, 34961.21286883508, 0.494, -0.716, 0.524, 192.0, 0.0, 0.0, 0.0, 0.0, 0.0, 0.0, 0.0, 0.0, 0.0, 1.6635813523113232E9, 0.0, 2022-09-19 14:55:52.311
112.0, 38352.53129631654, 30364.978953001377, 6960.310871638164, 17074.966976042626, 11648.611622883276, 187500.0, -123782.55263358983, 34958.44125252262, 0.494, -0.716, 0.524, 192.0, 0.0, 0.0, 0.0, 0.0, 0.0, 0.0, 0.0, 0.0, 0.0, 1.66358135231529E9, 0.0, 2022-09-19 14:55:52.315
113.0, 38362.67898829925, 30379.842863064157, 6957.3380896256085, 17074.29642370897, 11653.573710152354, 187500.0, -123808.90534030263, 34961.97282814656, 0.494, -0.716, 0.524, 192.0, 0.0, 0.0, 0.0, 0.0, 0.0, 0.0, 0.0, 0.0, 0.0, 1.663581352319321E9, 0.0, 2022-09-19 14:55:52.319
114.0, 38369.07158721347, 30380.26754620881, 6952.219540145343, 17085.114668025337, 11660.145123022214, 187500.0, -123837.42616622761, 34971.338209073336, 0.494, -0.716, 0.524, 192.0, 0.0, 0.0, 0.0, 0.0, 0.0, 0.0, 0.0, 0.0, 0.0, 1.6635813523232837E9, 0.0, 2022-09-19 14:55:52.323
115.0, 38356.84518299642, 30372.10915948262, 6948.173874398933, 17093.831848362905, 11660.21217825558, 187500.0, -123904.30258563788, 34962.39751129121, 0.5, -0.718, 0.526, 192.0, 15.0, 160.0, 233.0, 144.0, 16.0, 112.0, 0.0, 0.0, 0.0, 1.6635813523274221E9, 0.0, 2022-09-19 14:55:52.327
116.0, 38344.90935145728, 30361.35797039962, 6946.385734842508, 17090.27792099451, 11658.178169510147, 187500.0, -123972.78833064895, 34948.673540195654, 0.5, -0.718, 0.526, 192.0, 0.0, 0.0, 0.0, 0.0, 0.0, 0.0, 0.0, 0.0, 0.0, 1.663581352332356E9, 0.0, 2022-09-19 14:55:52.332
117.0, 38342.40595607829, 30350.271505149783, 6942.384772585007, 17091.462563450645, 11653.618413641265, 187500.0, -124017.40241258174, 34947.690063439615, 0.5, -0.718, 0.526, 192.0, 0.0, 0.0, 0.0, 0.0, 0.0, 0.0, 0.0, 0.0, 0.0, 1.6635813523362896E9, 0.0, 2022-09-19 14:55:52.336
118.0, 38352.151316660806, 30347.321074881685, 6944.441133074896, 17093.854200107362, 11656.613547398276, 187500.0, -124037.25076165806, 34957.99421763352, 0.5, -0.718, 0.526, 192.0, 0.0, 0.0, 0.0, 0.0, 0.0, 0.0, 0.0, 0.0, 0.0, 1.6635813523404384E9, 0.0, 2022-09-19 14:55:52.340
119.0, 38358.566267319475, 30347.09755743713, 6944.821112730636, 17092.3342814844, 11655.853588086795, 187500.0, -124066.57625038341, 34960.51996475696, 0.5, -0.718, 0.526, 192.0, 0.0, 0.0, 0.0, 0.0, 0.0, 0.0, 0.0, 0.0, 0.0, 1.6635813523443627E9, 0.0, 2022-09-19 14:55:52.344
120.0, 38347.07747066945, 30343.789499257746, 6935.053400403667, 17079.034993533493, 11644.655364114686, 187500.0, -124136.2466378506, 34941.6997959256, 0.5, -0.718, 0.526, 192.0, 0.0, 0.0, 0.0, 0.0, 0.0, 0.0, 0.0, 0.0, 0.0, 1.6635813523484051E9, 0.0, 2022-09-19 14:55:52.348
121.0, 38336.46039205317, 30348.14808942653, 6930.001906156767, 17076.37513594331, 11637.100474488792, 187500.0, -124205.20176949522, 34925.897112595696, 0.5, -0.718, 0.526, 192.0, 0.0, 0.0, 0.0, 0.0, 0.0, 0.0, 0.0, 0.0, 0.0, 1.663581352352344E9, 0.0, 2022-09-19 14:55:52.352
122.0, 38352.754813761094, 30364.8671942791, 6940.618984773038, 17082.007775546048, 11646.242337971013, 187500.0, -124235.823659399, 34935.28484526692, 0.5, -0.718, 0.526, 192.0, 0.0, 0.0, 0.0, 0.0, 0.0, 0.0, 0.0, 0.0, 0.0, 1.6635813523573935E9, 0.0, 2022-09-19 14:55:52.357
123.0, 38364.73534878914, 30368.15290071403, 6947.503322065273, 17091.417859961733, 11653.439599685622, 187500.0, -124256.70018872026, 34946.19249656111, 0.5, -0.718, 0.526, 192.0, 0.0, 0.0, 0.0, 0.0, 0.0, 0.0, 0.0, 0.0, 0.0, 1.6635813523603857E9, 0.0, 2022-09-19 14:55:52.360
124.0, 38368.24457266862, 30358.67576106498, 6938.652031260972, 17093.13894428479, 11651.405590940189, 187500.0, -124279.1860436423, 34953.79208967592, 0.5, -0.718, 0.526, 192.0, 0.0, 0.0, 0.0, 0.0, 0.0, 0.0, 0.0, 0.0, 0.0, 1.6635813523633265E9, 0.0, 2022-09-19 14:55:52.363
125.0, 38349.424403837256, 30352.886659251057, 6935.366324826041, 17083.61710114683, 11639.134483234226, 187500.0, -124350.10812879898, 34933.94374059961, 0.5, -0.718, 0.526, 192.0, 0.0, 0.0, 0.0, 0.0, 0.0, 0.0, 0.0, 0.0, 0.0, 1.6635813523674133E9, 0.0, 2022-09-19 14:55:52.367
126.0, 38331.654766995285, 30340.34733061163, 6939.948432439379, 17076.397487687766, 11635.11116923227, 187500.0, -124428.07101345909, 34911.72610661103, 0.508, -0.716, 0.522, 192.0, 15.0, 224.0, 233.0, 160.0, 16.0, 80.0, 0.0, 0.0, 0.0, 1.663581352371444E9, 0.0, 2022-09-19 14:55:52.371
127.0, 38335.78983971952, 30325.57282752667, 6944.9552231973685, 17083.460638935645, 11644.096570503303, 187500.0, -124463.61028714303, 34918.18576075861, 0.508, -0.716, 0.522, 192.0, 0.0, 0.0, 0.0, 0.0, 0.0, 0.0, 0.0, 0.0, 0.0, 1.663581352375428E9, 0.0, 2022-09-19 14:55:52.375
128.0, 38351.994854449615, 30328.47855430586, 6947.056287176167, 17092.267226251035, 11657.529968920942, 187500.0, -124474.8755663485, 34937.743537157, 0.508, -0.716, 0.522, 192.0, 0.0, 0.0, 0.0, 0.0, 0.0, 0.0, 0.0, 0.0, 0.0, 1.6635813523793979E9, 0.0, 2022-09-19 14:55:52.379
129.0, 38358.230991152646, 30348.036330704253, 6939.188473127899, 17096.156429786257, 11658.915777077173, 187500.0, -124498.16608407094, 34944.2478947935, 0.508, -0.716, 0.522, 192.0, 0.0, 0.0, 0.0, 0.0, 0.0, 0.0, 0.0, 0.0, 0.0, 1.6635813523844652E9, 0.0, 2022-09-19 14:55:52.384
130.0, 38347.63626428083, 30358.318133153694, 6942.071848162634, 17097.89986585377, 11658.759314865985, 187500.0, -124565.19896569241, 34929.182819030626, 0.508, -0.716, 0.522, 192.0, 0.0, 0.0, 0.0, 0.0, 0.0, 0.0, 0.0, 0.0, 0.0, 1.6635813523884342E9, 0.0, 2022-09-19 14:55:52.388
131.0, 38346.83160148044, 30374.29963043924, 6948.531502310218, 17101.76671764454, 11664.503713191, 187500.0, -124631.98597812487, 34917.44815319159, 0.508, -0.716, 0.522, 192.0, 0.0, 0.0, 0.0, 0.0, 0.0, 0.0, 0.0, 0.0, 0.0, 1.66358135239143E9, 0.0, 2022-09-19 14:55:52.391
132.0, 38348.39622359231, 30368.197604202942, 6943.345897596586, 17098.257493765057, 11667.029460314448, 187500.0, -124679.86341474814, 34912.77663860043, 0.508, -0.716, 0.522, 192.0, 0.0, 0.0, 0.0, 0.0, 0.0, 0.0, 0.0, 0.0, 0.0, 1.6635813523954966E9, 0.0, 2022-09-19 14:55:52.395
133.0, 38348.5526858035, 30353.177231928974, 6933.824054458625, 17097.497534453578, 11667.431791714644, 187500.0, -124714.84389482069, 34913.87187407874, 0.508, -0.716, 0.522, 192.0, 0.0, 0.0, 0.0, 0.0, 0.0, 0.0, 0.0, 0.0, 0.0, 1.6635813523994894E9, 0.0, 2022-09-19 14:55:52.399
134.0, 38345.356386346386, 30344.348292869126, 6927.27499333322, 17089.562665171943, 11668.012937070482, 187500.0, -124754.2500202954, 34916.08469677981, 0.508, -0.716, 0.522, 192.0, 0.0, 0.0, 0.0, 0.0, 0.0, 0.0, 0.0, 0.0, 0.0, 1.663581352403468E9, 0.0, 2022-09-19 14:55:52.403
135.0, 38331.83358095093, 30337.978045699365, 6924.481025276306, 17091.4849151951, 11661.821503856363, 187500.0, -124831.9670357665, 34901.9360425396, 0.508, -0.716, 0.522, 192.0, 0.0, 0.0, 0.0, 0.0, 0.0, 0.0, 0.0, 0.0, 0.0, 1.6635813524075E9, 0.0, 2022-09-19 14:55:52.407
136.0, 38327.743211715606, 30343.744795768835, 6930.560699768151, 17098.14573504278, 11661.665041645176, 187500.0, -124912.29920533887, 34889.64258308918, 0.506, -0.72, 0.52, 192.0, 15.0, 208.0, 233.0, 128.0, 16.0, 64.0, 0.0, 0.0, 0.0, 1.6635813524115064E9, 0.0, 2022-09-19 14:55:52.411
137.0, 38329.10666812738, 30355.18888892995, 6935.321621337131, 17099.129211798812, 11663.833160857339, 187500.0, -124978.41566543767, 34884.993420242485, 0.506, -0.72, 0.52, 192.0, 0.0, 0.0, 0.0, 0.0, 0.0, 0.0, 0.0, 0.0, 0.0, 1.6635813524164853E9, 0.0, 2022-09-19 14:55:52.416
138.0, 38324.189284347216, 30346.494060336838, 6929.443112545385, 17088.467429693632, 11657.462913687577, 187500.0, -125036.41844229918, 34874.89043174868, 0.506, -0.72, 0.52, 192.0, 0.0, 0.0, 0.0, 0.0, 0.0, 0.0, 0.0, 0.0, 0.0, 1.6635813524195008E9, 0.0, 2022-09-19 14:55:52.419
139.0, 38320.07656336744, 30335.072318920174, 6925.6433159879825, 17088.936816327194, 11650.086838017325, 187500.0, -125092.00723075954, 34871.87294624722, 0.506, -0.72, 0.52, 192.0, 0.0, 0.0, 0.0, 0.0, 0.0, 0.0, 0.0, 0.0, 0.0, 1.6635813524235687E9, 0.0, 2022-09-19 14:55:52.423
140.0, 38315.74032494311, 30344.996493458333, 6931.141845123988, 17094.681214652206, 11650.936204306628, 187500.0, -125172.8981939433, 34864.04983568786, 0.506, -0.72, 0.52, 192.0, 0.0, 0.0, 0.0, 0.0, 0.0, 0.0, 0.0, 0.0, 0.0, 1.663581352428509E9, 0.0, 2022-09-19 14:55:52.428
141.0, 38311.22527256313, 30351.545554583736, 6937.668554504938, 17112.160278816256, 11661.329765478346, 187500.0, -125259.75707289662, 34857.6795885181, 0.506, -0.72, 0.52, 192.0, 0.0, 0.0, 0.0, 0.0, 0.0, 0.0, 0.0, 0.0, 0.0, 1.663581352431534E9, 0.0, 2022-09-19 14:55:52.431
142.0, 38314.935662142714, 30356.19471743044, 6945.715182508849, 17123.291447555, 11674.092611562326, 187500.0, -125327.66167255184, 34857.74664375146, 0.506, -0.72, 0.52, 192.0, 0.0, 0.0, 0.0, 0.0, 0.0, 0.0, 0.0, 0.0, 0.0, 1.6635813524355185E9, 0.0, 2022-09-19 14:55:52.435
143.0, 38315.20388307618, 30356.306476152717, 6942.764752240748, 17112.227334049625, 11671.388050483234, 187500.0, -125387.60905118097, 34852.04694891536, 0.506, -0.72, 0.52, 192.0, 0.0, 0.0, 0.0, 0.0, 0.0, 0.0, 0.0, 0.0, 0.0, 1.6635813524415452E9, 0.0, 2022-09-19 14:55:52.441
144.0, 38324.166932602755, 30385.7213718559, 6952.107781423067, 17117.368235274345, 11678.630015686753, 187500.0, -125430.41264181289, 34861.72525426451, 0.506, -0.72, 0.52, 192.0, 0.0, 0.0, 0.0, 0.0, 0.0, 0.0, 0.0, 0.0, 0.0, 1.6635813524445395E9, 0.0, 2022-09-19 14:55:52.444
145.0, 38327.184418104225, 30394.59501440466, 6962.769563528248, 17129.57228774694, 11686.07314659037, 187500.0, -125510.00720381824, 34861.03235018639, 0.506, -0.72, 0.52, 192.0, 0.0, 0.0, 0.0, 0.0, 0.0, 0.0, 0.0, 0.0, 0.0, 1.6635813524475188E9, 0.0, 2022-09-19 14:55:52.447
146.0, 38315.82973192093, 30374.50079613934, 6971.509095610273, 17145.062046654468, 11687.83893440234, 187500.0, -125613.87576030205, 34845.38612906768, 0.512, -0.716, 0.52, 192.0, 16.0, 0.0, 233.0, 160.0, 16.0, 64.0, 0.0, 0.0, 0.0, 1.6635813524516041E9, 0.0, 2022-09-19 14:55:52.451
147.0, 38306.285537038515, 30367.28118268027, 6971.620854332549, 17141.418712308256, 11691.50462049301, 187500.0, -125702.05339217823, 34834.18790509557, 0.512, -0.716, 0.52, 192.0, 0.0, 0.0, 0.0, 0.0, 0.0, 0.0, 0.0, 0.0, 0.0, 1.6635813524555616E9, 0.0, 2022-09-19 14:55:52.455
148.0, 38293.63444967681, 30352.193755172942, 6954.499418079784, 17120.25161030908, 11679.658195931697, 187500.0, -125784.6430879406, 34823.14614333465, 0.512, -0.716, 0.52, 192.0, 0.0, 0.0, 0.0, 0.0, 0.0, 0.0, 0.0, 0.0, 0.0, 1.663581352459577E9, 0.0, 2022-09-19 14:55:52.459
149.0, 38297.07661832293, 30352.23845866185, 6959.752078026781, 17129.34877030239, 11687.12367857977, 187500.0, -125849.91018175009, 34830.00812888243, 0.512, -0.716, 0.52, 192.0, 0.0, 0.0, 0.0, 0.0, 0.0, 0.0, 0.0, 0.0, 0.0, 1.6635813524635508E9, 0.0, 2022-09-19 14:55:52.463
150.0, 38295.46729272214, 30370.276316437285, 6968.625720575538, 17131.539241259008, 11691.21404781509, 187500.0, -125947.31908408632, 34823.973157879496, 0.512, -0.716, 0.52, 192.0, 0.0, 0.0, 0.0, 0.0, 0.0, 0.0, 0.0, 0.0, 0.0, 1.663581352467687E9, 0.0, 2022-09-19 14:55:52.467
151.0, 38281.13982452629, 30372.19856646044, 6971.352633399086, 17131.40513079228, 11686.162553568192, 187500.0, -126071.57243151337, 34800.392067479144, 0.512, -0.716, 0.52, 192.0, 0.0, 0.0, 0.0, 0.0, 0.0, 0.0, 0.0, 0.0, 0.0, 1.6635813524705625E9, 0.0, 2022-09-19 14:55:52.470
152.0, 38283.57616467192, 30383.53090089928, 6975.375947401041, 17131.80746219247, 11691.616379215286, 187500.0, -126167.14849080426, 34791.94310807504, 0.512, -0.716, 0.52, 192.0, 0.0, 0.0, 0.0, 0.0, 0.0, 0.0, 0.0, 0.0, 0.0, 1.663581352474602E9, 0.0, 2022-09-19 14:55:52.474
153.0, 38292.852138620874, 30386.72720035639, 6967.642243819505, 17128.164127846256, 11690.945826881627, 187500.0, -126235.41071837077, 34793.91006158711, 0.512, -0.716, 0.52, 192.0, 0.0, 0.0, 0.0, 0.0, 0.0, 0.0, 0.0, 0.0, 0.0, 1.6635813524796393E9, 0.0, 2022-09-19 14:55:52.479
154.0, 38288.22532751862, 30375.506624639827, 6955.974633213835, 17120.184555075713, 11676.148972052213, 187500.0, -126305.4163820048, 34790.78081736336, 0.512, -0.716, 0.52, 192.0, 0.0, 0.0, 0.0, 0.0, 0.0, 0.0, 0.0, 0.0, 0.0, 1.663581352483781E9, 0.0, 2022-09-19 14:55:52.483
155.0, 38288.20297577417, 30387.44245617896, 6971.084412465622, 17137.90948842877, 11676.104268563304, 187500.0, -126393.83988306999, 34787.33864871725, 0.512, -0.716, 0.52, 192.0, 0.0, 0.0, 0.0, 0.0, 0.0, 0.0, 0.0, 0.0, 0.0, 1.663581352487708E9, 0.0, 2022-09-19 14:55:52.487
156.0, 38284.71610363914, 30379.68640085297, 6976.940569512913, 17140.72580823014, 11674.338480751334, 187500.0, -126492.96986972928, 34776.475700911964, 0.514, -0.714, 0.518, 192.0, 16.0, 16.0, 233.0, 176.0, 16.0, 48.0, 0.0, 0.0, 0.0, 1.6635813524916785E9, 0.0, 2022-09-19 14:55:52.491
157.0, 38287.17479552922, 30382.636831121068, 6975.197133445398, 17141.083436141424, 11674.271425517969, 187500.0, -126572.0279898677, 34775.3581136892, 0.514, -0.714, 0.518, 192.0, 0.0, 0.0, 0.0, 0.0, 0.0, 0.0, 0.0, 0.0, 0.0, 1.663581352495723E9, 0.0, 2022-09-19 14:55:52.495
158.0, 38292.516862454046, 30389.811741091224, 6966.681118807926, 17135.62961049433, 11673.153838295202, 187500.0, -126639.99964475629, 34774.93343054455, 0.514, -0.714, 0.518, 192.0, 0.0, 0.0, 0.0, 0.0, 0.0, 0.0, 0.0, 0.0, 0.0, 1.6635813524996867E9, 0.0, 2022-09-19 14:55:52.499
159.0, 38287.06303680695, 30375.260755450818, 6945.715182508849, 17121.168031831745, 11664.459009702088, 187500.0, -126708.3065758117, 34771.46891015398, 0.514, -0.714, 0.518, 192.0, 0.0, 0.0, 0.0, 0.0, 0.0, 0.0, 0.0, 0.0, 0.0, 1.6635813525036795E9, 0.0, 2022-09-19 14:55:52.503
160.0, 38287.331257740414, 30386.704848611935, 6952.398354100986, 17130.57811624743, 11668.92935859315, 187500.0, -126790.69510587397, 34769.0549217528, 0.514, -0.714, 0.518, 192.0, 0.0, 0.0, 0.0, 0.0, 0.0, 0.0, 0.0, 0.0, 0.0, 1.6635813525067184E9, 0.0, 2022-09-19 14:55:52.506
161.0, 38291.0863508089, 30402.149904030553, 6966.859932763569, 17133.90852617127, 11674.539646451432, 187500.0, -126880.9961534734, 34765.41158740659, 0.514, -0.714, 0.518, 192.0, 0.0, 0.0, 0.0, 0.0, 0.0, 0.0, 0.0, 0.0, 0.0, 1.6635813525126898E9, 0.0, 2022-09-19 14:55:52.512
162.0, 38288.85117636337, 30377.38417117407, 6963.775392028737, 17135.92018317225, 11670.985719083039, 187500.0, -126961.23891606796, 34755.42035763506, 0.514, -0.714, 0.518, 192.0, 0.0, 0.0, 0.0, 0.0, 0.0, 0.0, 0.0, 0.0, 0.0, 1.6635813525156848E9, 0.0, 2022-09-19 14:55:52.515
163.0, 38296.830749133915, 30367.191775702453, 6964.870627507046, 17150.29235485701, 11677.624187186264, 187500.0, -127015.39719288316, 34758.05786348079, 0.514, -0.714, 0.518, 192.0, 0.0, 0.0, 0.0, 0.0, 0.0, 0.0, 0.0, 0.0, 0.0, 1.6635813525206969E9, 0.0, 2022-09-19 14:55:52.520
164.0, 38317.72963019963, 30388.738857357366, 6959.729726282326, 17146.894889699804, 11687.347196024322, 187500.0, -127045.50499266447, 34775.24635496693, 0.514, -0.714, 0.518, 192.0, 0.0, 0.0, 0.0, 0.0, 0.0, 0.0, 0.0, 0.0, 0.0, 1.6635813525247035E9, 0.0, 2022-09-19 14:55:52.524
165.0, 38315.76267668756, 30390.638755636068, 6955.259377391265, 17133.886174426814, 11686.967216368583, 187500.0, -127107.77695271694, 34770.686599098044, 0.514, -0.714, 0.518, 192.0, 0.0, 0.0, 0.0, 0.0, 0.0, 0.0, 0.0, 0.0, 0.0, 1.66358135252768E9, 0.0, 2022-09-19 14:55:52.527
166.0, 38314.53333074252, 30380.356953186627, 6960.869665249546, 17139.67527624074, 11688.867114647284, 187500.0, -127189.025543812, 34760.270686181866, 0.506, -0.714, 0.524, 192.0, 15.0, 208.0, 233.0, 176.0, 16.0, 96.0, 0.0, 0.0, 0.0, 1.6635813525306377E9, 0.0, 2022-09-19 14:55:52.530
167.0, 38320.121266856346, 30394.19268300446, 6964.624758318038, 17138.33417157342, 11689.26944604748, 187500.0, -127246.20130612867, 34758.05786348079, 0.506, -0.714, 0.524, 192.0, 0.0, 0.0, 0.0, 0.0, 0.0, 0.0, 0.0, 0.0, 0.0, 1.6635813525348659E9, 0.0, 2022-09-19 14:55:52.534
168.0, 38331.99004316211, 30393.54448241526, 6971.129115954533, 17131.96392440366, 11696.466707762089, 187500.0, -127276.62203033234, 34764.76338681739, 0.506, -0.714, 0.524, 192.0, 0.0, 0.0, 0.0, 0.0, 0.0, 0.0, 0.0, 0.0, 0.0, 1.6635813525396495E9, 0.0, 2022-09-19 14:55:52.539
169.0, 38348.66444452578, 30400.92055808551, 6967.172857185943, 17125.01253187806, 11702.278161320468, 187500.0, -127288.60256536039, 34784.90230857162, 0.506, -0.714, 0.524, 192.0, 0.0, 0.0, 0.0, 0.0, 0.0, 0.0, 0.0, 0.0, 0.0, 1.6635813525436804E9, 0.0, 2022-09-19 14:55:52.543
