%OpenBCI Raw EEG Data
%Number of channels = 8
%Sample Rate = 250 Hz
%Board = OpenBCI_GUI$BoardCytonSerial
Sample Index, EXG Channel 0, EXG Channel 1, EXG Channel 2, EXG Channel 3, EXG Channel 4, EXG Channel 5, EXG Channel 6, EXG Channel 7, Accel Channel 0, Accel Channel 1, Accel Channel 2, Other, Other, Other, Other, Other, Other, Other, Analog Channel 0, Analog Channel 1, Analog Channel 2, Timestamp, Other, Timestamp (Formatted)
142.0, -8905.896116005912, -18510.552467173635, -38997.22266164096, -30905.175912997238, -52442.154579419446, -187500.02235174447, -27875.84398696947, -24741.45886200176, 0.0, 0.0, 0.0, 192.0, 0.0, 0.0, 0.0, 0.0, 0.0, 0.0, 0.0, 0.0, 0.0, 1.663579661352528E9, 0.0, 2022-09-19 14:27:41.352
143.0, -9069.60029239658, -18717.887248741063, -39088.30602029634, -30864.87571774432, -52398.881602153975, -187500.02235174447, -27883.935318462292, -24690.429829410295, 0.0, 0.0, 0.0, 192.0, 0.0, 0.0, 0.0, 0.0, 0.0, 0.0, 0.0, 0.0, 0.0, 1.6635796613525648E9, 0.0, 2022-09-19 14:27:41.352
0.0, 0.0, 0.0, 0.0, 0.0, 0.0, 0.0, 0.0, 0.0, 0.586, -0.762, 0.322, 192.0, 18.0, 80.0, 232.0, 48.0, 10.0, 16.0, 0.0, 0.0, 0.0, 1.6635796614371843E9, 0.0, 2022-09-19 14:27:41.437
1.0, -1727.8792533730573, -17798.582351038738, -41659.762461157145, -30607.83065650829, -62227.211860085954, -187500.02235174447, -27330.59553272671, -22607.828391531515, 0.586, -0.762, 0.322, 192.0, 0.0, 0.0, 0.0, 0.0, 0.0, 0.0, 0.0, 0.0, 0.0, 1.6635796614532633E9, 0.0, 2022-09-19 14:27:41.453
2.0, -1694.016360523267, -17854.14878775463, -41630.34756545396, -30588.764618487912, -62221.758034438855, -187500.02235174447, -27339.55858225329, -22560.532100264085, 0.586, -0.762, 0.322, 192.0, 0.0, 0.0, 0.0, 0.0, 0.0, 0.0, 0.0, 0.0, 0.0, 1.6635796614572542E9, 0.0, 2022-09-19 14:27:41.457
3.0, -1596.182775042388, -17822.454014117004, -41580.03378868506, -30580.606231761725, -62232.598630499684, -187500.02235174447, -27314.30111101879, -22579.151103395357, 0.586, -0.762, 0.322, 192.0, 0.0, 0.0, 0.0, 0.0, 0.0, 0.0, 0.0, 0.0, 0.0, 1.6635796614602735E9, 0.0, 2022-09-19 14:27:41.460
4.0, -1384.7129207507278, -17661.476750549882, -41500.998020291096, -30594.263147623915, -62264.673383793044, -187500.02235174447, -27330.12614609315, -22639.277295980133, 0.586, -0.762, 0.322, 192.0, 0.0, 0.0, 0.0, 0.0, 0.0, 0.0, 0.0, 0.0, 0.0, 1.6635796614632459E9, 0.0, 2022-09-19 14:27:41.463
5.0, -1450.5164564271518, -17664.02484941779, -41560.29719833103, -30628.796592807365, -62286.779259059345, -187500.02235174447, -27364.145501154126, -22616.1879439578, 0.586, -0.762, 0.322, 192.0, 0.0, 0.0, 0.0, 0.0, 0.0, 0.0, 0.0, 0.0, 0.0, 1.6635796614672687E9, 0.0, 2022-09-19 14:27:41.467
6.0, -1719.4749974578617, -17873.550101941837, -41661.72941466921, -30605.640185551667, -62262.795837258804, -187500.02235174447, -27355.517727794377, -22600.31820539453, 0.586, -0.762, 0.322, 192.0, 0.0, 0.0, 0.0, 0.0, 0.0, 0.0, 0.0, 0.0, 0.0, 1.6635796614712558E9, 0.0, 2022-09-19 14:27:41.471
7.0, -1726.6052039391047, -17934.21273639354, -41635.66728063432, -30568.133958355662, -62253.296345865296, -187500.02235174447, -27330.953160637997, -22565.583594510987, 0.586, -0.762, 0.322, 192.0, 0.0, 0.0, 0.0, 0.0, 0.0, 0.0, 0.0, 0.0, 0.0, 1.66357966147638E9, 0.0, 2022-09-19 14:27:41.476
8.0, -1626.111760868044, -17908.30706456984, -41589.95796322322, -30585.925946942087, -62271.244796662904, -187500.02235174447, -27310.50131446139, -22600.407612372353, 0.584, -0.766, 0.322, 192.0, 18.0, 64.0, 232.0, 16.0, 10.0, 16.0, 0.0, 0.0, 0.0, 1.6635796614803536E9, 0.0, 2022-09-19 14:27:41.480
9.0, -1423.9849357587022, -17753.632992939114, -41520.10876180038, -30625.577941605803, -62313.24372449443, -187500.02235174447, -27373.84615824773, -22671.642621951418, 0.584, -0.766, 0.322, 192.0, 0.0, 0.0, 0.0, 0.0, 0.0, 0.0, 0.0, 0.0, 0.0, 1.663579661483379E9, 0.0, 2022-09-19 14:27:41.483
10.0, -1482.5018027426963, -17735.41632120804, -41566.66744550079, -30630.38356666369, -62331.95213460352, -187500.02235174447, -27361.575050541767, -22634.069339522048, 0.584, -0.766, 0.322, 192.0, 0.0, 0.0, 0.0, 0.0, 0.0, 0.0, 0.0, 0.0, 0.0, 1.6635796614872763E9, 0.0, 2022-09-19 14:27:41.487
11.0, -1719.3855904800405, -17929.474166569016, -41657.10260356696, -30589.993964432953, -62293.820058562764, -187500.02235174447, -27338.888029919628, -22576.021859171615, 0.584, -0.766, 0.322, 192.0, 0.0, 0.0, 0.0, 0.0, 0.0, 0.0, 0.0, 0.0, 0.0, 1.6635796614914384E9, 0.0, 2022-09-19 14:27:41.491
12.0, -1711.1825002649427, -17992.997824310998, -41638.9753388137, -30584.58484227477, -62284.00764274689, -187500.02235174447, -27328.405061770092, -22589.678775033808, 0.584, -0.766, 0.322, 192.0, 0.0, 0.0, 0.0, 0.0, 0.0, 0.0, 0.0, 0.0, 0.0, 1.663579661495371E9, 0.0, 2022-09-19 14:27:41.495
13.0, -1620.9485078988682, -17971.875425800732, -41595.97058248169, -30593.749057501445, -62300.547933643815, -187500.02235174447, -27303.192294024506, -22607.94015025379, 0.584, -0.766, 0.322, 192.0, 0.0, 0.0, 0.0, 0.0, 0.0, 0.0, 0.0, 0.0, 0.0, 1.66357966149936E9, 0.0, 2022-09-19 14:27:41.499
14.0, -1417.8605577779483, -17820.062377460286, -41528.62477643786, -30625.39912765016, -62339.708189929515, -187500.02235174447, -27355.964762683485, -22656.845767122006, 0.584, -0.766, 0.322, 192.0, 0.0, 0.0, 0.0, 0.0, 0.0, 0.0, 0.0, 0.0, 0.0, 1.6635796615043976E9, 0.0, 2022-09-19 14:27:41.504
15.0, -1455.925578585336, -17795.27429285935, -41567.98619842365, -30648.10850001675, -62370.39713506665, -187500.02235174447, -27374.494358836935, -22658.030409578136, 0.584, -0.766, 0.322, 192.0, 0.0, 0.0, 0.0, 0.0, 0.0, 0.0, 0.0, 0.0, 0.0, 1.6635796615083663E9, 0.0, 2022-09-19 14:27:41.508
16.0, -1710.1543200199987, -17992.439030699617, -41657.8849146229, -30621.688738070578, -62351.375800535185, -187500.02235174447, -27337.524573507857, -22600.251150161166, 0.584, -0.766, 0.322, 192.0, 0.0, 0.0, 0.0, 0.0, 0.0, 0.0, 0.0, 0.0, 0.0, 1.6635796615113611E9, 0.0, 2022-09-19 14:27:41.511
17.0, -1713.52943343275, -18065.931566468666, -41643.7809638716, -30608.322394886305, -62345.74316093245, -187500.02235174447, -27350.354474825202, -22596.04902220357, 0.584, -0.766, 0.322, 192.0, 0.0, 0.0, 0.0, 0.0, 0.0, 0.0, 0.0, 0.0, 0.0, 1.663579661515395E9, 0.0, 2022-09-19 14:27:41.515
18.0, -1634.6277755055162, -18045.81499645889, -41597.64696331584, -30605.930758229588, -62360.89764367315, -187500.02235174447, -27328.49446874791, -22600.631129816906, 0.578, -0.764, 0.322, 192.0, 18.0, 16.0, 232.0, 32.0, 10.0, 16.0, 0.0, 0.0, 0.0, 1.6635796615194144E9, 0.0, 2022-09-19 14:27:41.519
19.0, -1431.2492527066772, -17895.097183596754, -41514.81139836447, -30610.28934839837, -62393.64294930017, -187500.02235174447, -27331.243733315914, -22643.457072193276, 0.578, -0.764, 0.322, 192.0, 0.0, 0.0, 0.0, 0.0, 0.0, 0.0, 0.0, 0.0, 0.0, 1.663579661523402E9, 0.0, 2022-09-19 14:27:41.523
20.0, -1427.740028827194, -17854.215842987996, -41547.5567039915, -30625.44383113907, -62414.8324030438, -187500.02235174447, -27364.950163954516, -22619.920685281835, 0.578, -0.764, 0.322, 192.0, 0.0, 0.0, 0.0, 0.0, 0.0, 0.0, 0.0, 0.0, 0.0, 1.663579661527388E9, 0.0, 2022-09-19 14:27:41.527
21.0, -1687.8025755646916, -18049.055999404907, -41648.653644162856, -30594.732534257477, -62382.73529800598, -187500.02235174447, -27329.276779803848, -22563.348420065453, 0.578, -0.764, 0.322, 192.0, 0.0, 0.0, 0.0, 0.0, 0.0, 0.0, 0.0, 0.0, 0.0, 1.6635796615323904E9, 0.0, 2022-09-19 14:27:41.532
22.0, -1719.3408869911298, -18132.003323078552, -41642.484562693186, -30596.319508113804, -62379.11431540422, -187500.02235174447, -27315.12812556364, -22579.441676073275, 0.578, -0.764, 0.322, 192.0, 0.0, 0.0, 0.0, 0.0, 0.0, 0.0, 0.0, 0.0, 0.0, 1.6635796615353792E9, 0.0, 2022-09-19 14:27:41.535
23.0, -1658.1641624169545, -18121.989741562575, -41608.733428565676, -30604.25437739544, -62389.820800998314, -187500.02235174447, -27318.123259320648, -22613.14810671188, 0.578, -0.764, 0.322, 192.0, 0.0, 0.0, 0.0, 0.0, 0.0, 0.0, 0.0, 0.0, 0.0, 1.6635796615384076E9, 0.0, 2022-09-19 14:27:41.538
24.0, -1450.449401193786, -17967.13685597621, -41530.12234331636, -30642.833488325297, -62419.72743507951, -187500.02235174447, -27343.06780613277, -22674.637755708427, 0.578, -0.764, 0.322, 192.0, 0.0, 0.0, 0.0, 0.0, 0.0, 0.0, 0.0, 0.0, 0.0, 1.6635796615434923E9, 0.0, 2022-09-19 14:27:41.543
25.0, -1455.612654162962, -17912.240971593972, -41559.24666634163, -30653.517622174935, -62443.73320862451, -187500.02235174447, -27385.066733964293, -22635.52220291164, 0.578, -0.764, 0.322, 192.0, 0.0, 0.0, 0.0, 0.0, 0.0, 0.0, 0.0, 0.0, 0.0, 1.6635796615474455E9, 0.0, 2022-09-19 14:27:41.547
26.0, -1719.2291282688534, -18104.309511698426, -41658.66722567883, -30616.369022890216, -62408.417452385125, -187500.02235174447, -27346.77819571235, -22584.13554240889, 0.578, -0.764, 0.322, 192.0, 0.0, 0.0, 0.0, 0.0, 0.0, 0.0, 0.0, 0.0, 0.0, 1.6635796615514667E9, 0.0, 2022-09-19 14:27:41.551
27.0, -1735.367087765585, -18181.758306236068, -41643.69155689378, -30619.811191536333, -62400.951969737056, -187500.02235174447, -27328.31565479227, -22613.595141600985, 0.578, -0.764, 0.322, 192.0, 0.0, 0.0, 0.0, 0.0, 0.0, 0.0, 0.0, 0.0, 0.0, 1.663579661555437E9, 0.0, 2022-09-19 14:27:41.555
28.0, -1647.6811942674153, -18159.9877071366, -41604.79952154154, -30620.124115958708, -62414.139498965684, -187500.02235174447, -27362.536175553345, -22580.358097595945, 0.5760000000000001, -0.774, 0.314, 192.0, 18.0, 0.0, 231.0, 208.0, 9.0, 208.0, 0.0, 0.0, 0.0, 1.663579661560437E9, 0.0, 2022-09-19 14:27:41.560
29.0, -1426.2424619486883, -18008.33112100734, -41513.716162886165, -30621.308758414838, -62437.362961454746, -187500.02235174447, -27315.26223603037, -22641.803043103584, 0.5760000000000001, -0.774, 0.314, 192.0, 0.0, 0.0, 0.0, 0.0, 0.0, 0.0, 0.0, 0.0, 0.0, 1.6635796615634575E9, 0.0, 2022-09-19 14:27:41.563
30.0, -1416.6312118329063, -17949.50132960097, -41539.3536137764, -30656.579811165313, -62469.54947347039, -187500.02235174447, -27337.92690490805, -22660.75732240168, 0.5760000000000001, -0.774, 0.314, 192.0, 0.0, 0.0, 0.0, 0.0, 0.0, 0.0, 0.0, 0.0, 0.0, 1.6635796615674667E9, 0.0, 2022-09-19 14:27:41.567
31.0, -1686.1261947305436, -18133.63500042379, -41644.36210922743, -30634.764508576933, -62441.1851097566, -187500.02235174447, -27326.192239069016, -22587.533007566097, 0.5760000000000001, -0.774, 0.314, 192.0, 0.0, 0.0, 0.0, 0.0, 0.0, 0.0, 0.0, 0.0, 0.0, 1.6635796615714808E9, 0.0, 2022-09-19 14:27:41.571
32.0, -1725.1970440384202, -18219.197478198705, -41644.96560632773, -30613.552703088848, -62435.70893236506, -187500.02235174447, -27350.17566086956, -22597.412478615344, 0.5760000000000001, -0.774, 0.314, 192.0, 0.0, 0.0, 0.0, 0.0, 0.0, 0.0, 0.0, 0.0, 0.0, 1.6635796615754535E9, 0.0, 2022-09-19 14:27:41.575
33.0, -1630.2021301033653, -18194.31998661995, -41598.36221913841, -30605.841351251765, -62434.39017944219, -187500.02235174447, -27317.050375586794, -22609.169496198832, 0.5760000000000001, -0.774, 0.314, 192.0, 0.0, 0.0, 0.0, 0.0, 0.0, 0.0, 0.0, 0.0, 0.0, 1.6635796615794885E9, 0.0, 2022-09-19 14:27:41.579
34.0, -1429.0364300056017, -18046.932583681653, -41523.26035776858, -30626.762584061933, -62461.189921044104, -187500.02235174447, -27322.526552978346, -22646.38515071692, 0.5760000000000001, -0.774, 0.314, 192.0, 0.0, 0.0, 0.0, 0.0, 0.0, 0.0, 0.0, 0.0, 0.0, 1.6635796615834453E9, 0.0, 2022-09-19 14:27:41.583
35.0, -1409.8139297740377, -17971.160169978164, -41549.41189878129, -30653.763491363945, -62498.4502790511, -187500.02235174447, -27381.825731018274, -22646.988647817212, 0.5760000000000001, -0.774, 0.314, 192.0, 0.0, 0.0, 0.0, 0.0, 0.0, 0.0, 0.0, 0.0, 0.0, 1.6635796615874817E9, 0.0, 2022-09-19 14:27:41.587
36.0, -1682.1252324730435, -18157.573718735424, -41658.10843206745, -30620.30292991435, -62469.77299091494, -187500.02235174447, -27379.70231529502, -22581.833312729992, 0.5760000000000001, -0.774, 0.314, 192.0, 0.0, 0.0, 0.0, 0.0, 0.0, 0.0, 0.0, 0.0, 0.0, 1.6635796615914445E9, 0.0, 2022-09-19 14:27:41.591
37.0, -1693.9716570343564, -18238.777606341555, -41648.72069939622, -30606.377793118692, -62452.76331338446, -187500.02235174447, -27311.574198195245, -22596.831333259506, 0.5760000000000001, -0.774, 0.314, 192.0, 0.0, 0.0, 0.0, 0.0, 0.0, 0.0, 0.0, 0.0, 0.0, 1.663579661594534E9, 0.0, 2022-09-19 14:27:41.594
38.0, -1630.2691853367312, -18221.79028055552, -41613.58375711248, -30627.768412562422, -62471.6952409381, -187500.02235174447, -27346.84525094572, -22633.532897655117, 0.5700000000000001, -0.77, 0.314, 192.0, 17.0, 208.0, 231.0, 240.0, 9.0, 208.0, 0.0, 0.0, 0.0, 1.6635796615995088E9, 0.0, 2022-09-19 14:27:41.599
39.0, -1456.0149855631573, -18080.48255210907, -41536.98432886414, -30635.949151033063, -62491.36477605877, -187500.02235174447, -27380.015239717395, -22652.978915331238, 0.5700000000000001, -0.77, 0.314, 192.0, 0.0, 0.0, 0.0, 0.0, 0.0, 0.0, 0.0, 0.0, 0.0, 1.6635796616034987E9, 0.0, 2022-09-19 14:27:41.603
40.0, -1421.8391682909928, -17990.85205684329, -41534.615043951875, -30667.17453803713, -62518.36568336078, -187500.02235174447, -27322.191276811514, -22658.276278767145, 0.5700000000000001, -0.77, 0.314, 192.0, 0.0, 0.0, 0.0, 0.0, 0.0, 0.0, 0.0, 0.0, 0.0, 1.6635796616075544E9, 0.0, 2022-09-19 14:27:41.607
41.0, -1685.85797379708, -18171.230634597618, -41650.84411511947, -30638.296084200872, -62481.261787564974, -187500.02235174447, -27354.914230694085, -22603.17922868481, 0.5700000000000001, -0.77, 0.314, 192.0, 0.0, 0.0, 0.0, 0.0, 0.0, 0.0, 0.0, 0.0, 0.0, 1.6635796616115391E9, 0.0, 2022-09-19 14:27:41.611
42.0, -1714.7364276333367, -18255.742580383132, -41647.469001706726, -30634.11630798773, -62469.50476998148, -187500.02235174447, -27339.133899108638, -22614.176286956823, 0.5700000000000001, -0.77, 0.314, 192.0, 0.0, 0.0, 0.0, 0.0, 0.0, 0.0, 0.0, 0.0, 0.0, 1.6635796616154716E9, 0.0, 2022-09-19 14:27:41.615
43.0, -1630.4032958034632, -18236.833004573942, -41608.91224252132, -30631.992892264476, -62491.92356967015, -187500.02235174447, -27317.87739013164, -22593.590330313484, 0.5700000000000001, -0.77, 0.314, 192.0, 0.0, 0.0, 0.0, 0.0, 0.0, 0.0, 0.0, 0.0, 0.0, 1.6635796616195753E9, 0.0, 2022-09-19 14:27:41.619
44.0, -1449.0859447820121, -18098.743927329055, -41531.30698577249, -30654.16582276414, -62513.8059274919, -187500.02235174447, -27329.92498039305, -22651.86132810847, 0.5700000000000001, -0.77, 0.314, 192.0, 0.0, 0.0, 0.0, 0.0, 0.0, 0.0, 0.0, 0.0, 0.0, 1.663579661622615E9, 0.0, 2022-09-19 14:27:41.622
45.0, -1395.6205720449177, -18000.910341848175, -41533.922139873765, -30659.194965266583, -62536.73881730304, -187500.02235174447, -27364.32431510977, -22650.00613331868, 0.5700000000000001, -0.77, 0.314, 192.0, 0.0, 0.0, 0.0, 0.0, 0.0, 0.0, 0.0, 0.0, 0.0, 1.6635796616275673E9, 0.0, 2022-09-19 14:27:41.627
46.0, -1655.3925461044964, -18175.34335557739, -41642.57396967101, -30630.20475270805, -62510.073186167865, -187500.02235174447, -27346.487623034434, -22597.680699548808, 0.5700000000000001, -0.77, 0.314, 192.0, 0.0, 0.0, 0.0, 0.0, 0.0, 0.0, 0.0, 0.0, 0.0, 1.6635796616315525E9, 0.0, 2022-09-19 14:27:41.631
47.0, -1710.3331339756412, -18274.495693981135, -41645.52439993911, -30611.96572923252, -62502.585351775335, -187500.02235174447, -27322.37009076716, -22599.245321660677, 0.5700000000000001, -0.77, 0.314, 192.0, 0.0, 0.0, 0.0, 0.0, 0.0, 0.0, 0.0, 0.0, 0.0, 1.6635796616355906E9, 0.0, 2022-09-19 14:27:41.635
48.0, -1633.0408016491892, -18262.224586275173, -41613.44964664574, -30615.787877534378, -62524.17713691916, -187500.02235174447, -27331.757823438387, -22613.304568923068, 0.5760000000000001, -0.772, 0.316, 192.0, 18.0, 0.0, 231.0, 224.0, 9.0, 224.0, 0.0, 0.0, 0.0, 1.6635796616396227E9, 0.0, 2022-09-19 14:27:41.639
49.0, -1433.8420550634928, -18129.365817232825, -41537.29725328652, -30626.11438347273, -62541.745608061035, -187500.02235174447, -27337.569276996768, -22627.47557490773, 0.5760000000000001, -0.772, 0.316, 192.0, 0.0, 0.0, 0.0, 0.0, 0.0, 0.0, 0.0, 0.0, 0.0, 1.6635796616436107E9, 0.0, 2022-09-19 14:27:41.643
50.0, -1372.7994409560492, -18029.967609640076, -41543.86866615638, -30654.67991288661, -62573.10510553183, -187500.02235174447, -27412.38056568868, -22632.86234532146, 0.5760000000000001, -0.772, 0.316, 192.0, 0.0, 0.0, 0.0, 0.0, 0.0, 0.0, 0.0, 0.0, 0.0, 1.6635796616476328E9, 0.0, 2022-09-19 14:27:41.647
51.0, -1640.3274703416193, -18206.59109432591, -41656.29794076657, -30631.948188775565, -62550.6639540987, -187500.02235174447, -27384.954975242017, -22585.36488835393, 0.5760000000000001, -0.772, 0.316, 192.0, 0.0, 0.0, 0.0, 0.0, 0.0, 0.0, 0.0, 0.0, 0.0, 1.6635796616506567E9, 0.0, 2022-09-19 14:27:41.650
52.0, -1697.7043983583926, -18307.08453739697, -41652.073461064516, -30605.72959252949, -62529.6086108218, -187500.02235174447, -27299.951291078483, -22575.03838241558, 0.5760000000000001, -0.772, 0.316, 192.0, 0.0, 0.0, 0.0, 0.0, 0.0, 0.0, 0.0, 0.0, 0.0, 1.6635796616546197E9, 0.0, 2022-09-19 14:27:41.654
53.0, -1619.763865442737, -18300.311958827016, -41609.649850088346, -30632.48463064249, -62544.539576117946, -187500.02235174447, -27298.945462577994, -22595.46787684773, 0.5760000000000001, -0.772, 0.316, 192.0, 0.0, 0.0, 0.0, 0.0, 0.0, 0.0, 0.0, 0.0, 0.0, 1.663579661659535E9, 0.0, 2022-09-19 14:27:41.659
54.0, -1449.801200604582, -18180.350146335382, -41539.375965520856, -30651.908296574155, -62568.925329318685, -187500.02235174447, -27332.473079260955, -22658.00805783368, 0.5760000000000001, -0.772, 0.316, 192.0, 0.0, 0.0, 0.0, 0.0, 0.0, 0.0, 0.0, 0.0, 0.0, 1.663579661664662E9, 0.0, 2022-09-19 14:27:41.664
55.0, -1381.516621293619, -18070.08899093735, -41526.83663688143, -30674.707075918566, -62597.58026571039, -187500.02235174447, -27349.32629458026, -22647.9944763177, 0.5760000000000001, -0.772, 0.316, 192.0, 0.0, 0.0, 0.0, 0.0, 0.0, 0.0, 0.0, 0.0, 0.0, 1.663579661668639E9, 0.0, 2022-09-19 14:27:41.668
56.0, -1633.890167938491, -18234.016684772574, -41631.778077099094, -30639.368967934726, -62565.68432637267, -187500.02235174447, -27346.5546782678, -22577.251205116656, 0.5760000000000001, -0.772, 0.316, 192.0, 0.0, 0.0, 0.0, 0.0, 0.0, 0.0, 0.0, 0.0, 0.0, 1.6635796616716356E9, 0.0, 2022-09-19 14:27:41.671
57.0, -1691.6023721220938, -18345.06015122654, -41638.371841713415, -30594.665479024112, -62546.79710230793, -187500.02235174447, -27319.240846543416, -22588.47178083322, 0.5760000000000001, -0.772, 0.316, 192.0, 0.0, 0.0, 0.0, 0.0, 0.0, 0.0, 0.0, 0.0, 0.0, 1.6635796616746097E9, 0.0, 2022-09-19 14:27:41.674
58.0, -1627.117589368533, -18344.72487505971, -41606.78882679807, -30600.119304671207, -62560.968108292596, -187500.02235174447, -27334.93177115104, -22596.160780925846, 0.5760000000000001, -0.774, 0.322, 192.0, 18.0, 0.0, 231.0, 208.0, 10.0, 16.0, 0.0, 0.0, 0.0, 1.6635796616787288E9, 0.0, 2022-09-19 14:27:41.678
59.0, -1455.8361716075149, -18229.74750158161, -41542.19228532223, -30634.317473687828, -62588.19253303916, -187500.02235174447, -27350.734454480942, -22648.709732140273, 0.5760000000000001, -0.774, 0.322, 192.0, 0.0, 0.0, 0.0, 0.0, 0.0, 0.0, 0.0, 0.0, 0.0, 1.6635796616837285E9, 0.0, 2022-09-19 14:27:41.683
60.0, -1373.7158624787169, -18115.664197881724, -41528.58007294894, -30664.849956613776, -62629.52090853702, -187500.02235174447, -27349.862736447187, -22666.993459104713, 0.5760000000000001, -0.774, 0.322, 192.0, 0.0, 0.0, 0.0, 0.0, 0.0, 0.0, 0.0, 0.0, 0.0, 1.6635796616876605E9, 0.0, 2022-09-19 14:27:41.687
61.0, -1630.470351036829, -18280.32949928397, -41641.05405104805, -30635.993854521974, -62607.88441990429, -187500.02235174447, -27398.075449237283, -22597.747754782173, 0.5760000000000001, -0.774, 0.322, 192.0, 0.0, 0.0, 0.0, 0.0, 0.0, 0.0, 0.0, 0.0, 0.0, 1.6635796616917365E9, 0.0, 2022-09-19 14:27:41.691
62.0, -1709.3273054751523, -18394.993948339696, -41654.5321529546, -30607.182455919083, -62588.41605048371, -187500.02235174447, -27347.247582345914, -22588.784705255595, 0.5760000000000001, -0.774, 0.322, 192.0, 0.0, 0.0, 0.0, 0.0, 0.0, 0.0, 0.0, 0.0, 0.0, 1.6635796616957235E9, 0.0, 2022-09-19 14:27:41.695
63.0, -1632.3255458266194, -18386.5896924245, -41607.63819308737, -30600.365173860217, -62592.66288193022, -187500.02235174447, -27297.939634077506, -22579.665193517827, 0.5760000000000001, -0.774, 0.322, 192.0, 0.0, 0.0, 0.0, 0.0, 0.0, 0.0, 0.0, 0.0, 0.0, 1.6635796616987484E9, 0.0, 2022-09-19 14:27:41.698
64.0, -1461.28999725461, -18274.026307347573, -41536.49259048612, -30618.335976402283, -62614.70170196315, -187500.02235174447, -27292.016421796852, -22626.67091210734, 0.5760000000000001, -0.774, 0.322, 192.0, 0.0, 0.0, 0.0, 0.0, 0.0, 0.0, 0.0, 0.0, 0.0, 1.6635796617027876E9, 0.0, 2022-09-19 14:27:41.702
65.0, -1365.713937963717, -18159.898300158777, -41529.00475609359, -30655.037540797897, -62662.13210369732, -187500.02235174447, -27359.51869005188, -22655.81758687706, 0.5760000000000001, -0.774, 0.322, 192.0, 0.0, 0.0, 0.0, 0.0, 0.0, 0.0, 0.0, 0.0, 0.0, 1.663579661706786E9, 0.0, 2022-09-19 14:27:41.706
66.0, -1612.4324932613963, -18321.14378465936, -41643.35628072695, -30639.59248537928, -62641.25557437606, -187500.02235174447, -27354.60130627171, -22600.832295517004, 0.5760000000000001, -0.774, 0.322, 192.0, 0.0, 0.0, 0.0, 0.0, 0.0, 0.0, 0.0, 0.0, 0.0, 1.6635796617107503E9, 0.0, 2022-09-19 14:27:41.710
67.0, -1685.85797379708, -18447.542899554122, -41655.493277966176, -30615.139676945175, -62615.707530463646, -187500.02235174447, -27315.21753254146, -22611.561132855553, 0.5760000000000001, -0.774, 0.322, 192.0, 0.0, 0.0, 0.0, 0.0, 0.0, 0.0, 0.0, 0.0, 0.0, 1.6635796617157657E9, 0.0, 2022-09-19 14:27:41.715
68.0, -1633.6890022383932, -18454.51664382418, -41623.686745606276, -30635.6809300996, -62632.06900740493, -187500.02235174447, -27311.50714296188, -22625.039234762102, 0.5740000000000001, -0.772, 0.316, 192.0, 17.0, 240.0, 231.0, 224.0, 9.0, 224.0, 0.0, 0.0, 0.0, 1.6635796617198958E9, 0.0, 2022-09-19 14:27:41.719
69.0, -1466.699119412794, -18344.791930293075, -41550.88711391534, -30616.05609846784, -62646.955269212165, -187500.02235174447, -27314.032890085327, -22595.959615225747, 0.5740000000000001, -0.772, 0.316, 192.0, 0.0, 0.0, 0.0, 0.0, 0.0, 0.0, 0.0, 0.0, 0.0, 1.6635796617238169E9, 0.0, 2022-09-19 14:27:41.723
70.0, -1363.03172862908, -18228.0040655141, -41536.35848001939, -30636.217371966526, -62688.7977348325, -187500.02235174447, -27357.104701650704, -22658.879775867437, 0.5740000000000001, -0.772, 0.316, 192.0, 0.0, 0.0, 0.0, 0.0, 0.0, 0.0, 0.0, 0.0, 0.0, 1.663579661726778E9, 0.0, 2022-09-19 14:27:41.726
71.0, -1613.9971153732677, -18390.143619792892, -41651.20174303076, -30636.5302963889, -62672.07862997993, -187500.02235174447, -27347.627562001653, -22605.70497580826, 0.5740000000000001, -0.772, 0.316, 192.0, 0.0, 0.0, 0.0, 0.0, 0.0, 0.0, 0.0, 0.0, 0.0, 1.6635796617318497E9, 0.0, 2022-09-19 14:27:41.731
72.0, -1704.7451978618144, -18529.90907787193, -41673.35232178597, -30599.96284246002, -62650.41978960273, -187500.02235174447, -27346.487623034434, -22585.074315676015, 0.5740000000000001, -0.772, 0.316, 192.0, 0.0, 0.0, 0.0, 0.0, 0.0, 0.0, 0.0, 0.0, 0.0, 1.6635796617358189E9, 0.0, 2022-09-19 14:27:41.735
73.0, -1645.4460198218846, -18542.358999533535, -41637.030737046094, -30608.612967564222, -62660.96981298564, -187500.02235174447, -27315.55280870829, -22613.841010789994, 0.5740000000000001, -0.772, 0.316, 192.0, 0.0, 0.0, 0.0, 0.0, 0.0, 0.0, 0.0, 0.0, 0.0, 1.6635796617407868E9, 0.0, 2022-09-19 14:27:41.740
74.0, -1498.43859653933, -18456.88592873644, -41591.05319870153, -30629.623607352212, -62690.27294996655, -187500.02235174447, -27396.75669631442, -22638.785557602117, 0.5740000000000001, -0.772, 0.316, 192.0, 0.0, 0.0, 0.0, 0.0, 0.0, 0.0, 0.0, 0.0, 0.0, 1.663579661744817E9, 0.0, 2022-09-19 14:27:41.744
75.0, -1378.9908741701693, -18332.25260165365, -41553.72578546117, -30663.330037990814, -62715.664531667775, -187500.02235174447, -27354.489547549434, -22659.170348545354, 0.5740000000000001, -0.772, 0.316, 192.0, 0.0, 0.0, 0.0, 0.0, 0.0, 0.0, 0.0, 0.0, 0.0, 1.6635796617477765E9, 0.0, 2022-09-19 14:27:41.747
76.0, -1625.664725978938, -18492.738126842753, -41657.57199020052, -30646.298008715872, -62694.83270583543, -187500.02235174447, -27313.45174472949, -22607.917798509337, 0.5740000000000001, -0.772, 0.316, 192.0, 0.0, 0.0, 0.0, 0.0, 0.0, 0.0, 0.0, 0.0, 0.0, 1.663579661750821E9, 0.0, 2022-09-19 14:27:41.750
77.0, -1749.5380937502498, -18653.89420436552, -41688.126824870924, -30587.28940335386, -62661.01451647455, -187500.02235174447, -27320.246675043905, -22556.061751373025, 0.5740000000000001, -0.772, 0.316, 192.0, 0.0, 0.0, 0.0, 0.0, 0.0, 0.0, 0.0, 0.0, 0.0, 1.6635796617547812E9, 0.0, 2022-09-19 14:27:41.754
78.0, -1690.596543621605, -18682.16916110148, -41659.896571623874, -30602.01920294991, -62676.61603410436, -187500.02235174447, -27315.888084875118, -22599.982929227703, 0.5740000000000001, -0.774, 0.312, 192.0, 17.0, 240.0, 231.0, 208.0, 9.0, 192.0, 0.0, 0.0, 0.0, 1.6635796617598119E9, 0.0, 2022-09-19 14:27:41.759
79.0, -1532.9049864894137, -18599.355947894568, -41589.93561147876, -30618.425383380105, -62694.83270583543, -187500.02235174447, -27309.271968516347, -22615.38328115741, 0.5740000000000001, -0.774, 0.312, 192.0, 0.0, 0.0, 0.0, 0.0, 0.0, 0.0, 0.0, 0.0, 0.0, 1.6635796617638402E9, 0.0, 2022-09-19 14:27:41.763
80.0, -1393.6536185328507, -18478.254196435715, -41553.09993661642, -30651.193040751583, -62727.95799111819, -187500.02235174447, -27329.902628648597, -22617.99843525868, 0.5740000000000001, -0.774, 0.312, 192.0, 0.0, 0.0, 0.0, 0.0, 0.0, 0.0, 0.0, 0.0, 0.0, 1.6635796617668896E9, 0.0, 2022-09-19 14:27:41.766
81.0, -1625.4188567899296, -18635.78929135672, -41661.505897224655, -30641.514735402434, -62714.23402002264, -187500.02235174447, -27337.010483385384, -22585.230777887202, 0.5740000000000001, -0.774, 0.312, 192.0, 0.0, 0.0, 0.0, 0.0, 0.0, 0.0, 0.0, 0.0, 0.0, 1.6635796617708817E9, 0.0, 2022-09-19 14:27:41.770
82.0, -1772.135707394565, -18802.53330499331, -41694.1394441294, -30611.00460422094, -62694.564484901966, -187500.02235174447, -27314.412869741067, -22572.22206261421, 0.5740000000000001, -0.774, 0.312, 192.0, 0.0, 0.0, 0.0, 0.0, 0.0, 0.0, 0.0, 0.0, 0.0, 1.66357966177487E9, 0.0, 2022-09-19 14:27:41.774
83.0, -1705.885136829035, -18820.459404046465, -41652.766365142634, -30633.646921354168, -62703.438127450725, -187500.02235174447, -27325.007596612882, -22608.90127526537, 0.5740000000000001, -0.774, 0.312, 192.0, 0.0, 0.0, 0.0, 0.0, 0.0, 0.0, 0.0, 0.0, 0.0, 1.663579661778862E9, 0.0, 2022-09-19 14:27:41.778
84.0, -1533.4190766118857, -18739.926068773995, -41598.13870169386, -30656.91508733214, -62720.2019357922, -187500.02235174447, -27354.780120227355, -22637.556211657073, 0.5740000000000001, -0.774, 0.312, 192.0, 0.0, 0.0, 0.0, 0.0, 0.0, 0.0, 0.0, 0.0, 0.0, 1.663579661782864E9, 0.0, 2022-09-19 14:27:41.782
85.0, -1369.8490106879487, -18598.21600892735, -41551.557666249, -30657.96561932154, -62746.39818029382, -187500.02235174447, -27338.150422352606, -22642.518298926152, 0.5740000000000001, -0.774, 0.312, 192.0, 0.0, 0.0, 0.0, 0.0, 0.0, 0.0, 0.0, 0.0, 0.0, 1.663579661787881E9, 0.0, 2022-09-19 14:27:41.787
86.0, -1621.0826183656, -18741.08835948567, -41657.54963845607, -30649.24843898397, -62743.17952909226, -187500.02235174447, -27343.224268343958, -22598.127734437912, 0.5740000000000001, -0.774, 0.312, 192.0, 0.0, 0.0, 0.0, 0.0, 0.0, 0.0, 0.0, 0.0, 0.0, 1.6635796617919004E9, 0.0, 2022-09-19 14:27:41.791
87.0, -1753.3602420521072, -18888.922797313073, -41690.49610978319, -30605.997813462953, -62718.972589847166, -187500.02235174447, -27319.01732909886, -22566.164739866825, 0.5740000000000001, -0.774, 0.312, 192.0, 0.0, 0.0, 0.0, 0.0, 0.0, 0.0, 0.0, 0.0, 0.0, 1.6635796617948463E9, 0.0, 2022-09-19 14:27:41.794
88.0, -1676.6490550814933, -18888.475762423965, -41645.16677202783, -30604.813171006823, -62726.7062934287, -187500.02235174447, -27315.37399475265, -22585.36488835393, 0.5740000000000001, -0.774, 0.312, 192.0, 0.0, 0.0, 0.0, 0.0, 0.0, 0.0, 0.0, 0.0, 0.0, 1.663579661799034E9, 0.0, 2022-09-19 14:27:41.799
89.0, -1512.8554717130032, -18792.25150254387, -41568.70145424622, -30627.455488140047, -62743.64891572582, -187500.02235174447, -27265.104921472663, -22622.602894616473, 0.5740000000000001, -0.776, 0.316, 192.0, 17.0, 240.0, 231.0, 192.0, 9.0, 224.0, 0.0, 0.0, 0.0, 1.6635796618038843E9, 0.0, 2022-09-19 14:27:41.803
90.0, -1351.4311732567755, -18641.53368968173, -41535.397355007815, -30677.098712575284, -62787.883018002874, -187500.02235174447, -27351.76263472589, -22664.355953258986, 0.5740000000000001, -0.776, 0.316, 192.0, 0.0, 0.0, 0.0, 0.0, 0.0, 0.0, 0.0, 0.0, 0.0, 1.6635796618088696E9, 0.0, 2022-09-19 14:27:41.808
91.0, -1555.2567309447206, -18750.43138866799, -41643.06570804903, -30658.54676467738, -62779.702279532234, -187500.02235174447, -27345.5041462784, -22625.48626965121, 0.5740000000000001, -0.776, 0.316, 192.0, 0.0, 0.0, 0.0, 0.0, 0.0, 0.0, 0.0, 0.0, 0.0, 1.663579661812883E9, 0.0, 2022-09-19 14:27:41.812
92.0, -1672.1563544459766, -18883.40191643261, -41676.883897409905, -30621.420517137114, -62744.36417154839, -187500.02235174447, -27311.730660406432, -22609.303606665566, 0.5740000000000001, -0.776, 0.316, 192.0, 0.0, 0.0, 0.0, 0.0, 0.0, 0.0, 0.0, 0.0, 0.0, 1.663579661815915E9, 0.0, 2022-09-19 14:27:41.815
93.0, -1607.4480542478627, -18871.890768038127, -41638.59535915797, -30633.848087054266, -62751.42732279627, -187500.02235174447, -27310.009576083372, -22597.18896117079, 0.5740000000000001, -0.776, 0.316, 192.0, 0.0, 0.0, 0.0, 0.0, 0.0, 0.0, 0.0, 0.0, 0.0, 1.663579661819905E9, 0.0, 2022-09-19 14:27:41.819
94.0, -1483.8429074100147, -18771.41967671152, -41579.54205030704, -30651.21539249604, -62765.68773575875, -187500.02235174447, -27322.97358786745, -22615.316225924045, 0.5740000000000001, -0.776, 0.316, 192.0, 0.0, 0.0, 0.0, 0.0, 0.0, 0.0, 0.0, 0.0, 0.0, 1.663579661822964E9, 0.0, 2022-09-19 14:27:41.822
95.0, -1322.8879955873485, -18586.72721227732, -41526.590767692425, -30691.113256348763, -62795.41555588431, -187500.02235174447, -27340.810279942787, -22657.762188644672, 0.5740000000000001, -0.776, 0.316, 192.0, 0.0, 0.0, 0.0, 0.0, 0.0, 0.0, 0.0, 0.0, 0.0, 1.663579661826933E9, 0.0, 2022-09-19 14:27:41.826
96.0, -1525.0818759300562, -18666.992326616328, -41633.409754444336, -30675.310573018858, -62788.64297731435, -187500.02235174447, -27363.810224987297, -22638.33852271301, 0.5740000000000001, -0.776, 0.316, 192.0, 0.0, 0.0, 0.0, 0.0, 0.0, 0.0, 0.0, 0.0, 0.0, 1.6635796618309443E9, 0.0, 2022-09-19 14:27:41.830
97.0, -1672.335168401619, -18789.681051931508, -41676.28040030961, -30629.936531774587, -62758.53517753306, -187500.02235174447, -27343.93952416653, -22608.34248165399, 0.5740000000000001, -0.776, 0.316, 192.0, 0.0, 0.0, 0.0, 0.0, 0.0, 0.0, 0.0, 0.0, 0.0, 1.6635796618349075E9, 0.0, 2022-09-19 14:27:41.834
98.0, -1619.3391822980861, -18770.771476122318, -41658.06372857854, -30637.893752800675, -62774.89665447434, -187500.02235174447, -27395.52735036938, -22637.980894801723, 0.5740000000000001, -0.776, 0.316, 192.0, 0.0, 0.0, 0.0, 0.0, 0.0, 0.0, 0.0, 0.0, 0.0, 1.6635796618389533E9, 0.0, 2022-09-19 14:27:41.838
99.0, -1467.2579130241768, -18655.68234392194, -41588.97448646718, -30648.801404094866, -62791.32518664899, -187500.02235174447, -27315.418698241556, -22664.020677092158, 0.5680000000000001, -0.774, 0.312, 192.0, 17.0, 192.0, 231.0, 208.0, 9.0, 192.0, 0.0, 0.0, 0.0, 1.663579661843054E9, 0.0, 2022-09-19 14:27:41.843
100.0, -1295.261239440589, -18461.624498560966, -41544.24864581211, -30686.73231443552, -62836.4310069598, -187500.02235174447, -27393.89567302414, -22682.52792150115, 0.5680000000000001, -0.774, 0.312, 192.0, 0.0, 0.0, 0.0, 0.0, 0.0, 0.0, 0.0, 0.0, 0.0, 1.6635796618480334E9, 0.0, 2022-09-19 14:27:41.848
101.0, -1471.8847241264255, -18519.42610972239, -41637.96951031322, -30681.390247510702, -62838.3309052385, -187500.02235174447, -27373.68969603654, -22652.263659508666, 0.5680000000000001, -0.774, 0.312, 192.0, 0.0, 0.0, 0.0, 0.0, 0.0, 0.0, 0.0, 0.0, 0.0, 1.663579661850992E9, 0.0, 2022-09-19 14:27:41.850
102.0, -1617.79691193067, -18635.677532634443, -41679.20847883326, -30654.4340436976, -62811.46410840323, -187500.02235174447, -27365.46425407699, -22608.99068224319, 0.5680000000000001, -0.774, 0.312, 192.0, 0.0, 0.0, 0.0, 0.0, 0.0, 0.0, 0.0, 0.0, 0.0, 1.663579661855016E9, 0.0, 2022-09-19 14:27:41.855
103.0, -1558.3859751684638, -18607.849610787584, -41640.09292603647, -30665.29699150288, -62819.46603291822, -187500.02235174447, -27336.004654884895, -22622.245266705188, 0.5680000000000001, -0.774, 0.312, 192.0, 0.0, 0.0, 0.0, 0.0, 0.0, 0.0, 0.0, 0.0, 0.0, 1.6635796618589892E9, 0.0, 2022-09-19 14:27:41.858
104.0, -1411.4232553748197, -18493.967472787797, -41576.4128060833, -30652.489441929993, -62831.13364352389, -187500.02235174447, -27323.8006024123, -22657.024581077647, 0.5680000000000001, -0.774, 0.312, 192.0, 0.0, 0.0, 0.0, 0.0, 0.0, 0.0, 0.0, 0.0, 0.0, 1.6635796618631032E9, 0.0, 2022-09-19 14:27:41.863
105.0, -1257.7103087556732, -18284.799848175033, -41512.71033438568, -30700.232768086527, -62861.59907121648, -187500.02235174447, -27357.104701650704, -22702.085697899547, 0.5680000000000001, -0.774, 0.312, 192.0, 0.0, 0.0, 0.0, 0.0, 0.0, 0.0, 0.0, 0.0, 0.0, 1.6635796618670712E9, 0.0, 2022-09-19 14:27:41.867
106.0, -1469.6495496808948, -18336.074749955507, -41610.543919866555, -30690.26389005946, -62856.2346525472, -187500.02235174447, -27359.98807668544, -22624.927476039826, 0.5680000000000001, -0.774, 0.312, 192.0, 0.0, 0.0, 0.0, 0.0, 0.0, 0.0, 0.0, 0.0, 0.0, 1.6635796618709807E9, 0.0, 2022-09-19 14:27:41.870
107.0, -1654.0290896927227, -18469.51466435369, -41667.07148159403, -30652.757662863456, -62824.91985856532, -187500.02235174447, -27337.055186874295, -22606.75550779766, 0.5680000000000001, -0.774, 0.312, 192.0, 0.0, 0.0, 0.0, 0.0, 0.0, 0.0, 0.0, 0.0, 0.0, 1.6635796618759935E9, 0.0, 2022-09-19 14:27:41.875
108.0, -1614.7570746847482, -18448.280507121148, -41633.85678933344, -30663.26298275745, -62831.53597492409, -187500.02235174447, -27350.7568062254, -22635.81277558956, 0.5680000000000001, -0.774, 0.312, 192.0, 0.0, 0.0, 0.0, 0.0, 0.0, 0.0, 0.0, 0.0, 0.0, 1.6635796618790436E9, 0.0, 2022-09-19 14:27:41.879
109.0, -1498.1033203725005, -18343.741398303675, -41588.63921030035, -30683.558366722868, -62856.815797903044, -187500.02235174447, -27358.13288189565, -22666.814645149072, 0.5640000000000001, -0.766, 0.32, 192.0, 17.0, 160.0, 232.0, 16.0, 10.0, 0.0, 0.0, 0.0, 0.0, 1.6635796618820624E9, 0.0, 2022-09-19 14:27:41.882
110.0, -1314.8860710723486, -18134.774939391013, -41533.94449161822, -30718.851771217796, -62902.30159786959, -187500.02235174447, -27377.623603060678, -22705.617273523483, 0.5640000000000001, -0.766, 0.32, 192.0, 0.0, 0.0, 0.0, 0.0, 0.0, 0.0, 0.0, 0.0, 0.0, 1.6635796618869915E9, 0.0, 2022-09-19 14:27:41.886
111.0, -1496.0469598826123, -18180.17133237974, -41632.850960832955, -30723.03154743094, -62905.0955659265, -187500.02235174447, -27420.09191752576, -22667.19462480481, 0.5640000000000001, -0.766, 0.32, 192.0, 0.0, 0.0, 0.0, 0.0, 0.0, 0.0, 0.0, 0.0, 0.0, 1.6635796618910387E9, 0.0, 2022-09-19 14:27:41.891
112.0, -1683.4439853959068, -18318.841554980463, -41694.228851107226, -30689.97331738154, -62876.97707140173, -187500.02235174447, -27389.85000727773, -22635.365740700454, 0.5640000000000001, -0.766, 0.32, 192.0, 0.0, 0.0, 0.0, 0.0, 0.0, 0.0, 0.0, 0.0, 0.0, 1.6635796618950517E9, 0.0, 2022-09-19 14:27:41.895
113.0, -1617.3945805304743, -18293.47232502369, -41644.49621969416, -30681.5914132108, -62879.77103945864, -187500.02235174447, -27324.4488030015, -22651.190775774812, 0.5640000000000001, -0.766, 0.32, 192.0, 0.0, 0.0, 0.0, 0.0, 0.0, 0.0, 0.0, 0.0, 0.0, 1.6635796618989987E9, 0.0, 2022-09-19 14:27:41.898
114.0, -1495.734035460238, -18195.102297675883, -41596.23880341516, -30680.876157388233, -62897.13834490041, -187500.02235174447, -27352.097910892717, -22664.423008492355, 0.5640000000000001, -0.766, 0.32, 192.0, 0.0, 0.0, 0.0, 0.0, 0.0, 0.0, 0.0, 0.0, 0.0, 1.6635796619041476E9, 0.0, 2022-09-19 14:27:41.904
115.0, -1305.8336145679493, -17988.594530653303, -41533.20688405119, -30710.492218791514, -62929.861298782984, -187500.02235174447, -27374.293193136837, -22688.33937505953, 0.5640000000000001, -0.766, 0.32, 192.0, 0.0, 0.0, 0.0, 0.0, 0.0, 0.0, 0.0, 0.0, 0.0, 1.6635796619070885E9, 0.0, 2022-09-19 14:27:41.907
116.0, -1464.5310002006293, -18022.23390605854, -41616.28831819157, -30704.97133791105, -62928.69900807131, -187500.02235174447, -27380.395219373135, -22671.128531828945, 0.5640000000000001, -0.766, 0.32, 192.0, 0.0, 0.0, 0.0, 0.0, 0.0, 0.0, 0.0, 0.0, 0.0, 1.6635796619111085E9, 0.0, 2022-09-19 14:27:41.911
117.0, -1653.0232611922338, -18166.246195584084, -41672.16767932984, -30668.06860781534, -62894.16556288786, -187500.02235174447, -27332.808355427787, -22632.638827876908, 0.5640000000000001, -0.766, 0.32, 192.0, 0.0, 0.0, 0.0, 0.0, 0.0, 0.0, 0.0, 0.0, 0.0, 1.663579661915078E9, 0.0, 2022-09-19 14:27:41.915
118.0, -1591.3547982400416, -18156.92551814622, -41646.03849006158, -30668.06860781534, -62903.55329555909, -187500.02235174447, -27363.385541842646, -22638.450281435285, 0.5640000000000001, -0.766, 0.32, 192.0, 0.0, 0.0, 0.0, 0.0, 0.0, 0.0, 0.0, 0.0, 0.0, 1.6635796619190812E9, 0.0, 2022-09-19 14:27:41.919
119.0, -1478.9702271187577, -18064.277537378974, -41594.94240223675, -30694.622480228245, -62915.824403265055, -187500.02235174447, -27346.733492223444, -22629.040197019604, 0.5720000000000001, -0.774, 0.32, 192.0, 17.0, 224.0, 231.0, 208.0, 10.0, 0.0, 0.0, 0.0, 0.0, 1.663579661923098E9, 0.0, 2022-09-19 14:27:41.923
120.0, -1297.0940824859242, -17862.620098903193, -41526.61311943688, -30707.184160612127, -62944.144063489926, -187500.02235174447, -27372.817978002786, -22695.268415840677, 0.5720000000000001, -0.774, 0.32, 192.0, 0.0, 0.0, 0.0, 0.0, 0.0, 0.0, 0.0, 0.0, 0.0, 1.6635796619271033E9, 0.0, 2022-09-19 14:27:41.927
121.0, -1438.9829562882135, -17886.58116895928, -41611.661507089324, -30681.34554402179, -62940.634839610444, -187500.02235174447, -27408.22314121999, -22641.28895298111, 0.5720000000000001, -0.774, 0.32, 192.0, 0.0, 0.0, 0.0, 0.0, 0.0, 0.0, 0.0, 0.0, 0.0, 1.6635796619312403E9, 0.0, 2022-09-19 14:27:41.931
122.0, -1648.5752640456278, -18029.945257895622, -41672.6370659634, -30648.086148272294, -62901.16165890237, -187500.02235174447, -27337.390463041123, -22622.33467368301, 0.5720000000000001, -0.774, 0.32, 192.0, 0.0, 0.0, 0.0, 0.0, 0.0, 0.0, 0.0, 0.0, 0.0, 1.6635796619341223E9, 0.0, 2022-09-19 14:27:41.934
123.0, -1615.3158682961307, -18017.94237112312, -41638.88593183589, -30644.241648225983, -62897.6971385118, -187500.02235174447, -27338.530402008346, -22634.24815347769, 0.5720000000000001, -0.774, 0.32, 192.0, 0.0, 0.0, 0.0, 0.0, 0.0, 0.0, 0.0, 0.0, 0.0, 1.663579661938131E9, 0.0, 2022-09-19 14:27:41.938
124.0, -1501.4337302963413, -17922.142794387673, -41587.02988469957, -30674.237689285004, -62918.059577710585, -187500.02235174447, -27361.575050541767, -22665.47354048175, 0.5720000000000001, -0.774, 0.32, 192.0, 0.0, 0.0, 0.0, 0.0, 0.0, 0.0, 0.0, 0.0, 0.0, 1.6635796619431665E9, 0.0, 2022-09-19 14:27:41.943
125.0, -1312.650896626818, -17716.059710509744, -41536.89492188632, -30716.594245027813, -62965.57938642256, -187500.02235174447, -27417.47676342449, -22705.326700845566, 0.5720000000000001, -0.774, 0.32, 192.0, 0.0, 0.0, 0.0, 0.0, 0.0, 0.0, 0.0, 0.0, 0.0, 1.663579661947156E9, 0.0, 2022-09-19 14:27:41.947
126.0, -1451.6787471388277, -17726.02858853681, -41604.6207075859, -30691.761456937966, -62962.874825343475, -187500.02235174447, -27377.355382127214, -22660.75732240168, 0.5720000000000001, -0.774, 0.32, 192.0, 0.0, 0.0, 0.0, 0.0, 0.0, 0.0, 0.0, 0.0, 0.0, 1.6635796619511607E9, 0.0, 2022-09-19 14:27:41.951
127.0, -1676.0679097256555, -17871.11376179621, -41669.2843042951, -30667.532165948414, -62929.593077849524, -187500.02235174447, -27344.095986377717, -22639.791386102606, 0.5720000000000001, -0.774, 0.32, 192.0, 0.0, 0.0, 0.0, 0.0, 0.0, 0.0, 0.0, 0.0, 0.0, 1.6635796619551728E9, 0.0, 2022-09-19 14:27:41.955
128.0, -1641.6462232644826, -17865.57052917129, -41640.450553947754, -30655.50692743146, -62941.39479892192, -187500.02235174447, -27355.98711442794, -22652.174252530844, 0.5720000000000001, -0.774, 0.32, 192.0, 0.0, 0.0, 0.0, 0.0, 0.0, 0.0, 0.0, 0.0, 0.0, 1.6635796619591532E9, 0.0, 2022-09-19 14:27:41.959
129.0, -1512.5201955461737, -17772.453161770485, -41581.64311428584, -30644.286351714894, -62955.6105083955, -187500.02235174447, -27335.13293685114, -22645.58048791653, 0.5720000000000001, -0.776, 0.324, 192.0, 17.0, 224.0, 231.0, 192.0, 10.0, 32.0, 0.0, 0.0, 0.0, 1.6635796619621468E9, 0.0, 2022-09-19 14:27:41.962
130.0, -1295.3282946739548, -17559.686906300416, -41503.52376741455, -30667.15218629267, -62989.115773334, -187500.02235174447, -27363.586707542745, -22686.104200614, 0.5720000000000001, -0.776, 0.324, 192.0, 0.0, 0.0, 0.0, 0.0, 0.0, 0.0, 0.0, 0.0, 0.0, 1.663579661966097E9, 0.0, 2022-09-19 14:27:41.966
131.0, -1417.5252816111185, -17556.647069054492, -41578.580925295464, -30667.442758970592, -62992.22266581329, -187500.02235174447, -27395.773219558385, -22632.661179621362, 0.5720000000000001, -0.776, 0.324, 192.0, 0.0, 0.0, 0.0, 0.0, 0.0, 0.0, 0.0, 0.0, 0.0, 1.6635796619712064E9, 0.0, 2022-09-19 14:27:41.971
132.0, -1636.9300051844127, -17701.620483591614, -41655.67209192182, -30638.117270245228, -62950.53666240414, -187500.02235174447, -27349.92979168055, -22599.491190849687, 0.5720000000000001, -0.776, 0.324, 192.0, 0.0, 0.0, 0.0, 0.0, 0.0, 0.0, 0.0, 0.0, 0.0, 1.663579661975174E9, 0.0, 2022-09-19 14:27:41.975
133.0, -1594.6405046749717, -17695.65256782205, -41624.55846364003, -30629.847124796765, -62946.24512746873, -187500.02235174447, -27333.121279850162, -22608.32012990953, 0.5720000000000001, -0.776, 0.324, 192.0, 0.0, 0.0, 0.0, 0.0, 0.0, 0.0, 0.0, 0.0, 0.0, 1.663579661979185E9, 0.0, 2022-09-19 14:27:41.979
134.0, -1503.7583117196932, -17619.72369190737, -41587.07458818848, -30660.558421678357, -62966.294642245135, -187500.02235174447, -27352.209669614993, -22645.178156516333, 0.5720000000000001, -0.776, 0.324, 192.0, 0.0, 0.0, 0.0, 0.0, 0.0, 0.0, 0.0, 0.0, 0.0, 1.6635796619832065E9, 0.0, 2022-09-19 14:27:41.983
135.0, -1301.1844517212453, -17410.086680661047, -41500.90861331327, -30677.25517478647, -62988.244055300245, -187500.02235174447, -27355.540079538834, -22690.172218104868, 0.5720000000000001, -0.776, 0.324, 192.0, 0.0, 0.0, 0.0, 0.0, 0.0, 0.0, 0.0, 0.0, 0.0, 1.663579661986143E9, 0.0, 2022-09-19 14:27:41.986
136.0, -1412.7420082976828, -17410.28784636114, -41574.669370015785, -30667.17453803713, -62998.436450771864, -187500.02235174447, -27398.544835870845, -22653.023618820145, 0.5720000000000001, -0.776, 0.324, 192.0, 0.0, 0.0, 0.0, 0.0, 0.0, 0.0, 0.0, 0.0, 0.0, 1.663579661990208E9, 0.0, 2022-09-19 14:27:41.990
137.0, -1645.7812959887144, -17568.38173489353, -41651.55937094204, -30638.720767345523, -62972.01668882569, -187500.02235174447, -27352.18731787054, -22613.2375136897, 0.5720000000000001, -0.776, 0.324, 192.0, 0.0, 0.0, 0.0, 0.0, 0.0, 0.0, 0.0, 0.0, 0.0, 1.6635796619941828E9, 0.0, 2022-09-19 14:27:41.994
138.0, -1611.0019816162564, -17572.069772728657, -41616.95887052523, -30632.976369020507, -62973.111924304, -187500.02235174447, -27338.239829330425, -22619.697167837283, 0.5720000000000001, -0.776, 0.324, 192.0, 0.0, 0.0, 0.0, 0.0, 0.0, 0.0, 0.0, 0.0, 0.0, 1.6635796619992216E9, 0.0, 2022-09-19 14:27:41.999
139.0, -1502.6854279858385, -17502.757013172748, -41581.06196893001, -30649.561363406345, -62996.290683304156, -187500.02235174447, -27346.64408524562, -22652.241307764212, 0.5700000000000001, -0.768, 0.32, 192.0, 17.0, 208.0, 232.0, 0.0, 10.0, 0.0, 0.0, 0.0, 0.0, 1.6635796620032244E9, 0.0, 2022-09-19 14:27:42.003
140.0, -1297.8316900529494, -17301.971292730726, -41498.136997000816, -30662.50302344597, -63017.05545390314, -187500.02235174447, -27341.234963087438, -22695.558988518595, 0.5700000000000001, -0.768, 0.32, 192.0, 0.0, 0.0, 0.0, 0.0, 0.0, 0.0, 0.0, 0.0, 0.0, 1.663579662007231E9, 0.0, 2022-09-19 14:27:42.007
141.0, -1397.7663395126272, -17289.09668792447, -41562.06298614299, -30657.473880943526, -63031.20410814335, -187500.02235174447, -27370.5604518128, -22617.37258641393, 0.5700000000000001, -0.768, 0.32, 192.0, 0.0, 0.0, 0.0, 0.0, 0.0, 0.0, 0.0, 0.0, 0.0, 1.663579662011351E9, 0.0, 2022-09-19 14:27:42.011
142.0, -1650.6092727910607, -17459.551091140638, -41658.644873934376, -30635.144488232672, -63010.059357888626, -187500.02235174447, -27372.929736725062, -22598.552417582563, 0.5700000000000001, -0.768, 0.32, 192.0, 0.0, 0.0, 0.0, 0.0, 0.0, 0.0, 0.0, 0.0, 0.0, 1.6635796620142295E9, 0.0, 2022-09-19 14:27:42.014
143.0, -1626.4246852904184, -17473.632690147482, -41628.98410904218, -30620.258226425438, -63005.81252644212, -187500.02235174447, -27331.333140293737, -22618.959560270257, 0.5700000000000001, -0.768, 0.32, 192.0, 0.0, 0.0, 0.0, 0.0, 0.0, 0.0, 0.0, 0.0, 0.0, 1.6635796620182905E9, 0.0, 2022-09-19 14:27:42.018
144.0, -1517.8399107265368, -17412.29950336212, -41588.57215506699, -30625.06385148333, -63010.21582009982, -187500.02235174447, -27371.990963457938, -22626.581505129518, 0.5700000000000001, -0.768, 0.32, 192.0, 0.0, 0.0, 0.0, 0.0, 0.0, 0.0, 0.0, 0.0, 0.0, 1.6635796620222688E9, 0.0, 2022-09-19 14:27:42.022
145.0, -1299.5974778649186, -17225.394216226843, -41517.627718165844, -30655.50692743146, -63036.32265762361, -187500.02235174447, -27379.992887972938, -22676.224729564754, 0.5700000000000001, -0.768, 0.32, 192.0, 0.0, 0.0, 0.0, 0.0, 0.0, 0.0, 0.0, 0.0, 0.0, 1.6635796620262637E9, 0.0, 2022-09-19 14:27:42.026
146.0, -1374.2299526011889, -17203.53421014955, -41557.39147155183, -30662.905354846163, -63040.65889604794, -187500.02235174447, -27326.326349535746, -22621.28414169361, 0.5700000000000001, -0.768, 0.32, 192.0, 0.0, 0.0, 0.0, 0.0, 0.0, 0.0, 0.0, 0.0, 0.0, 1.663579662031273E9, 0.0, 2022-09-19 14:27:42.031
147.0, -1623.340144555586, -17382.884607658936, -41649.480658707704, -30653.674084386123, -63010.10406137754, -187500.02235174447, -27337.07753861875, -22590.215216900735, 0.5700000000000001, -0.768, 0.32, 192.0, 0.0, 0.0, 0.0, 0.0, 0.0, 0.0, 0.0, 0.0, 0.0, 1.663579662035292E9, 0.0, 2022-09-19 14:27:42.035
148.0, -1608.342124026075, -17414.64643652993, -41626.86069331893, -30630.40591840815, -63007.48890727627, -187500.02235174447, -27325.45463150199, -22617.104365480467, 0.5700000000000001, -0.768, 0.32, 192.0, 0.0, 0.0, 0.0, 0.0, 0.0, 0.0, 0.0, 0.0, 0.0, 1.663579662039286E9, 0.0, 2022-09-19 14:27:42.039
149.0, -1514.2636316136875, -17360.86813937046, -41576.770433994585, -30635.882095799698, -63018.731834737286, -187500.02235174447, -27315.26223603037, -22616.277350935623, 0.5640000000000001, -0.77, 0.328, 192.0, 17.0, 160.0, 231.0, 240.0, 10.0, 64.0, 0.0, 0.0, 0.0, 1.663579662042277E9, 0.0, 2022-09-19 14:27:42.042
150.0, -1324.5420246770411, -17190.79371581003, -41516.3983722208, -30661.318380989836, -63060.57430035762, -187500.02235174447, -27376.729533282465, -22668.4016190054, 0.5640000000000001, -0.77, 0.328, 192.0, 0.0, 0.0, 0.0, 0.0, 0.0, 0.0, 0.0, 0.0, 0.0, 1.6635796620463152E9, 0.0, 2022-09-19 14:27:42.046
151.0, -1404.9412494827807, -17178.030869726048, -41580.25730612961, -30677.098712575284, -63081.40612618997, -187500.02235174447, -27385.960803742506, -22676.984688876237, 0.5640000000000001, -0.77, 0.328, 192.0, 0.0, 0.0, 0.0, 0.0, 0.0, 0.0, 0.0, 0.0, 0.0, 1.663579662052314E9, 0.0, 2022-09-19 14:27:42.052
152.0, -1650.9669007023456, -17354.408485222877, -41656.52145821112, -30631.076470741806, -63040.36832337002, -187500.02235174447, -27320.604302955187, -22585.722516265218, 0.5640000000000001, -0.77, 0.328, 192.0, 0.0, 0.0, 0.0, 0.0, 0.0, 0.0, 0.0, 0.0, 0.0, 1.6635796620553257E9, 0.0, 2022-09-19 14:27:42.055
153.0, -1633.756057471759, -17403.202343368812, -41644.49621969416, -30645.739215104488, -63042.13411118199, -187500.02235174447, -27361.485643563945, -22590.818714001027, 0.5640000000000001, -0.77, 0.328, 192.0, 0.0, 0.0, 0.0, 0.0, 0.0, 0.0, 0.0, 0.0, 0.0, 1.663579662059297E9, 0.0, 2022-09-19 14:27:42.059
154.0, -1516.2305851257545, -17361.87396787095, -41602.47494011819, -30651.863593085243, -63054.53932935469, -187500.02235174447, -27345.057111389295, -22627.989665030203, 0.5640000000000001, -0.77, 0.328, 192.0, 0.0, 0.0, 0.0, 0.0, 0.0, 0.0, 0.0, 0.0, 0.0, 1.663579662063314E9, 0.0, 2022-09-19 14:27:42.063
155.0, -1320.9210420752815, -17196.3593001794, -41516.48777919862, -30665.431101969614, -63080.64616687848, -187500.02235174447, -27304.578102180734, -22654.923517098847, 0.5640000000000001, -0.77, 0.328, 192.0, 0.0, 0.0, 0.0, 0.0, 0.0, 0.0, 0.0, 0.0, 0.0, 1.663579662067406E9, 0.0, 2022-09-19 14:27:42.067
156.0, -1406.3494093834652, -17175.01338422458, -41564.20875361071, -30667.26394501495, -63102.752042144784, -187500.02235174447, -27344.475966033457, -22627.944961541292, 0.5640000000000001, -0.77, 0.328, 192.0, 0.0, 0.0, 0.0, 0.0, 0.0, 0.0, 0.0, 0.0, 0.0, 1.663579662070337E9, 0.0, 2022-09-19 14:27:42.070
157.0, -1672.2234096793427, -17362.969203349257, -41664.366920514934, -30629.5789038633, -63072.30896619666, -187500.02235174447, -27355.83065221675, -22585.543702309573, 0.5640000000000001, -0.77, 0.328, 192.0, 0.0, 0.0, 0.0, 0.0, 0.0, 0.0, 0.0, 0.0, 0.0, 1.6635796620743237E9, 0.0, 2022-09-19 14:27:42.074
158.0, -1669.8764765115354, -17415.87578247497, -41647.71487089573, -30619.811191536333, -63065.75990507125, -187500.02235174447, -27344.252448588904, -22592.94212972428, 0.5640000000000001, -0.77, 0.328, 192.0, 0.0, 0.0, 0.0, 0.0, 0.0, 0.0, 0.0, 0.0, 0.0, 1.6635796620784092E9, 0.0, 2022-09-19 14:27:42.078
159.0, -1579.083690534078, -17379.844770413016, -41595.434140614765, -30630.428270152603, -63077.27105346574, -187500.02235174447, -27298.230206755426, -22616.43381314681, 0.5660000000000001, -0.77, 0.33, 192.0, 17.0, 176.0, 231.0, 240.0, 10.0, 80.0, 0.0, 0.0, 0.0, 1.6635796620824113E9, 0.0, 2022-09-19 14:27:42.082
160.0, -1376.3310165799876, -17217.995788812135, -41526.34489850341, -30660.983104823008, -63115.29137078421, -187500.02235174447, -27335.378806040146, -22657.650429922396, 0.5660000000000001, -0.77, 0.33, 192.0, 0.0, 0.0, 0.0, 0.0, 0.0, 0.0, 0.0, 0.0, 0.0, 1.6635796620873685E9, 0.0, 2022-09-19 14:27:42.087
161.0, -1421.1462642128784, -17186.97156750817, -41572.99298918164, -30679.244480042995, -63133.39628379301, -187500.02235174447, -27377.936527483052, -22640.48429018072, 0.5660000000000001, -0.77, 0.33, 192.0, 0.0, 0.0, 0.0, 0.0, 0.0, 0.0, 0.0, 0.0, 0.0, 1.6635796620913444E9, 0.0, 2022-09-19 14:27:42.091
162.0, -1687.6684650979598, -17382.59403498102, -41686.5398510146, -30646.8344505828, -63109.055234081185, -187500.02235174447, -27362.826748231262, -22598.172437926823, 0.5660000000000001, -0.77, 0.33, 192.0, 0.0, 0.0, 0.0, 0.0, 0.0, 0.0, 0.0, 0.0, 0.0, 1.6635796620945172E9, 0.0, 2022-09-19 14:27:42.094
163.0, -1685.5450493747055, -17438.652210074928, -41657.43787973379, -30649.91899131763, -63097.946417086896, -187500.02235174447, -27314.12229706315, -22611.941112511293, 0.5660000000000001, -0.77, 0.33, 192.0, 0.0, 0.0, 0.0, 0.0, 0.0, 0.0, 0.0, 0.0, 0.0, 1.6635796620983772E9, 0.0, 2022-09-19 14:27:42.098
164.0, -1581.9000103354467, -17406.376291081466, -41609.962774510714, -30635.6809300996, -63108.2952747697, -187500.02235174447, -27321.967759366962, -22606.979025242214, 0.5660000000000001, -0.77, 0.33, 192.0, 0.0, 0.0, 0.0, 0.0, 0.0, 0.0, 0.0, 0.0, 0.0, 1.663579662102416E9, 0.0, 2022-09-19 14:27:42.102
165.0, -1384.958789939736, -17254.49618750765, -41536.447886997215, -30666.34752349228, -63143.49927228681, -187500.02235174447, -27348.90161143561, -22661.941964857815, 0.5660000000000001, -0.77, 0.33, 192.0, 0.0, 0.0, 0.0, 0.0, 0.0, 0.0, 0.0, 0.0, 0.0, 1.6635796621063988E9, 0.0, 2022-09-19 14:27:42.106
166.0, -1419.156958956356, -17213.07840503197, -41564.65578849981, -30677.612802697757, -63165.22516789737, -187500.02235174447, -27331.42254727156, -22645.33461872752, 0.5660000000000001, -0.77, 0.33, 192.0, 0.0, 0.0, 0.0, 0.0, 0.0, 0.0, 0.0, 0.0, 0.0, 1.6635796621124113E9, 0.0, 2022-09-19 14:27:42.112
167.0, -1675.754985303281, -17404.29757884712, -41658.66722567883, -30634.20571496555, -63129.28356281323, -187500.02235174447, -27300.68889864551, -22561.89555667586, 0.5660000000000001, -0.77, 0.33, 192.0, 0.0, 0.0, 0.0, 0.0, 0.0, 0.0, 0.0, 0.0, 0.0, 1.6635796621154113E9, 0.0, 2022-09-19 14:27:42.115
168.0, -1675.889095770013, -17474.727925625793, -41643.535094682586, -30624.43800263858, -63122.71214994337, -187500.02235174447, -27290.45179968498, -22579.709897006738, 0.5660000000000001, -0.77, 0.33, 192.0, 0.0, 0.0, 0.0, 0.0, 0.0, 0.0, 0.0, 0.0, 0.0, 1.6635796621194391E9, 0.0, 2022-09-19 14:27:42.119
169.0, -1592.4276819738964, -17449.939841024858, -41601.938498251264, -30648.846107583777, -63137.37489430606, -187500.02235174447, -27298.610186411166, -22607.984853742702, 0.5680000000000001, -0.764, 0.334, 192.0, 17.0, 192.0, 232.0, 32.0, 10.0, 112.0, 0.0, 0.0, 0.0, 1.6635796621225858E9, 0.0, 2022-09-19 14:27:42.122
170.0, -1399.7779965136049, -17303.267693909133, -41530.92700611675, -30662.50302344597, -63170.6119383111, -187500.02235174447, -27320.447840744, -22664.06538058107, 0.5680000000000001, -0.764, 0.334, 192.0, 0.0, 0.0, 0.0, 0.0, 0.0, 0.0, 0.0, 0.0, 0.0, 1.663579662126462E9, 0.0, 2022-09-19 14:27:42.126
171.0, -1386.0763771625016, -17259.614736987918, -41563.67231174378, -30675.332924763316, -63192.36018566611, -187500.02235174447, -27359.026951673863, -22646.76513037266, 0.5680000000000001, -0.764, 0.334, 192.0, 0.0, 0.0, 0.0, 0.0, 0.0, 0.0, 0.0, 0.0, 0.0, 1.6635796621304972E9, 0.0, 2022-09-19 14:27:42.130
172.0, -1618.5121677532397, -17449.11282648001, -41667.92084788333, -30632.19405796457, -63157.44676082692, -187500.02235174447, -27355.674190005564, -22583.46499007523, 0.5680000000000001, -0.764, 0.334, 192.0, 0.0, 0.0, 0.0, 0.0, 0.0, 0.0, 0.0, 0.0, 0.0, 1.6635796621344917E9, 0.0, 2022-09-19 14:27:42.134
173.0, -1635.9465284283792, -17523.81235644965, -41655.51562971063, -30619.34180490277, -63148.72958048935, -187500.02235174447, -27337.055186874295, -22593.635033802395, 0.5680000000000001, -0.764, 0.334, 192.0, 0.0, 0.0, 0.0, 0.0, 0.0, 0.0, 0.0, 0.0, 0.0, 1.6635796621384993E9, 0.0, 2022-09-19 14:27:42.138
174.0, -1533.0390969561456, -17501.952350372358, -41610.76743731111, -30625.287368927882, -63156.68680151544, -187500.02235174447, -27309.78605863882, -22606.867266519937, 0.5680000000000001, -0.764, 0.334, 192.0, 0.0, 0.0, 0.0, 0.0, 0.0, 0.0, 0.0, 0.0, 0.0, 1.6635796621434839E9, 0.0, 2022-09-19 14:27:42.143
175.0, -1318.0153152960916, -17349.513453187163, -41529.29532877151, -30646.6332848827, -63180.02202272678, -187500.02235174447, -27302.58879692421, -22644.86523209396, 0.5680000000000001, -0.764, 0.334, 192.0, 0.0, 0.0, 0.0, 0.0, 0.0, 0.0, 0.0, 0.0, 0.0, 1.6635796621474848E9, 0.0, 2022-09-19 14:27:42.147
176.0, -1318.3058879740106, -17292.449449592765, -41561.63830299834, -30662.21245076805, -63204.22896197188, -187500.02235174447, -27376.014277459893, -22621.32884518252, 0.5680000000000001, -0.764, 0.334, 192.0, 0.0, 0.0, 0.0, 0.0, 0.0, 0.0, 0.0, 0.0, 0.0, 1.663579662150483E9, 0.0, 2022-09-19 14:27:42.150
177.0, -1588.3596644830304, -17482.819257118615, -41668.233772305706, -30636.195020222072, -63169.583758066154, -187500.02235174447, -27349.03572190234, -22575.127789393402, 0.5680000000000001, -0.764, 0.334, 192.0, 0.0, 0.0, 0.0, 0.0, 0.0, 0.0, 0.0, 0.0, 0.0, 1.6635796621544716E9, 0.0, 2022-09-19 14:27:42.154
178.0, -1601.0778070781002, -17548.22046139484, -41646.37376622841, -30626.04732823936, -63152.663487513484, -187500.02235174447, -27292.664622386055, -22584.89550172037, 0.5680000000000001, -0.764, 0.334, 192.0, 0.0, 0.0, 0.0, 0.0, 0.0, 0.0, 0.0, 0.0, 0.0, 1.6635796621584742E9, 0.0, 2022-09-19 14:27:42.158
179.0, -1514.8224252250702, -17530.629638508515, -41609.649850088346, -30629.40008990766, -63168.84615049913, -187500.02235174447, -27313.429392985036, -22592.360984368443, 0.5740000000000001, -0.766, 0.336, 192.0, 17.0, 240.0, 232.0, 16.0, 10.0, 128.0, 0.0, 0.0, 0.0, 1.6635796621625311E9, 0.0, 2022-09-19 14:27:42.162
180.0, -1310.7733500925722, -17388.2043228393, -41531.30698577249, -30651.52831691841, -63205.03362477227, -187500.02235174447, -27321.45366924449, -22636.416272689854, 0.5740000000000001, -0.766, 0.336, 192.0, 0.0, 0.0, 0.0, 0.0, 0.0, 0.0, 0.0, 0.0, 0.0, 1.66357966216655E9, 0.0, 2022-09-19 14:27:42.166
181.0, -1286.58876259193, -17318.265714438643, -41556.83267794045, -30681.16673006615, -63238.40477924405, -187500.02235174447, -27356.568259783777, -22635.633961633917, 0.5740000000000001, -0.766, 0.336, 192.0, 0.0, 0.0, 0.0, 0.0, 0.0, 0.0, 0.0, 0.0, 0.0, 1.663579662170479E9, 0.0, 2022-09-19 14:27:42.170
182.0, -1547.7241930632822, -17501.773536416717, -41669.86544965094, -30652.891773330186, -63213.46023243192, -187500.02235174447, -27350.7568062254, -22590.61754830093, 0.5740000000000001, -0.766, 0.336, 192.0, 0.0, 0.0, 0.0, 0.0, 0.0, 0.0, 0.0, 0.0, 0.0, 1.6635796621755335E9, 0.0, 2022-09-19 14:27:42.175
183.0, -1579.4413184453629, -17579.62466235455, -41656.14147855538, -30628.59542710727, -63197.79165956875, -187500.02235174447, -27315.888084875118, -22575.08308590449, 0.5740000000000001, -0.766, 0.336, 192.0, 0.0, 0.0, 0.0, 0.0, 0.0, 0.0, 0.0, 0.0, 0.0, 1.6635796621785684E9, 0.0, 2022-09-19 14:27:42.178
184.0, -1511.2684978566765, -17568.113513960066, -41620.64690836035, -30647.840279083288, -63214.2201917434, -187500.02235174447, -27323.577084967743, -22629.219010975245, 0.5740000000000001, -0.766, 0.336, 192.0, 0.0, 0.0, 0.0, 0.0, 0.0, 0.0, 0.0, 0.0, 0.0, 1.6635796621825943E9, 0.0, 2022-09-19 14:27:42.182
185.0, -1329.1911875237452, -17422.357788367008, -41538.79482016502, -30676.383456752716, -63234.98496234238, -187500.02235174447, -27313.809372640775, -22661.67374392435, 0.5740000000000001, -0.766, 0.336, 192.0, 0.0, 0.0, 0.0, 0.0, 0.0, 0.0, 0.0, 0.0, 0.0, 1.6635796621875808E9, 0.0, 2022-09-19 14:27:42.187
186.0, -1296.7811580635498, -17338.851671081982, -41547.10966910239, -30686.17352082414, -63261.941166155484, -187500.02235174447, -27351.025027158863, -22621.686473093807, 0.5740000000000001, -0.766, 0.336, 192.0, 0.0, 0.0, 0.0, 0.0, 0.0, 0.0, 0.0, 0.0, 0.0, 1.6635796621915536E9, 0.0, 2022-09-19 14:27:42.191
187.0, -1577.7202341223044, -17529.109719885557, -41663.472850736725, -30655.81985185383, -63244.97619211391, -187500.02235174447, -27345.638256745133, -22581.207463885246, 0.5740000000000001, -0.766, 0.336, 192.0, 0.0, 0.0, 0.0, 0.0, 0.0, 0.0, 0.0, 0.0, 0.0, 1.663579662196582E9, 0.0, 2022-09-19 14:27:42.196
188.0, -1623.2507375777648, -17610.760642380792, -41655.71679541073, -30640.754776090955, -63227.65359016104, -187500.02235174447, -27318.860866887673, -22587.37654535491, 0.5740000000000001, -0.766, 0.336, 192.0, 0.0, 0.0, 0.0, 0.0, 0.0, 0.0, 0.0, 0.0, 0.0, 1.6635796622006357E9, 0.0, 2022-09-19 14:27:42.200
189.0, -1540.9963179822348, -17589.77235433726, -41619.23874845967, -30637.40201442266, -63237.91304086603, -187500.02235174447, -27330.997864126908, -22595.825504759017, 0.5680000000000001, -0.768, 0.338, 192.0, 17.0, 192.0, 232.0, 0.0, 10.0, 144.0, 0.0, 0.0, 0.0, 1.66357966220466E9, 0.0, 2022-09-19 14:27:42.204
190.0, -1346.9161208768037, -17447.458797390318, -41546.573227235465, -30665.229936269516, -63263.617546989626, -187500.02235174447, -27347.582858512746, -22645.13345302742, 0.5680000000000001, -0.768, 0.338, 192.0, 0.0, 0.0, 0.0, 0.0, 0.0, 0.0, 0.0, 0.0, 0.0, 1.6635796622076037E9, 0.0, 2022-09-19 14:27:42.207
191.0, -1313.5449664050302, -17360.734028903727, -41563.292332088036, -30690.88973890421, -63295.87111423864, -187500.02235174447, -27427.57975191829, -22645.491080938707, 0.5680000000000001, -0.768, 0.338, 192.0, 0.0, 0.0, 0.0, 0.0, 0.0, 0.0, 0.0, 0.0, 0.0, 1.6635796622125216E9, 0.0, 2022-09-19 14:27:42.212
192.0, -1577.4520131888407, -17532.395426320487, -41675.67690320932, -30662.659485657157, -63276.87213145163, -187500.02235174447, -27397.695469581544, -22587.957690710748, 0.5680000000000001, -0.768, 0.338, 192.0, 0.0, 0.0, 0.0, 0.0, 0.0, 0.0, 0.0, 0.0, 0.0, 1.663579662216637E9, 0.0, 2022-09-19 14:27:42.216
193.0, -1609.0797315931002, -17613.01816857078, -41649.92769359681, -30643.146412747672, -63250.698238694466, -187500.02235174447, -27265.864880784142, -22588.24826338867, 0.5680000000000001, -0.768, 0.338, 192.0, 0.0, 0.0, 0.0, 0.0, 0.0, 0.0, 0.0, 0.0, 0.0, 1.6635796622195868E9, 0.0, 2022-09-19 14:27:42.219
194.0, -1519.1586636493998, -17591.739307849326, -41613.963736768215, -30657.406825710157, -63265.07041037922, -187500.02235174447, -27307.707346404477, -22612.90223752287, 0.5680000000000001, -0.768, 0.338, 192.0, 0.0, 0.0, 0.0, 0.0, 0.0, 0.0, 0.0, 0.0, 0.0, 1.663579662222641E9, 0.0, 2022-09-19 14:27:42.222
195.0, -1342.2446062856445, -17457.22650971729, -41544.00277662311, -30678.328058520325, -63292.51835257034, -187500.02235174447, -27325.07465184625, -22651.95073508629, 0.5680000000000001, -0.768, 0.338, 192.0, 0.0, 0.0, 0.0, 0.0, 0.0, 0.0, 0.0, 0.0, 0.0, 1.6635796622266152E9, 0.0, 2022-09-19 14:27:42.226
196.0, -1303.6207918668738, -17361.15871204838, -41550.08245111495, -30705.530131522435, -63324.59310586371, -187500.02235174447, -27359.13871039614, -22655.1470345434, 0.5680000000000001, -0.768, 0.338, 192.0, 0.0, 0.0, 0.0, 0.0, 0.0, 0.0, 0.0, 0.0, 0.0, 1.663579662230762E9, 0.0, 2022-09-19 14:27:42.230
197.0, -1562.1857717258658, -17528.819147207636, -41658.55546695655, -30682.038448099906, -63295.20056190498, -187500.02235174447, -27355.316562094282, -22597.390126870887, 0.5680000000000001, -0.768, 0.338, 192.0, 0.0, 0.0, 0.0, 0.0, 0.0, 0.0, 0.0, 0.0, 0.0, 1.6635796622336948E9, 0.0, 2022-09-19 14:27:42.233
198.0, -1618.8697956645246, -17619.14254655153, -41655.91796111083, -30660.64782865618, -63266.836198191195, -187500.02235174447, -27335.177640340047, -22592.115115179437, 0.5680000000000001, -0.768, 0.338, 192.0, 0.0, 0.0, 0.0, 0.0, 0.0, 0.0, 0.0, 0.0, 0.0, 1.6635796622376487E9, 0.0, 2022-09-19 14:27:42.237
199.0, -1553.2674256881985, -17604.14452602202, -41616.981222269686, -30663.93353509111, -63275.46397155094, -187500.02235174447, -27327.26512280287, -22607.448411875775, 0.5680000000000001, -0.768, 0.338, 192.0, 0.0, 0.0, 0.0, 0.0, 0.0, 0.0, 0.0, 0.0, 0.0, 1.6635796622426753E9, 0.0, 2022-09-19 14:27:42.242
200.0, -1368.0832228759793, -17469.654079634438, -41543.80161092301, -30691.64969821569, -63299.15682067357, -187500.02235174447, -27327.51099199188, -22657.33750550002, 0.5700000000000001, -0.77, 0.33, 192.0, 17.0, 208.0, 231.0, 240.0, 10.0, 80.0, 0.0, 0.0, 0.0, 1.663579662246672E9, 0.0, 2022-09-19 14:27:42.246
201.0, -1285.7170445581728, -17355.079037556534, -41539.107744587396, -30711.274529847447, -63324.41429190806, -187500.02235174447, -27365.33014361026, -22662.76897940266, 0.5700000000000001, -0.77, 0.33, 192.0, 0.0, 0.0, 0.0, 0.0, 0.0, 0.0, 0.0, 0.0, 0.0, 1.6635796622506306E9, 0.0, 2022-09-19 14:27:42.250
202.0, -1517.862262470992, -17508.434356264395, -41645.01030981664, -30678.663334687157, -63300.40851836307, -187500.02235174447, -27359.451634818513, -22602.396917628877, 0.5700000000000001, -0.77, 0.33, 192.0, 0.0, 0.0, 0.0, 0.0, 0.0, 0.0, 0.0, 0.0, 0.0, 1.6635796622546868E9, 0.0, 2022-09-19 14:27:42.254
203.0, -1591.243039517765, -17604.792726611224, -41645.74791738366, -30662.033636812408, -63285.74577400038, -187500.02235174447, -27324.381747768137, -22601.212275172744, 0.5700000000000001, -0.77, 0.33, 192.0, 0.0, 0.0, 0.0, 0.0, 0.0, 0.0, 0.0, 0.0, 0.0, 1.6635796622586606E9, 0.0, 2022-09-19 14:27:42.258
204.0, -1513.7495414912155, -17579.781124565736, -41604.106617463425, -30663.26298275745, -63298.8885997401, -187500.02235174447, -27330.573180982257, -22610.398842143877, 0.5700000000000001, -0.77, 0.33, 192.0, 0.0, 0.0, 0.0, 0.0, 0.0, 0.0, 0.0, 0.0, 0.0, 1.6635796622636683E9, 0.0, 2022-09-19 14:27:42.263
205.0, -1321.8598153424043, -17443.50253862173, -41535.57616896345, -30687.425218513636, -63322.067358740256, -187500.02235174447, -27337.41281478558, -22651.05666530808, 0.5700000000000001, -0.77, 0.33, 192.0, 0.0, 0.0, 0.0, 0.0, 0.0, 0.0, 0.0, 0.0, 0.0, 1.6635796622676644E9, 0.0, 2022-09-19 14:27:42.267
206.0, -1228.2730613080337, -17323.51837438564, -41538.28073004255, -30728.150096911206, -63356.84667311271, -187500.02235174447, -27377.60125131622, -22680.73978194473, 0.5700000000000001, -0.77, 0.33, 192.0, 0.0, 0.0, 0.0, 0.0, 0.0, 0.0, 0.0, 0.0, 0.0, 1.663579662271708E9, 0.0, 2022-09-19 14:27:42.271
207.0, -1494.5493930041068, -17474.25853899223, -41651.40290873086, -30704.501951277492, -63338.36178044818, -187500.02235174447, -27363.162024398094, -22617.86432479195, 0.5700000000000001, -0.77, 0.33, 192.0, 0.0, 0.0, 0.0, 0.0, 0.0, 0.0, 0.0, 0.0, 0.0, 1.6635796622756796E9, 0.0, 2022-09-19 14:27:42.275
208.0, -1579.6871876343714, -17571.91331051747, -41662.91405712534, -30673.611840440255, -63315.831222037225, -187500.02235174447, -27355.22715511646, -22599.781763527604, 0.5700000000000001, -0.77, 0.33, 192.0, 0.0, 0.0, 0.0, 0.0, 0.0, 0.0, 0.0, 0.0, 0.0, 1.663579662279709E9, 0.0, 2022-09-19 14:27:42.279
209.0, -1508.8992129444139, -17553.718990530848, -41619.28345194858, -30670.30378226087, -63318.80400404978, -187500.02235174447, -27321.274855288848, -22619.563057370553, 0.5700000000000001, -0.77, 0.33, 192.0, 0.0, 0.0, 0.0, 0.0, 0.0, 0.0, 0.0, 0.0, 0.0, 1.6635796622847383E9, 0.0, 2022-09-19 14:27:42.284
210.0, -1327.000716567125, -17426.15758492441, -41546.39441327982, -30686.665259202156, -63336.50658565839, -187500.02235174447, -27321.252503544394, -22658.05276132259, 0.5740000000000001, -0.768, 0.334, 192.0, 17.0, 240.0, 232.0, 0.0, 10.0, 112.0, 0.0, 0.0, 0.0, 1.6635796622877555E9, 0.0, 2022-09-19 14:27:42.287
211.0, -1246.9367679282152, -17295.42223160532, -41531.15052356131, -30715.923692694152, -63369.028373840854, -187500.02235174447, -27365.12897791016, -22649.559098429574, 0.5740000000000001, -0.768, 0.334, 192.0, 0.0, 0.0, 0.0, 0.0, 0.0, 0.0, 0.0, 0.0, 0.0, 1.6635796622907903E9, 0.0, 2022-09-19 14:27:42.290
212.0, -1499.0644453840787, -17440.753274053728, -41645.92673133931, -30699.092829119305, -63353.024524810855, -187500.02235174447, -27369.956954712507, -22608.543647354087, 0.5740000000000001, -0.768, 0.334, 192.0, 0.0, 0.0, 0.0, 0.0, 0.0, 0.0, 0.0, 0.0, 0.0, 1.6635796622937691E9, 0.0, 2022-09-19 14:27:42.293
213.0, -1592.3829784849859, -17552.176720163432, -41662.22115304723, -30679.155073065172, -63334.025542023846, -187500.02235174447, -27339.513878764377, -22611.315263666544, 0.5740000000000001, -0.768, 0.334, 192.0, 0.0, 0.0, 0.0, 0.0, 0.0, 0.0, 0.0, 0.0, 0.0, 1.6635796622978613E9, 0.0, 2022-09-19 14:27:42.297
214.0, -1529.0828381875563, -17539.547984546185, -41628.20179798625, -30693.102561605283, -63356.62315566816, -187500.02235174447, -27338.463346774977, -22636.997418045692, 0.5740000000000001, -0.768, 0.334, 192.0, 0.0, 0.0, 0.0, 0.0, 0.0, 0.0, 0.0, 0.0, 0.0, 1.6635796623028104E9, 0.0, 2022-09-19 14:27:42.302
215.0, -1364.4398885297644, -17415.138174907945, -41561.86182044289, -30720.79637298541, -63379.75721117941, -187500.02235174447, -27352.70140799301, -22675.129494086446, 0.5740000000000001, -0.768, 0.334, 192.0, 0.0, 0.0, 0.0, 0.0, 0.0, 0.0, 0.0, 0.0, 0.0, 1.663579662306738E9, 0.0, 2022-09-19 14:27:42.306
216.0, -1263.0300239360363, -17281.27357736511, -41553.502268016615, -30751.530021611456, -63418.98452269847, -187500.02235174447, -27400.04240274935, -22694.150828617912, 0.5740000000000001, -0.768, 0.334, 192.0, 0.0, 0.0, 0.0, 0.0, 0.0, 0.0, 0.0, 0.0, 0.0, 1.6635796623108833E9, 0.0, 2022-09-19 14:27:42.310
217.0, -1488.0450353676124, -17416.613390041995, -41662.17644955831, -30718.60590202879, -63398.890304433146, -187500.02235174447, -27398.701298082033, -22633.28702846611, 0.5740000000000001, -0.768, 0.334, 192.0, 0.0, 0.0, 0.0, 0.0, 0.0, 0.0, 0.0, 0.0, 0.0, 1.663579662313758E9, 0.0, 2022-09-19 14:27:42.313
218.0, -1588.0467400606562, -17527.835670451605, -41683.522365513134, -30697.148227351696, -63380.69598444653, -187500.02235174447, -27385.17849268657, -22633.734063355216, 0.5740000000000001, -0.768, 0.334, 192.0, 0.0, 0.0, 0.0, 0.0, 0.0, 0.0, 0.0, 0.0, 0.0, 1.6635796623178189E9, 0.0, 2022-09-19 14:27:42.317
219.0, -1521.34913460602, -17510.80364117666, -41648.13955404038, -30702.155018109683, -63388.74261245044, -187500.02235174447, -27385.111437453204, -22650.2967059966, 0.5740000000000001, -0.768, 0.334, 192.0, 0.0, 0.0, 0.0, 0.0, 0.0, 0.0, 0.0, 0.0, 0.0, 1.6635796623217993E9, 0.0, 2022-09-19 14:27:42.321
220.0, -1361.9141414063147, -17391.1547531074, -41576.010474683106, -30717.667128761666, -63404.344130080244, -187500.02235174447, -27338.485698519435, -22686.573587247563, 0.58, -0.77, 0.33, 192.0, 18.0, 32.0, 231.0, 240.0, 10.0, 80.0, 0.0, 0.0, 0.0, 1.663579662325869E9, 0.0, 2022-09-19 14:27:42.325
221.0, -1245.774477216539, -17244.326143780487, -41544.13688708984, -30733.55921906939, -63434.966019984015, -187500.02235174447, -27365.732475010453, -22696.900093185915, 0.58, -0.77, 0.33, 192.0, 0.0, 0.0, 0.0, 0.0, 0.0, 0.0, 0.0, 0.0, 0.0, 1.663579662330806E9, 0.0, 2022-09-19 14:27:42.330
222.0, -1454.0703837955457, -17369.495912730206, -41650.64294941937, -30705.64189024471, -63411.92137145059, -187500.02235174447, -27385.26789966439, -22639.165537257857, 0.58, -0.77, 0.33, 192.0, 0.0, 0.0, 0.0, 0.0, 0.0, 0.0, 0.0, 0.0, 0.0, 1.6635796623348196E9, 0.0, 2022-09-19 14:27:42.334
223.0, -1577.3179027221088, -17490.172981044412, -41676.21334507625, -30686.21822431305, -63390.2625310734, -187500.02235174447, -27348.946314924517, -22639.657275635873, 0.58, -0.77, 0.33, 192.0, 0.0, 0.0, 0.0, 0.0, 0.0, 0.0, 0.0, 0.0, 0.0, 1.6635796623388388E9, 0.0, 2022-09-19 14:27:42.338
224.0, -1537.1741696803774, -17485.0767833086, -41643.1774667713, -30690.621517970743, -63402.2654178459, -187500.02235174447, -27335.669378718067, -22661.20435729079, 0.58, -0.77, 0.33, 192.0, 0.0, 0.0, 0.0, 0.0, 0.0, 0.0, 0.0, 0.0, 0.0, 1.6635796623428037E9, 0.0, 2022-09-19 14:27:42.342
225.0, -1382.030711416091, -17370.85936914198, -41578.15624215081, -30700.07630587534, -63420.72795876598, -187500.02235174447, -27345.481794533946, -22694.664918740382, 0.58, -0.77, 0.33, 192.0, 0.0, 0.0, 0.0, 0.0, 0.0, 0.0, 0.0, 0.0, 0.0, 1.6635796623467977E9, 0.0, 2022-09-19 14:27:42.346
226.0, -1250.2001226186899, -17215.22417249968, -41545.79091617953, -30718.6506055177, -63454.56849987132, -187500.02235174447, -27372.594460558234, -22720.190610908343, 0.58, -0.77, 0.33, 192.0, 0.0, 0.0, 0.0, 0.0, 0.0, 0.0, 0.0, 0.0, 0.0, 1.663579662351846E9, 0.0, 2022-09-19 14:27:42.351
227.0, -1481.183049819833, -17337.77878734813, -41659.49424022368, -30701.529169264933, -63442.0738747208, -187500.02235174447, -27393.5156933684, -22674.05661035259, 0.58, -0.77, 0.33, 192.0, 0.0, 0.0, 0.0, 0.0, 0.0, 0.0, 0.0, 0.0, 0.0, 1.6635796623557875E9, 0.0, 2022-09-19 14:27:42.355
228.0, -1598.5073564657398, -17458.50055915124, -41690.160833616355, -30681.054971343874, -63422.22552564449, -187500.02235174447, -27360.077483663263, -22664.423008492355, 0.58, -0.77, 0.33, 192.0, 0.0, 0.0, 0.0, 0.0, 0.0, 0.0, 0.0, 0.0, 0.0, 1.6635796623597915E9, 0.0, 2022-09-19 14:27:42.359
229.0, -1535.3860301239527, -17454.87957654948, -41674.849888664474, -30700.992727398007, -63448.77939805739, -187500.02235174447, -27402.746963828442, -22696.34129957453, 0.58, -0.77, 0.33, 192.0, 0.0, 0.0, 0.0, 0.0, 0.0, 0.0, 0.0, 0.0, 0.0, 1.6635796623637736E9, 0.0, 2022-09-19 14:27:42.363
230.0, -1391.6196097874176, -17344.931345573827, -41593.51189059161, -30707.519436778955, -63456.490749894474, -187500.02235174447, -27325.722852435454, -22727.946666234337, 0.5720000000000001, -0.774, 0.33, 192.0, 17.0, 224.0, 231.0, 208.0, 10.0, 80.0, 0.0, 0.0, 0.0, 1.6635796623678892E9, 0.0, 2022-09-19 14:27:42.367
231.0, -1274.6529310527958, -17194.772326323073, -41554.28457907255, -30742.142288940227, -63490.21953227753, -187500.02235174447, -27363.184376142548, -22760.69197186136, 0.5720000000000001, -0.774, 0.33, 192.0, 0.0, 0.0, 0.0, 0.0, 0.0, 0.0, 0.0, 0.0, 0.0, 1.6635796623718398E9, 0.0, 2022-09-19 14:27:42.371
232.0, -1482.5688579760622, -17303.312397398044, -41652.72166165372, -30714.8508089603, -63472.04756403537, -187500.02235174447, -27374.002620458916, -22698.35295657551, 0.5720000000000001, -0.774, 0.33, 192.0, 0.0, 0.0, 0.0, 0.0, 0.0, 0.0, 0.0, 0.0, 0.0, 1.6635796623748417E9, 0.0, 2022-09-19 14:27:42.374
233.0, -1582.7046731358378, -17426.939895980348, -41682.896516668385, -30687.73814293601, -63438.966982241516, -187500.02235174447, -27353.37196032667, -22678.348145288008, 0.5720000000000001, -0.774, 0.33, 192.0, 0.0, 0.0, 0.0, 0.0, 0.0, 0.0, 0.0, 0.0, 0.0, 1.6635796623778293E9, 0.0, 2022-09-19 14:27:42.377
234.0, -1519.1363119049445, -17420.63670404395, -41644.11624003843, -30693.25902381647, -63441.202156687046, -187500.02235174447, -27338.97743689745, -22690.999232649712, 0.5720000000000001, -0.774, 0.33, 192.0, 0.0, 0.0, 0.0, 0.0, 0.0, 0.0, 0.0, 0.0, 0.0, 1.663579662381873E9, 0.0, 2022-09-19 14:27:42.381
235.0, -1378.1191561364124, -17317.103423726967, -41583.051274186524, -30704.010212899473, -63453.09328473727, -187500.02235174447, -27365.821881988275, -22724.996235966235, 0.5720000000000001, -0.774, 0.33, 192.0, 0.0, 0.0, 0.0, 0.0, 0.0, 0.0, 0.0, 0.0, 0.0, 1.6635796623868847E9, 0.0, 2022-09-19 14:27:42.386
236.0, -1227.5131019965534, -17156.327325859944, -41545.56739873498, -30740.51061159499, -63493.6393491792, -187500.02235174447, -27367.207690144503, -22762.725980606792, 0.5720000000000001, -0.774, 0.33, 192.0, 0.0, 0.0, 0.0, 0.0, 0.0, 0.0, 0.0, 0.0, 0.0, 1.6635796623938572E9, 0.0, 2022-09-19 14:27:42.393
237.0, -1451.3881744609089, -17262.296946322556, -41647.312539495535, -30734.02860570295, -63488.05141306537, -187500.02235174447, -27385.781989786865, -22721.755233020216, 0.5720000000000001, -0.774, 0.33, 192.0, 0.0, 0.0, 0.0, 0.0, 0.0, 0.0, 0.0, 0.0, 0.0, 1.6635796623969035E9, 0.0, 2022-09-19 14:27:42.396
238.0, -1601.4801384782957, -17393.948721164314, -41676.86154566545, -30707.40767805668, -63460.98345052999, -187500.02235174447, -27344.40891080009, -22707.49482005773, 0.5720000000000001, -0.774, 0.33, 192.0, 0.0, 0.0, 0.0, 0.0, 0.0, 0.0, 0.0, 0.0, 0.0, 1.6635796624009273E9, 0.0, 2022-09-19 14:27:42.400
239.0, -1533.9331667343579, -17380.403564024396, -41626.88304506338, -30704.7478204665, -63456.98248827249, -187500.02235174447, -27309.897817361096, -22721.755233020216, 0.5720000000000001, -0.774, 0.33, 192.0, 0.0, 0.0, 0.0, 0.0, 0.0, 0.0, 0.0, 0.0, 0.0, 1.6635796624038672E9, 0.0, 2022-09-19 14:27:42.403
240.0, -1395.2852958780882, -17292.695318781774, -41568.14266063484, -30731.860486490787, -63476.5849681598, -187500.02235174447, -27329.07561410375, -22773.946556323357, 0.5700000000000001, -0.772, 0.33, 192.0, 17.0, 208.0, 231.0, 224.0, 10.0, 80.0, 0.0, 0.0, 0.0, 1.6635796624069157E9, 0.0, 2022-09-19 14:27:42.406
241.0, -1241.2594248365672, -17137.14952911729, -41529.11651481587, -30769.76904508699, -63520.30498031437, -187500.02235174447, -27354.84717546072, -22808.79292592918, 0.5700000000000001, -0.772, 0.33, 192.0, 0.0, 0.0, 0.0, 0.0, 0.0, 0.0, 0.0, 0.0, 0.0, 1.663579662410874E9, 0.0, 2022-09-19 14:27:42.410
242.0, -1440.4358196778082, -17240.41458850081, -41632.627443388395, -30761.677713594167, -63509.17381157563, -187500.02235174447, -27375.79076001534, -22761.094303261558, 0.5700000000000001, -0.772, 0.33, 192.0, 0.0, 0.0, 0.0, 0.0, 0.0, 0.0, 0.0, 0.0, 0.0, 1.6635796624139392E9, 0.0, 2022-09-19 14:27:42.413
243.0, -1597.6132866875275, -17381.476447758254, -41663.69636818128, -30725.35612885429, -63465.47615116551, -187500.02235174447, -27314.636387185623, -22728.617218567993, 0.5700000000000001, -0.772, 0.33, 192.0, 0.0, 0.0, 0.0, 0.0, 0.0, 0.0, 0.0, 0.0, 0.0, 1.6635796624189353E9, 0.0, 2022-09-19 14:27:42.418
244.0, -1552.4851146322626, -17399.00021541121, -41640.49525743667, -30746.99261748703, -63484.07280255232, -187500.02235174447, -27334.305922306292, -22761.139006750465, 0.5700000000000001, -0.772, 0.33, 192.0, 0.0, 0.0, 0.0, 0.0, 0.0, 0.0, 0.0, 0.0, 0.0, 1.663579662422919E9, 0.0, 2022-09-19 14:27:42.422
245.0, -1418.2628891781437, -17332.704941356773, -41584.77235850959, -30757.453233892113, -63499.3390440153, -187500.02235174447, -27336.831669429743, -22793.03494608819, 0.5700000000000001, -0.772, 0.33, 192.0, 0.0, 0.0, 0.0, 0.0, 0.0, 0.0, 0.0, 0.0, 0.0, 1.6635796624269357E9, 0.0, 2022-09-19 14:27:42.426
246.0, -1246.3779743168325, -17183.328233161956, -41527.99892759311, -30781.302545225924, -63525.155308861176, -187500.02235174447, -27355.89770745012, -22814.224399831823, 0.5700000000000001, -0.772, 0.33, 192.0, 0.0, 0.0, 0.0, 0.0, 0.0, 0.0, 0.0, 0.0, 0.0, 1.6635796624299674E9, 0.0, 2022-09-19 14:27:42.429
247.0, -1465.4027182343864, -17311.85076377997, -41638.371841713415, -30765.03047526246, -63522.204878593075, -187500.02235174447, -27395.90733002512, -22763.1730154959, 0.5700000000000001, -0.772, 0.33, 192.0, 0.0, 0.0, 0.0, 0.0, 0.0, 0.0, 0.0, 0.0, 0.0, 1.6635796624350715E9, 0.0, 2022-09-19 14:27:42.435
248.0, -1631.7667522152367, -17505.930960885402, -41676.36980728743, -30721.735146252533, -63489.37016598823, -187500.02235174447, -27344.386559055634, -22744.2187361978, 0.5700000000000001, -0.772, 0.33, 192.0, 0.0, 0.0, 0.0, 0.0, 0.0, 0.0, 0.0, 0.0, 0.0, 1.663579662440015E9, 0.0, 2022-09-19 14:27:42.440
249.0, -1572.9146090644133, -17560.80449352318, -41627.62065263041, -30717.98005318404, -63492.56646544534, -187500.02235174447, -27299.794828867296, -22733.199326181333, 0.5700000000000001, -0.772, 0.33, 192.0, 0.0, 0.0, 0.0, 0.0, 0.0, 0.0, 0.0, 0.0, 0.0, 1.6635796624439468E9, 0.0, 2022-09-19 14:27:42.443
250.0, -1464.9333316008249, -17537.13399614501, -41571.51777404759, -30728.619483544768, -63505.642235951695, -187500.02235174447, -27296.531474176823, -22767.03986728667, 0.5700000000000001, -0.776, 0.32, 192.0, 17.0, 208.0, 231.0, 192.0, 10.0, 0.0, 0.0, 0.0, 0.0, 1.663579662449984E9, 0.0, 2022-09-19 14:27:42.449
251.0, -1311.9132890597928, -17434.807710028614, -41524.17677929125, -30764.091701995338, -63545.987134693525, -187500.02235174447, -27322.7500704229, -22808.256484062254, 0.5700000000000001, -0.776, 0.32, 192.0, 0.0, 0.0, 0.0, 0.0, 0.0, 0.0, 0.0, 0.0, 0.0, 1.6635796624530013E9, 0.0, 2022-09-19 14:27:42.453
252.0, -1517.057599670601, -17587.380717680542, -41629.408792186834, -30759.9119257822, -63543.751960247995, -187500.02235174447, -27355.83065221675, -22772.98543131178, 0.5700000000000001, -0.776, 0.32, 192.0, 0.0, 0.0, 0.0, 0.0, 0.0, 0.0, 0.0, 0.0, 0.0, 1.6635796624559445E9, 0.0, 2022-09-19 14:27:42.455
253.0, -1694.7539680902921, -17805.42198484206, -41674.17933633082, -30723.36682359777, -63509.26321855345, -187500.02235174447, -27303.21464576896, -22741.827099541082, 0.5700000000000001, -0.776, 0.32, 192.0, 0.0, 0.0, 0.0, 0.0, 0.0, 0.0, 0.0, 0.0, 0.0, 1.663579662459941E9, 0.0, 2022-09-19 14:27:42.459
254.0, -1640.9980226752787, -17879.070982822297, -41626.9277485523, -30720.46109681858, -63514.873506411735, -187500.02235174447, -27276.48195940041, -22755.30520144763, 0.5700000000000001, -0.776, 0.32, 192.0, 0.0, 0.0, 0.0, 0.0, 0.0, 0.0, 0.0, 0.0, 0.0, 1.6635796624650185E9, 0.0, 2022-09-19 14:27:42.465
255.0, -1512.5425472906288, -17871.96312808551, -41573.23885837065, -30733.827440002853, -63534.788910721414, -187500.02235174447, -27310.747183650397, -22787.961100096836, 0.5700000000000001, -0.776, 0.32, 192.0, 0.0, 0.0, 0.0, 0.0, 0.0, 0.0, 0.0, 0.0, 0.0, 1.6635796624681294E9, 0.0, 2022-09-19 14:27:42.468
0.0, -1329.9734985796808, -17769.74860069139, -41519.3488024889, -30761.74476882753, -63577.12311471977, -187500.02235174447, -27320.559599466276, -22823.299208080676, 0.5700000000000001, -0.776, 0.32, 192.0, 0.0, 0.0, 0.0, 0.0, 0.0, 0.0, 0.0, 0.0, 0.0, 1.6635796624720137E9, 0.0, 2022-09-19 14:27:42.472
1.0, -1499.6232389954614, -17898.6734627096, -41599.72567555019, -30736.196724915117, -63560.24754765601, -187500.02235174447, -27316.335119764226, -22769.36444871002, 0.5700000000000001, -0.776, 0.32, 192.0, 0.0, 0.0, 0.0, 0.0, 0.0, 0.0, 0.0, 0.0, 0.0, 1.6635796624749722E9, 0.0, 2022-09-19 14:27:42.474
2.0, -1691.1553372329877, -18119.82162235041, -41659.09190882348, -30700.27747157544, -63526.4964135285, -187500.02235174447, -27288.931881062017, -22750.61133511202, 0.5700000000000001, -0.776, 0.32, 192.0, 0.0, 0.0, 0.0, 0.0, 0.0, 0.0, 0.0, 0.0, 0.0, 1.6635796624779985E9, 0.0, 2022-09-19 14:27:42.477
3.0, -1635.4324383059072, -18180.707774246668, -41626.59247238546, -30701.663279731667, -63535.146538632696, -187500.02235174447, -27302.097058546195, -22768.760951609725, 0.5700000000000001, -0.776, 0.32, 192.0, 0.0, 0.0, 0.0, 0.0, 0.0, 0.0, 0.0, 0.0, 0.0, 1.6635796624820344E9, 0.0, 2022-09-19 14:27:42.482
4.0, -1513.3695618354752, -18151.426989010215, -41571.07073915848, -30714.69434674911, -63547.84232948331, -187500.02235174447, -27300.6441951566, -22800.433373502896, 0.5740000000000001, -0.78, 0.322, 192.0, 17.0, 240.0, 231.0, 160.0, 10.0, 16.0, 0.0, 0.0, 0.0, 1.6635796624860108E9, 0.0, 2022-09-19 14:27:42.486
5.0, -1324.6090799104072, -18011.795641397912, -41510.47515994014, -30745.249181419516, -63583.247492700524, -187500.02235174447, -27317.810334898277, -22837.783138487714, 0.5740000000000001, -0.78, 0.322, 192.0, 0.0, 0.0, 0.0, 0.0, 0.0, 0.0, 0.0, 0.0, 0.0, 1.6635796624900973E9, 0.0, 2022-09-19 14:27:42.490
6.0, -1479.1490410744002, -18111.551476901946, -41603.413713385315, -30731.32404462386, -63585.16974272368, -187500.02235174447, -27347.448748046012, -22788.206969285842, 0.5740000000000001, -0.78, 0.322, 192.0, 0.0, 0.0, 0.0, 0.0, 0.0, 0.0, 0.0, 0.0, 0.0, 1.663579662494132E9, 0.0, 2022-09-19 14:27:42.494
7.0, -1656.688947282904, -18304.648197251343, -41655.225057032716, -30691.60499472678, -63548.15525390569, -187500.02235174447, -27304.533398691823, -22753.584117124574, 0.5740000000000001, -0.78, 0.322, 192.0, 0.0, 0.0, 0.0, 0.0, 0.0, 0.0, 0.0, 0.0, 0.0, 1.66357966249806E9, 0.0, 2022-09-19 14:27:42.498
8.0, -1595.6239814310052, -18351.653915840856, -41619.66343160432, -30691.984974382518, -63555.33016387584, -187500.02235174447, -27294.743334620398, -22766.279907975186, 0.5740000000000001, -0.78, 0.322, 192.0, 0.0, 0.0, 0.0, 0.0, 0.0, 0.0, 0.0, 0.0, 0.0, 1.6635796625030272E9, 0.0, 2022-09-19 14:27:42.503
9.0, -1480.0431108526125, -18327.469328340212, -41579.81027124051, -30709.620500757756, -63580.72174557707, -187500.02235174447, -27317.40800349808, -22807.720042195328, 0.5740000000000001, -0.78, 0.322, 192.0, 0.0, 0.0, 0.0, 0.0, 0.0, 0.0, 0.0, 0.0, 0.0, 1.6635796625061138E9, 0.0, 2022-09-19 14:27:42.506
10.0, -1314.6625536277954, -18192.97888195263, -41514.36436347537, -30738.99069297203, -63614.36112098231, -187500.02235174447, -27313.45174472949, -22848.601382804085, 0.5740000000000001, -0.78, 0.322, 192.0, 0.0, 0.0, 0.0, 0.0, 0.0, 0.0, 0.0, 0.0, 0.0, 1.6635796625091057E9, 0.0, 2022-09-19 14:27:42.509
11.0, -1480.6019044639952, -18286.453877264725, -41601.62557382889, -30732.17341091316, -63609.667254646694, -187500.02235174447, -27368.99582970093, -22805.149591582966, 0.5740000000000001, -0.78, 0.322, 192.0, 0.0, 0.0, 0.0, 0.0, 0.0, 0.0, 0.0, 0.0, 0.0, 1.6635796625141056E9, 0.0, 2022-09-19 14:27:42.514
12.0, -1674.6821015694263, -18488.893626796442, -41663.53990597009, -30698.869311674753, -63569.612928582785, -187500.02235174447, -27332.115451349673, -22788.139914052477, 0.5740000000000001, -0.78, 0.322, 192.0, 0.0, 0.0, 0.0, 0.0, 0.0, 0.0, 0.0, 0.0, 0.0, 1.663579662518086E9, 0.0, 2022-09-19 14:27:42.518
13.0, -1625.7541329567591, -18543.43188326739, -41631.48750442118, -30704.345489066305, -63572.65276582871, -187500.02235174447, -27310.16603829456, -22805.484867749798, 0.5740000000000001, -0.78, 0.322, 192.0, 0.0, 0.0, 0.0, 0.0, 0.0, 0.0, 0.0, 0.0, 0.0, 1.6635796625221012E9, 0.0, 2022-09-19 14:27:42.522
14.0, -1517.4599310707965, -18517.99559807725, -41580.838451485455, -30709.419335057657, -63586.51084739099, -187500.02235174447, -27263.897927272075, -22820.0358533902, 0.5700000000000001, -0.776, 0.32, 192.0, 17.0, 208.0, 231.0, 192.0, 10.0, 0.0, 0.0, 0.0, 0.0, 1.6635796625260828E9, 0.0, 2022-09-19 14:27:42.526
15.0, -1324.2514519991223, -18379.124209776426, -41508.821130850454, -30735.570876070367, -63610.02488255798, -187500.02235174447, -27296.039735798808, -22858.1455776865, 0.5700000000000001, -0.776, 0.32, 192.0, 0.0, 0.0, 0.0, 0.0, 0.0, 0.0, 0.0, 0.0, 0.0, 1.6635796625300772E9, 0.0, 2022-09-19 14:27:42.530
16.0, -1461.3794042324312, -18455.634231046944, -41594.00362896963, -30732.240466146526, -63614.9646180826, -187500.02235174447, -27323.5994367122, -22817.59951324457, 0.5700000000000001, -0.776, 0.32, 192.0, 0.0, 0.0, 0.0, 0.0, 0.0, 0.0, 0.0, 0.0, 0.0, 1.6635796625342307E9, 0.0, 2022-09-19 14:27:42.534
17.0, -1662.5451043301946, -18654.542404954722, -41666.51268798264, -30691.26971855995, -63585.2591497015, -187500.02235174447, -27304.175770780537, -22780.78619012668, 0.5700000000000001, -0.776, 0.32, 192.0, 0.0, 0.0, 0.0, 0.0, 0.0, 0.0, 0.0, 0.0, 0.0, 1.663579662537109E9, 0.0, 2022-09-19 14:27:42.537
18.0, -1611.5384234831838, -18697.144829886536, -41634.460286433736, -30694.376611039235, -63589.84125731484, -187500.02235174447, -27296.88910208811, -22807.250655561766, 0.5700000000000001, -0.776, 0.32, 192.0, 0.0, 0.0, 0.0, 0.0, 0.0, 0.0, 0.0, 0.0, 0.0, 1.6635796625431511E9, 0.0, 2022-09-19 14:27:42.543
19.0, -1489.766119690671, -18652.486044464833, -41577.08335841696, -30705.574835011346, -63603.60993189931, -187500.02235174447, -27270.312877930748, -22831.636408762504, 0.5700000000000001, -0.776, 0.32, 192.0, 0.0, 0.0, 0.0, 0.0, 0.0, 0.0, 0.0, 0.0, 0.0, 1.6635796625471475E9, 0.0, 2022-09-19 14:27:42.547
20.0, -1298.390483664332, -18500.225961235283, -41515.37019197586, -30735.23559990354, -63639.93151663918, -187500.02235174447, -27319.44201224351, -22872.33893541562, 0.5700000000000001, -0.776, 0.32, 192.0, 0.0, 0.0, 0.0, 0.0, 0.0, 0.0, 0.0, 0.0, 0.0, 1.6635796625521655E9, 0.0, 2022-09-19 14:27:42.552
21.0, -1421.1462642128784, -18544.95180189035, -41591.67904754628, -30736.59905631531, -63642.27844980699, -187500.02235174447, -27344.163041611082, -22852.445882850396, 0.5700000000000001, -0.776, 0.32, 192.0, 0.0, 0.0, 0.0, 0.0, 0.0, 0.0, 0.0, 0.0, 0.0, 1.6635796625551927E9, 0.0, 2022-09-19 14:27:42.555
22.0, -1617.595746230572, -18720.52475458679, -41656.8343826335, -30703.674936732645, -63602.51469642099, -187500.02235174447, -27309.383727238623, -22806.71421369484, 0.5700000000000001, -0.776, 0.32, 192.0, 0.0, 0.0, 0.0, 0.0, 0.0, 0.0, 0.0, 0.0, 0.0, 1.6635796625581315E9, 0.0, 2022-09-19 14:27:42.558
23.0, -1579.1283940229887, -18751.213699723925, -41621.22805371619, -30692.543767993902, -63599.318396963885, -187500.02235174447, -27308.579064438232, -22803.741431682283, 0.5700000000000001, -0.776, 0.32, 192.0, 0.0, 0.0, 0.0, 0.0, 0.0, 0.0, 0.0, 0.0, 0.0, 1.6635796625611715E9, 0.0, 2022-09-19 14:27:42.561
24.0, -1471.0800613260344, -18699.290597354247, -41570.489593802646, -30706.580663511835, -63615.94809483863, -187500.02235174447, -27292.195235752493, -22843.28166762372, 0.58, -0.778, 0.326, 192.0, 18.0, 32.0, 231.0, 176.0, 10.0, 48.0, 0.0, 0.0, 0.0, 1.6635796625652974E9, 0.0, 2022-09-19 14:27:42.565
25.0, -1259.3643378453658, -18524.76817664721, -41509.46933143966, -30739.95181798361, -63659.77986571549, -187500.02235174447, -27332.428375772048, -22895.428287437953, 0.58, -0.778, 0.326, 192.0, 0.0, 0.0, 0.0, 0.0, 0.0, 0.0, 0.0, 0.0, 0.0, 1.6635796625701845E9, 0.0, 2022-09-19 14:27:42.570
26.0, -1362.0706036175018, -18537.508670986732, -41590.270887645594, -30733.715681280577, -63679.65056653626, -187500.02235174447, -27365.93364071055, -22858.167929430954, 0.58, -0.778, 0.326, 192.0, 0.0, 0.0, 0.0, 0.0, 0.0, 0.0, 0.0, 0.0, 0.0, 1.663579662574149E9, 0.0, 2022-09-19 14:27:42.574
27.0, -1572.512277664218, -18704.766774745796, -41673.44172876379, -30703.831398943832, -63655.533034268985, -187500.02235174447, -27340.162079353584, -22830.921152939936, 0.58, -0.778, 0.326, 192.0, 0.0, 0.0, 0.0, 0.0, 0.0, 0.0, 0.0, 0.0, 0.0, 1.6635796625782762E9, 0.0, 2022-09-19 14:27:42.578
28.0, -1549.8029052976258, -18719.60833306412, -41642.01517605963, -30703.496122777004, -63661.56800527192, -187500.02235174447, -27312.468267973458, -22857.832653264126, 0.58, -0.778, 0.326, 192.0, 0.0, 0.0, 0.0, 0.0, 0.0, 0.0, 0.0, 0.0, 0.0, 1.66357966258221E9, 0.0, 2022-09-19 14:27:42.582
29.0, -1456.2385030077105, -18647.658067662487, -41593.37778012488, -30707.31827107886, -63673.16856064422, -187500.02235174447, -27330.282608304336, -22875.825807550646, 0.58, -0.778, 0.326, 192.0, 0.0, 0.0, 0.0, 0.0, 0.0, 0.0, 0.0, 0.0, 0.0, 1.6635796625852E9, 0.0, 2022-09-19 14:27:42.585
30.0, -1262.7841547470277, -18454.427236846357, -41518.544139688514, -30723.635044531235, -63707.43378489421, -187500.02235174447, -27379.411742617103, -22904.123116031067, 0.58, -0.778, 0.326, 192.0, 0.0, 0.0, 0.0, 0.0, 0.0, 0.0, 0.0, 0.0, 0.0, 1.663579662589168E9, 0.0, 2022-09-19 14:27:42.589
31.0, -1365.8033449415382, -18443.31841985207, -41582.22425964168, -30720.729317752044, -63717.536773388005, -187500.02235174447, -27376.014277459893, -22872.92008077146, 0.58, -0.778, 0.326, 192.0, 0.0, 0.0, 0.0, 0.0, 0.0, 0.0, 0.0, 0.0, 0.0, 1.6635796625933332E9, 0.0, 2022-09-19 14:27:42.593
32.0, -1594.215821530321, -18599.311244405657, -41657.169658800325, -30691.537939493413, -63692.569874831424, -187500.02235174447, -27312.177695295537, -22845.606249047072, 0.58, -0.778, 0.326, 192.0, 0.0, 0.0, 0.0, 0.0, 0.0, 0.0, 0.0, 0.0, 0.0, 1.6635796625982578E9, 0.0, 2022-09-19 14:27:42.598
33.0, -1569.2936264626535, -18603.78159329672, -41627.68770786378, -30689.101599347785, -63696.59318883338, -187500.02235174447, -27314.703442418988, -22867.689772568916, 0.58, -0.778, 0.326, 192.0, 0.0, 0.0, 0.0, 0.0, 0.0, 0.0, 0.0, 0.0, 0.0, 1.6635796626022596E9, 0.0, 2022-09-19 14:27:42.602
34.0, -1476.3997765063973, -18536.48049074179, -41594.316553392004, -30705.373669311248, -63713.46875589714, -187500.02235174447, -27355.36126558319, -22898.848104339613, 0.5760000000000001, -0.772, 0.328, 192.0, 18.0, 0.0, 231.0, 224.0, 10.0, 64.0, 0.0, 0.0, 0.0, 1.663579662606226E9, 0.0, 2022-09-19 14:27:42.606
35.0, -1267.1203931713574, -18337.237040667183, -41514.78904662002, -30725.423184087656, -63739.37442772084, -187500.02235174447, -27335.199992084505, -22933.426253011974, 0.5760000000000001, -0.772, 0.328, 192.0, 0.0, 0.0, 0.0, 0.0, 0.0, 0.0, 0.0, 0.0, 0.0, 1.6635796626103687E9, 0.0, 2022-09-19 14:27:42.610
36.0, -1354.001623869136, -18322.86486898242, -41571.04838741403, -30724.953797454098, -63749.87974761483, -187500.02235174447, -27356.03181791685, -22888.454543167896, 0.5760000000000001, -0.772, 0.328, 192.0, 0.0, 0.0, 0.0, 0.0, 0.0, 0.0, 0.0, 0.0, 0.0, 1.663579662614234E9, 0.0, 2022-09-19 14:27:42.614
37.0, -1589.4548999613405, -18494.57096988809, -41662.690539680785, -30703.809047199375, -63725.62810488082, -187500.02235174447, -27339.17860259755, -22859.017295720256, 0.5760000000000001, -0.772, 0.328, 192.0, 0.0, 0.0, 0.0, 0.0, 0.0, 0.0, 0.0, 0.0, 0.0, 1.6635796626192832E9, 0.0, 2022-09-19 14:27:42.619
38.0, -1567.438431672863, -18518.80026087764, -41631.95689105474, -30694.421314528146, -63717.58147687692, -187500.02235174447, -27312.244750528906, -22867.220385935354, 0.5760000000000001, -0.772, 0.328, 192.0, 0.0, 0.0, 0.0, 0.0, 0.0, 0.0, 0.0, 0.0, 0.0, 1.6635796626222436E9, 0.0, 2022-09-19 14:27:42.622
39.0, -1476.95857011778, -18470.006402731706, -41590.49440509015, -30699.65162273069, -63731.77483460603, -187500.02235174447, -27338.955085152997, -22892.120229258566, 0.5760000000000001, -0.772, 0.328, 192.0, 0.0, 0.0, 0.0, 0.0, 0.0, 0.0, 0.0, 0.0, 0.0, 1.6635796626273124E9, 0.0, 2022-09-19 14:27:42.627
40.0, -1263.2758931250446, -18285.53745574206, -41512.106837285384, -30730.09469867882, -63761.927337876245, -187500.02235174447, -27344.297152077816, -22933.49330824534, 0.5760000000000001, -0.772, 0.328, 192.0, 0.0, 0.0, 0.0, 0.0, 0.0, 0.0, 0.0, 0.0, 0.0, 1.6635796626312957E9, 0.0, 2022-09-19 14:27:42.631
41.0, -1330.197016024234, -18261.352868241414, -41563.068814643484, -30733.581570813843, -63769.39282052432, -187500.02235174447, -27358.579916784754, -22897.261130483286, 0.5760000000000001, -0.772, 0.328, 192.0, 0.0, 0.0, 0.0, 0.0, 0.0, 0.0, 0.0, 0.0, 0.0, 1.6635796626353111E9, 0.0, 2022-09-19 14:27:42.635
42.0, -1563.1468967374442, -18424.74412020971, -41659.09190882348, -30703.56317801037, -63740.44731145469, -187500.02235174447, -27346.264105589882, -22863.06296146667, 0.5760000000000001, -0.772, 0.328, 192.0, 0.0, 0.0, 0.0, 0.0, 0.0, 0.0, 0.0, 0.0, 0.0, 1.663579662640364E9, 0.0, 2022-09-19 14:27:42.640
43.0, -1571.9087805639244, -18444.03367567464, -41634.41558294482, -30699.919843664153, -63734.43469219622, -187500.02235174447, -27328.226247814448, -22880.363211675074, 0.5760000000000001, -0.772, 0.328, 192.0, 0.0, 0.0, 0.0, 0.0, 0.0, 0.0, 0.0, 0.0, 0.0, 1.663579662643318E9, 0.0, 2022-09-19 14:27:42.643
44.0, -1482.345340531509, -18377.559587664557, -41597.49050110466, -30712.928558937143, -63745.923488846245, -187500.02235174447, -27351.539117281332, -22904.681909642448, 0.5760000000000001, -0.772, 0.328, 192.0, 0.0, 0.0, 0.0, 0.0, 0.0, 0.0, 0.0, 0.0, 0.0, 1.6635796626462724E9, 0.0, 2022-09-19 14:27:42.646
45.0, -1265.1534396592904, -18171.49885553108, -41516.93481408773, -30740.018873216974, -63770.62216646936, -187500.02235174447, -27346.733492223444, -22947.664314230005, 0.5720000000000001, -0.766, 0.332, 192.0, 17.0, 224.0, 232.0, 16.0, 10.0, 96.0, 0.0, 0.0, 0.0, 1.6635796626493337E9, 0.0, 2022-09-19 14:27:42.649
46.0, -1322.5750711649741, -18123.308494485438, -41570.757814736106, -30748.892515765732, -63792.01278591309, -187500.02235174447, -27398.902463782128, -22922.317436017685, 0.5720000000000001, -0.766, 0.332, 192.0, 0.0, 0.0, 0.0, 0.0, 0.0, 0.0, 0.0, 0.0, 0.0, 1.6635796626533277E9, 0.0, 2022-09-19 14:27:42.653
47.0, -1554.3179576775979, -18269.131275311862, -41666.24446704918, -30723.009195686485, -63762.46377974317, -187500.02235174447, -27373.55558556981, -22884.587691377128, 0.5720000000000001, -0.766, 0.332, 192.0, 0.0, 0.0, 0.0, 0.0, 0.0, 0.0, 0.0, 0.0, 0.0, 1.6635796626583912E9, 0.0, 2022-09-19 14:27:42.658
48.0, -1537.2635766581986, -18281.067106850995, -41642.328100482, -30720.930483452143, -63764.743657677616, -187500.02235174447, -27323.890009390117, -22903.631377653048, 0.5720000000000001, -0.766, 0.332, 192.0, 0.0, 0.0, 0.0, 0.0, 0.0, 0.0, 0.0, 0.0, 0.0, 1.6635796626623895E9, 0.0, 2022-09-19 14:27:42.662
49.0, -1444.8391133355037, -18211.88845776182, -41599.54686159454, -30713.129724637238, -63775.76306769408, -187500.02235174447, -27322.951236122997, -22911.230970767854, 0.5720000000000001, -0.766, 0.332, 192.0, 0.0, 0.0, 0.0, 0.0, 0.0, 0.0, 0.0, 0.0, 0.0, 1.6635796626662912E9, 0.0, 2022-09-19 14:27:42.666
50.0, -1250.9153784412597, -18016.51185947798, -41523.863854868876, -30734.140364425228, -63805.557943053005, -187500.02235174447, -27337.12224210766, -22947.396093296542, 0.5720000000000001, -0.766, 0.332, 192.0, 0.0, 0.0, 0.0, 0.0, 0.0, 0.0, 0.0, 0.0, 0.0, 1.6635796626704063E9, 0.0, 2022-09-19 14:27:42.670
51.0, -1310.9521640482146, -17967.31566993185, -41576.97159969468, -30745.89738200872, -63829.809585787014, -187500.02235174447, -27391.4146293896, -22937.226049569377, 0.5720000000000001, -0.766, 0.332, 192.0, 0.0, 0.0, 0.0, 0.0, 0.0, 0.0, 0.0, 0.0, 0.0, 1.663579662674358E9, 0.0, 2022-09-19 14:27:42.674
52.0, -1550.696975075838, -18118.63697989428, -41678.04618812158, -30718.18121888414, -63797.310149348996, -187500.02235174447, -27407.194960975048, -22890.39914493551, 0.5720000000000001, -0.766, 0.332, 192.0, 0.0, 0.0, 0.0, 0.0, 0.0, 0.0, 0.0, 0.0, 0.0, 1.6635796626773448E9, 0.0, 2022-09-19 14:27:42.677
53.0, -1543.9467482503353, -18129.365817232825, -41649.905341852354, -30702.870273932254, -63786.31309107698, -187500.02235174447, -27307.37207023765, -22878.351554674096, 0.5720000000000001, -0.766, 0.332, 192.0, 0.0, 0.0, 0.0, 0.0, 0.0, 0.0, 0.0, 0.0, 0.0, 1.663579662681382E9, 0.0, 2022-09-19 14:27:42.681
54.0, -1455.47854369623, -18056.76735124199, -41600.552690095035, -30709.08405889083, -63795.36554758139, -187500.02235174447, -27314.144648807604, -22900.88211308505, 0.5720000000000001, -0.766, 0.332, 192.0, 0.0, 0.0, 0.0, 0.0, 0.0, 0.0, 0.0, 0.0, 0.0, 1.6635796626854153E9, 0.0, 2022-09-19 14:27:42.685
55.0, -1243.0252126485364, -17861.994250058444, -41530.85995088339, -30738.811879016386, -63832.20122244373, -187500.02235174447, -27348.83455620224, -22949.1171776196, 0.5760000000000001, -0.766, 0.328, 192.0, 18.0, 0.0, 232.0, 16.0, 10.0, 64.0, 0.0, 0.0, 0.0, 1.6635796626904123E9, 0.0, 2022-09-19 14:27:42.690
56.0, -1277.5363060875304, -17784.500752031894, -41577.17276539478, -30753.608733845802, -63855.53644365507, -187500.02235174447, -27393.314527668303, -22942.702226960926, 0.5760000000000001, -0.766, 0.328, 192.0, 0.0, 0.0, 0.0, 0.0, 0.0, 0.0, 0.0, 0.0, 0.0, 1.6635796626943989E9, 0.0, 2022-09-19 14:27:42.694
57.0, -1529.35105912102, -17915.16905011762, -41673.57583923052, -30724.238541631526, -63825.22747817368, -187500.02235174447, -27384.6644025641, -22902.20086600791, 0.5760000000000001, -0.766, 0.328, 192.0, 0.0, 0.0, 0.0, 0.0, 0.0, 0.0, 0.0, 0.0, 0.0, 1.6635796626984425E9, 0.0, 2022-09-19 14:27:42.698
58.0, -1520.4327130833524, -17907.077718624798, -41652.25227502016, -30714.582588026835, -63814.364530368395, -187500.02235174447, -27361.485643563945, -22920.64105518354, 0.5760000000000001, -0.766, 0.328, 192.0, 0.0, 0.0, 0.0, 0.0, 0.0, 0.0, 0.0, 0.0, 0.0, 1.6635796627025168E9, 0.0, 2022-09-19 14:27:42.702
59.0, -1425.5719096150292, -17804.125583663652, -41608.46520763221, -30720.03641367393, -63828.557888097515, -187500.02235174447, -27358.401102829113, -22943.73040720587, 0.5760000000000001, -0.766, 0.328, 192.0, 0.0, 0.0, 0.0, 0.0, 0.0, 0.0, 0.0, 0.0, 0.0, 1.6635796627074337E9, 0.0, 2022-09-19 14:27:42.707
60.0, -1209.3634854988438, -17560.938603989915, -41519.46056121118, -30722.293939863914, -63852.25073722014, -187500.02235174447, -27344.833593944742, -22967.69147726196, 0.5760000000000001, -0.766, 0.328, 192.0, 0.0, 0.0, 0.0, 0.0, 0.0, 0.0, 0.0, 0.0, 0.0, 1.6635796627114196E9, 0.0, 2022-09-19 14:27:42.711
61.0, -1222.2380903051007, -17429.577401826074, -41554.59750349492, -30738.543658082923, -63881.66563292332, -187500.02235174447, -27390.654670078122, -22968.227919128887, 0.5760000000000001, -0.766, 0.328, 192.0, 0.0, 0.0, 0.0, 0.0, 0.0, 0.0, 0.0, 0.0, 0.0, 1.6635796627144337E9, 0.0, 2022-09-19 14:27:42.714
62.0, -1461.2676455101546, -17519.69963546987, -41653.77219364312, -30699.919843664153, -63848.7191615962, -187500.02235174447, -27376.506015837913, -22918.227066782365, 0.5760000000000001, -0.766, 0.328, 192.0, 0.0, 0.0, 0.0, 0.0, 0.0, 0.0, 0.0, 0.0, 0.0, 1.66357966271849E9, 0.0, 2022-09-19 14:27:42.718
63.0, -1469.448383980797, -17500.208914304843, -41642.484562693186, -30686.754666179975, -63839.0185045026, -187500.02235174447, -27384.507940352913, -22923.189154051444, 0.5760000000000001, -0.766, 0.328, 192.0, 0.0, 0.0, 0.0, 0.0, 0.0, 0.0, 0.0, 0.0, 0.0, 1.6635796627214274E9, 0.0, 2022-09-19 14:27:42.721
64.0, -1379.482612548186, -17399.357843322498, -41606.05121923104, -30697.081172118327, -63851.80370233103, -187500.02235174447, -27387.301908409823, -22944.669180472993, 0.5760000000000001, -0.766, 0.328, 192.0, 0.0, 0.0, 0.0, 0.0, 0.0, 0.0, 0.0, 0.0, 0.0, 1.6635796627254775E9, 0.0, 2022-09-19 14:27:42.725
65.0, -1176.752290338551, -17175.84039876943, -41533.94449161822, -30718.292977606416, -63879.98925208918, -187500.02235174447, -27386.27372816488, -22985.237596659375, 0.5760000000000001, -0.768, 0.332, 192.0, 18.0, 0.0, 232.0, 0.0, 10.0, 96.0, 0.0, 0.0, 0.0, 1.6635796627294607E9, 0.0, 2022-09-19 14:27:42.729
66.0, -1213.7891309009947, -17058.85136829035, -41562.62177975438, -30739.817707516875, -63908.15245010286, -187500.02235174447, -27375.008448959405, -23000.012099744334, 0.5760000000000001, -0.768, 0.332, 192.0, 0.0, 0.0, 0.0, 0.0, 0.0, 0.0, 0.0, 0.0, 0.0, 1.6635796627334557E9, 0.0, 2022-09-19 14:27:42.733
67.0, -1504.5182710311738, -17176.39919238081, -41673.799356675074, -30709.620500757756, -63882.313833512526, -187500.02235174447, -27407.753754586432, -22925.49138373034, 0.5760000000000001, -0.768, 0.332, 192.0, 0.0, 0.0, 0.0, 0.0, 0.0, 0.0, 0.0, 0.0, 0.0, 1.6635796627374537E9, 0.0, 2022-09-19 14:27:42.737
68.0, -1549.3558704085196, -17180.3554511494, -41656.20853378875, -30686.06176210186, -63868.679269394794, -187500.02235174447, -27343.760710210885, -22918.517639460282, 0.5760000000000001, -0.768, 0.332, 192.0, 0.0, 0.0, 0.0, 0.0, 0.0, 0.0, 0.0, 0.0, 0.0, 1.6635796627415023E9, 0.0, 2022-09-19 14:27:42.741
69.0, -1503.2218698527658, -17098.078679809416, -41615.19308271326, -30688.386343525213, -63874.1777985308, -187500.02235174447, -27351.807338214796, -22934.856764657114, 0.5760000000000001, -0.768, 0.332, 192.0, 0.0, 0.0, 0.0, 0.0, 0.0, 0.0, 0.0, 0.0, 0.0, 1.663579662746519E9, 0.0, 2022-09-19 14:27:42.746
70.0, -1325.5925566664407, -16895.750688999975, -41539.46537249868, -30712.950910681597, -63898.98823487619, -187500.02235174447, -27372.303887880313, -22973.815855242712, 0.5760000000000001, -0.768, 0.332, 192.0, 0.0, 0.0, 0.0, 0.0, 0.0, 0.0, 0.0, 0.0, 0.0, 1.6635796627494876E9, 0.0, 2022-09-19 14:27:42.749
71.0, -1325.4360944552534, -16781.55562657781, -41562.241800098636, -30737.31431213788, -63917.92016242984, -187500.02235174447, -27402.344632428245, -22971.714791263916, 0.5760000000000001, -0.768, 0.332, 192.0, 0.0, 0.0, 0.0, 0.0, 0.0, 0.0, 0.0, 0.0, 0.0, 1.6635796627535555E9, 0.0, 2022-09-19 14:27:42.753
72.0, -1602.4189117454187, -16912.134517685714, -41671.72064444073, -30714.247311860006, -63893.06502259553, -187500.02235174447, -27399.23773994896, -22924.329093018663, 0.5760000000000001, -0.768, 0.332, 192.0, 0.0, 0.0, 0.0, 0.0, 0.0, 0.0, 0.0, 0.0, 0.0, 1.6635796627574792E9, 0.0, 2022-09-19 14:27:42.757
73.0, -1626.0000021457677, -16932.38519816222, -41660.947103613275, -30692.096733104794, -63880.61510093392, -187500.02235174447, -27362.960858697996, -22919.67993017196, 0.5760000000000001, -0.768, 0.332, 192.0, 0.0, 0.0, 0.0, 0.0, 0.0, 0.0, 0.0, 0.0, 0.0, 1.6635796627616642E9, 0.0, 2022-09-19 14:27:42.761
74.0, -1545.511370362207, -16855.472845491513, -41610.09688497745, -30688.58750922531, -63884.347842257965, -187500.02235174447, -27324.40409951259, -22922.20567729541, 0.5760000000000001, -0.768, 0.332, 192.0, 0.0, 0.0, 0.0, 0.0, 0.0, 0.0, 0.0, 0.0, 0.0, 1.6635796627655385E9, 0.0, 2022-09-19 14:27:42.765
75.0, -1366.2727315750994, -16669.238110689894, -41545.99208187963, -30716.974224683552, -63918.76952871914, -187500.02235174447, -27357.596440028723, -22969.25609937383, 0.5760000000000001, -0.774, 0.326, 192.0, 18.0, 0.0, 231.0, 208.0, 10.0, 48.0, 0.0, 0.0, 0.0, 1.663579662769782E9, 0.0, 2022-09-19 14:27:42.769
76.0, -1346.4914377321527, -16561.480350670856, -41573.41767232629, -30755.79920480242, -63950.30784014557, -187500.02235174447, -27410.70418485453, -22969.591375540662, 0.5760000000000001, -0.774, 0.326, 192.0, 0.0, 0.0, 0.0, 0.0, 0.0, 0.0, 0.0, 0.0, 0.0, 1.6635796627745488E9, 0.0, 2022-09-19 14:27:42.774
77.0, -1632.8843394380021, -16710.432375721022, -41679.20847883326, -30736.911980737685, -63918.61306650795, -187500.02235174447, -27381.80337927382, -22913.332034746654, 0.5760000000000001, -0.774, 0.326, 192.0, 0.0, 0.0, 0.0, 0.0, 0.0, 0.0, 0.0, 0.0, 0.0, 1.663579662778564E9, 0.0, 2022-09-19 14:27:42.778
78.0, -1672.826906779636, -16756.87930069915, -41656.65556867785, -30707.6982507346, -63889.91342662733, -187500.02235174447, -27335.490564762422, -22896.501171171807, 0.5760000000000001, -0.774, 0.326, 192.0, 0.0, 0.0, 0.0, 0.0, 0.0, 0.0, 0.0, 0.0, 0.0, 1.6635796627825067E9, 0.0, 2022-09-19 14:27:42.782
79.0, -1606.017542602723, -16716.936733357517, -41619.01523101512, -30712.392117070212, -63900.5305052436, -187500.02235174447, -27340.497355520412, -22903.25139799731, 0.5760000000000001, -0.774, 0.326, 192.0, 0.0, 0.0, 0.0, 0.0, 0.0, 0.0, 0.0, 0.0, 0.0, 1.6635796627865968E9, 0.0, 2022-09-19 14:27:42.786
80.0, -1425.8624822929482, -16557.56879539118, -41544.24864581211, -30766.751559585522, -63923.95513343277, -187500.02235174447, -27360.904498208107, -22944.713883961904, 0.5760000000000001, -0.774, 0.326, 192.0, 0.0, 0.0, 0.0, 0.0, 0.0, 0.0, 0.0, 0.0, 0.0, 1.6635796627905333E9, 0.0, 2022-09-19 14:27:42.790
81.0, -1406.6176303169289, -16457.88001512051, -41553.83754418344, -30831.973949906107, -63947.960906977765, -187500.02235174447, -27352.768463226377, -22939.93061064847, 0.5760000000000001, -0.774, 0.326, 192.0, 0.0, 0.0, 0.0, 0.0, 0.0, 0.0, 0.0, 0.0, 0.0, 1.6635796627946908E9, 0.0, 2022-09-19 14:27:42.794
82.0, -1667.66365381046, -16615.079833874683, -41662.80229840306, -30819.747545689053, -63917.80840370755, -187500.02235174447, -27344.61007650019, -22884.475932654852, 0.5760000000000001, -0.774, 0.326, 192.0, 0.0, 0.0, 0.0, 0.0, 0.0, 0.0, 0.0, 0.0, 0.0, 1.66357966279953E9, 0.0, 2022-09-19 14:27:42.799
83.0, -1702.1300437605435, -16684.861980064154, -41658.39900474537, -30810.24805429555, -63902.60921747795, -187500.02235174447, -27328.27095130336, -22891.0026420358, 0.5760000000000001, -0.774, 0.326, 192.0, 0.0, 0.0, 0.0, 0.0, 0.0, 0.0, 0.0, 0.0, 0.0, 1.663579662803662E9, 0.0, 2022-09-19 14:27:42.803
84.0, -1622.9154614109352, -16651.468473847923, -41618.18821647027, -30811.410345007225, -63915.50617402866, -187500.02235174447, -27330.37201528216, -22895.04830778221, 0.5760000000000001, -0.774, 0.326, 192.0, 0.0, 0.0, 0.0, 0.0, 0.0, 0.0, 0.0, 0.0, 0.0, 1.663579662806589E9, 0.0, 2022-09-19 14:27:42.806
85.0, -1430.0199067616352, -16504.237533120817, -41544.628625467856, -30831.035176638983, -63941.16597666335, -187500.02235174447, -27351.76263472589, -22928.508869231806, 0.578, -0.77, 0.324, 192.0, 18.0, 16.0, 231.0, 240.0, 10.0, 32.0, 0.0, 0.0, 0.0, 1.6635796628106973E9, 0.0, 2022-09-19 14:27:42.810
86.0, -1427.9858980162023, -16412.52832562069, -41559.291369830535, -30867.557927078957, -63973.17367472335, -187500.02235174447, -27397.248434692436, -22947.753721207824, 0.578, -0.77, 0.324, 192.0, 0.0, 0.0, 0.0, 0.0, 0.0, 0.0, 0.0, 0.0, 0.0, 1.6635796628137217E9, 0.0, 2022-09-19 14:27:42.813
87.0, -1741.402058768518, -16577.528903189766, -41666.043301349084, -30845.38499657929, -63949.45847385627, -187500.02235174447, -27371.32041112428, -22901.351499718607, 0.578, -0.77, 0.324, 192.0, 0.0, 0.0, 0.0, 0.0, 0.0, 0.0, 0.0, 0.0, 0.0, 1.663579662817681E9, 0.0, 2022-09-19 14:27:42.817
88.0, -1826.5398533987825, -16655.268270405326, -41663.36109201445, -30820.976891634094, -63934.192232393296, -187500.02235174447, -27350.667399247577, -22895.875322327058, 0.578, -0.77, 0.324, 192.0, 0.0, 0.0, 0.0, 0.0, 0.0, 0.0, 0.0, 0.0, 0.0, 1.6635796628216512E9, 0.0, 2022-09-19 14:27:42.821
89.0, -1764.7149282354032, -16618.3208368207, -41601.62557382889, -30807.56584496091, -63931.17474689183, -187500.02235174447, -27277.599546623176, -22867.57801384664, 0.578, -0.77, 0.324, 192.0, 0.0, 0.0, 0.0, 0.0, 0.0, 0.0, 0.0, 0.0, 0.0, 1.6635796628256729E9, 0.0, 2022-09-19 14:27:42.825
90.0, -1606.5539844696505, -16482.221064832338, -41532.737497417635, -30830.789307449977, -63954.33115414753, -187500.02235174447, -27340.296189820314, -22915.455450469908, 0.578, -0.77, 0.324, 192.0, 0.0, 0.0, 0.0, 0.0, 0.0, 0.0, 0.0, 0.0, 0.0, 1.6635796628306944E9, 0.0, 2022-09-19 14:27:42.830
91.0, -1565.0691467606005, -16373.390421079448, -41536.291424786024, -30858.192546152182, -63994.36312846698, -187500.02235174447, -27352.634352759644, -22931.906334389012, 0.578, -0.77, 0.324, 192.0, 0.0, 0.0, 0.0, 0.0, 0.0, 0.0, 0.0, 0.0, 0.0, 1.663579662833621E9, 0.0, 2022-09-19 14:27:42.833
92.0, -1808.1443677120649, -16518.855573994588, -41644.36210922743, -30827.548304503955, -63970.402058410895, -187500.02235174447, -27350.019198658374, -22872.51774937126, 0.578, -0.77, 0.324, 192.0, 0.0, 0.0, 0.0, 0.0, 0.0, 0.0, 0.0, 0.0, 0.0, 1.6635796628376725E9, 0.0, 2022-09-19 14:27:42.837
93.0, -1859.262807281352, -16590.068231829195, -41647.603112173456, -30806.51531297151, -63953.45943611377, -187500.02235174447, -27337.144593852117, -22870.126112714544, 0.578, -0.77, 0.324, 192.0, 0.0, 0.0, 0.0, 0.0, 0.0, 0.0, 0.0, 0.0, 0.0, 1.6635796628416922E9, 0.0, 2022-09-19 14:27:42.841
94.0, -1809.239603190375, -16566.17421700647, -41616.355373424936, -30825.49194401407, -63976.59349162501, -187500.02235174447, -27323.755898923388, -22894.28834847073, 0.578, -0.77, 0.324, 192.0, 0.0, 0.0, 0.0, 0.0, 0.0, 0.0, 0.0, 0.0, 0.0, 1.6635796628457038E9, 0.0, 2022-09-19 14:27:42.845
95.0, -1647.6364907785048, -16423.48068040379, -41542.41580276678, -30851.263505371036, -63996.71006163479, -187500.02235174447, -27332.69659670551, -22931.0122646108, 0.578, -0.77, 0.332, 192.0, 18.0, 16.0, 231.0, 240.0, 10.0, 96.0, 0.0, 0.0, 0.0, 1.6635796628496828E9, 0.0, 2022-09-19 14:27:42.849
96.0, -1581.184754512877, -16296.142792241908, -41535.240892796624, -30878.130302206315, -64026.10260559352, -187500.02235174447, -27371.09689367973, -22937.047235613732, 0.578, -0.77, 0.332, 192.0, 0.0, 0.0, 0.0, 0.0, 0.0, 0.0, 0.0, 0.0, 0.0, 1.6635796628539047E9, 0.0, 2022-09-19 14:27:42.853
97.0, -1817.4203416610173, -16430.34266595157, -41644.451516205256, -30858.863098485843, -64008.489430962734, -187500.02235174447, -27369.264050634392, -22890.1532757465, 0.578, -0.77, 0.332, 192.0, 0.0, 0.0, 0.0, 0.0, 0.0, 0.0, 0.0, 0.0, 0.0, 1.6635796628578568E9, 0.0, 2022-09-19 14:27:42.857
98.0, -1895.6961507435026, -16513.289989625217, -41648.87716160741, -30844.490926801078, -63995.704233134304, -187500.02235174447, -27320.537247721822, -22891.67319436946, 0.578, -0.77, 0.332, 192.0, 0.0, 0.0, 0.0, 0.0, 0.0, 0.0, 0.0, 0.0, 0.0, 1.6635796628628104E9, 0.0, 2022-09-19 14:27:42.862
99.0, -1831.8595685791456, -16483.718631710843, -41606.43119888678, -30841.406386066246, -64005.87427686147, -187500.02235174447, -27325.767555924365, -22892.366098447575, 0.578, -0.77, 0.332, 192.0, 0.0, 0.0, 0.0, 0.0, 0.0, 0.0, 0.0, 0.0, 0.0, 1.6635796628667693E9, 0.0, 2022-09-19 14:27:42.866
100.0, -1645.624833777527, -16346.925955644365, -41546.81909642447, -30866.127415433817, -64034.97624814227, -187500.02235174447, -27367.520614566878, -22936.242572813342, 0.578, -0.77, 0.332, 192.0, 0.0, 0.0, 0.0, 0.0, 0.0, 0.0, 0.0, 0.0, 0.0, 1.6635796628707695E9, 0.0, 2022-09-19 14:27:42.870
101.0, -1563.3704141819971, -16212.59197146797, -41531.485799728136, -30891.809569812965, -64063.98881244526, -187500.02235174447, -27357.32821909526, -22943.84216592815, 0.578, -0.77, 0.332, 192.0, 0.0, 0.0, 0.0, 0.0, 0.0, 0.0, 0.0, 0.0, 0.0, 1.6635796628747976E9, 0.0, 2022-09-19 14:27:42.874
102.0, -1814.2910974372742, -16348.624688222968, -41633.677975377796, -30860.986514209097, -64033.97041964179, -187500.02235174447, -27347.448748046012, -22885.548816388706, 0.578, -0.77, 0.332, 192.0, 0.0, 0.0, 0.0, 0.0, 0.0, 0.0, 0.0, 0.0, 0.0, 1.6635796628787587E9, 0.0, 2022-09-19 14:27:42.878
103.0, -1890.555249518782, -16443.82076785812, -41649.65947266334, -30839.90881918774, -64011.439861230836, -187500.02235174447, -27332.629541472143, -22877.122208729055, 0.578, -0.77, 0.332, 192.0, 0.0, 0.0, 0.0, 0.0, 0.0, 0.0, 0.0, 0.0, 0.0, 1.6635796628827531E9, 0.0, 2022-09-19 14:27:42.882
104.0, -1817.2862311942854, -16418.76446232372, -41612.53322512308, -30835.930208674697, -64018.14538456743, -187500.02235174447, -27341.681997976542, -22884.744153588315, 0.578, -0.77, 0.332, 192.0, 0.0, 0.0, 0.0, 0.0, 0.0, 0.0, 0.0, 0.0, 0.0, 1.6635796628857176E9, 0.0, 2022-09-19 14:27:42.885
105.0, -1650.0057756907675, -16286.866818292954, -41543.220465567174, -30854.660970528243, -64042.37467555698, -187500.02235174447, -27347.806375957298, -22926.519563975286, 0.5760000000000001, -0.77, 0.332, 192.0, 18.0, 0.0, 231.0, 240.0, 10.0, 96.0, 0.0, 0.0, 0.0, 1.6635796628887496E9, 0.0, 2022-09-19 14:27:42.888
106.0, -1557.827181557081, -16146.699028813724, -41527.10485781489, -30884.3887906538, -64074.15885617243, -187500.02235174447, -27353.528422537856, -22944.311552561707, 0.5760000000000001, -0.77, 0.332, 192.0, 0.0, 0.0, 0.0, 0.0, 0.0, 0.0, 0.0, 0.0, 0.0, 1.6635796628927312E9, 0.0, 2022-09-19 14:27:42.892
107.0, -1802.5117281093274, -16282.105896723975, -41638.61771090242, -30868.00496196806, -64057.90913795342, -187500.02235174447, -27363.251431375913, -22898.222255494864, 0.5760000000000001, -0.77, 0.332, 192.0, 0.0, 0.0, 0.0, 0.0, 0.0, 0.0, 0.0, 0.0, 0.0, 1.6635796628967755E9, 0.0, 2022-09-19 14:27:42.896
108.0, -1893.259810597874, -16389.90836023192, -41663.33874026999, -30851.934057704697, -64050.443655305346, -187500.02235174447, -27351.51676553688, -22908.81698236668, 0.5760000000000001, -0.77, 0.332, 192.0, 0.0, 0.0, 0.0, 0.0, 0.0, 0.0, 0.0, 0.0, 0.0, 1.6635796629018047E9, 0.0, 2022-09-19 14:27:42.901
109.0, -1841.0237838058215, -16372.876330956977, -41629.274681720104, -30861.902935731763, -64064.61466129001, -187500.02235174447, -27356.523556294866, -22892.142581003023, 0.5760000000000001, -0.77, 0.332, 192.0, 0.0, 0.0, 0.0, 0.0, 0.0, 0.0, 0.0, 0.0, 0.0, 1.6635796629059398E9, 0.0, 2022-09-19 14:27:42.905
110.0, -1686.372063919552, -16250.433474830805, -41553.502268016615, -30879.29259291799, -64082.473705109805, -187500.02235174447, -27344.677131733555, -22932.822755911682, 0.5760000000000001, -0.77, 0.332, 192.0, 0.0, 0.0, 0.0, 0.0, 0.0, 0.0, 0.0, 0.0, 0.0, 1.6635796629098606E9, 0.0, 2022-09-19 14:27:42.909
111.0, -1602.1953943008655, -16112.18793537473, -41525.58493919193, -30907.29932872049, -64113.69909211387, -187500.02235174447, -27367.386504100145, -22954.839224200157, 0.5760000000000001, -0.77, 0.332, 192.0, 0.0, 0.0, 0.0, 0.0, 0.0, 0.0, 0.0, 0.0, 0.0, 1.6635796629128342E9, 0.0, 2022-09-19 14:27:42.912
112.0, -1852.780801389313, -16250.20995738625, -41634.5273416671, -30882.64535458629, -64090.0285947357, -187500.02235174447, -27353.03668415984, -22900.278615984753, 0.5760000000000001, -0.77, 0.332, 192.0, 0.0, 0.0, 0.0, 0.0, 0.0, 0.0, 0.0, 0.0, 0.0, 1.6635796629168355E9, 0.0, 2022-09-19 14:27:42.916
113.0, -1964.0924887767421, -16368.115409387996, -41652.05110932006, -30848.91657220323, -64061.351306599536, -187500.02235174447, -27328.382710025635, -22875.982269761833, 0.5760000000000001, -0.77, 0.332, 192.0, 0.0, 0.0, 0.0, 0.0, 0.0, 0.0, 0.0, 0.0, 0.0, 1.6635796629209373E9, 0.0, 2022-09-19 14:27:42.920
114.0, -1926.005116224899, -16364.159150619407, -41618.724658337196, -30851.77759549351, -64070.40376310394, -187500.02235174447, -27319.240846543416, -22885.772333833258, 0.5760000000000001, -0.77, 0.332, 192.0, 0.0, 0.0, 0.0, 0.0, 0.0, 0.0, 0.0, 0.0, 0.0, 1.6635796629247901E9, 0.0, 2022-09-19 14:27:42.924
115.0, -1789.5030128363387, -16265.610309315958, -41556.6091604959, -30876.45392137217, -64094.990682004776, -187500.02235174447, -27348.052245146304, -22925.267866285787, 0.5720000000000001, -0.764, 0.334, 192.0, 17.0, 224.0, 232.0, 32.0, 10.0, 112.0, 0.0, 0.0, 0.0, 1.6635796629297848E9, 0.0, 2022-09-19 14:27:42.929
116.0, -1716.591622423127, -16139.568822332481, -41527.99892759311, -30894.670593103245, -64131.60283942257, -187500.02235174447, -27334.12710835065, -22935.81788966869, 0.5720000000000001, -0.764, 0.334, 192.0, 0.0, 0.0, 0.0, 0.0, 0.0, 0.0, 0.0, 0.0, 0.0, 1.6635796629338496E9, 0.0, 2022-09-19 14:27:42.933
117.0, -1971.066233046798, -16280.116591467453, -41632.918016066316, -30860.986514209097, -64119.868173583534, -187500.02235174447, -27340.02796888685, -22876.831636051134, 0.5720000000000001, -0.764, 0.334, 192.0, 0.0, 0.0, 0.0, 0.0, 0.0, 0.0, 0.0, 0.0, 0.0, 1.6635796629378424E9, 0.0, 2022-09-19 14:27:42.937
118.0, -2069.3692051612384, -16415.031720999687, -41660.455365235255, -30837.13720287528, -64100.578618118605, -187500.02235174447, -27324.918189635064, -22867.890938269014, 0.5720000000000001, -0.764, 0.334, 192.0, 0.0, 0.0, 0.0, 0.0, 0.0, 0.0, 0.0, 0.0, 0.0, 1.6635796629418015E9, 0.0, 2022-09-19 14:27:42.941
119.0, -1993.6414949466582, -16418.183316967883, -41626.704231107746, -30836.064319141427, -64099.595141362566, -187500.02235174447, -27332.003692627397, -22876.876339540046, 0.5720000000000001, -0.764, 0.334, 192.0, 0.0, 0.0, 0.0, 0.0, 0.0, 0.0, 0.0, 0.0, 0.0, 1.663579662945845E9, 0.0, 2022-09-19 14:27:42.945
120.0, -1853.8089816342572, -16326.921144356866, -41549.36719529238, -30851.91170596024, -64111.061586268144, -187500.02235174447, -27309.271968516347, -22913.041462068733, 0.5720000000000001, -0.764, 0.334, 192.0, 0.0, 0.0, 0.0, 0.0, 0.0, 0.0, 0.0, 0.0, 0.0, 1.6635796629488993E9, 0.0, 2022-09-19 14:27:42.948
121.0, -1719.8996806025125, -16192.363642735916, -41513.716162886165, -30870.888337002798, -64143.38220875052, -187500.02235174447, -27342.576067754755, -22921.53512496175, 0.5720000000000001, -0.764, 0.334, 192.0, 0.0, 0.0, 0.0, 0.0, 0.0, 0.0, 0.0, 0.0, 0.0, 1.663579662952939E9, 0.0, 2022-09-19 14:27:42.952
122.0, -1964.29365447684, -16339.7063421853, -41618.590547870466, -30847.217839624627, -64125.00907480825, -187500.02235174447, -27332.540134494324, -22861.00660097678, 0.5720000000000001, -0.764, 0.334, 192.0, 0.0, 0.0, 0.0, 0.0, 0.0, 0.0, 0.0, 0.0, 0.0, 1.6635796629578495E9, 0.0, 2022-09-19 14:27:42.957
123.0, -2110.4293597256374, -16495.78857371671, -41653.16869654282, -30829.448202782656, -64099.84101055158, -187500.02235174447, -27322.772422167352, -22852.244717150297, 0.5720000000000001, -0.764, 0.334, 192.0, 0.0, 0.0, 0.0, 0.0, 0.0, 0.0, 0.0, 0.0, 0.0, 1.6635796629619064E9, 0.0, 2022-09-19 14:27:42.961
124.0, -2047.777420017412, -16513.155879158483, -41614.34371642396, -30827.190676592672, -64100.46685939633, -187500.02235174447, -27277.15251173407, -22868.270917924754, 0.5720000000000001, -0.764, 0.334, 192.0, 0.0, 0.0, 0.0, 0.0, 0.0, 0.0, 0.0, 0.0, 0.0, 1.6635796629659157E9, 0.0, 2022-09-19 14:27:42.965
125.0, -1908.4366450830275, -16446.54768068167, -41561.392433809335, -30859.243078141582, -64130.30643824416, -187500.02235174447, -27306.947387092998, -22919.76933714978, 0.5720000000000001, -0.766, 0.34, 192.0, 17.0, 224.0, 232.0, 16.0, 10.0, 160.0, 0.0, 0.0, 0.0, 1.6635796629689124E9, 0.0, 2022-09-19 14:27:42.968
126.0, -1788.5195360803052, -16329.8045193916, -41537.16314281978, -30894.06709600295, -64172.88651143152, -187500.02235174447, -27344.92300092256, -22939.796500181736, 0.5720000000000001, -0.766, 0.34, 192.0, 0.0, 0.0, 0.0, 0.0, 0.0, 0.0, 0.0, 0.0, 0.0, 1.6635796629728992E9, 0.0, 2022-09-19 14:27:42.972
127.0, -2022.1176173827193, -16481.774029943233, -41644.183295271796, -30870.374246880325, -64158.13436009102, -187500.02235174447, -27354.780120227355, -22871.62367959305, 0.5720000000000001, -0.766, 0.34, 192.0, 0.0, 0.0, 0.0, 0.0, 0.0, 0.0, 0.0, 0.0, 0.0, 1.6635796629769409E9, 0.0, 2022-09-19 14:27:42.976
128.0, -2150.28252008945, -16649.948555224964, -41673.531135741614, -30845.72027274612, -64129.03238881021, -187500.02235174447, -27352.07555914826, -22860.51486259876, 0.5720000000000001, -0.766, 0.34, 192.0, 0.0, 0.0, 0.0, 0.0, 0.0, 0.0, 0.0, 0.0, 0.0, 1.663579662980919E9, 0.0, 2022-09-19 14:27:42.980
129.0, -2083.6519698681795, -16680.68220385101, -41627.08421076348, -30842.90395294475, -64132.27339175623, -187500.02235174447, -27254.398435878567, -22869.522615614253, 0.5720000000000001, -0.766, 0.34, 192.0, 0.0, 0.0, 0.0, 0.0, 0.0, 0.0, 0.0, 0.0, 0.0, 1.6635796629859557E9, 0.0, 2022-09-19 14:27:42.985
130.0, -1932.554177350304, -16630.10020614865, -41561.41478555379, -30852.53755480499, -64143.851595384076, -187500.02235174447, -27266.58013660671, -22895.450639182407, 0.5720000000000001, -0.766, 0.34, 192.0, 0.0, 0.0, 0.0, 0.0, 0.0, 0.0, 0.0, 0.0, 0.0, 1.6635796629899273E9, 0.0, 2022-09-19 14:27:42.989
131.0, -1810.6254113466039, -16531.439606122924, -41525.20495953619, -30878.510281862058, -64177.11099113357, -187500.02235174447, -27306.12037254815, -22922.83152614016, 0.5720000000000001, -0.766, 0.34, 192.0, 0.0, 0.0, 0.0, 0.0, 0.0, 0.0, 0.0, 0.0, 0.0, 1.6635796629939277E9, 0.0, 2022-09-19 14:27:42.993
