%OpenBCI Raw EEG Data
%Number of channels = 8
%Sample Rate = 250 Hz
%Board = OpenBCI_GUI$BoardCytonSerial
Sample Index, EXG Channel 0, EXG Channel 1, EXG Channel 2, EXG Channel 3, EXG Channel 4, EXG Channel 5, EXG Channel 6, EXG Channel 7, Accel Channel 0, Accel Channel 1, Accel Channel 2, Other, Other, Other, Other, Other, Other, Other, Analog Channel 0, Analog Channel 1, Analog Channel 2, Timestamp, Other, Timestamp (Formatted)
57.0, 35776.805672264774, 29242.07201505566, 6696.269714387622, 14780.292186771892, 9674.19262816818, 187500.0, -94483.5507254065, 32582.897851812584, 0.0, 0.0, 0.0, 192.0, 0.0, 0.0, 0.0, 0.0, 0.0, 0.0, 0.0, 0.0, 0.0, 1.6635812913570406E9, 0.0, 2022-09-19 14:54:51.357
58.0, 35797.68220158604, 29248.911648858983, 6704.986894725192, 14784.829590896321, 9689.570628353433, 187500.0, -94444.94926273219, 32602.142703788606, 0.0, 0.0, 0.0, 192.0, 0.0, 0.0, 0.0, 0.0, 0.0, 0.0, 0.0, 0.0, 0.0, 1.6635812913570645E9, 0.0, 2022-09-19 14:54:51.357
59.0, 35824.41488795458, 29255.17013730647, 6700.449490600764, 14790.886913643708, 9703.92044829374, 187500.0, -94356.27989247798, 32638.97837865095, 0.0, 0.0, 0.0, 192.0, 0.0, 0.0, 0.0, 0.0, 0.0, 0.0, 0.0, 0.0, 0.0, 1.6635812913570783E9, 0.0, 2022-09-19 14:54:51.357
0.0, 0.0, 0.0, 0.0, 0.0, 0.0, 0.0, 0.0, 0.0, 0.498, -0.7020000000000001, 0.528, 192.0, 15.0, 144.0, 234.0, 16.0, 16.0, 128.0, 0.0, 0.0, 0.0, 1.6635812914564207E9, 0.0, 2022-09-19 14:54:51.456
1.0, 35978.32900027383, 29060.486443100745, 6734.647659617384, 15271.002384543704, 10503.308236993342, 187500.0, -91762.1587827395, 32649.84132645623, 0.498, -0.7020000000000001, 0.528, 192.0, 0.0, 0.0, 0.0, 0.0, 0.0, 0.0, 0.0, 0.0, 0.0, 1.663581291473456E9, 0.0, 2022-09-19 14:54:51.473
2.0, 35999.71961971756, 29055.300838387113, 6724.701133334772, 15263.4027914289, 10518.999161600967, 187500.0, -91683.70415970137, 32673.578879067765, 0.498, -0.7020000000000001, 0.528, 192.0, 0.0, 0.0, 0.0, 0.0, 0.0, 0.0, 0.0, 0.0, 0.0, 1.6635812914764504E9, 0.0, 2022-09-19 14:54:51.476
3.0, 35983.492253243, 29042.582695792044, 6718.956735009759, 15259.223015215757, 10514.79703364337, 187500.0, -91700.28915408721, 32662.492413817934, 0.498, -0.7020000000000001, 0.528, 192.0, 0.0, 0.0, 0.0, 0.0, 0.0, 0.0, 0.0, 0.0, 0.0, 1.663581291480488E9, 0.0, 2022-09-19 14:54:51.480
4.0, 35954.323226728826, 29034.089032899028, 6731.04902876008, 15264.609785629485, 10505.677521905603, 187500.0, -91793.00419008783, 32624.31563428827, 0.498, -0.7020000000000001, 0.528, 192.0, 0.0, 0.0, 0.0, 0.0, 0.0, 0.0, 0.0, 0.0, 0.0, 1.6635812914834857E9, 0.0, 2022-09-19 14:54:51.483
5.0, 35955.12788952922, 29046.628361538456, 6742.068438776546, 15268.4542856758, 10513.545335953873, 187500.0, -91806.95167862794, 32620.94052087552, 0.498, -0.7020000000000001, 0.528, 192.0, 0.0, 0.0, 0.0, 0.0, 0.0, 0.0, 0.0, 0.0, 0.0, 1.663581291487562E9, 0.0, 2022-09-19 14:54:51.487
6.0, 35973.053988582375, 29065.359123392, 6741.844921331993, 15263.603957128998, 10515.668751677127, 187500.0, -91773.60287590061, 32634.12805010415, 0.498, -0.7020000000000001, 0.528, 192.0, 0.0, 0.0, 0.0, 0.0, 0.0, 0.0, 0.0, 0.0, 0.0, 1.6635812914915156E9, 0.0, 2022-09-19 14:54:51.491
7.0, 35997.238576083015, 29068.66718157139, 6734.245328217188, 15256.54080588112, 10514.148833054165, 187500.0, -91692.33193306113, 32659.340817849738, 0.498, -0.7020000000000001, 0.528, 192.0, 0.0, 0.0, 0.0, 0.0, 0.0, 0.0, 0.0, 0.0, 0.0, 1.6635812914954665E9, 0.0, 2022-09-19 14:54:51.495
8.0, 35989.191948079104, 29075.529167119166, 6733.351258438976, 15260.854692560995, 10498.45790844654, 187500.0, -91698.5457180197, 32653.84228871373, 0.498, -0.704, 0.522, 192.0, 15.0, 144.0, 234.0, 0.0, 16.0, 80.0, 0.0, 0.0, 0.0, 1.6635812914995875E9, 0.0, 2022-09-19 14:54:51.499
9.0, 35961.11815704324, 29068.622478082478, 6737.016944529646, 15271.851750833006, 10490.478335675996, 187500.0, -91786.34337024014, 32622.102811587196, 0.498, -0.704, 0.522, 192.0, 0.0, 0.0, 0.0, 0.0, 0.0, 0.0, 0.0, 0.0, 0.0, 1.663581291503498E9, 0.0, 2022-09-19 14:54:51.503
10.0, 35961.095805298784, 29062.90043150192, 6731.160787482356, 15269.057782776092, 10498.74848112446, 187500.0, -91808.15867282852, 32615.10671557268, 0.498, -0.704, 0.522, 192.0, 0.0, 0.0, 0.0, 0.0, 0.0, 0.0, 0.0, 0.0, 0.0, 1.6635812915064976E9, 0.0, 2022-09-19 14:54:51.506
11.0, 35970.394130992194, 29057.17838492136, 6726.936307780303, 15260.966451283271, 10504.135251538188, 187500.0, -91786.43277721797, 32623.578026721243, 0.498, -0.704, 0.522, 192.0, 0.0, 0.0, 0.0, 0.0, 0.0, 0.0, 0.0, 0.0, 0.0, 1.6635812915105E9, 0.0, 2022-09-19 14:54:51.510
12.0, 35991.06949461335, 29054.809100009097, 6715.2686971746325, 15256.250233203202, 10508.337379495786, 187500.0, -91701.0938168876, 32652.18825962404, 0.498, -0.704, 0.522, 192.0, 0.0, 0.0, 0.0, 0.0, 0.0, 0.0, 0.0, 0.0, 0.0, 1.6635812915156388E9, 0.0, 2022-09-19 14:54:51.515
13.0, 35987.60497422278, 29057.73717853274, 6718.912031520847, 15273.796352600617, 10510.259629518941, 187500.0, -91683.74886319028, 32662.246544628924, 0.498, -0.704, 0.522, 192.0, 0.0, 0.0, 0.0, 0.0, 0.0, 0.0, 0.0, 0.0, 0.0, 1.6635812915195243E9, 0.0, 2022-09-19 14:54:51.519
14.0, 35954.50204068447, 29049.958771462298, 6731.741932838194, 15282.513532938186, 10499.79901311386, 187500.0, -91771.70297762191, 32627.355471534192, 0.498, -0.704, 0.522, 192.0, 0.0, 0.0, 0.0, 0.0, 0.0, 0.0, 0.0, 0.0, 0.0, 1.6635812915235353E9, 0.0, 2022-09-19 14:54:51.523
15.0, 35952.95977031705, 29044.03555918164, 6735.921709051337, 15278.825495103061, 10497.675597390604, 187500.0, -91799.68736167996, 32615.643157439612, 0.498, -0.704, 0.522, 192.0, 0.0, 0.0, 0.0, 0.0, 0.0, 0.0, 0.0, 0.0, 0.0, 1.6635812915265703E9, 0.0, 2022-09-19 14:54:51.526
16.0, 35970.684703670115, 29040.347521346514, 6736.838130574004, 15273.751649111708, 10507.063330061834, 187500.0, -91772.35117821112, 32630.819991924764, 0.498, -0.704, 0.522, 192.0, 0.0, 0.0, 0.0, 0.0, 0.0, 0.0, 0.0, 0.0, 0.0, 1.6635812915306003E9, 0.0, 2022-09-19 14:54:51.530
17.0, 36003.00532615249, 29050.249344140215, 6733.61947937244, 15270.085963021036, 10521.904888380157, 187500.0, -91684.70998820187, 32663.90057371862, 0.498, -0.704, 0.522, 192.0, 0.0, 0.0, 0.0, 0.0, 0.0, 0.0, 0.0, 0.0, 0.0, 1.6635812915345833E9, 0.0, 2022-09-19 14:54:51.534
18.0, 35988.07436085634, 29042.716806258777, 6726.913956035848, 15264.252157718201, 10506.616295172727, 187500.0, -91679.63614221051, 32659.921963205576, 0.498, -0.712, 0.528, 192.0, 15.0, 144.0, 233.0, 192.0, 16.0, 128.0, 0.0, 0.0, 0.0, 1.663581291538574E9, 0.0, 2022-09-19 14:54:51.538
19.0, 35958.100671541775, 29048.908239472898, 6732.725409594227, 15272.432896188844, 10487.036167029879, 187500.0, -91764.28219846275, 32627.802506423297, 0.498, -0.712, 0.528, 192.0, 0.0, 0.0, 0.0, 0.0, 0.0, 0.0, 0.0, 0.0, 0.0, 1.6635812915435884E9, 0.0, 2022-09-19 14:54:51.543
20.0, 35951.797479605375, 29056.12785293196, 6727.472749647231, 15260.631175116441, 10477.715489592016, 187500.0, -91797.49689072334, 32611.82100913775, 0.498, -0.712, 0.528, 192.0, 0.0, 0.0, 0.0, 0.0, 0.0, 0.0, 0.0, 0.0, 0.0, 1.663581291547615E9, 0.0, 2022-09-19 14:54:51.547
21.0, 35964.58267743381, 29066.94609724833, 6722.577717611518, 15252.673954090353, 10487.952588552545, 187500.0, -91778.29674223623, 32621.253445297894, 0.498, -0.712, 0.528, 192.0, 0.0, 0.0, 0.0, 0.0, 0.0, 0.0, 0.0, 0.0, 0.0, 1.6635812915515702E9, 0.0, 2022-09-19 14:54:51.551
22.0, 36002.02184939645, 29063.772149535675, 6725.28227869061, 15253.97035526876, 10509.678484163105, 187500.0, -91679.81495616616, 32669.08617843225, 0.498, -0.712, 0.528, 192.0, 0.0, 0.0, 0.0, 0.0, 0.0, 0.0, 0.0, 0.0, 0.0, 1.663581291554638E9, 0.0, 2022-09-19 14:54:51.554
23.0, 36002.51358777447, 29057.021922710173, 6722.354200166965, 15252.91982327936, 10505.208135272043, 187500.0, -91646.10852552754, 32686.386428640657, 0.498, -0.712, 0.528, 192.0, 0.0, 0.0, 0.0, 0.0, 0.0, 0.0, 0.0, 0.0, 0.0, 1.6635812915585957E9, 0.0, 2022-09-19 14:54:51.558
24.0, 35970.192965292095, 29061.872251256973, 6730.467883404242, 15270.957681054793, 10497.429728201596, 187500.0, -91722.05975318668, 32663.69940801852, 0.498, -0.712, 0.528, 192.0, 0.0, 0.0, 0.0, 0.0, 0.0, 0.0, 0.0, 0.0, 0.0, 1.6635812915626545E9, 0.0, 2022-09-19 14:54:51.562
25.0, 35964.15799428916, 29065.202661180814, 6736.569909640541, 15283.429954460855, 10504.045844560367, 187500.0, -91747.02665174326, 32657.84325097123, 0.498, -0.712, 0.528, 192.0, 0.0, 0.0, 0.0, 0.0, 0.0, 0.0, 0.0, 0.0, 0.0, 1.6635812915666463E9, 0.0, 2022-09-19 14:54:51.566
26.0, 35976.45145373958, 29061.671085556878, 6733.530072394618, 15286.983881829248, 10513.41122548714, 187500.0, -91716.56122405067, 32676.931640736064, 0.498, -0.712, 0.528, 192.0, 0.0, 0.0, 0.0, 0.0, 0.0, 0.0, 0.0, 0.0, 0.0, 1.6635812915716245E9, 0.0, 2022-09-19 14:54:51.571
27.0, 36006.51455003197, 29058.98887622224, 6735.0499910175795, 15281.954739326804, 10519.580306956805, 187500.0, -91622.19215896037, 32716.941263311062, 0.498, -0.712, 0.528, 192.0, 0.0, 0.0, 0.0, 0.0, 0.0, 0.0, 0.0, 0.0, 0.0, 1.663581291575824E9, 0.0, 2022-09-19 14:54:51.575
28.0, 36004.83816919782, 29060.575850078567, 6731.5854706270065, 15275.852713090506, 10504.783452127393, 187500.0, -91589.02217018869, 32727.71480413852, 0.502, -0.72, 0.528, 192.0, 15.0, 176.0, 233.0, 128.0, 16.0, 128.0, 0.0, 0.0, 0.0, 1.6635812915796921E9, 0.0, 2022-09-19 14:54:51.579
29.0, 35968.427177480124, 29050.74108251823, 6733.552424139074, 15273.192855500325, 10486.365614696218, 187500.0, -91671.96949386234, 32695.08125723377, 0.502, -0.72, 0.528, 192.0, 0.0, 0.0, 0.0, 0.0, 0.0, 0.0, 0.0, 0.0, 0.0, 1.6635812915827613E9, 0.0, 2022-09-19 14:54:51.582
30.0, 35964.47091871154, 29052.66333254139, 6744.974165555735, 15275.942120068326, 10493.898152577658, 187500.0, -91702.05494189919, 32686.811111785308, 0.502, -0.72, 0.528, 192.0, 0.0, 0.0, 0.0, 0.0, 0.0, 0.0, 0.0, 0.0, 0.0, 1.663581291586698E9, 0.0, 2022-09-19 14:54:51.586
31.0, 35980.251250296984, 29057.37955062146, 6756.306499994576, 15280.97126257077, 10507.242144017477, 187500.0, -91676.95393287587, 32700.110399736215, 0.502, -0.72, 0.528, 192.0, 0.0, 0.0, 0.0, 0.0, 0.0, 0.0, 0.0, 0.0, 0.0, 1.6635812915907316E9, 0.0, 2022-09-19 14:54:51.590
32.0, 36010.47080880056, 29065.80615828111, 6751.478523192231, 15277.909073580395, 10516.495766221973, 187500.0, -91589.89388822245, 32733.90623735264, 0.502, -0.72, 0.528, 192.0, 0.0, 0.0, 0.0, 0.0, 0.0, 0.0, 0.0, 0.0, 0.0, 1.6635812915948017E9, 0.0, 2022-09-19 14:54:51.594
33.0, 36018.293919359916, 29073.718675818287, 6745.041220789101, 15276.724431124263, 10507.59977192876, 187500.0, -91544.18457081134, 32752.86051665074, 0.502, -0.72, 0.528, 192.0, 0.0, 0.0, 0.0, 0.0, 0.0, 0.0, 0.0, 0.0, 0.0, 1.663581291599687E9, 0.0, 2022-09-19 14:54:51.599
34.0, 35987.180291078126, 29068.309553660103, 6751.746744125694, 15279.160771269891, 10496.960341568034, 187500.0, -91617.83356879158, 32728.899446594653, 0.502, -0.72, 0.528, 192.0, 0.0, 0.0, 0.0, 0.0, 0.0, 0.0, 0.0, 0.0, 0.0, 1.6635812916037436E9, 0.0, 2022-09-19 14:54:51.603
35.0, 35971.17644204813, 29054.94321047583, 6751.769095870149, 15266.979070541749, 10493.540524666372, 187500.0, -91660.34658674558, 32712.113286508717, 0.502, -0.72, 0.528, 192.0, 0.0, 0.0, 0.0, 0.0, 0.0, 0.0, 0.0, 0.0, 0.0, 1.663581291607842E9, 0.0, 2022-09-19 14:54:51.607
36.0, 35990.667163213155, 29064.666219313887, 6761.067421563557, 15273.930463067349, 10506.057501561345, 187500.0, -91630.75287708675, 32732.922760596608, 0.502, -0.72, 0.528, 192.0, 0.0, 0.0, 0.0, 0.0, 0.0, 0.0, 0.0, 0.0, 0.0, 1.663581291610701E9, 0.0, 2022-09-19 14:54:51.610
37.0, 36015.343489091814, 29070.030637983164, 6765.537770454618, 15266.800256586106, 10512.785376642392, 187500.0, -91556.67919596186, 32758.5825632313, 0.502, -0.72, 0.528, 192.0, 0.0, 0.0, 0.0, 0.0, 0.0, 0.0, 0.0, 0.0, 0.0, 1.6635812916147316E9, 0.0, 2022-09-19 14:54:51.614
38.0, 36017.66807051517, 29070.09769321653, 6763.637872175917, 15260.273547205157, 10510.617257430227, 187500.0, -91518.5024164322, 32767.903240669162, 0.498, -0.72, 0.53, 192.0, 15.0, 144.0, 233.0, 128.0, 16.0, 144.0, 0.0, 0.0, 0.0, 1.6635812916187496E9, 0.0, 2022-09-19 14:54:51.618
39.0, 35979.96067761906, 29057.223088410272, 6759.592206429506, 15256.384343669934, 10492.154716510144, 187500.0, -91597.94051622636, 32740.52235371141, 0.498, -0.72, 0.53, 192.0, 0.0, 0.0, 0.0, 0.0, 0.0, 0.0, 0.0, 0.0, 0.0, 1.6635812916228597E9, 0.0, 2022-09-19 14:54:51.622
40.0, 35970.192965292095, 29059.346504133526, 6761.760325641671, 15255.713791336275, 10491.260646731931, 187500.0, -91636.8772550675, 32733.235685018983, 0.498, -0.72, 0.53, 192.0, 0.0, 0.0, 0.0, 0.0, 0.0, 0.0, 0.0, 0.0, 0.0, 1.663581291626698E9, 0.0, 2022-09-19 14:54:51.626
41.0, 35988.588450978816, 29067.504890859713, 6762.274415764144, 15261.569948383565, 10506.88451610619, 187500.0, -91605.71892329681, 32761.04125512138, 0.498, -0.72, 0.53, 192.0, 0.0, 0.0, 0.0, 0.0, 0.0, 0.0, 0.0, 0.0, 0.0, 1.6635812916317408E9, 0.0, 2022-09-19 14:54:51.631
42.0, 36013.64475651321, 29070.27650717217, 6762.475581464241, 15253.009230257181, 10514.282943520897, 187500.0, -91520.31290773308, 32799.75447651798, 0.498, -0.72, 0.53, 192.0, 0.0, 0.0, 0.0, 0.0, 0.0, 0.0, 0.0, 0.0, 0.0, 1.6635812916358254E9, 0.0, 2022-09-19 14:54:51.635
43.0, 36023.65833802919, 29068.354257149014, 6761.246235519199, 15244.180291197335, 10505.230487016499, 187500.0, -91456.27515986863, 32830.95751177758, 0.498, -0.72, 0.53, 192.0, 0.0, 0.0, 0.0, 0.0, 0.0, 0.0, 0.0, 0.0, 0.0, 1.6635812916387255E9, 0.0, 2022-09-19 14:54:51.638
44.0, 35990.957735891076, 29057.08897794354, 6757.334680239521, 15243.979125497239, 10484.465716417519, 187500.0, -91516.89309083142, 32820.25102618349, 0.498, -0.72, 0.53, 192.0, 0.0, 0.0, 0.0, 0.0, 0.0, 0.0, 0.0, 0.0, 0.0, 1.6635812916427112E9, 0.0, 2022-09-19 14:54:51.642
45.0, 35983.11227358726, 29062.811024524097, 6762.676747164339, 15250.081151733537, 10481.805858827336, 187500.0, -91548.74432668023, 32822.55325586239, 0.498, -0.72, 0.53, 192.0, 0.0, 0.0, 0.0, 0.0, 0.0, 0.0, 0.0, 0.0, 0.0, 1.6635812916467144E9, 0.0, 2022-09-19 14:54:51.646
46.0, 35987.314401544856, 29059.79353902263, 6758.631081417929, 15245.096712720004, 10482.722280350004, 187500.0, -91521.095218789, 32844.748538106505, 0.498, -0.72, 0.53, 192.0, 0.0, 0.0, 0.0, 0.0, 0.0, 0.0, 0.0, 0.0, 0.0, 1.6635812916508832E9, 0.0, 2022-09-19 14:54:51.650
47.0, 36021.154942650195, 29070.589431594544, 6757.62525291744, 15249.902337777894, 10509.879649863202, 187500.0, -91410.16351105733, 32909.85916970482, 0.498, -0.72, 0.53, 192.0, 0.0, 0.0, 0.0, 0.0, 0.0, 0.0, 0.0, 0.0, 0.0, 1.663581291654789E9, 0.0, 2022-09-19 14:54:51.654
48.0, 36033.09077418933, 29074.344524663036, 6756.90999709487, 15244.202642941791, 10516.696931922072, 187500.0, -91327.93144320625, 32952.26042893653, 0.488, -0.72, 0.53, 192.0, 15.0, 64.0, 233.0, 128.0, 16.0, 144.0, 0.0, 0.0, 0.0, 1.6635812916597683E9, 0.0, 2022-09-19 14:54:51.659
49.0, 36002.29007032992, 29074.389228151947, 6765.694232665805, 15249.567061611066, 10499.217867758021, 187500.0, -91384.19078400025, 32936.59185607336, 0.488, -0.72, 0.53, 192.0, 0.0, 0.0, 0.0, 0.0, 0.0, 0.0, 0.0, 0.0, 0.0, 1.6635812916638384E9, 0.0, 2022-09-19 14:54:51.663
50.0, 35995.07045687085, 29072.869309528985, 6777.451250249297, 15255.132645980437, 10501.31893173682, 187500.0, -91407.99539184516, 32944.034986976985, 0.488, -0.72, 0.53, 192.0, 0.0, 0.0, 0.0, 0.0, 0.0, 0.0, 0.0, 0.0, 0.0, 1.6635812916668375E9, 0.0, 2022-09-19 14:54:51.666
51.0, 36002.4465325411, 29068.264850171192, 6767.8623518779705, 15247.01896274316, 10499.88842009168, 187500.0, -91374.35601643992, 32968.04076052198, 0.488, -0.72, 0.53, 192.0, 0.0, 0.0, 0.0, 0.0, 0.0, 0.0, 0.0, 0.0, 0.0, 1.6635812916708272E9, 0.0, 2022-09-19 14:54:51.670
52.0, 36033.873085245265, 29075.953850263817, 6759.078116307034, 15243.554442352588, 10511.980713842, 187500.0, -91270.33099774492, 33021.752002448084, 0.488, -0.72, 0.53, 192.0, 0.0, 0.0, 0.0, 0.0, 0.0, 0.0, 0.0, 0.0, 0.0, 1.6635812916747973E9, 0.0, 2022-09-19 14:54:51.674
53.0, 36052.93912326564, 29082.547614878134, 6749.66803189135, 15238.435892872321, 10515.51228946594, 187500.0, -91164.31667379341, 33073.67510481776, 0.488, -0.72, 0.53, 192.0, 0.0, 0.0, 0.0, 0.0, 0.0, 0.0, 0.0, 0.0, 0.0, 1.6635812916788158E9, 0.0, 2022-09-19 14:54:51.678
54.0, 36025.26766362997, 29077.5631758646, 6749.176293513334, 15243.845015030505, 10497.295617734864, 187500.0, -91188.23304036059, 33076.849052530415, 0.488, -0.72, 0.53, 192.0, 0.0, 0.0, 0.0, 0.0, 0.0, 0.0, 0.0, 0.0, 0.0, 1.6635812916828527E9, 0.0, 2022-09-19 14:54:51.682
55.0, 36016.01404142547, 29076.959678764306, 6756.2394447612105, 15241.051046973593, 10495.216905500522, 187500.0, -91205.93562196918, 33077.11727346388, 0.488, -0.72, 0.53, 192.0, 0.0, 0.0, 0.0, 0.0, 0.0, 0.0, 0.0, 0.0, 0.0, 1.6635812916879034E9, 0.0, 2022-09-19 14:54:51.687
56.0, 36025.71469851908, 29070.835300783554, 6750.182122013823, 15226.947096222293, 10499.933123580591, 187500.0, -91164.80841217142, 33096.31742195099, 0.488, -0.72, 0.53, 192.0, 0.0, 0.0, 0.0, 0.0, 0.0, 0.0, 0.0, 0.0, 0.0, 1.6635812916908495E9, 0.0, 2022-09-19 14:54:51.690
57.0, 36057.23065820106, 29086.682687602366, 6748.1928167573, 15229.942229979306, 10513.075949320311, 187500.0, -91051.50741952746, 33151.794451689064, 0.488, -0.72, 0.53, 192.0, 0.0, 0.0, 0.0, 0.0, 0.0, 0.0, 0.0, 0.0, 0.0, 1.663581291694848E9, 0.0, 2022-09-19 14:54:51.694
58.0, 36078.93420206716, 29090.90716730442, 6743.655412632873, 15236.647753315898, 10511.488975463984, 187500.0, -90933.40080182563, 33203.65049882537, 0.488, -0.722, 0.534, 192.0, 15.0, 64.0, 233.0, 112.0, 16.0, 176.0, 0.0, 0.0, 0.0, 1.6635812916989176E9, 0.0, 2022-09-19 14:54:51.698
59.0, 36045.898323762216, 29080.714771832798, 6746.918767323347, 15242.68272431883, 10490.83596358728, 187500.0, -90963.48624986247, 33191.40174286386, 0.488, -0.722, 0.534, 192.0, 0.0, 0.0, 0.0, 0.0, 0.0, 0.0, 0.0, 0.0, 0.0, 1.6635812917028484E9, 0.0, 2022-09-19 14:54:51.702
60.0, 36029.91682647668, 29078.881928787465, 6753.333717982021, 15243.86736677496, 10487.952588552545, 187500.0, -90988.56490714132, 33186.7302282727, 0.488, -0.722, 0.534, 192.0, 0.0, 0.0, 0.0, 0.0, 0.0, 0.0, 0.0, 0.0, 0.0, 1.6635812917069137E9, 0.0, 2022-09-19 14:54:51.706
61.0, 36044.221942928074, 29086.12389399098, 6761.268587263655, 15249.12002672196, 10506.057501561345, 187500.0, -90941.33567110726, 33213.440562896794, 0.488, -0.722, 0.534, 192.0, 0.0, 0.0, 0.0, 0.0, 0.0, 0.0, 0.0, 0.0, 0.0, 1.6635812917108312E9, 0.0, 2022-09-19 14:54:51.710
62.0, 36069.56882114039, 29080.826530555074, 6753.467828448753, 15238.592355083509, 10524.832966903803, 187500.0, -90836.30482391178, 33256.75824365118, 0.488, -0.722, 0.534, 192.0, 0.0, 0.0, 0.0, 0.0, 0.0, 0.0, 0.0, 0.0, 0.0, 1.6635812917159357E9, 0.0, 2022-09-19 14:54:51.715
63.0, 36074.70972236511, 29063.99566698023, 6735.80995032906, 15213.96073269376, 10524.855318648259, 187500.0, -90734.35851745111, 33285.34612480952, 0.488, -0.722, 0.534, 192.0, 0.0, 0.0, 0.0, 0.0, 0.0, 0.0, 0.0, 0.0, 0.0, 1.6635812917189193E9, 0.0, 2022-09-19 14:54:51.718
64.0, 36040.19862892612, 29057.89364074393, 6747.008174301169, 15230.881003246428, 10519.245030789976, 187500.0, -90769.45075624595, 33267.73295017874, 0.488, -0.722, 0.534, 192.0, 0.0, 0.0, 0.0, 0.0, 0.0, 0.0, 0.0, 0.0, 0.0, 1.6635812917229376E9, 0.0, 2022-09-19 14:54:51.722
65.0, 36029.29097763193, 29066.521414103678, 6763.1684855423555, 15255.937308780827, 10527.761045427447, 187500.0, -90800.58673627219, 33264.53665072163, 0.488, -0.722, 0.534, 192.0, 0.0, 0.0, 0.0, 0.0, 0.0, 0.0, 0.0, 0.0, 0.0, 1.6635812917269003E9, 0.0, 2022-09-19 14:54:51.726
66.0, 36036.22001841307, 29075.149187463427, 6762.699098908794, 15261.63700361693, 10531.717304196038, 187500.0, -90770.79186091326, 33280.11581660698, 0.488, -0.722, 0.534, 192.0, 0.0, 0.0, 0.0, 0.0, 0.0, 0.0, 0.0, 0.0, 0.0, 1.6635812917308912E9, 0.0, 2022-09-19 14:54:51.730
67.0, 36055.129594222264, 29078.256079942716, 6755.792409872104, 15254.104465735492, 10538.489882765994, 187500.0, -90689.61032505159, 33307.29553786463, 0.488, -0.722, 0.534, 192.0, 0.0, 0.0, 0.0, 0.0, 0.0, 0.0, 0.0, 0.0, 0.0, 1.6635812917348936E9, 0.0, 2022-09-19 14:54:51.734
68.0, 36072.13927175275, 29078.211376453804, 6747.455209190275, 15247.86832903246, 10544.100170624277, 187500.0, -90583.10426272206, 33343.058328993124, 0.492, -0.718, 0.536, 192.0, 15.0, 96.0, 233.0, 144.0, 16.0, 192.0, 0.0, 0.0, 0.0, 1.663581291738956E9, 0.0, 2022-09-19 14:54:51.738
69.0, 36032.86725674477, 29071.103521717017, 6744.102447521979, 15242.705076063285, 10521.860184891246, 187500.0, -90626.7348678988, 33315.029241446166, 0.492, -0.718, 0.536, 192.0, 0.0, 0.0, 0.0, 0.0, 0.0, 0.0, 0.0, 0.0, 0.0, 1.6635812917439919E9, 0.0, 2022-09-19 14:54:51.743
70.0, 35998.80319819489, 29055.211431409294, 6746.069401034046, 15244.359105152978, 10509.477318463007, 187500.0, -90696.42760711045, 33279.244098573225, 0.492, -0.718, 0.536, 192.0, 0.0, 0.0, 0.0, 0.0, 0.0, 0.0, 0.0, 0.0, 0.0, 1.6635812917469459E9, 0.0, 2022-09-19 14:54:51.746
71.0, 35991.225956824535, 29039.922838201863, 6738.112180007956, 15236.915974249361, 10502.816498615324, 187500.0, -90692.49370008633, 33270.638676957926, 0.492, -0.718, 0.536, 192.0, 0.0, 0.0, 0.0, 0.0, 0.0, 0.0, 0.0, 0.0, 0.0, 1.6635812917499793E9, 0.0, 2022-09-19 14:54:51.749
72.0, 36021.1996461391, 29058.206565166303, 6752.126723781434, 15243.576794097042, 10519.356789512252, 187500.0, -90611.35686771356, 33299.83005521656, 0.492, -0.718, 0.536, 192.0, 0.0, 0.0, 0.0, 0.0, 0.0, 0.0, 0.0, 0.0, 0.0, 1.6635812917549253E9, 0.0, 2022-09-19 14:54:51.754
73.0, 36052.71560582109, 29067.191966437338, 6752.730220881727, 15242.861538274472, 10531.873766407225, 187500.0, -90492.53499418915, 33345.025282505194, 0.492, -0.718, 0.536, 192.0, 0.0, 0.0, 0.0, 0.0, 0.0, 0.0, 0.0, 0.0, 0.0, 1.663581291758941E9, 0.0, 2022-09-19 14:54:51.758
74.0, 36017.13162864824, 29051.925724974364, 6745.488255678208, 15241.073398718048, 10507.577420184305, 187500.0, -90525.34735504954, 33321.86887524949, 0.492, -0.718, 0.536, 192.0, 0.0, 0.0, 0.0, 0.0, 0.0, 0.0, 0.0, 0.0, 0.0, 1.6635812917629569E9, 0.0, 2022-09-19 14:54:51.762
75.0, 35994.35520104828, 29053.60210580851, 6762.676747164339, 15253.612727357475, 10504.381120727197, 187500.0, -90585.71941682333, 33292.74455222423, 0.492, -0.718, 0.536, 192.0, 0.0, 0.0, 0.0, 0.0, 0.0, 0.0, 0.0, 0.0, 0.0, 1.6635812917670298E9, 0.0, 2022-09-19 14:54:51.767
76.0, 36001.41835229616, 29058.161861677392, 6770.343395512509, 15252.070456990059, 10519.781472656903, 187500.0, -90571.5260590942, 33291.67166849037, 0.492, -0.718, 0.536, 192.0, 0.0, 0.0, 0.0, 0.0, 0.0, 0.0, 0.0, 0.0, 0.0, 1.6635812917720463E9, 0.0, 2022-09-19 14:54:51.772
77.0, 36024.284186873934, 29054.429120353358, 6765.560122199074, 15246.147244709402, 10531.896118151679, 187500.0, -90499.10640705901, 33311.54236931114, 0.492, -0.718, 0.536, 192.0, 0.0, 0.0, 0.0, 0.0, 0.0, 0.0, 0.0, 0.0, 0.0, 1.6635812917749703E9, 0.0, 2022-09-19 14:54:51.774
78.0, 36047.440594129635, 29061.93930649034, 6750.629156902928, 15230.836299757517, 10531.739655940492, 187500.0, -90387.52649873812, 33341.247837692245, 0.494, -0.72, 0.52, 192.0, 15.0, 112.0, 233.0, 128.0, 16.0, 64.0, 0.0, 0.0, 0.0, 1.6635812917780018E9, 0.0, 2022-09-19 14:54:51.778
79.0, 36020.12676240525, 29059.41355936689, 6749.355107468976, 15233.473805603244, 10517.903926122657, 187500.0, -90409.58767051551, 33322.49472409424, 0.494, -0.72, 0.52, 192.0, 0.0, 0.0, 0.0, 0.0, 0.0, 0.0, 0.0, 0.0, 0.0, 1.6635812917830849E9, 0.0, 2022-09-19 14:54:51.783
80.0, 36002.200663352094, 29059.950001233818, 6761.335642497021, 15243.532090608132, 10521.346094768774, 187500.0, -90466.13758398744, 33297.416066815385, 0.494, -0.72, 0.52, 192.0, 0.0, 0.0, 0.0, 0.0, 0.0, 0.0, 0.0, 0.0, 0.0, 1.663581291787053E9, 0.0, 2022-09-19 14:54:51.787
81.0, 36009.57673902235, 29055.189079664837, 6753.534883682119, 15243.174462696847, 10522.664847691638, 187500.0, -90449.9996244907, 33297.416066815385, 0.494, -0.72, 0.52, 192.0, 0.0, 0.0, 0.0, 0.0, 0.0, 0.0, 0.0, 0.0, 0.0, 1.663581291790996E9, 0.0, 2022-09-19 14:54:51.790
82.0, 36022.764268250976, 29052.283352885646, 6738.849787574982, 15236.915974249361, 10523.961248870046, 187500.0, -90384.19608881428, 33311.341203611046, 0.494, -0.72, 0.52, 192.0, 0.0, 0.0, 0.0, 0.0, 0.0, 0.0, 0.0, 0.0, 0.0, 1.6635812917949708E9, 0.0, 2022-09-19 14:54:51.794
83.0, 36050.07809997536, 29061.402864623415, 6733.328906694521, 15234.032599214626, 10524.810615159347, 187500.0, -90267.54233450202, 33342.74540457075, 0.494, -0.72, 0.52, 192.0, 0.0, 0.0, 0.0, 0.0, 0.0, 0.0, 0.0, 0.0, 0.0, 1.6635812917990973E9, 0.0, 2022-09-19 14:54:51.799
84.0, 36036.77881202445, 29065.157957691907, 6735.072342762035, 15240.514605106666, 10505.498707949962, 187500.0, -90268.68227346925, 33329.55787534212, 0.494, -0.72, 0.52, 192.0, 0.0, 0.0, 0.0, 0.0, 0.0, 0.0, 0.0, 0.0, 0.0, 1.6635812918030193E9, 0.0, 2022-09-19 14:54:51.803
85.0, 36015.67876525864, 29068.28720191565, 6745.979994056224, 15251.332849423034, 10497.519135179416, 187500.0, -90324.56163460751, 33295.09148539203, 0.494, -0.72, 0.52, 192.0, 0.0, 0.0, 0.0, 0.0, 0.0, 0.0, 0.0, 0.0, 0.0, 1.663581291806065E9, 0.0, 2022-09-19 14:54:51.806
86.0, 36012.68363150163, 29059.815890767088, 6742.873101576937, 15239.77699753964, 10498.36850146872, 187500.0, -90318.23609092666, 33275.176081082354, 0.494, -0.72, 0.52, 192.0, 0.0, 0.0, 0.0, 0.0, 0.0, 0.0, 0.0, 0.0, 0.0, 1.6635812918100576E9, 0.0, 2022-09-19 14:54:51.810
87.0, 36025.64764328571, 29059.122986688973, 6736.391095684898, 15224.06372118756, 10496.133327023188, 187500.0, -90254.98065411815, 33276.4054270274, 0.494, -0.72, 0.52, 192.0, 0.0, 0.0, 0.0, 0.0, 0.0, 0.0, 0.0, 0.0, 0.0, 1.6635812918150516E9, 0.0, 2022-09-19 14:54:51.815
88.0, 36061.768062325486, 29071.304687417116, 6727.271583947133, 15228.53407007862, 10503.777623626904, 187500.0, -90125.2287775551, 33308.99427044323, 0.494, -0.72, 0.52, 192.0, 0.0, 0.0, 0.0, 0.0, 0.0, 0.0, 0.0, 0.0, 0.0, 1.6635812918190732E9, 0.0, 2022-09-19 14:54:51.819
89.0, 36055.08489073335, 29073.22693744027, 6731.026677015624, 15246.706038320786, 10500.98365556999, 187500.0, -90108.0179343245, 33303.719258751786, 0.494, -0.726, 0.516, 192.0, 15.0, 112.0, 233.0, 80.0, 16.0, 32.0, 0.0, 0.0, 0.0, 1.663581291823024E9, 0.0, 2022-09-19 14:54:51.823
90.0, 36031.97318696656, 29070.812949039097, 6744.281261477621, 15265.481503663243, 10494.83692584478, 187500.0, -90160.54453379447, 33268.71642693477, 0.494, -0.726, 0.516, 192.0, 0.0, 0.0, 0.0, 0.0, 0.0, 0.0, 0.0, 0.0, 0.0, 1.6635812918272405E9, 0.0, 2022-09-19 14:54:51.827
91.0, 36027.726355520055, 29062.296934401627, 6749.399810957887, 15256.227881458746, 10485.896228062658, 187500.0, -90156.6329785148, 33242.475478944245, 0.494, -0.726, 0.516, 192.0, 0.0, 0.0, 0.0, 0.0, 0.0, 0.0, 0.0, 0.0, 0.0, 1.6635812918301475E9, 0.0, 2022-09-19 14:54:51.830
92.0, 36042.99259698303, 29060.106463445005, 6750.115066780457, 15240.87223301795, 10493.36171071073, 187500.0, -90098.13846327526, 33240.1956010098, 0.494, -0.726, 0.516, 192.0, 0.0, 0.0, 0.0, 0.0, 0.0, 0.0, 0.0, 0.0, 0.0, 1.663581291834104E9, 0.0, 2022-09-19 14:54:51.834
93.0, 36072.69806536413, 29067.348428648525, 6748.796313857593, 15233.16088118087, 10505.36459748323, 187500.0, -89983.56342119735, 33261.36270300898, 0.494, -0.726, 0.516, 192.0, 0.0, 0.0, 0.0, 0.0, 0.0, 0.0, 0.0, 0.0, 0.0, 1.66358129183806E9, 0.0, 2022-09-19 14:54:51.838
94.0, 36053.94495176613, 29062.98983847974, 6747.09758127899, 15232.95971548077, 10487.751422852449, 187500.0, -89984.72571190902, 33235.94876956329, 0.494, -0.726, 0.516, 192.0, 0.0, 0.0, 0.0, 0.0, 0.0, 0.0, 0.0, 0.0, 0.0, 1.6635812918431132E9, 0.0, 2022-09-19 14:54:51.843
95.0, 36014.38236408024, 29054.674989542367, 6748.282223735121, 15231.238631157714, 10470.317062177308, 187500.0, -90065.12493671477, 33181.07523692551, 0.494, -0.726, 0.516, 192.0, 0.0, 0.0, 0.0, 0.0, 0.0, 0.0, 0.0, 0.0, 0.0, 1.6635812918471537E9, 0.0, 2022-09-19 14:54:51.847
96.0, 36004.21232035307, 29043.923800459364, 6736.547557896085, 15217.201735639781, 10458.671803316094, 187500.0, -90078.44657641013, 33148.866373165416, 0.494, -0.726, 0.516, 192.0, 0.0, 0.0, 0.0, 0.0, 0.0, 0.0, 0.0, 0.0, 0.0, 1.6635812918510935E9, 0.0, 2022-09-19 14:54:51.851
97.0, 36021.26670137247, 29044.817870237577, 6739.632098630917, 15223.281410131623, 10465.64554758615, 187500.0, -90030.92676769815, 33144.91011439683, 0.494, -0.726, 0.516, 192.0, 0.0, 0.0, 0.0, 0.0, 0.0, 0.0, 0.0, 0.0, 0.0, 1.6635812918541975E9, 0.0, 2022-09-19 14:54:51.854
98.0, 36052.961475010095, 29055.770225020675, 6745.108276022467, 15224.980142710227, 10475.010928512924, 187500.0, -89923.43722861257, 33163.976152417206, 0.494, -0.726, 0.516, 192.0, 0.0, 0.0, 0.0, 0.0, 0.0, 0.0, 0.0, 0.0, 0.0, 1.663581291858164E9, 0.0, 2022-09-19 14:54:51.858
99.0, 36033.98484396754, 29052.59627730802, 6742.940156810303, 15225.807157255073, 10459.07413471629, 187500.0, -89925.80651352483, 33136.975245115194, 0.502, -0.724, 0.522, 192.0, 15.0, 176.0, 233.0, 96.0, 16.0, 80.0, 0.0, 0.0, 0.0, 1.6635812918621511E9, 0.0, 2022-09-19 14:54:51.862
100.0, 35989.326058545834, 29031.83150670904, 6739.028601530624, 15220.599200796987, 10435.984782693957, 187500.0, -90019.66148849267, 33071.66344781678, 0.502, -0.724, 0.522, 192.0, 0.0, 0.0, 0.0, 0.0, 0.0, 0.0, 0.0, 0.0, 0.0, 1.663581291866112E9, 0.0, 2022-09-19 14:54:51.866
101.0, 35988.90137540118, 29041.152184146904, 6739.542691653096, 15212.351407092978, 10429.30161110182, 187500.0, -90033.58662528833, 33045.10957540388, 0.502, -0.724, 0.522, 192.0, 0.0, 0.0, 0.0, 0.0, 0.0, 0.0, 0.0, 0.0, 0.0, 1.6635812918711607E9, 0.0, 2022-09-19 14:54:51.871
102.0, 36005.73223897603, 29057.044274454627, 6737.352220696476, 15212.262000115157, 10428.787520979347, 187500.0, -89997.04152310391, 33040.52746779054, 0.502, -0.724, 0.522, 192.0, 0.0, 0.0, 0.0, 0.0, 0.0, 0.0, 0.0, 0.0, 0.0, 1.66358129187515E9, 0.0, 2022-09-19 14:54:51.875
103.0, 36028.53101832045, 29048.170631905872, 6722.756531567161, 15202.96367442175, 10422.551384276318, 187500.0, -89907.74630400495, 33048.3505783499, 0.502, -0.724, 0.522, 192.0, 0.0, 0.0, 0.0, 0.0, 0.0, 0.0, 0.0, 0.0, 0.0, 1.6635812918791728E9, 0.0, 2022-09-19 14:54:51.879
104.0, 36013.77886697994, 29042.11330915848, 6718.5544036095625, 15197.711014474753, 10397.986817119934, 187500.0, -89909.4226848391, 33021.52848500353, 0.502, -0.724, 0.522, 192.0, 0.0, 0.0, 0.0, 0.0, 0.0, 0.0, 0.0, 0.0, 0.0, 1.6635812918822136E9, 0.0, 2022-09-19 14:54:51.882
105.0, 35984.49808174349, 29044.75081500421, 6729.417351414842, 15205.757642478662, 10383.212314034978, 187500.0, -89993.75581666897, 32972.93579255769, 0.502, -0.724, 0.522, 192.0, 0.0, 0.0, 0.0, 0.0, 0.0, 0.0, 0.0, 0.0, 0.0, 1.6635812918861747E9, 0.0, 2022-09-19 14:54:51.886
106.0, 35986.330924788825, 29051.255172640704, 6733.57477588353, 15204.662407000353, 10384.084032068735, 187500.0, -90011.25723257748, 32953.48977488158, 0.502, -0.724, 0.522, 192.0, 0.0, 0.0, 0.0, 0.0, 0.0, 0.0, 0.0, 0.0, 0.0, 1.6635812918901699E9, 0.0, 2022-09-19 14:54:51.890
107.0, 35997.596203994304, 29057.021922710173, 6737.3969241853865, 15202.67310174383, 10388.308511770787, 187500.0, -89988.95019161107, 32944.05733872144, 0.502, -0.724, 0.522, 192.0, 0.0, 0.0, 0.0, 0.0, 0.0, 0.0, 0.0, 0.0, 0.0, 1.6635812918942132E9, 0.0, 2022-09-19 14:54:51.894
108.0, 36016.03639316993, 29047.120099916472, 6719.627287343417, 15180.634281710898, 10383.257017523887, 187500.0, -89912.70839127403, 32945.80077478895, 0.502, -0.724, 0.522, 192.0, 0.0, 0.0, 0.0, 0.0, 0.0, 0.0, 0.0, 0.0, 0.0, 1.6635812918982804E9, 0.0, 2022-09-19 14:54:51.898
109.0, 36002.558291263376, 29046.114271415983, 6713.637019829395, 15181.930682889306, 10365.755601615383, 187500.0, -89912.7754465074, 32923.538437311465, 0.5, -0.72, 0.524, 192.0, 15.0, 160.0, 233.0, 128.0, 16.0, 96.0, 0.0, 0.0, 0.0, 1.663581291903174E9, 0.0, 2022-09-19 14:54:51.903
110.0, 35966.72844490152, 29043.834393481542, 6722.912993778347, 15198.985063908705, 10352.277499708833, 187500.0, -90007.65860172018, 32873.29171577594, 0.5, -0.72, 0.524, 192.0, 0.0, 0.0, 0.0, 0.0, 0.0, 0.0, 0.0, 0.0, 0.0, 1.663581291907292E9, 0.0, 2022-09-19 14:54:51.907
111.0, 35957.27365699693, 29036.03363466664, 6725.751665324172, 15200.10265113147, 10347.538929884307, 187500.0, -90048.29407313991, 32844.27915147295, 0.5, -0.72, 0.524, 192.0, 0.0, 0.0, 0.0, 0.0, 0.0, 0.0, 0.0, 0.0, 0.0, 1.663581291910188E9, 0.0, 2022-09-19 14:54:51.910
112.0, 35963.42038672214, 29038.112346900984, 6722.421255400331, 15194.335901062, 10351.450485163985, 187500.0, -90040.56036955838, 32834.198514723605, 0.5, -0.72, 0.524, 192.0, 0.0, 0.0, 0.0, 0.0, 0.0, 0.0, 0.0, 0.0, 0.0, 1.6635812919143536E9, 0.0, 2022-09-19 14:54:51.914
113.0, 35983.71577068756, 29035.54189628862, 6707.713807548739, 15181.841275911484, 10357.23958697791, 187500.0, -89969.05713904586, 32849.710625375585, 0.5, -0.72, 0.524, 192.0, 0.0, 0.0, 0.0, 0.0, 0.0, 0.0, 0.0, 0.0, 0.0, 1.6635812919182446E9, 0.0, 2022-09-19 14:54:51.918
114.0, 35973.41161649366, 29033.5525910321, 6702.662313301839, 15188.122116103426, 10345.057886249768, 187500.0, -89966.48668843349, 32837.23835196952, 0.5, -0.72, 0.524, 192.0, 0.0, 0.0, 0.0, 0.0, 0.0, 0.0, 0.0, 0.0, 0.0, 1.6635812919222744E9, 0.0, 2022-09-19 14:54:51.922
115.0, 35937.87234280972, 29027.11528862897, 6709.99368548318, 15200.303816831569, 10328.495243608386, 187500.0, -90067.80714604941, 32790.076171168825, 0.5, -0.72, 0.524, 192.0, 0.0, 0.0, 0.0, 0.0, 0.0, 0.0, 0.0, 0.0, 0.0, 1.6635812919262278E9, 0.0, 2022-09-19 14:54:51.926
116.0, 35927.63524384919, 29020.767393203663, 6712.966467495736, 15200.840258698496, 10328.025856974824, 187500.0, -90118.7244199186, 32762.002380132963, 0.5, -0.72, 0.524, 192.0, 0.0, 0.0, 0.0, 0.0, 0.0, 0.0, 0.0, 0.0, 0.0, 1.663581291931245E9, 0.0, 2022-09-19 14:54:51.931
117.0, 35933.96078753004, 29024.142506616416, 6710.239554672188, 15193.642996983886, 10332.85383377717, 187500.0, -90122.03247809797, 32749.95478987155, 0.5, -0.72, 0.524, 192.0, 0.0, 0.0, 0.0, 0.0, 0.0, 0.0, 0.0, 0.0, 0.0, 1.6635812919352784E9, 0.0, 2022-09-19 14:54:51.935
118.0, 35964.873250111734, 29038.067643412072, 6710.954810494758, 15186.311624802545, 10349.483531651918, 187500.0, -90053.88200925375, 32770.25017383697, 0.5, -0.72, 0.524, 192.0, 0.0, 0.0, 0.0, 0.0, 0.0, 0.0, 0.0, 0.0, 0.0, 1.6635812919383194E9, 0.0, 2022-09-19 14:54:51.938
119.0, 35961.96752333254, 29046.18132664935, 6710.2172029277335, 15188.658557970353, 10355.853778821682, 187500.0, -90053.99376797602, 32763.455243522556, 0.5, -0.718, 0.522, 192.0, 15.0, 160.0, 233.0, 144.0, 16.0, 80.0, 0.0, 0.0, 0.0, 1.6635812919422424E9, 0.0, 2022-09-19 14:54:51.942
120.0, 35929.82571480581, 29053.535050575145, 6724.276450190121, 15210.831488470018, 10348.723572340437, 187500.0, -90165.35015885236, 32719.28819647887, 0.5, -0.718, 0.522, 192.0, 0.0, 0.0, 0.0, 0.0, 0.0, 0.0, 0.0, 0.0, 0.0, 1.6635812919463663E9, 0.0, 2022-09-19 14:54:51.946
121.0, 35922.226121691005, 29047.27656212766, 6729.394999670387, 15220.330979863524, 10342.62154610414, 187500.0, -90228.0020985606, 32695.483588633968, 0.5, -0.718, 0.522, 192.0, 0.0, 0.0, 0.0, 0.0, 0.0, 0.0, 0.0, 0.0, 0.0, 1.6635812919503293E9, 0.0, 2022-09-19 14:54:51.950
122.0, 35934.810153819344, 29046.47189932727, 6743.007212043669, 15230.21045091277, 10358.088953267212, 187500.0, -90238.61917717686, 32695.304774678323, 0.5, -0.718, 0.522, 192.0, 0.0, 0.0, 0.0, 0.0, 0.0, 0.0, 0.0, 0.0, 0.0, 1.663581291955331E9, 0.0, 2022-09-19 14:54:51.955
123.0, 35964.515622200444, 29048.729425517253, 6735.0499910175795, 15216.575886795032, 10373.534008685829, 187500.0, -90162.24326637307, 32718.5729406563, 0.5, -0.718, 0.522, 192.0, 0.0, 0.0, 0.0, 0.0, 0.0, 0.0, 0.0, 0.0, 0.0, 1.6635812919593644E9, 0.0, 2022-09-19 14:54:51.959
124.0, 35975.490328728, 29053.713864530786, 6722.644772844884, 15207.031691912616, 10373.735174385927, 187500.0, -90105.02280056749, 32731.536952440376, 0.5, -0.718, 0.522, 192.0, 0.0, 0.0, 0.0, 0.0, 0.0, 0.0, 0.0, 0.0, 0.0, 1.66358129196244E9, 0.0, 2022-09-19 14:54:51.962
125.0, 35919.365098400725, 29047.008341194196, 6727.159825224856, 15226.276543888634, 10356.233758477421, 187500.0, -90256.81349716349, 32668.61679179869, 0.5, -0.718, 0.522, 192.0, 0.0, 0.0, 0.0, 0.0, 0.0, 0.0, 0.0, 0.0, 0.0, 1.6635812919663177E9, 0.0, 2022-09-19 14:54:51.966
126.0, 35885.99394392895, 29032.12207938696, 6734.5806043840175, 15233.786730025618, 10346.71191533946, 187500.0, -90387.16887082683, 32617.990090607418, 0.5, -0.718, 0.522, 192.0, 0.0, 0.0, 0.0, 0.0, 0.0, 0.0, 0.0, 0.0, 0.0, 1.6635812919702947E9, 0.0, 2022-09-19 14:54:51.970
127.0, 35894.755827755434, 29028.679910740844, 6735.541729395596, 15234.457282359277, 10356.077296266234, 187500.0, -90415.98026942973, 32613.94442486101, 0.5, -0.718, 0.522, 192.0, 0.0, 0.0, 0.0, 0.0, 0.0, 0.0, 0.0, 0.0, 0.0, 1.6635812919750152E9, 0.0, 2022-09-19 14:54:51.975
128.0, 35933.267883451925, 29053.982085464253, 6730.803159571071, 15231.417445113355, 10375.81388662027, 187500.0, -90356.83755360098, 32644.14163162013, 0.5, -0.718, 0.522, 192.0, 0.0, 0.0, 0.0, 0.0, 0.0, 0.0, 0.0, 0.0, 0.0, 1.6635812919782927E9, 0.0, 2022-09-19 14:54:51.978
129.0, 35954.68085464011, 29071.57290835058, 6731.630174115918, 15235.127834692936, 10384.084032068735, 187500.0, -90314.10101820243, 32665.68871327504, 0.496, -0.72, 0.524, 192.0, 15.0, 128.0, 233.0, 128.0, 16.0, 96.0, 0.0, 0.0, 0.0, 1.6635812919824371E9, 0.0, 2022-09-19 14:54:51.982
130.0, 35925.46712463703, 29065.873213514475, 6746.4940841786965, 15248.293012177111, 10377.758488387883, 187500.0, -90423.91513871135, 32627.757802934386, 0.496, -0.72, 0.524, 192.0, 0.0, 0.0, 0.0, 0.0, 0.0, 0.0, 0.0, 0.0, 0.0, 1.663581291987439E9, 0.0, 2022-09-19 14:54:51.987
131.0, 35902.6236418037, 29050.428158095856, 6749.802142358082, 15247.957736010283, 10373.757526130383, 187500.0, -90525.54852074964, 32585.669468125045, 0.496, -0.72, 0.524, 192.0, 0.0, 0.0, 0.0, 0.0, 0.0, 0.0, 0.0, 0.0, 0.0, 1.6635812919903812E9, 0.0, 2022-09-19 14:54:51.990
132.0, 35916.66053732164, 29067.951925748817, 6758.474619206741, 15254.26092794668, 10385.715709413971, 187500.0, -90550.89539896196, 32583.05431402377, 0.496, -0.72, 0.524, 192.0, 0.0, 0.0, 0.0, 0.0, 0.0, 0.0, 0.0, 0.0, 0.0, 1.6635812919943657E9, 0.0, 2022-09-19 14:54:51.994
133.0, 35940.66631086663, 29062.587507079545, 6757.200569772789, 15246.594279598508, 10397.0033403639, 187500.0, -90515.80316016712, 32600.55572993228, 0.496, -0.72, 0.524, 192.0, 0.0, 0.0, 0.0, 0.0, 0.0, 0.0, 0.0, 0.0, 0.0, 1.6635812919984376E9, 0.0, 2022-09-19 14:54:51.998
134.0, 35940.57690388881, 29050.763434262688, 6750.606805158473, 15246.460169131777, 10394.499944984907, 187500.0, -90508.94117461935, 32607.708288157977, 0.496, -0.72, 0.524, 192.0, 0.0, 0.0, 0.0, 0.0, 0.0, 0.0, 0.0, 0.0, 0.0, 1.663581292002371E9, 0.0, 2022-09-19 14:54:52.002
135.0, 35900.94726096955, 29046.47189932727, 6751.590281914507, 15255.06559074707, 10378.049061065802, 187500.0, -90630.4899609673, 32569.598563861677, 0.496, -0.72, 0.524, 192.0, 0.0, 0.0, 0.0, 0.0, 0.0, 0.0, 0.0, 0.0, 0.0, 1.663581292006369E9, 0.0, 2022-09-19 14:54:52.006
136.0, 35891.55952829833, 29053.199774408316, 6763.704927409283, 15268.722506609263, 10386.945055359014, 187500.0, -90714.84544454163, 32550.57722933021, 0.496, -0.72, 0.524, 192.0, 0.0, 0.0, 0.0, 0.0, 0.0, 0.0, 0.0, 0.0, 0.0, 1.6635812920104706E9, 0.0, 2022-09-19 14:54:52.010
137.0, 35898.756790012936, 29050.025826695663, 6767.012985588669, 15271.695288621819, 10402.68068345555, 187500.0, -90743.925064078, 32548.900848496065, 0.496, -0.72, 0.524, 192.0, 0.0, 0.0, 0.0, 0.0, 0.0, 0.0, 0.0, 0.0, 0.0, 1.6635812920155444E9, 0.0, 2022-09-19 14:54:52.015
138.0, 35922.44963913556, 29048.349445861513, 6757.580549428529, 15266.800256586106, 10411.06258762629, 187500.0, -90712.96789800738, 32569.822081306233, 0.496, -0.72, 0.524, 192.0, 0.0, 0.0, 0.0, 0.0, 0.0, 0.0, 0.0, 0.0, 0.0, 1.6635812920184605E9, 0.0, 2022-09-19 14:54:52.018
139.0, 35921.935549013084, 29044.75081500421, 6748.5504446685845, 15261.525244894654, 10403.194773578021, 187500.0, -90708.65401132751, 32576.34879068718, 0.496, -0.72, 0.524, 192.0, 15.0, 128.0, 233.0, 128.0, 16.0, 96.0, 0.0, 0.0, 0.0, 1.6635812920213957E9, 0.0, 2022-09-19 14:54:52.021
140.0, 35878.260240347416, 29033.977274176752, 6744.616537644451, 15259.78180882714, 10383.636997179628, 187500.0, -90838.11531521265, 32531.354729098646, 0.496, -0.72, 0.524, 192.0, 0.0, 0.0, 0.0, 0.0, 0.0, 0.0, 0.0, 0.0, 0.0, 1.663581292026388E9, 0.0, 2022-09-19 14:54:52.026
141.0, 35853.360397024204, 29027.875247940454, 6742.403714943375, 15255.602032613997, 10380.86538086717, 187500.0, -90945.04606068684, 32492.4179902575, 0.496, -0.72, 0.524, 192.0, 0.0, 0.0, 0.0, 0.0, 0.0, 0.0, 0.0, 0.0, 0.0, 1.6635812920305836E9, 0.0, 2022-09-19 14:54:52.030
142.0, 35862.07757736177, 29034.156088132393, 6751.925558081336, 15257.837207059529, 10398.746776431415, 187500.0, -90983.60281987225, 32488.215862299905, 0.496, -0.72, 0.524, 192.0, 0.0, 0.0, 0.0, 0.0, 0.0, 0.0, 0.0, 0.0, 0.0, 1.6635812920344467E9, 0.0, 2022-09-19 14:54:52.034
143.0, 35891.71599050951, 29034.536067788133, 6756.0606308055685, 15257.25606170369, 10415.555288261807, 187500.0, -90958.14418293766, 32507.99715614285, 0.496, -0.72, 0.524, 192.0, 0.0, 0.0, 0.0, 0.0, 0.0, 0.0, 0.0, 0.0, 0.0, 1.6635812920384915E9, 0.0, 2022-09-19 14:54:52.038
144.0, 35906.66930755011, 29037.79942247861, 6755.233616260722, 15254.462093646776, 10415.44352953953, 187500.0, -90943.97317695299, 32518.860103948133, 0.496, -0.72, 0.524, 192.0, 0.0, 0.0, 0.0, 0.0, 0.0, 0.0, 0.0, 0.0, 0.0, 1.6635812920435321E9, 0.0, 2022-09-19 14:54:52.043
145.0, 35873.61107750071, 29044.527297559656, 6758.519322695652, 15263.469846662265, 10400.959599132491, 187500.0, -91069.36646334727, 32475.94475459394, 0.496, -0.72, 0.524, 192.0, 0.0, 0.0, 0.0, 0.0, 0.0, 0.0, 0.0, 0.0, 0.0, 1.663581292046516E9, 0.0, 2022-09-19 14:54:52.046
146.0, 35855.28264704736, 29032.636169509435, 6752.52905518163, 15261.435837916833, 10399.462032253985, 187500.0, -91183.36036006933, 32438.12560297556, 0.496, -0.72, 0.524, 192.0, 0.0, 0.0, 0.0, 0.0, 0.0, 0.0, 0.0, 0.0, 0.0, 1.6635812920495856E9, 0.0, 2022-09-19 14:54:52.049
147.0, 35852.108699334705, 29015.045346623105, 6739.699153864283, 15247.913032521372, 10404.468823011974, 187500.0, -91239.6867560967, 32419.864227755577, 0.496, -0.72, 0.524, 192.0, 0.0, 0.0, 0.0, 0.0, 0.0, 0.0, 0.0, 0.0, 0.0, 1.6635812920545125E9, 0.0, 2022-09-19 14:54:52.054
148.0, 35876.18152811307, 29020.856800181486, 6735.42997067332, 15241.83335802953, 10425.702980244516, 187500.0, -91220.21838667612, 32437.387995408535, 0.496, -0.72, 0.524, 192.0, 0.0, 0.0, 0.0, 0.0, 0.0, 0.0, 0.0, 0.0, 0.0, 1.6635812920585225E9, 0.0, 2022-09-19 14:54:52.058
149.0, 35898.93560396857, 29033.351425332003, 6737.531034652118, 15244.716733064262, 10440.477483329474, 187500.0, -91196.43613057568, 32458.28687647425, 0.49, -0.722, 0.52, 192.0, 15.0, 80.0, 233.0, 112.0, 16.0, 64.0, 0.0, 0.0, 0.0, 1.6635812920625095E9, 0.0, 2022-09-19 14:54:52.062
150.0, 35865.13976635215, 29028.009358407184, 6742.76134285466, 15257.25606170369, 10421.63496275365, 187500.0, -91323.84107397094, 32419.21602716637, 0.49, -0.722, 0.52, 192.0, 0.0, 0.0, 0.0, 0.0, 0.0, 0.0, 0.0, 0.0, 0.0, 1.6635812920665438E9, 0.0, 2022-09-19 14:54:52.066
151.0, 35841.02223408488, 29031.585637520035, 6747.678726634828, 15267.560215897587, 10418.371608063175, 187500.0, -91447.11094464194, 32381.59804124809, 0.49, -0.722, 0.52, 192.0, 0.0, 0.0, 0.0, 0.0, 0.0, 0.0, 0.0, 0.0, 0.0, 1.6635812920705085E9, 0.0, 2022-09-19 14:54:52.070
152.0, 35845.00084459792, 29027.294102584616, 6750.4279912028305, 15266.822608330562, 10428.20637562351, 187500.0, -91501.93977379081, 32369.55045098668, 0.49, -0.722, 0.52, 192.0, 0.0, 0.0, 0.0, 0.0, 0.0, 0.0, 0.0, 0.0, 0.0, 1.663581292074515E9, 0.0, 2022-09-19 14:54:52.074
153.0, 35867.19612684204, 29030.289236341625, 6754.227787760233, 15257.725448337253, 10439.426951340074, 187500.0, -91489.8921835294, 32381.26276508126, 0.49, -0.722, 0.52, 192.0, 0.0, 0.0, 0.0, 0.0, 0.0, 0.0, 0.0, 0.0, 0.0, 1.6635812920774913E9, 0.0, 2022-09-19 14:54:52.077
154.0, 35880.09308339275, 29024.9024659279, 6744.840055089004, 15246.97425925425, 10435.53774780485, 187500.0, -91472.65898855437, 32391.343401830603, 0.49, -0.722, 0.52, 192.0, 0.0, 0.0, 0.0, 0.0, 0.0, 0.0, 0.0, 0.0, 0.0, 1.6635812920826194E9, 0.0, 2022-09-19 14:54:52.082
155.0, 35837.44595497203, 29007.02107036365, 6743.364839954954, 15244.649677830897, 10415.510584772896, 187500.0, -91608.87051926501, 32343.085985551596, 0.49, -0.722, 0.52, 192.0, 0.0, 0.0, 0.0, 0.0, 0.0, 0.0, 0.0, 0.0, 0.0, 1.6635812920865452E9, 0.0, 2022-09-19 14:54:52.086
156.0, 35817.68701287353, 29015.22416057875, 6752.57375867054, 15252.40573315689, 10416.762282462392, 187500.0, -91741.03638422923, 32303.031659487686, 0.49, -0.722, 0.52, 192.0, 0.0, 0.0, 0.0, 0.0, 0.0, 0.0, 0.0, 0.0, 0.0, 1.6635812920905223E9, 0.0, 2022-09-19 14:54:52.090
157.0, 35826.22537925546, 29022.153201359895, 6753.110200537468, 15255.020887258159, 10427.669933756582, 187500.0, -91793.71944591039, 32297.33196465158, 0.49, -0.722, 0.52, 192.0, 0.0, 0.0, 0.0, 0.0, 0.0, 0.0, 0.0, 0.0, 0.0, 1.6635812920945833E9, 0.0, 2022-09-19 14:54:52.094
158.0, 35855.327350536274, 29031.40682356439, 6757.044107561602, 15260.20649197179, 10440.96922170749, 187500.0, -91782.78944287176, 32316.7779823277, 0.49, -0.722, 0.52, 192.0, 0.0, 0.0, 0.0, 0.0, 0.0, 0.0, 0.0, 0.0, 0.0, 1.663581292098558E9, 0.0, 2022-09-19 14:54:52.098
159.0, 35879.042551403356, 29035.22897186625, 6752.931386581825, 15271.248253732712, 10450.0663817008, 187500.0, -91754.73800358034, 32337.87802909351, 0.49, -0.724, 0.524, 192.0, 15.0, 80.0, 233.0, 96.0, 16.0, 96.0, 0.0, 0.0, 0.0, 1.6635812921015444E9, 0.0, 2022-09-19 14:54:52.101
160.0, 35849.62765570017, 29038.51467830118, 6755.457133705275, 15280.524227681664, 10438.465826328496, 187500.0, -91875.25860968335, 32303.501046121248, 0.49, -0.724, 0.524, 192.0, 0.0, 0.0, 0.0, 0.0, 0.0, 0.0, 0.0, 0.0, 0.0, 1.6635812921055777E9, 0.0, 2022-09-19 14:54:52.105
161.0, 35827.61118741169, 29034.156088132393, 6764.777811143138, 15284.055803305604, 10434.30840185981, 187500.0, -92007.55858511431, 32265.704246247322, 0.49, -0.724, 0.524, 192.0, 0.0, 0.0, 0.0, 0.0, 0.0, 0.0, 0.0, 0.0, 0.0, 1.6635812921096008E9, 0.0, 2022-09-19 14:54:52.109
162.0, 35831.701556647015, 29027.60702700699, 6767.683537922328, 15280.859503848495, 10433.950773948523, 187500.0, -92069.65173121115, 32250.303894317618, 0.49, -0.724, 0.524, 192.0, 0.0, 0.0, 0.0, 0.0, 0.0, 0.0, 0.0, 0.0, 0.0, 1.663581292114672E9, 0.0, 2022-09-19 14:54:52.114
163.0, 35853.360397024204, 29019.78391644763, 6765.448363476797, 15272.365840955477, 10435.44834082703, 187500.0, -92075.731405703, 32254.930705419865, 0.49, -0.724, 0.524, 192.0, 0.0, 0.0, 0.0, 0.0, 0.0, 0.0, 0.0, 0.0, 0.0, 1.6635812921186092E9, 0.0, 2022-09-19 14:54:52.118
164.0, 35869.47600477648, 29009.12213434245, 6756.664127905861, 15256.20552971429, 10431.581489036262, 187500.0, -92050.74215540197, 32269.615801527, 0.49, -0.724, 0.524, 192.0, 0.0, 0.0, 0.0, 0.0, 0.0, 0.0, 0.0, 0.0, 0.0, 1.6635812921225736E9, 0.0, 2022-09-19 14:54:52.122
165.0, 35839.882295117655, 29008.675099453343, 6764.934273354325, 15264.900358307405, 10420.807948208803, 187500.0, -92163.35024396781, 32236.311702288593, 0.49, -0.724, 0.524, 192.0, 0.0, 0.0, 0.0, 0.0, 0.0, 0.0, 0.0, 0.0, 0.0, 1.6635812921256669E9, 0.0, 2022-09-19 14:54:52.125
166.0, 35821.352698964205, 29017.794611191108, 6776.467773493264, 15271.851750833006, 10423.713674987994, 187500.0, -92291.89512633027, 32199.543082659613, 0.49, -0.724, 0.524, 192.0, 0.0, 0.0, 0.0, 0.0, 0.0, 0.0, 0.0, 0.0, 0.0, 1.6635812921296346E9, 0.0, 2022-09-19 14:54:52.129
167.0, 35831.92507409157, 29020.61093099248, 6781.563971229073, 15266.912015308382, 10432.028523925368, 187500.0, -92338.45381003068, 32194.80451283509, 0.49, -0.724, 0.524, 192.0, 0.0, 0.0, 0.0, 0.0, 0.0, 0.0, 0.0, 0.0, 0.0, 1.6635812921337073E9, 0.0, 2022-09-19 14:54:52.133
168.0, 35857.38371102616, 29021.12502111495, 6784.268532308166, 15260.005326271694, 10440.857462985214, 187500.0, -92322.02527785604, 32215.56928343407, 0.49, -0.724, 0.524, 192.0, 0.0, 0.0, 0.0, 0.0, 0.0, 0.0, 0.0, 0.0, 0.0, 1.6635812921376753E9, 0.0, 2022-09-19 14:54:52.137
169.0, 35885.52455729539, 29032.189134620327, 6772.5562182135845, 15248.270660432658, 10443.07028568629, 187500.0, -92266.57059986242, 32253.299028074627, 0.492, -0.724, 0.526, 192.0, 15.0, 96.0, 233.0, 96.0, 16.0, 112.0, 0.0, 0.0, 0.0, 1.6635812921426935E9, 0.0, 2022-09-19 14:54:52.142
170.0, 35860.13297559416, 29038.89465795692, 6771.43863099082, 15251.265794189669, 10423.378398821164, 187500.0, -92358.27980736255, 32235.439984254837, 0.492, -0.724, 0.526, 192.0, 0.0, 0.0, 0.0, 0.0, 0.0, 0.0, 0.0, 0.0, 0.0, 1.6635812921467547E9, 0.0, 2022-09-19 14:54:52.146
171.0, 35839.94935035102, 29035.765413733177, 6789.588247488528, 15269.504817665198, 10422.931363932057, 187500.0, -92479.04628265457, 32213.915254344378, 0.492, -0.724, 0.526, 192.0, 0.0, 0.0, 0.0, 0.0, 0.0, 0.0, 0.0, 0.0, 0.0, 1.6635812921506736E9, 0.0, 2022-09-19 14:54:52.150
172.0, 35851.88518189015, 29038.805250979098, 6800.25002959371, 15275.785657857139, 10428.899279701625, 187500.0, -92520.46406513025, 32226.27576902816, 0.492, -0.724, 0.526, 192.0, 0.0, 0.0, 0.0, 0.0, 0.0, 0.0, 0.0, 0.0, 0.0, 1.6635812921537433E9, 0.0, 2022-09-19 14:54:52.153
173.0, 35875.309810079314, 29040.36987309097, 6798.618352248473, 15270.912977565882, 10425.166538377589, 187500.0, -92507.96943997973, 32253.43313854136, 0.492, -0.724, 0.526, 192.0, 0.0, 0.0, 0.0, 0.0, 0.0, 0.0, 0.0, 0.0, 0.0, 1.6635812921577256E9, 0.0, 2022-09-19 14:54:52.157
174.0, 35902.444827848056, 29037.933532945342, 6791.376387044953, 15259.82651231605, 10422.350218576219, 187500.0, -92448.55850321753, 32295.834397773076, 0.492, -0.724, 0.526, 192.0, 0.0, 0.0, 0.0, 0.0, 0.0, 0.0, 0.0, 0.0, 0.0, 1.6635812921617565E9, 0.0, 2022-09-19 14:54:52.161
175.0, 35877.63439150267, 29038.626437023457, 6789.163564343878, 15259.938271038327, 10411.353160304208, 187500.0, -92520.26289943015, 32288.52537733619, 0.492, -0.724, 0.526, 192.0, 0.0, 0.0, 0.0, 0.0, 0.0, 0.0, 0.0, 0.0, 0.0, 1.6635812921657052E9, 0.0, 2022-09-19 14:54:52.165
176.0, 35854.500335991426, 29037.352387589504, 6796.9196196698695, 15267.202587986301, 10410.548497503818, 187500.0, -92632.75922927371, 32270.06283641611, 0.492, -0.724, 0.526, 192.0, 0.0, 0.0, 0.0, 0.0, 0.0, 0.0, 0.0, 0.0, 0.0, 1.6635812921707048E9, 0.0, 2022-09-19 14:54:52.170
177.0, 35863.95512389602, 29049.064701684085, 6803.222811606266, 15274.958643312293, 10423.266640098887, 187500.0, -92667.60559887954, 32283.697400533845, 0.492, -0.724, 0.526, 192.0, 0.0, 0.0, 0.0, 0.0, 0.0, 0.0, 0.0, 0.0, 0.0, 1.6635812921747017E9, 0.0, 2022-09-19 14:54:52.174
178.0, 35887.51386255191, 29053.378588363958, 6799.400663304408, 15269.460114176289, 10438.264660628398, 187500.0, -92648.18193294787, 32316.621520116514, 0.492, -0.724, 0.526, 192.0, 0.0, 0.0, 0.0, 0.0, 0.0, 0.0, 0.0, 0.0, 0.0, 1.663581292178784E9, 0.0, 2022-09-19 14:54:52.178
179.0, 35915.8782262657, 29051.79161450763, 6786.213134075777, 15256.585509370032, 10445.126646176177, 187500.0, -92575.76228091268, 32363.515479983747, 0.492, -0.718, 0.524, 192.0, 15.0, 96.0, 233.0, 144.0, 16.0, 96.0, 0.0, 0.0, 0.0, 1.6635812921817615E9, 0.0, 2022-09-19 14:54:52.181
180.0, 35896.87924347869, 29045.331960360047, 6790.147041099911, 15254.439741902323, 10433.235518125954, 187500.0, -92631.48517983976, 32362.822575905633, 0.492, -0.718, 0.524, 192.0, 0.0, 0.0, 0.0, 0.0, 0.0, 0.0, 0.0, 0.0, 0.0, 1.6635812921857991E9, 0.0, 2022-09-19 14:54:52.185
181.0, 35871.420606544096, 29043.521469059167, 6801.211154605288, 15264.296861207113, 10432.833186725758, 187500.0, -92746.86488471806, 32341.8342878621, 0.492, -0.718, 0.524, 192.0, 0.0, 0.0, 0.0, 0.0, 0.0, 0.0, 0.0, 0.0, 0.0, 1.6635812921897645E9, 0.0, 2022-09-19 14:54:52.189
182.0, 35877.29911533584, 29049.623495295466, 6801.479375538752, 15266.219111230268, 10444.67961128707, 187500.0, -92777.17385019946, 32353.770119401233, 0.492, -0.718, 0.524, 192.0, 0.0, 0.0, 0.0, 0.0, 0.0, 0.0, 0.0, 0.0, 0.0, 1.663581292193746E9, 0.0, 2022-09-19 14:54:52.193
183.0, 35898.44386559056, 29054.719693031275, 6799.423015048864, 15260.608823371986, 10453.419143369096, 187500.0, -92746.50725680677, 32387.901233184486, 0.492, -0.718, 0.524, 192.0, 0.0, 0.0, 0.0, 0.0, 0.0, 0.0, 0.0, 0.0, 0.0, 1.6635812921977215E9, 0.0, 2022-09-19 14:54:52.197
184.0, 35927.92581652711, 29055.88198374295, 6790.862296922482, 15250.572890111554, 10449.529939833874, 187500.0, -92663.15760173294, 32435.689262829932, 0.492, -0.718, 0.524, 192.0, 0.0, 0.0, 0.0, 0.0, 0.0, 0.0, 0.0, 0.0, 0.0, 1.663581292202748E9, 0.0, 2022-09-19 14:54:52.202
185.0, 35908.70331629554, 29064.12977744696, 6788.940046899324, 15254.193872713313, 10428.54165179034, 187500.0, -92709.87274764452, 32431.062451727685, 0.492, -0.718, 0.524, 192.0, 0.0, 0.0, 0.0, 0.0, 0.0, 0.0, 0.0, 0.0, 0.0, 1.6635812922068045E9, 0.0, 2022-09-19 14:54:52.206
186.0, 35880.830690959774, 29063.816853024586, 6802.172279616867, 15270.287128721135, 10425.904145944614, 187500.0, -92825.408914734, 32402.496922313803, 0.492, -0.718, 0.524, 192.0, 0.0, 0.0, 0.0, 0.0, 0.0, 0.0, 0.0, 0.0, 0.0, 1.6635812922097433E9, 0.0, 2022-09-19 14:54:52.209
187.0, 35890.8219207313, 29066.94609724833, 6806.821442463571, 15272.254082233201, 10444.545500820339, 187500.0, -92860.83642969566, 32406.45318108239, 0.492, -0.718, 0.524, 192.0, 0.0, 0.0, 0.0, 0.0, 0.0, 0.0, 0.0, 0.0, 0.0, 1.66358129221394E9, 0.0, 2022-09-19 14:54:52.213
188.0, 35913.24072041997, 29071.75172230622, 6808.96720993128, 15277.149114268914, 10465.73495456397, 187500.0, -92841.47981899737, 32433.454088384402, 0.492, -0.718, 0.524, 192.0, 0.0, 0.0, 0.0, 0.0, 0.0, 0.0, 0.0, 0.0, 0.0, 1.6635812922178447E9, 0.0, 2022-09-19 14:54:52.217
189.0, 35945.82956383581, 29071.93053626186, 6804.563916273584, 15272.187026999836, 10474.876818046192, 187500.0, -92756.96787321185, 32481.91267036351, 0.492, -0.718, 0.524, 192.0, 0.0, 0.0, 0.0, 0.0, 0.0, 0.0, 0.0, 0.0, 0.0, 1.6635812922218385E9, 0.0, 2022-09-19 14:54:52.221
190.0, 35929.62454910571, 29061.693437301332, 6803.87101219547, 15281.865332348983, 10463.432724885073, 187500.0, -92793.647085863, 32479.409274984515, 0.492, -0.714, 0.53, 192.0, 15.0, 96.0, 233.0, 176.0, 16.0, 144.0, 0.0, 0.0, 0.0, 1.6635812922258408E9, 0.0, 2022-09-19 14:54:52.225
191.0, 35890.50899630893, 29050.338751118037, 6809.526003542663, 15283.497009694222, 10453.821474769293, 187500.0, -92920.02384901332, 32442.193620466427, 0.492, -0.714, 0.53, 192.0, 0.0, 0.0, 0.0, 0.0, 0.0, 0.0, 0.0, 0.0, 0.0, 1.6635812922309406E9, 0.0, 2022-09-19 14:54:52.230
192.0, 35886.23981311796, 29046.561306305088, 6805.525041285163, 15279.853675348006, 10454.044992213845, 187500.0, -92971.65637870507, 32435.197524451916, 0.492, -0.714, 0.53, 192.0, 0.0, 0.0, 0.0, 0.0, 0.0, 0.0, 0.0, 0.0, 0.0, 1.663581292234804E9, 0.0, 2022-09-19 14:54:52.234
193.0, 35904.9258714826, 29052.953905219307, 6806.06148315209, 15279.74191662573, 10459.208245183021, 187500.0, -92962.76038441187, 32452.631885127055, 0.492, -0.714, 0.53, 192.0, 0.0, 0.0, 0.0, 0.0, 0.0, 0.0, 0.0, 0.0, 0.0, 1.663581292237934E9, 0.0, 2022-09-19 14:54:52.237
194.0, 35945.49428766898, 29070.187100194347, 6807.313180841587, 15275.696250879319, 10473.602768612238, 187500.0, -92874.53804904677, 32501.805722928733, 0.492, -0.714, 0.53, 192.0, 0.0, 0.0, 0.0, 0.0, 0.0, 0.0, 0.0, 0.0, 0.0, 1.663581292241861E9, 0.0, 2022-09-19 14:54:52.241
195.0, 35934.58663637479, 29065.38147513646, 6805.055654651601, 15279.898378836917, 10468.171294709598, 187500.0, -92896.68862780198, 32508.086563120673, 0.492, -0.714, 0.53, 192.0, 0.0, 0.0, 0.0, 0.0, 0.0, 0.0, 0.0, 0.0, 0.0, 1.663581292245862E9, 0.0, 2022-09-19 14:54:52.245
196.0, 35894.04057193286, 29062.69926580182, 6810.710645998794, 15279.339585225534, 10452.25685265742, 187500.0, -93023.40066711912, 32471.586164425156, 0.492, -0.714, 0.53, 192.0, 0.0, 0.0, 0.0, 0.0, 0.0, 0.0, 0.0, 0.0, 0.0, 1.6635812922498596E9, 0.0, 2022-09-19 14:54:52.249
197.0, 35888.877318963685, 29061.805196023608, 6813.01287567769, 15275.360974712488, 10451.45218985703, 187500.0, -93081.8728306142, 32460.052664286217, 0.492, -0.714, 0.53, 192.0, 0.0, 0.0, 0.0, 0.0, 0.0, 0.0, 0.0, 0.0, 0.0, 1.6635812922539508E9, 0.0, 2022-09-19 14:54:52.253
198.0, 35898.332106868285, 29048.148280161415, 6806.0167796631795, 15269.63892813193, 10446.758323521415, 187500.0, -93087.99720859496, 32466.981705067363, 0.492, -0.714, 0.53, 192.0, 0.0, 0.0, 0.0, 0.0, 0.0, 0.0, 0.0, 0.0, 0.0, 1.6635812922588153E9, 0.0, 2022-09-19 14:54:52.258
199.0, 35929.848066550265, 29054.764396520186, 6799.244201093221, 15261.726410594752, 10452.323907890786, 187500.0, -93013.18591990303, 32506.05255437524, 0.492, -0.714, 0.53, 192.0, 0.0, 0.0, 0.0, 0.0, 0.0, 0.0, 0.0, 0.0, 0.0, 1.6635812922619193E9, 0.0, 2022-09-19 14:54:52.261
200.0, 35920.16976120112, 29059.637076811443, 6799.87004993797, 15269.88479732094, 10445.774846765382, 187500.0, -93037.43756263705, 32508.153618354037, 0.496, -0.712, 0.532, 192.0, 15.0, 128.0, 233.0, 192.0, 16.0, 160.0, 0.0, 0.0, 0.0, 1.6635812922658615E9, 0.0, 2022-09-19 14:54:52.265
201.0, 35882.64118226065, 29054.47382384227, 6811.716474499282, 15278.892550336428, 10437.504701316919, 187500.0, -93169.0893374788, 32467.652257401023, 0.496, -0.712, 0.532, 192.0, 0.0, 0.0, 0.0, 0.0, 0.0, 0.0, 0.0, 0.0, 0.0, 1.6635812922698407E9, 0.0, 2022-09-19 14:54:52.269
202.0, 35880.67422874859, 29050.919896473875, 6820.612468792495, 15287.430916718355, 10444.657259542617, 187500.0, -93222.13002707125, 32458.7115596189, 0.496, -0.712, 0.532, 192.0, 0.0, 0.0, 0.0, 0.0, 0.0, 0.0, 0.0, 0.0, 0.0, 1.6635812922739084E9, 0.0, 2022-09-19 14:54:52.273
203.0, 35894.80053124434, 29052.953905219307, 6814.82336697857, 15289.777849886163, 10452.815646268804, 187500.0, -93224.81223640588, 32469.485100446356, 0.496, -0.712, 0.532, 192.0, 0.0, 0.0, 0.0, 0.0, 0.0, 0.0, 0.0, 0.0, 0.0, 1.663581292277918E9, 0.0, 2022-09-19 14:54:52.277
204.0, 35923.8801507807, 29051.99278020773, 6806.0167796631795, 15278.154942769403, 10461.868102773202, 187500.0, -93154.96303498305, 32505.270243319304, 0.496, -0.712, 0.532, 192.0, 0.0, 0.0, 0.0, 0.0, 0.0, 0.0, 0.0, 0.0, 0.0, 1.6635812922819364E9, 0.0, 2022-09-19 14:54:52.281
205.0, 35911.96667098602, 29046.762472005186, 6796.338474314031, 15276.16563751288, 10452.994460224445, 187500.0, -93169.96105551255, 32508.84652243215, 0.496, -0.712, 0.532, 192.0, 0.0, 0.0, 0.0, 0.0, 0.0, 0.0, 0.0, 0.0, 0.0, 1.6635812922869067E9, 0.0, 2022-09-19 14:54:52.286
206.0, 35872.0688071333, 29051.18811740734, 6801.837003450037, 15288.056765563104, 10439.471654828985, 187500.0, -93299.46706288662, 32470.356818480115, 0.496, -0.712, 0.532, 192.0, 0.0, 0.0, 0.0, 0.0, 0.0, 0.0, 0.0, 0.0, 0.0, 1.6635812922899275E9, 0.0, 2022-09-19 14:54:52.289
207.0, 35869.028969887375, 29051.74691101872, 6807.693160497327, 15290.470753964277, 10442.131512419166, 187500.0, -93360.15204908277, 32461.684341631455, 0.496, -0.712, 0.532, 192.0, 0.0, 0.0, 0.0, 0.0, 0.0, 0.0, 0.0, 0.0, 0.0, 1.6635812922939324E9, 0.0, 2022-09-19 14:54:52.293
208.0, 35886.84331021825, 29057.84893725502, 6809.861279709492, 15285.620425417475, 10455.944890492547, 187500.0, -93362.67779620622, 32475.81064412721, 0.496, -0.712, 0.532, 192.0, 0.0, 0.0, 0.0, 0.0, 0.0, 0.0, 0.0, 0.0, 0.0, 1.66358129229792E9, 0.0, 2022-09-19 14:54:52.297
209.0, 35923.52252286941, 29065.157957691907, 6807.737863986238, 15276.500913679709, 10475.815591313314, 187500.0, -93289.22996392607, 32514.18858935697, 0.496, -0.712, 0.532, 192.0, 0.0, 0.0, 0.0, 0.0, 0.0, 0.0, 0.0, 0.0, 0.0, 1.6635812923018906E9, 0.0, 2022-09-19 14:54:52.301
210.0, 35925.15420021465, 29069.09186471604, 6801.948762172314, 15284.033451561148, 10476.776716324892, 187500.0, -93287.6206383253, 32528.180781385992, 0.49, -0.712, 0.528, 192.0, 15.0, 80.0, 233.0, 192.0, 16.0, 128.0, 0.0, 0.0, 0.0, 1.6635812923059237E9, 0.0, 2022-09-19 14:54:52.305
211.0, 35882.99881017194, 29066.834338526052, 6797.992503403724, 15287.54267544063, 10458.02360272689, 187500.0, -93418.53480560004, 32486.89710937704, 0.49, -0.712, 0.528, 192.0, 0.0, 0.0, 0.0, 0.0, 0.0, 0.0, 0.0, 0.0, 0.0, 1.663581292309962E9, 0.0, 2022-09-19 14:54:52.309
212.0, 35863.95512389602, 29051.18811740734, 6787.241314320721, 15272.678765377852, 10442.77971300837, 187500.0, -93498.08466411647, 32456.543440406735, 0.49, -0.712, 0.528, 192.0, 0.0, 0.0, 0.0, 0.0, 0.0, 0.0, 0.0, 0.0, 0.0, 1.663581292314924E9, 0.0, 2022-09-19 14:54:52.314
213.0, 35874.01340890091, 29051.433986596345, 6789.968227144269, 15274.511608423187, 10442.489140330452, 187500.0, -93509.32759157749, 32459.47151893038, 0.49, -0.712, 0.528, 192.0, 0.0, 0.0, 0.0, 0.0, 0.0, 0.0, 0.0, 0.0, 0.0, 1.66358129231793E9, 0.0, 2022-09-19 14:54:52.317
214.0, 35904.5235400824, 29050.6069720515, 6782.77096542966, 15263.849826318006, 10446.35599212122, 187500.0, -93443.34524194543, 32488.797007655743, 0.49, -0.712, 0.528, 192.0, 0.0, 0.0, 0.0, 0.0, 0.0, 0.0, 0.0, 0.0, 0.0, 1.6635812923209348E9, 0.0, 2022-09-19 14:54:52.320
215.0, 35911.56433958582, 29053.60210580851, 6777.361843271476, 15266.889663563928, 10439.471654828985, 187500.0, -93432.66110809578, 32504.554987496733, 0.49, -0.712, 0.528, 192.0, 0.0, 0.0, 0.0, 0.0, 0.0, 0.0, 0.0, 0.0, 0.0, 1.6635812923259592E9, 0.0, 2022-09-19 14:54:52.325
216.0, 35879.57899327028, 29057.021922710173, 6791.555201000596, 15279.540750925631, 10425.121834888678, 187500.0, -93555.64040608889, 32469.350989979626, 0.49, -0.712, 0.528, 192.0, 0.0, 0.0, 0.0, 0.0, 0.0, 0.0, 0.0, 0.0, 0.0, 1.663581292329991E9, 0.0, 2022-09-19 14:54:52.329
217.0, 35870.6159437437, 29052.88684998594, 6790.370558544464, 15275.249215990212, 10426.865270956192, 187500.0, -93623.65676446639, 32453.548306649725, 0.49, -0.712, 0.528, 192.0, 0.0, 0.0, 0.0, 0.0, 0.0, 0.0, 0.0, 0.0, 0.0, 1.6635812923340461E9, 0.0, 2022-09-19 14:54:52.334
218.0, 35874.39338855665, 29049.824660995564, 6776.668939193361, 15272.410544444389, 10420.271506341876, 187500.0, -93638.87830244045, 32451.38018743756, 0.49, -0.712, 0.528, 192.0, 0.0, 0.0, 0.0, 0.0, 0.0, 0.0, 0.0, 0.0, 0.0, 1.6635812923380728E9, 0.0, 2022-09-19 14:54:52.338
219.0, 35896.991002200964, 29048.84118423953, 6760.039241318613, 15257.25606170369, 10415.73410221745, 187500.0, -93584.94354306979, 32470.580335924667, 0.49, -0.712, 0.528, 192.0, 0.0, 0.0, 0.0, 0.0, 0.0, 0.0, 0.0, 0.0, 0.0, 1.6635812923420548E9, 0.0, 2022-09-19 14:54:52.342
220.0, 35901.5731098143, 29045.153146404406, 6759.86042736297, 15259.804160571595, 10411.666084726583, 187500.0, -93573.03006327512, 32484.527824464778, 0.492, -0.72, 0.528, 192.0, 15.0, 96.0, 233.0, 128.0, 16.0, 128.0, 0.0, 0.0, 0.0, 1.663581292346086E9, 0.0, 2022-09-19 14:54:52.346
221.0, 35866.793795441845, 29039.252285868202, 6771.751555413193, 15277.439686946833, 10402.077186355256, 187500.0, -93695.3164571901, 32449.32382694767, 0.492, -0.72, 0.528, 192.0, 0.0, 0.0, 0.0, 0.0, 0.0, 0.0, 0.0, 0.0, 0.0, 1.663581292349038E9, 0.0, 2022-09-19 14:54:52.349
222.0, 35860.021216871886, 29036.61478002248, 6782.636854962928, 15277.774963113663, 10410.079110870256, 187500.0, -93767.66905399192, 32428.871980771066, 0.492, -0.72, 0.528, 192.0, 0.0, 0.0, 0.0, 0.0, 0.0, 0.0, 0.0, 0.0, 0.0, 1.663581292354078E9, 0.0, 2022-09-19 14:54:52.354
223.0, 35867.486699519955, 29033.619646265466, 6788.872991665959, 15269.102486265003, 10417.991628407435, 187500.0, -93784.03053093322, 32428.76022204879, 0.492, -0.72, 0.528, 192.0, 0.0, 0.0, 0.0, 0.0, 0.0, 0.0, 0.0, 0.0, 0.0, 1.6635812923579931E9, 0.0, 2022-09-19 14:54:52.357
224.0, 35906.646955805656, 29051.41163485189, 6790.214096333278, 15269.013079287182, 10441.2150908965, 187500.0, -93715.14245452195, 32462.310190476204, 0.492, -0.72, 0.528, 192.0, 0.0, 0.0, 0.0, 0.0, 0.0, 0.0, 0.0, 0.0, 0.0, 1.663581292362146E9, 0.0, 2022-09-19 14:54:52.362
225.0, 35928.372851416214, 29072.93636476235, 6790.996407389213, 15276.389154957433, 10451.183968923566, 187500.0, -93667.15325917641, 32487.72412392189, 0.492, -0.72, 0.528, 192.0, 0.0, 0.0, 0.0, 0.0, 0.0, 0.0, 0.0, 0.0, 0.0, 1.6635812923660312E9, 0.0, 2022-09-19 14:54:52.366
226.0, 35888.96672594151, 29066.722579803776, 6797.791337703627, 15287.989710329737, 10439.35989610671, 187500.0, -93787.49505132379, 32448.340350191636, 0.492, -0.72, 0.528, 192.0, 0.0, 0.0, 0.0, 0.0, 0.0, 0.0, 0.0, 0.0, 0.0, 1.6635812923700235E9, 0.0, 2022-09-19 14:54:52.370
227.0, 35872.42643504458, 29058.675951799865, 6803.043997650623, 15285.26279750619, 10439.248137384431, 187500.0, -93881.61824722508, 32418.813695766177, 0.492, -0.72, 0.528, 192.0, 0.0, 0.0, 0.0, 0.0, 0.0, 0.0, 0.0, 0.0, 0.0, 1.6635812923740268E9, 0.0, 2022-09-19 14:54:52.374
228.0, 35875.98036241298, 29043.275599870158, 6791.577552745051, 15273.394021200422, 10436.856500727714, 187500.0, -93910.54140455025, 32410.208274150882, 0.492, -0.72, 0.528, 192.0, 0.0, 0.0, 0.0, 0.0, 0.0, 0.0, 0.0, 0.0, 0.0, 1.663581292377031E9, 0.0, 2022-09-19 14:54:52.377
229.0, 35906.89282499466, 29044.884925470942, 6784.849677664003, 15262.374611183955, 10446.937137477058, 187500.0, -93851.66690965497, 32438.99732100932, 0.492, -0.72, 0.528, 192.0, 0.0, 0.0, 0.0, 0.0, 0.0, 0.0, 0.0, 0.0, 0.0, 1.6635812923811266E9, 0.0, 2022-09-19 14:54:52.381
230.0, 35924.70716532555, 29054.94321047583, 6775.327834526042, 15253.59037561302, 10440.566890307295, 187500.0, -93801.80016777517, 32463.919516076985, 0.498, -0.718, 0.53, 192.0, 15.0, 144.0, 233.0, 144.0, 16.0, 144.0, 0.0, 0.0, 0.0, 1.6635812923861225E9, 0.0, 2022-09-19 14:54:52.386
231.0, 35883.915231694606, 29041.286294613637, 6774.6125787034725, 15255.49027389172, 10419.668009241583, 187500.0, -93915.68230577497, 32428.424945881958, 0.498, -0.718, 0.53, 192.0, 0.0, 0.0, 0.0, 0.0, 0.0, 0.0, 0.0, 0.0, 0.0, 1.663581292390077E9, 0.0, 2022-09-19 14:54:52.390
232.0, 35869.29719082084, 29036.61478002248, 6782.726261940749, 15265.436800174333, 10418.840994696737, 187500.0, -94006.60920221916, 32406.855512482587, 0.498, -0.718, 0.53, 192.0, 0.0, 0.0, 0.0, 0.0, 0.0, 0.0, 0.0, 0.0, 0.0, 1.663581292394098E9, 0.0, 2022-09-19 14:54:52.394
233.0, 35882.88705144967, 29044.99668419322, 6784.380291030442, 15270.39888744341, 10431.290916358343, 187500.0, -94023.440065794, 32417.27142539876, 0.498, -0.718, 0.53, 192.0, 0.0, 0.0, 0.0, 0.0, 0.0, 0.0, 0.0, 0.0, 0.0, 1.6635812923980956E9, 0.0, 2022-09-19 14:54:52.398
234.0, 35916.839351277275, 29051.18811740734, 6782.994482874213, 15265.25798621869, 10444.433742098063, 187500.0, -93960.29638770776, 32455.068225272684, 0.498, -0.718, 0.53, 192.0, 0.0, 0.0, 0.0, 0.0, 0.0, 0.0, 0.0, 0.0, 0.0, 1.6635812924012353E9, 0.0, 2022-09-19 14:54:52.401
235.0, 35933.625511363214, 29051.03165519615, 6773.763212414171, 15251.645773845408, 10433.883718715158, 187500.0, -93900.23725035635, 32486.315964021203, 0.498, -0.718, 0.53, 192.0, 0.0, 0.0, 0.0, 0.0, 0.0, 0.0, 0.0, 0.0, 0.0, 1.6635812924050791E9, 0.0, 2022-09-19 14:54:52.405
236.0, 35889.99490618645, 29034.446660810314, 6769.851657134493, 15246.25900343168, 10408.82741318076, 187500.0, -94000.90950738305, 32453.525954905268, 0.498, -0.718, 0.53, 192.0, 0.0, 0.0, 0.0, 0.0, 0.0, 0.0, 0.0, 0.0, 0.0, 1.6635812924101508E9, 0.0, 2022-09-19 14:54:52.410
237.0, 35868.02314138688, 29033.12790788745, 6775.953683370792, 15257.658393103886, 10416.784634206848, 187500.0, -94089.42241542607, 32430.95069300541, 0.498, -0.718, 0.53, 192.0, 0.0, 0.0, 0.0, 0.0, 0.0, 0.0, 0.0, 0.0, 0.0, 1.6635812924141471E9, 0.0, 2022-09-19 14:54:52.414
238.0, 35875.19805135704, 29037.330035845047, 6771.662148435373, 15255.602032613997, 10428.429893068063, 187500.0, -94106.49914818992, 32436.203352952405, 0.498, -0.718, 0.53, 192.0, 0.0, 0.0, 0.0, 0.0, 0.0, 0.0, 0.0, 0.0, 0.0, 1.6635812924181957E9, 0.0, 2022-09-19 14:54:52.418
239.0, 35907.8763017507, 29039.52050680167, 6771.7962589021045, 15248.538881366121, 10441.30449787432, 187500.0, -94046.61882479416, 32469.507452190814, 0.498, -0.718, 0.53, 192.0, 0.0, 0.0, 0.0, 0.0, 0.0, 0.0, 0.0, 0.0, 0.0, 1.6635812924222271E9, 0.0, 2022-09-19 14:54:52.422
240.0, 35932.865552051735, 29044.773166748666, 6764.95662509878, 15243.06270397457, 10444.433742098063, 187500.0, -93970.3770244571, 32511.618138744612, 0.496, -0.72, 0.528, 192.0, 15.0, 128.0, 233.0, 128.0, 16.0, 128.0, 0.0, 0.0, 0.0, 1.6635812924261909E9, 0.0, 2022-09-19 14:54:52.426
241.0, 35900.544929569354, 29045.98016094925, 6769.874008878948, 15259.334773938033, 10430.150977391122, 187500.0, -94057.57117957727, 32491.166292568007, 0.496, -0.72, 0.528, 192.0, 0.0, 0.0, 0.0, 0.0, 0.0, 0.0, 0.0, 0.0, 0.0, 1.6635812924291828E9, 0.0, 2022-09-19 14:54:52.429
242.0, 35875.309810079314, 29033.70905324329, 6778.568837472062, 15265.302689707602, 10426.0606081558, 187500.0, -94152.23081734548, 32464.590068410645, 0.496, -0.72, 0.528, 192.0, 0.0, 0.0, 0.0, 0.0, 0.0, 0.0, 0.0, 0.0, 0.0, 1.663581292433175E9, 0.0, 2022-09-19 14:54:52.433
243.0, 35872.873469933686, 29030.26688459717, 6769.136401311923, 15253.702134335297, 10426.30647734481, 187500.0, -94183.09857643826, 32457.437510184947, 0.496, -0.72, 0.528, 192.0, 0.0, 0.0, 0.0, 0.0, 0.0, 0.0, 0.0, 0.0, 0.0, 1.6635812924371624E9, 0.0, 2022-09-19 14:54:52.437
244.0, 35906.44579010556, 29048.304742372602, 6770.946892612803, 15254.439741902323, 10442.064457185801, 187500.0, -94127.64389844464, 32488.66289718901, 0.496, -0.72, 0.528, 192.0, 0.0, 0.0, 0.0, 0.0, 0.0, 0.0, 0.0, 0.0, 0.0, 1.6635812924421816E9, 0.0, 2022-09-19 14:54:52.442
245.0, 35934.51958114142, 29050.763434262688, 6768.018814089158, 15248.11419822147, 10449.954622978525, 187500.0, -94046.50706607188, 32529.655996520043, 0.496, -0.72, 0.528, 192.0, 0.0, 0.0, 0.0, 0.0, 0.0, 0.0, 0.0, 0.0, 0.0, 1.6635812924461432E9, 0.0, 2022-09-19 14:54:52.446
246.0, 35898.466217335015, 29034.424309065857, 6771.997424602202, 15257.59133787052, 10433.25786987041, 187500.0, -94131.10841883523, 32507.505417764834, 0.496, -0.72, 0.528, 192.0, 0.0, 0.0, 0.0, 0.0, 0.0, 0.0, 0.0, 0.0, 0.0, 1.6635812924501607E9, 0.0, 2022-09-19 14:54:52.450
247.0, 35872.76171121141, 29025.595370006013, 6779.217038061266, 15259.513587893676, 10418.840994696737, 187500.0, -94227.04210603739, 32484.080789575673, 0.496, -0.72, 0.528, 192.0, 0.0, 0.0, 0.0, 0.0, 0.0, 0.0, 0.0, 0.0, 0.0, 1.6635812924532113E9, 0.0, 2022-09-19 14:54:52.453
248.0, 35880.227193859486, 29045.08609117104, 6776.288959537621, 15255.06559074707, 10421.232631353454, 187500.0, -94248.0527458254, 32487.94764136644, 0.496, -0.72, 0.528, 192.0, 0.0, 0.0, 0.0, 0.0, 0.0, 0.0, 0.0, 0.0, 0.0, 1.6635812924571645E9, 0.0, 2022-09-19 14:54:52.457
249.0, 35915.69941231006, 29060.866422756484, 6777.026567104646, 15248.49417787721, 10436.007134438412, 187500.0, -94195.97318124452, 32520.894112693564, 0.496, -0.72, 0.528, 192.0, 0.0, 0.0, 0.0, 0.0, 0.0, 0.0, 0.0, 0.0, 0.0, 1.6635812924611928E9, 0.0, 2022-09-19 14:54:52.461
250.0, 35943.25911322345, 29062.386341379446, 6767.549427455596, 15239.285259161623, 10446.065419443301, 187500.0, -94113.29407850435, 32565.128214970617, 0.496, -0.722, 0.528, 192.0, 15.0, 128.0, 233.0, 112.0, 16.0, 128.0, 0.0, 0.0, 0.0, 1.6635812924652154E9, 0.0, 2022-09-19 14:54:52.465
251.0, 35912.01137447493, 29056.239611654237, 6774.679633936838, 15254.573852369054, 10437.68351527256, 187500.0, -94191.18990793108, 32549.549049085268, 0.496, -0.722, 0.528, 192.0, 0.0, 0.0, 0.0, 0.0, 0.0, 0.0, 0.0, 0.0, 0.0, 1.6635812924702911E9, 0.0, 2022-09-19 14:54:52.470
252.0, 35880.89774619314, 29039.341692846025, 6783.218000318766, 15267.627271130952, 10435.15776814911, 187500.0, -94301.89809821823, 32512.24398758936, 0.496, -0.722, 0.528, 192.0, 0.0, 0.0, 0.0, 0.0, 0.0, 0.0, 0.0, 0.0, 0.0, 1.6635812924742053E9, 0.0, 2022-09-19 14:54:52.474
253.0, 35876.85208044673, 29036.726538744755, 6778.680596194339, 15256.741971581218, 10438.287012372853, 187500.0, -94339.47138064759, 32500.017583372308, 0.496, -0.722, 0.528, 192.0, 0.0, 0.0, 0.0, 0.0, 0.0, 0.0, 0.0, 0.0, 0.0, 1.6635812924782183E9, 0.0, 2022-09-19 14:54:52.478
254.0, 35898.44386559056, 29043.11913765897, 6774.657282192384, 15247.421294143356, 10445.238404898455, 187500.0, -94304.28973487494, 32519.664766748523, 0.496, -0.722, 0.528, 192.0, 0.0, 0.0, 0.0, 0.0, 0.0, 0.0, 0.0, 0.0, 0.0, 1.66358129248127E9, 0.0, 2022-09-19 14:54:52.481
255.0, 35925.869456037224, 29051.6575040409, 6768.756421656182, 15245.409637142378, 10446.40069561013, 187500.0, -94228.33850721581, 32553.50530785386, 0.496, -0.722, 0.528, 192.0, 0.0, 0.0, 0.0, 0.0, 0.0, 0.0, 0.0, 0.0, 0.0, 1.6635812924852672E9, 0.0, 2022-09-19 14:54:52.485
0.0, 35898.22034814601, 29051.32222787407, 6774.813744403571, 15262.575776884054, 10426.798215722825, 187500.0, -94306.83783374284, 32528.33724359718, 0.496, -0.722, 0.528, 192.0, 0.0, 0.0, 0.0, 0.0, 0.0, 0.0, 0.0, 0.0, 0.0, 1.6635812924892864E9, 0.0, 2022-09-19 14:54:52.489
1.0, 35869.99009489895, 29043.208544636793, 6777.719471182761, 15266.666146119374, 10411.06258762629, 187500.0, -94422.46340781015, 32489.892243134054, 0.496, -0.722, 0.528, 192.0, 0.0, 0.0, 0.0, 0.0, 0.0, 0.0, 0.0, 0.0, 0.0, 1.6635812924932497E9, 0.0, 2022-09-19 14:54:52.493
2.0, 35869.5654117543, 29039.40874807939, 6779.418203761364, 15265.21328272978, 10407.57571549126, 187500.0, -94462.54008561852, 32478.738722650854, 0.496, -0.722, 0.528, 192.0, 0.0, 0.0, 0.0, 0.0, 0.0, 0.0, 0.0, 0.0, 0.0, 1.66358129249726E9, 0.0, 2022-09-19 14:54:52.497
3.0, 35888.7208567525, 29040.7051492578, 6778.524133983152, 15265.928538552349, 10413.543631260829, 187500.0, -94435.38271610532, 32493.937908880464, 0.496, -0.722, 0.528, 192.0, 0.0, 0.0, 0.0, 0.0, 0.0, 0.0, 0.0, 0.0, 0.0, 1.6635812925022607E9, 0.0, 2022-09-19 14:54:52.502
4.0, 35908.90448199564, 29036.570076533568, 6757.535845939618, 15247.309535421078, 10411.174346348565, 187500.0, -94368.43924146167, 32518.860103948133, 0.488, -0.718, 0.526, 192.0, 15.0, 64.0, 233.0, 144.0, 16.0, 112.0, 0.0, 0.0, 0.0, 1.6635812925062952E9, 0.0, 2022-09-19 14:54:52.506
5.0, 35875.51097577941, 29030.088070641526, 6753.8925115934035, 15246.549576109599, 10388.48732572643, 187500.0, -94448.77141103405, 32491.47921699038, 0.488, -0.718, 0.526, 192.0, 0.0, 0.0, 0.0, 0.0, 0.0, 0.0, 0.0, 0.0, 0.0, 1.6635812925092795E9, 0.0, 2022-09-19 14:54:52.509
6.0, 35845.17965855356, 29027.048233395606, 6763.660223920372, 15253.858596546484, 10378.361985488174, 187500.0, -94573.6729590503, 32449.6591031145, 0.488, -0.718, 0.526, 192.0, 0.0, 0.0, 0.0, 0.0, 0.0, 0.0, 0.0, 0.0, 0.0, 1.6635812925132935E9, 0.0, 2022-09-19 14:54:52.513
7.0, 35848.64417894414, 29026.198867106305, 6763.2802442646325, 15253.478616890743, 10379.43486922203, 187500.0, -94622.04213405159, 32432.761184306288, 0.488, -0.718, 0.526, 192.0, 0.0, 0.0, 0.0, 0.0, 0.0, 0.0, 0.0, 0.0, 0.0, 1.6635812925172799E9, 0.0, 2022-09-19 14:54:52.517
8.0, 35869.00661814292, 29034.98310267724, 6760.24040701871, 15254.082113991037, 10394.790517662826, 187500.0, -94604.22779372071, 32442.484193144348, 0.488, -0.718, 0.526, 192.0, 0.0, 0.0, 0.0, 0.0, 0.0, 0.0, 0.0, 0.0, 0.0, 1.6635812925213847E9, 0.0, 2022-09-19 14:54:52.521
9.0, 35897.59449930126, 29035.899524199907, 6749.533921424619, 15244.940250508816, 10408.939171903035, 187500.0, -94530.46703701818, 32473.396655726036, 0.488, -0.718, 0.526, 192.0, 0.0, 0.0, 0.0, 0.0, 0.0, 0.0, 0.0, 0.0, 0.0, 1.6635812925253117E9, 0.0, 2022-09-19 14:54:52.525
10.0, 35867.19612684204, 29030.132774130438, 6746.114104522956, 15242.280392918634, 10393.002378106401, 187500.0, -94606.01593327713, 32446.775728079767, 0.488, -0.718, 0.526, 192.0, 0.0, 0.0, 0.0, 0.0, 0.0, 0.0, 0.0, 0.0, 0.0, 1.663581292530328E9, 0.0, 2022-09-19 14:54:52.530
11.0, 35839.77053639538, 29041.08512891354, 6760.307462252076, 15258.552462882099, 10390.566037960773, 187500.0, -94738.13709475246, 32403.145122903006, 0.488, -0.718, 0.526, 192.0, 0.0, 0.0, 0.0, 0.0, 0.0, 0.0, 0.0, 0.0, 0.0, 1.6635812925333025E9, 0.0, 2022-09-19 14:54:52.533
12.0, 35842.65391143011, 29046.963637705285, 6765.090735565512, 15262.039335017125, 10398.2550380534, 187500.0, -94792.16126110093, 32390.382276819026, 0.488, -0.718, 0.526, 192.0, 0.0, 0.0, 0.0, 0.0, 0.0, 0.0, 0.0, 0.0, 0.0, 1.663581292537434E9, 0.0, 2022-09-19 14:54:52.537
13.0, 35861.36232153921, 29046.27073362717, 6761.4026977303865, 15253.232747701735, 10408.894468414124, 187500.0, -94784.22639181929, 32399.5464920457, 0.488, -0.718, 0.526, 192.0, 0.0, 0.0, 0.0, 0.0, 0.0, 0.0, 0.0, 0.0, 0.0, 1.6635812925413465E9, 0.0, 2022-09-19 14:54:52.541
14.0, 35887.983249185476, 29036.435966066834, 6749.422162702342, 15237.810044027574, 10414.258887083399, 187500.0, -94709.25864091619, 32431.688300572434, 0.494, -0.716, 0.528, 192.0, 15.0, 112.0, 233.0, 160.0, 16.0, 128.0, 0.0, 0.0, 0.0, 1.6635812925453863E9, 0.0, 2022-09-19 14:54:52.545
15.0, 35864.24569657394, 29029.194000863317, 6752.640813903906, 15241.788654540618, 10402.926552644558, 187500.0, -94770.21184804582, 32412.64461429651, 0.494, -0.716, 0.528, 192.0, 0.0, 0.0, 0.0, 0.0, 0.0, 0.0, 0.0, 0.0, 0.0, 1.6635812925493813E9, 0.0, 2022-09-19 14:54:52.549
16.0, 35825.64423389962, 29026.780012462143, 6761.469752963752, 15252.293974434611, 10387.52620071485, 187500.0, -94911.74309393682, 32360.430939248916, 0.494, -0.716, 0.528, 192.0, 0.0, 0.0, 0.0, 0.0, 0.0, 0.0, 0.0, 0.0, 0.0, 1.6635812925533967E9, 0.0, 2022-09-19 14:54:52.553
17.0, 35824.481943187944, 29026.489439784225, 6763.816686131559, 15253.031582001637, 10392.644750195117, 187500.0, -94970.03644347626, 32342.437784962392, 0.494, -0.716, 0.528, 192.0, 0.0, 0.0, 0.0, 0.0, 0.0, 0.0, 0.0, 0.0, 0.0, 1.6635812925584095E9, 0.0, 2022-09-19 14:54:52.558
18.0, 35851.6616644456, 29042.582695792044, 6771.371575757454, 15256.20552971429, 10411.867250426681, 187500.0, -94955.15018166903, 32363.60488696157, 0.494, -0.716, 0.528, 192.0, 0.0, 0.0, 0.0, 0.0, 0.0, 0.0, 0.0, 0.0, 0.0, 1.663581292561432E9, 0.0, 2022-09-19 14:54:52.561
19.0, 35888.49733930795, 29052.261001141193, 6757.62525291744, 15252.606898856986, 10422.126701131667, 187500.0, -94874.10275627408, 32402.116942658064, 0.494, -0.716, 0.528, 192.0, 0.0, 0.0, 0.0, 0.0, 0.0, 0.0, 0.0, 0.0, 0.0, 1.6635812925654051E9, 0.0, 2022-09-19 14:54:52.565
20.0, 35868.78310069837, 29047.36596910548, 6754.272491249143, 15257.21135821478, 10412.82837543826, 187500.0, -94924.84121618763, 32388.750599473788, 0.494, -0.716, 0.528, 192.0, 0.0, 0.0, 0.0, 0.0, 0.0, 0.0, 0.0, 0.0, 0.0, 1.6635812925694232E9, 0.0, 2022-09-19 14:54:52.569
21.0, 35829.22051301247, 29033.820811965565, 6757.021755817146, 15261.525244894654, 10407.173384091066, 187500.0, -95055.57656950672, 32347.221058275827, 0.494, -0.716, 0.528, 192.0, 0.0, 0.0, 0.0, 0.0, 0.0, 0.0, 0.0, 0.0, 0.0, 1.663581292573426E9, 0.0, 2022-09-19 14:54:52.573
22.0, 35826.13597227764, 29028.5010967852, 6759.927482596337, 15264.20745422929, 10409.810889936793, 187500.0, -95105.17509045305, 32340.69434889488, 0.494, -0.716, 0.528, 192.0, 0.0, 0.0, 0.0, 0.0, 0.0, 0.0, 0.0, 0.0, 0.0, 1.663581292577517E9, 0.0, 2022-09-19 14:54:52.577
23.0, 35848.197144055026, 29034.17843987685, 6758.228750017733, 15258.597166371008, 10414.504756272407, 187500.0, -95091.83109901323, 32356.809956647154, 0.494, -0.716, 0.528, 192.0, 0.0, 0.0, 0.0, 0.0, 0.0, 0.0, 0.0, 0.0, 0.0, 1.6635812925814238E9, 0.0, 2022-09-19 14:54:52.581
24.0, 35890.553699797834, 29048.75177726171, 6750.807970858571, 15244.180291197335, 10432.54261404784, 187500.0, -95000.83714733567, 32399.434733323425, 0.494, -0.716, 0.526, 192.0, 15.0, 112.0, 233.0, 160.0, 16.0, 112.0, 0.0, 0.0, 0.0, 1.6635812925864797E9, 0.0, 2022-09-19 14:54:52.586
25.0, 35876.29328683535, 29052.08218718555, 6744.772999855638, 15246.326058665045, 10426.48529130045, 187500.0, -95032.5766244622, 32394.919680943454, 0.494, -0.716, 0.526, 192.0, 0.0, 0.0, 0.0, 0.0, 0.0, 0.0, 0.0, 0.0, 0.0, 1.6635812925894492E9, 0.0, 2022-09-19 14:54:52.589
26.0, 35844.57616145327, 29053.110367430494, 6758.876950606937, 15261.905224550394, 10423.646619754627, 187500.0, -95155.42181198858, 32360.475642737823, 0.494, -0.716, 0.526, 192.0, 0.0, 0.0, 0.0, 0.0, 0.0, 0.0, 0.0, 0.0, 0.0, 1.6635812925934043E9, 0.0, 2022-09-19 14:54:52.593
27.0, 35847.48188823246, 29050.98695170724, 6761.469752963752, 15264.587433885032, 10434.867195471192, 187500.0, -95201.8240334778, 32354.395968245983, 0.494, -0.716, 0.526, 192.0, 0.0, 0.0, 0.0, 0.0, 0.0, 0.0, 0.0, 0.0, 0.0, 1.6635812925975006E9, 0.0, 2022-09-19 14:54:52.597
28.0, 35863.26221981791, 29051.41163485189, 6759.569854685052, 15263.02281177316, 10445.104294431721, 187500.0, -95186.66955073709, 32371.584459732112, 0.494, -0.716, 0.526, 192.0, 0.0, 0.0, 0.0, 0.0, 0.0, 0.0, 0.0, 0.0, 0.0, 1.6635812926014798E9, 0.0, 2022-09-19 14:54:52.601
29.0, 35898.06388593482, 29053.132719174948, 6752.439648203808, 15256.473750647754, 10456.682498059572, 187500.0, -95093.82040426975, 32418.768992277266, 0.494, -0.716, 0.526, 192.0, 0.0, 0.0, 0.0, 0.0, 0.0, 0.0, 0.0, 0.0, 0.0, 1.6635812926056635E9, 0.0, 2022-09-19 14:54:52.605
30.0, 35890.10666490873, 29053.333884875046, 6754.317194738054, 15263.671012362363, 10448.1664834221, 187500.0, -95107.9467067655, 32425.452163869402, 0.494, -0.716, 0.526, 192.0, 0.0, 0.0, 0.0, 0.0, 0.0, 0.0, 0.0, 0.0, 0.0, 1.6635812926094372E9, 0.0, 2022-09-19 14:54:52.609
31.0, 35854.90266739162, 29049.243515639726, 6766.118915810456, 15277.327928224557, 10441.818587996791, 187500.0, -95229.20492043554, 32394.070314654153, 0.494, -0.716, 0.526, 192.0, 0.0, 0.0, 0.0, 0.0, 0.0, 0.0, 0.0, 0.0, 0.0, 1.6635812926144955E9, 0.0, 2022-09-19 14:54:52.614
32.0, 35852.175754568074, 29053.758568019697, 6766.968282099758, 15270.801218843606, 10446.847730499236, 187500.0, -95280.88215361621, 32382.559166259667, 0.494, -0.716, 0.526, 192.0, 0.0, 0.0, 0.0, 0.0, 0.0, 0.0, 0.0, 0.0, 0.0, 1.6635812926175084E9, 0.0, 2022-09-19 14:54:52.617
33.0, 35873.27580133388, 29057.60306806601, 6769.874008878948, 15269.281300220646, 10463.83505628527, 187500.0, -95268.87926684371, 32398.048925167197, 0.494, -0.716, 0.526, 192.0, 0.0, 0.0, 0.0, 0.0, 0.0, 0.0, 0.0, 0.0, 0.0, 1.6635812926205106E9, 0.0, 2022-09-19 14:54:52.620
34.0, 35908.85977850673, 29053.66916104188, 6759.3463372404985, 15258.038372759625, 10473.960396523524, 187500.0, -95174.24198081995, 32444.249980956316, 0.494, -0.716, 0.526, 192.0, 0.0, 0.0, 0.0, 0.0, 0.0, 0.0, 0.0, 0.0, 0.0, 1.6635812926255112E9, 0.0, 2022-09-19 14:54:52.625
35.0, 35902.73540052598, 29044.057910926094, 6760.57568318554, 15268.677803120352, 10466.45021038654, 187500.0, -95171.40330927412, 32458.443338685436, 0.496, -0.726, 0.532, 192.0, 15.0, 128.0, 233.0, 80.0, 16.0, 160.0, 0.0, 0.0, 0.0, 1.6635812926296148E9, 0.0, 2022-09-19 14:54:52.629
36.0, 35865.29622856334, 29041.196887635815, 6776.892456637915, 15281.954739326804, 10456.481332359474, 187500.0, -95285.240743785, 32426.256826669793, 0.496, -0.726, 0.532, 192.0, 0.0, 0.0, 0.0, 0.0, 0.0, 0.0, 0.0, 0.0, 0.0, 1.66358129263353E9, 0.0, 2022-09-19 14:54:52.633
37.0, 35865.85502217472, 29048.75177726171, 6781.496915995707, 15282.111201537991, 10455.78842828136, 187500.0, -95330.503026307, 32418.03138471024, 0.496, -0.726, 0.532, 192.0, 0.0, 0.0, 0.0, 0.0, 0.0, 0.0, 0.0, 0.0, 0.0, 1.663581292637607E9, 0.0, 2022-09-19 14:54:52.637
38.0, 35878.260240347416, 29047.298913872113, 6775.2607792926765, 15277.506742180198, 10453.933233491569, 187500.0, -95323.77515122594, 32427.530876103745, 0.496, -0.726, 0.532, 192.0, 0.0, 0.0, 0.0, 0.0, 0.0, 0.0, 0.0, 0.0, 0.0, 1.6635812926415317E9, 0.0, 2022-09-19 14:54:52.641
39.0, 35915.945281499065, 29044.951980704307, 6765.113087309967, 15267.895492064417, 10464.63971908566, 187500.0, -95230.38956289168, 32473.821338870686, 0.496, -0.726, 0.532, 192.0, 0.0, 0.0, 0.0, 0.0, 0.0, 0.0, 0.0, 0.0, 0.0, 1.663581292645607E9, 0.0, 2022-09-19 14:54:52.645
40.0, 35916.74994429945, 29059.480614600256, 6759.2345785182215, 15276.54561716862, 10457.129532948677, 187500.0, -95220.04070520887, 32488.551138466733, 0.496, -0.726, 0.532, 192.0, 0.0, 0.0, 0.0, 0.0, 0.0, 0.0, 0.0, 0.0, 0.0, 1.6635812926485682E9, 0.0, 2022-09-19 14:54:52.648
41.0, 35885.34574333975, 29069.5612513496, 6777.741822927216, 15293.823515632574, 10450.78163752337, 187500.0, -95328.91605245067, 32457.817489840687, 0.496, -0.726, 0.532, 192.0, 0.0, 0.0, 0.0, 0.0, 0.0, 0.0, 0.0, 0.0, 0.0, 1.66358129265354E9, 0.0, 2022-09-19 14:54:52.653
42.0, 35878.93079268107, 29065.403826880913, 6789.208267832789, 15302.853620392516, 10463.92446326309, 187500.0, -95377.44168966314, 32446.99924552432, 0.496, -0.726, 0.532, 192.0, 0.0, 0.0, 0.0, 0.0, 0.0, 0.0, 0.0, 0.0, 0.0, 1.6635812926575465E9, 0.0, 2022-09-19 14:54:52.657
43.0, 35887.49151080746, 29053.937381975342, 6781.541619484618, 15290.470753964277, 10471.367594166708, 187500.0, -95370.66911109319, 32456.18581249545, 0.496, -0.726, 0.532, 192.0, 0.0, 0.0, 0.0, 0.0, 0.0, 0.0, 0.0, 0.0, 0.0, 1.663581292661662E9, 0.0, 2022-09-19 14:54:52.661
44.0, 35925.087144981284, 29055.70316978731, 6778.904113638892, 15280.278358492656, 10484.063385017322, 187500.0, -95272.7908221234, 32501.537501995266, 0.496, -0.726, 0.532, 192.0, 0.0, 0.0, 0.0, 0.0, 0.0, 0.0, 0.0, 0.0, 0.0, 1.6635812926655667E9, 0.0, 2022-09-19 14:54:52.665
45.0, 35926.294139181875, 29060.128815189462, 6783.82149741906, 15282.379422471455, 10474.005100012435, 187500.0, -95255.15529574816, 32511.126400366596, 0.494, -0.728, 0.526, 192.0, 15.0, 112.0, 233.0, 64.0, 16.0, 112.0, 0.0, 0.0, 0.0, 1.6635812926695771E9, 0.0, 2022-09-19 14:54:52.669
46.0, 35885.032818917374, 29052.59627730802, 6794.997369646713, 15287.07328880707, 10450.267547400897, 187500.0, -95373.23956170554, 32471.027370813776, 0.494, -0.728, 0.526, 192.0, 0.0, 0.0, 0.0, 0.0, 0.0, 0.0, 0.0, 0.0, 0.0, 1.6635812926736681E9, 0.0, 2022-09-19 14:54:52.673
47.0, 35878.08142639177, 29051.903373229907, 6798.081910381546, 15286.805067873607, 10439.739875762449, 187500.0, -95429.23068156608, 32453.905934561008, 0.494, -0.728, 0.526, 192.0, 0.0, 0.0, 0.0, 0.0, 0.0, 0.0, 0.0, 0.0, 0.0, 1.6635812926766148E9, 0.0, 2022-09-19 14:54:52.676
48.0, 35892.74417075446, 29054.630286053456, 6797.0984336255115, 15280.680689892852, 10429.905108202114, 187500.0, -95425.94497513116, 32459.695036374935, 0.494, -0.728, 0.526, 192.0, 0.0, 0.0, 0.0, 0.0, 0.0, 0.0, 0.0, 0.0, 0.0, 1.6635812926816216E9, 0.0, 2022-09-19 14:54:52.681
49.0, 35930.71978458402, 29057.17838492136, 6796.9196196698695, 15270.667108376874, 10436.409465838608, 187500.0, -95335.46511357608, 32500.8222461727, 0.494, -0.728, 0.526, 192.0, 0.0, 0.0, 0.0, 0.0, 0.0, 0.0, 0.0, 0.0, 0.0, 1.6635812926856356E9, 0.0, 2022-09-19 14:54:52.685
50.0, 35930.85389505076, 29054.116195930983, 6791.443442278319, 15264.229805973746, 10433.324925103776, 187500.0, -95309.15711035219, 32515.082659135183, 0.494, -0.728, 0.526, 192.0, 0.0, 0.0, 0.0, 0.0, 0.0, 0.0, 0.0, 0.0, 0.0, 1.6635812926896384E9, 0.0, 2022-09-19 14:54:52.689
51.0, 35893.28061262138, 29050.38345460695, 6800.741767971727, 15277.506742180198, 10429.189852379544, 187500.0, -95420.60290820633, 32480.348048251635, 0.494, -0.728, 0.526, 192.0, 0.0, 0.0, 0.0, 0.0, 0.0, 0.0, 0.0, 0.0, 0.0, 1.663581292692692E9, 0.0, 2022-09-19 14:54:52.692
52.0, 35888.96672594151, 29055.32319013157, 6813.281096611154, 15284.636948661442, 10445.573681065283, 187500.0, -95476.0799379444, 32468.725141134877, 0.494, -0.728, 0.526, 192.0, 0.0, 0.0, 0.0, 0.0, 0.0, 0.0, 0.0, 0.0, 0.0, 1.6635812926976397E9, 0.0, 2022-09-19 14:54:52.697
53.0, 35899.159121413126, 29061.872251256973, 6809.548355287118, 15274.153980511903, 10461.242253928454, 187500.0, -95470.26848438603, 32480.996248840842, 0.494, -0.728, 0.526, 192.0, 0.0, 0.0, 0.0, 0.0, 0.0, 0.0, 0.0, 0.0, 0.0, 1.6635812927017615E9, 0.0, 2022-09-19 14:54:52.701
54.0, 35931.189171217586, 29067.862518771, 6798.0372068926345, 15262.464018161776, 10469.624158099194, 187500.0, -95385.73418685606, 32518.860103948133, 0.494, -0.728, 0.526, 192.0, 0.0, 0.0, 0.0, 0.0, 0.0, 0.0, 0.0, 0.0, 0.0, 1.6635812927057376E9, 0.0, 2022-09-19 14:54:52.705
55.0, 35930.42921190611, 29057.334847132548, 6788.493012010219, 15254.618555857964, 10460.281128916875, 187500.0, -95352.8100672734, 32532.002929687853, 0.488, -0.724, 0.53, 192.0, 15.0, 64.0, 233.0, 96.0, 16.0, 144.0, 0.0, 0.0, 0.0, 1.6635812927097723E9, 0.0, 2022-09-19 14:54:52.709
56.0, 35892.29713586535, 29054.630286053456, 6797.478413281252, 15267.873140319962, 10439.53871006235, 187500.0, -95460.67958601471, 32499.19056882746, 0.488, -0.724, 0.53, 192.0, 0.0, 0.0, 0.0, 0.0, 0.0, 0.0, 0.0, 0.0, 0.0, 1.6635812927127569E9, 0.0, 2022-09-19 14:54:52.712
57.0, 35881.613002015714, 29054.295009886624, 6801.4346720498415, 15274.355146212, 10434.196643137533, 187500.0, -95524.18089201223, 32484.930155864975, 0.488, -0.724, 0.53, 192.0, 0.0, 0.0, 0.0, 0.0, 0.0, 0.0, 0.0, 0.0, 0.0, 1.6635812927167268E9, 0.0, 2022-09-19 14:54:52.716
58.0, 35891.91715620961, 29057.200736665814, 6795.623218491462, 15266.353221697, 10441.013925196401, 187500.0, -95524.56087166797, 32492.842673402152, 0.488, -0.724, 0.53, 192.0, 0.0, 0.0, 0.0, 0.0, 0.0, 0.0, 0.0, 0.0, 0.0, 1.6635812927207825E9, 0.0, 2022-09-19 14:54:52.720
59.0, 35928.372851416214, 29066.297896659125, 6792.493974267719, 15261.726410594752, 10458.157713193621, 187500.0, -95440.09362937136, 32533.031109932796, 0.488, -0.724, 0.53, 192.0, 0.0, 0.0, 0.0, 0.0, 0.0, 0.0, 0.0, 0.0, 0.0, 1.6635812927248156E9, 0.0, 2022-09-19 14:54:52.724
60.0, 35936.844162564776, 29065.962620492297, 6788.627122476951, 15255.266756447169, 10454.201454425032, 187500.0, -95396.19480326114, 32553.281790409303, 0.488, -0.724, 0.53, 192.0, 0.0, 0.0, 0.0, 0.0, 0.0, 0.0, 0.0, 0.0, 0.0, 1.6635812927297106E9, 0.0, 2022-09-19 14:54:52.729
61.0, 35897.75096151244, 29065.359123392, 6802.149927872411, 15277.506742180198, 10442.042105441345, 187500.0, -95502.1420719793, 32522.48108654989, 0.488, -0.724, 0.53, 192.0, 0.0, 0.0, 0.0, 0.0, 0.0, 0.0, 0.0, 0.0, 0.0, 1.663581292733718E9, 0.0, 2022-09-19 14:54:52.733
62.0, 35886.351571840234, 29060.79936752312, 6812.387026832942, 15286.000405073215, 10451.295727645842, 187500.0, -95569.15260185632, 32509.360612554625, 0.488, -0.724, 0.53, 192.0, 0.0, 0.0, 0.0, 0.0, 0.0, 0.0, 0.0, 0.0, 0.0, 1.6635812927377691E9, 0.0, 2022-09-19 14:54:52.737
63.0, 35897.37098185671, 29062.006361723707, 6814.1751663893665, 15283.429954460855, 10460.683460317072, 187500.0, -95573.33237806945, 32517.228426602895, 0.488, -0.724, 0.53, 192.0, 0.0, 0.0, 0.0, 0.0, 0.0, 0.0, 0.0, 0.0, 0.0, 1.663581292740816E9, 0.0, 2022-09-19 14:54:52.740
64.0, 35929.222217705516, 29065.403826880913, 6810.800052976615, 15275.942120068326, 10466.271396430899, 187500.0, -95498.1411097218, 32553.39354913158, 0.488, -0.724, 0.53, 192.0, 0.0, 0.0, 0.0, 0.0, 0.0, 0.0, 0.0, 0.0, 0.0, 1.663581292744723E9, 0.0, 2022-09-19 14:54:52.744
65.0, 35942.87913356771, 29070.120044960982, 6801.792299961126, 15268.92367230936, 10460.459942872518, 187500.0, -95445.43569629619, 32580.550918644778, 0.48, -0.718, 0.528, 192.0, 15.0, 0.0, 233.0, 144.0, 16.0, 128.0, 0.0, 0.0, 0.0, 1.6635812927487016E9, 0.0, 2022-09-19 14:54:52.748
66.0, 35903.696525537554, 29068.108387960005, 6803.178108117356, 15275.02569854566, 10439.672820529082, 187500.0, -95548.4548864907, 32545.615142061135, 0.48, -0.718, 0.528, 192.0, 0.0, 0.0, 0.0, 0.0, 0.0, 0.0, 0.0, 0.0, 0.0, 1.6635812927537715E9, 0.0, 2022-09-19 14:54:52.753
67.0, 35885.23398461747, 29062.207527423805, 6807.559050030595, 15282.625291660464, 10439.78457925136, 187500.0, -95622.46151238222, 32521.58701677168, 0.48, -0.718, 0.528, 192.0, 0.0, 0.0, 0.0, 0.0, 0.0, 0.0, 0.0, 0.0, 0.0, 1.6635812927577329E9, 0.0, 2022-09-19 14:54:52.757
68.0, 35884.47402530599, 29056.574887821065, 6800.048863893612, 15276.411506701888, 10444.947832220536, 187500.0, -95626.46247463972, 32526.39264182957, 0.48, -0.718, 0.528, 192.0, 0.0, 0.0, 0.0, 0.0, 0.0, 0.0, 0.0, 0.0, 0.0, 1.6635812927617555E9, 0.0, 2022-09-19 14:54:52.761
69.0, 35913.30777565334, 29059.122986688973, 6791.555201000596, 15263.872178062462, 10452.770942779893, 187500.0, -95548.83486614644, 32563.943572514487, 0.48, -0.718, 0.528, 192.0, 0.0, 0.0, 0.0, 0.0, 0.0, 0.0, 0.0, 0.0, 0.0, 1.6635812927647552E9, 0.0, 2022-09-19 14:54:52.764
70.0, 35931.747964828966, 29061.93930649034, 6794.550334757607, 15263.805122829095, 10454.804951525326, 187500.0, -95485.13239444881, 32595.571290918746, 0.48, -0.718, 0.528, 192.0, 0.0, 0.0, 0.0, 0.0, 0.0, 0.0, 0.0, 0.0, 0.0, 1.6635812927688804E9, 0.0, 2022-09-19 14:54:52.768
71.0, 35891.336010853774, 29050.584620307043, 6797.076081881057, 15269.102486265003, 10443.07028568629, 187500.0, -95584.55295378601, 32561.373121902125, 0.48, -0.718, 0.528, 192.0, 0.0, 0.0, 0.0, 0.0, 0.0, 0.0, 0.0, 0.0, 0.0, 1.6635812927728083E9, 0.0, 2022-09-19 14:54:52.772
72.0, 35874.10281587873, 29049.489384828736, 6794.036244635135, 15269.281300220646, 10447.674745044082, 187500.0, -95665.33215824749, 32536.786203001288, 0.48, -0.718, 0.528, 192.0, 0.0, 0.0, 0.0, 0.0, 0.0, 0.0, 0.0, 0.0, 0.0, 1.6635812927767727E9, 0.0, 2022-09-19 14:54:52.776
73.0, 35882.84234796075, 29053.60210580851, 6792.873953923458, 15271.136495010436, 10459.610576583216, 187500.0, -95678.1844113093, 32539.20019140246, 0.48, -0.718, 0.528, 192.0, 0.0, 0.0, 0.0, 0.0, 0.0, 0.0, 0.0, 0.0, 0.0, 1.6635812927808177E9, 0.0, 2022-09-19 14:54:52.780
74.0, 35919.25333967845, 29065.22501292527, 6791.264628322677, 15273.63989038943, 10475.770887824403, 187500.0, -95606.27884939658, 32577.06404650975, 0.48, -0.718, 0.528, 192.0, 0.0, 0.0, 0.0, 0.0, 0.0, 0.0, 0.0, 0.0, 0.0, 1.663581292785824E9, 0.0, 2022-09-19 14:54:52.785
75.0, 35935.6818718531, 29063.839204769043, 6785.609636975484, 15267.269643219668, 10470.428820899586, 187500.0, -95541.5034939651, 32606.098962557193, 0.484, -0.716, 0.528, 192.0, 15.0, 32.0, 233.0, 160.0, 16.0, 128.0, 0.0, 0.0, 0.0, 1.6635812927898026E9, 0.0, 2022-09-19 14:54:52.789
76.0, 35893.973516699494, 29056.440777354335, 6786.503706753696, 15267.11318100848, 10449.239367155955, 187500.0, -95638.39830617885, 32572.34782842968, 0.484, -0.716, 0.528, 192.0, 0.0, 0.0, 0.0, 0.0, 0.0, 0.0, 0.0, 0.0, 0.0, 1.6635812927927437E9, 0.0, 2022-09-19 14:54:52.792
77.0, 35870.28066757687, 29048.93059121735, 6793.544506257118, 15266.30851820809, 10441.237442640953, 187500.0, -95726.6429932884, 32543.424671104513, 0.484, -0.716, 0.528, 192.0, 0.0, 0.0, 0.0, 0.0, 0.0, 0.0, 0.0, 0.0, 0.0, 1.6635812927968564E9, 0.0, 2022-09-19 14:54:52.796
78.0, 35874.63925774566, 29045.957809204796, 6794.505631268697, 15265.481503663243, 10446.490102587952, 187500.0, -95743.83148477454, 32541.658883292544, 0.484, -0.716, 0.528, 192.0, 0.0, 0.0, 0.0, 0.0, 0.0, 0.0, 0.0, 0.0, 0.0, 1.6635812928008256E9, 0.0, 2022-09-19 14:54:52.800
79.0, 35907.63043256169, 29050.428158095856, 6792.315160312076, 15260.295898949613, 10459.58822483876, 187500.0, -95680.06195784354, 32572.705456340966, 0.484, -0.716, 0.528, 192.0, 0.0, 0.0, 0.0, 0.0, 0.0, 0.0, 0.0, 0.0, 0.0, 1.6635812928048284E9, 0.0, 2022-09-19 14:54:52.804
80.0, 35931.457392151045, 29056.485480843246, 6784.559104986085, 15262.419314672867, 10460.996384739445, 187500.0, -95604.87068949589, 32605.31665150126, 0.484, -0.716, 0.528, 192.0, 0.0, 0.0, 0.0, 0.0, 0.0, 0.0, 0.0, 0.0, 0.0, 1.6635812928088353E9, 0.0, 2022-09-19 14:54:52.808
81.0, 35893.59353704376, 29051.299876129615, 6787.129555598445, 15273.528131667154, 10441.148035663133, 187500.0, -95690.6343329709, 32577.846357565686, 0.484, -0.716, 0.528, 192.0, 0.0, 0.0, 0.0, 0.0, 0.0, 0.0, 0.0, 0.0, 0.0, 1.6635812928138473E9, 0.0, 2022-09-19 14:54:52.813
82.0, 35875.08629263476, 29054.56323082009, 6792.695139967816, 15275.49508517922, 10438.01879143939, 187500.0, -95777.13558401294, 32554.06410146524, 0.484, -0.716, 0.528, 192.0, 0.0, 0.0, 0.0, 0.0, 0.0, 0.0, 0.0, 0.0, 0.0, 1.6635812928178437E9, 0.0, 2022-09-19 14:54:52.817
83.0, 35889.21259513052, 29060.754664034208, 6796.137308613934, 15274.422201445366, 10448.97114622249, 187500.0, -95785.69630213933, 32561.842508535687, 0.484, -0.716, 0.528, 192.0, 0.0, 0.0, 0.0, 0.0, 0.0, 0.0, 0.0, 0.0, 0.0, 1.6635812928208392E9, 0.0, 2022-09-19 14:54:52.820
84.0, 35916.66053732164, 29063.392169879935, 6787.4648317652745, 15266.800256586106, 10458.69415506055, 187500.0, -95724.72074326525, 32592.531453672822, 0.484, -0.716, 0.528, 192.0, 0.0, 0.0, 0.0, 0.0, 0.0, 0.0, 0.0, 0.0, 0.0, 1.6635812928248513E9, 0.0, 2022-09-19 14:54:52.824
85.0, 35938.520543398925, 29068.309553660103, 6773.897322880903, 15259.133608237937, 10456.123704448188, 187500.0, -95642.08634401398, 32630.41766052457, 0.484, -0.716, 0.526, 192.0, 15.0, 32.0, 233.0, 160.0, 16.0, 112.0, 0.0, 0.0, 0.0, 1.6635812928288696E9, 0.0, 2022-09-19 14:54:52.828
86.0, 35902.91421448162, 29068.622478082478, 6779.529962483641, 15276.947948568815, 10437.974087950479, 187500.0, -95720.58567054101, 32604.82491312324, 0.484, -0.716, 0.526, 192.0, 0.0, 0.0, 0.0, 0.0, 0.0, 0.0, 0.0, 0.0, 0.0, 1.663581292832874E9, 0.0, 2022-09-19 14:54:52.832
87.0, 35876.33799032426, 29060.061759956094, 6786.503706753696, 15275.651547390407, 10434.598974537728, 187500.0, -95816.22878506528, 32575.521776142334, 0.484, -0.716, 0.526, 192.0, 0.0, 0.0, 0.0, 0.0, 0.0, 0.0, 0.0, 0.0, 0.0, 1.6635812928369007E9, 0.0, 2022-09-19 14:54:52.836
88.0, 35881.277725848886, 29049.399977850913, 6787.017796876168, 15275.83036134605, 10445.528977576372, 187500.0, -95831.22680559478, 32579.478034910924, 0.484, -0.716, 0.526, 192.0, 0.0, 0.0, 0.0, 0.0, 0.0, 0.0, 0.0, 0.0, 0.0, 1.6635812928419263E9, 0.0, 2022-09-19 14:54:52.841
89.0, 35905.372906371704, 29043.36500684798, 6787.554238743096, 15268.431933931344, 10454.40262012513, 187500.0, -95777.24734273522, 32605.92014860155, 0.484, -0.716, 0.526, 192.0, 0.0, 0.0, 0.0, 0.0, 0.0, 0.0, 0.0, 0.0, 0.0, 1.6635812928458686E9, 0.0, 2022-09-19 14:54:52.845
90.0, 35923.410764147135, 29045.84605048252, 6777.227732804744, 15251.511663378677, 10455.49785560344, 187500.0, -95694.8364609285, 32636.87731467215, 0.484, -0.716, 0.526, 192.0, 0.0, 0.0, 0.0, 0.0, 0.0, 0.0, 0.0, 0.0, 0.0, 1.6635812928489027E9, 0.0, 2022-09-19 14:54:52.848
91.0, 35891.93950795406, 29052.640980796932, 6777.160677571378, 15262.285204206135, 10446.266585143398, 187500.0, -95767.54668564162, 32611.776305648844, 0.484, -0.716, 0.526, 192.0, 0.0, 0.0, 0.0, 0.0, 0.0, 0.0, 0.0, 0.0, 0.0, 1.6635812928528748E9, 0.0, 2022-09-19 14:54:52.852
92.0, 35873.074635633784, 29056.574887821065, 6784.000311374702, 15272.008213044193, 10446.177178165577, 187500.0, -95863.882704244, 32582.428465179026, 0.484, -0.716, 0.526, 192.0, 0.0, 0.0, 0.0, 0.0, 0.0, 0.0, 0.0, 0.0, 0.0, 1.6635812928569708E9, 0.0, 2022-09-19 14:54:52.856
93.0, 35875.39921705714, 29049.80230925111, 6781.742785184716, 15263.156922239892, 10445.126646176177, 187500.0, -95889.52015513423, 32577.332267443213, 0.484, -0.716, 0.526, 192.0, 0.0, 0.0, 0.0, 0.0, 0.0, 0.0, 0.0, 0.0, 0.0, 1.6635812928609776E9, 0.0, 2022-09-19 14:54:52.860
94.0, 35902.176606914596, 29062.14047219044, 6780.714604939772, 15267.895492064417, 10451.362782879209, 187500.0, -95840.25691035473, 32603.193235778006, 0.484, -0.716, 0.526, 192.0, 0.0, 0.0, 0.0, 0.0, 0.0, 0.0, 0.0, 0.0, 0.0, 1.66358129286486E9, 0.0, 2022-09-19 14:54:52.864
95.0, 35932.95495902955, 29071.416446139392, 6771.729203668739, 15268.387230442433, 10458.02360272689, 187500.0, -95751.02874648914, 32640.475945529455, 0.484, -0.72, 0.524, 192.0, 15.0, 32.0, 233.0, 128.0, 16.0, 96.0, 0.0, 0.0, 0.0, 1.6635812928689897E9, 0.0, 2022-09-19 14:54:52.868
96.0, 35901.41664760312, 29056.396073865424, 6772.712680424772, 15264.363916440478, 10442.533843819361, 187500.0, -95820.40856127841, 32616.31370977327, 0.484, -0.72, 0.524, 192.0, 0.0, 0.0, 0.0, 0.0, 0.0, 0.0, 0.0, 0.0, 0.0, 1.6635812928739488E9, 0.0, 2022-09-19 14:54:52.873
97.0, 35870.079501876775, 29048.528259817158, 6779.9546456282915, 15273.036393289138, 10430.82152972478, 187500.0, -95931.13910331001, 32574.65005810858, 0.484, -0.72, 0.524, 192.0, 0.0, 0.0, 0.0, 0.0, 0.0, 0.0, 0.0, 0.0, 0.0, 1.663581292876902E9, 0.0, 2022-09-19 14:54:52.876
98.0, 35870.66064723261, 29052.640980796932, 6776.825401404549, 15268.677803120352, 10429.368666335185, 187500.0, -95966.32074908266, 32560.88138352411, 0.484, -0.72, 0.524, 192.0, 0.0, 0.0, 0.0, 0.0, 0.0, 0.0, 0.0, 0.0, 0.0, 1.6635812928809788E9, 0.0, 2022-09-19 14:54:52.880
99.0, 35893.32531611029, 29058.631248310954, 6775.037261848124, 15261.16761698337, 10442.422085097085, 187500.0, -95929.55212945369, 32579.098055255185, 0.484, -0.72, 0.524, 192.0, 0.0, 0.0, 0.0, 0.0, 0.0, 0.0, 0.0, 0.0, 0.0, 1.6635812928849902E9, 0.0, 2022-09-19 14:54:52.884
100.0, 35922.29317692437, 29065.493233858735, 6773.584398458529, 15261.502893150198, 10453.0168119689, 187500.0, -95841.57566327759, 32614.436163239025, 0.484, -0.72, 0.524, 192.0, 0.0, 0.0, 0.0, 0.0, 0.0, 0.0, 0.0, 0.0, 0.0, 1.6635812928889835E9, 0.0, 2022-09-19 14:54:52.888
101.0, 35893.86175797722, 29060.575850078567, 6777.585360716029, 15269.951852554304, 10433.63784952615, 187500.0, -95910.93312632242, 32590.139817016105, 0.484, -0.72, 0.524, 192.0, 0.0, 0.0, 0.0, 0.0, 0.0, 0.0, 0.0, 0.0, 0.0, 1.6635812928929305E9, 0.0, 2022-09-19 14:54:52.892
102.0, 35863.53044075137, 29058.899469244418, 6784.402642774898, 15272.701117122308, 10420.673837742072, 187500.0, -96033.57714814867, 32547.336226384192, 0.484, -0.72, 0.524, 192.0, 0.0, 0.0, 0.0, 0.0, 0.0, 0.0, 0.0, 0.0, 0.0, 1.663581292898088E9, 0.0, 2022-09-19 14:54:52.898
103.0, 35866.033836130366, 29061.380512878957, 6781.943950884814, 15272.522303166665, 10430.620364024684, 187500.0, -96076.98423588088, 32536.227409389903, 0.484, -0.72, 0.524, 192.0, 0.0, 0.0, 0.0, 0.0, 0.0, 0.0, 0.0, 0.0, 0.0, 1.6635812929010053E9, 0.0, 2022-09-19 14:54:52.901
104.0, 35885.05517066183, 29062.922783246373, 6780.379328772942, 15269.393058942922, 10448.993497966945, 187500.0, -96052.97846233589, 32550.800746774763, 0.484, -0.72, 0.524, 192.0, 0.0, 0.0, 0.0, 0.0, 0.0, 0.0, 0.0, 0.0, 0.0, 1.663581292904014E9, 0.0, 2022-09-19 14:54:52.904
105.0, 35911.899615752656, 29060.79936752312, 6770.745726912704, 15257.189006470324, 10455.83313177027, 187500.0, -95973.0039206748, 32582.763741345854, 0.49, -0.722, 0.524, 192.0, 15.0, 80.0, 233.0, 112.0, 16.0, 96.0, 0.0, 0.0, 0.0, 1.6635812929090028E9, 0.0, 2022-09-19 14:54:52.909
106.0, 35881.32242933779, 29046.427195838358, 6770.924540868347, 15262.218148972768, 10442.802064752826, 187500.0, -96039.20978775142, 32559.763796301344, 0.49, -0.722, 0.524, 192.0, 0.0, 0.0, 0.0, 0.0, 0.0, 0.0, 0.0, 0.0, 0.0, 1.663581292913067E9, 0.0, 2022-09-19 14:54:52.913
107.0, 35847.638350443645, 29042.582695792044, 6781.318102040065, 15275.919768323873, 10437.281183872365, 187500.0, -96169.22988524794, 32516.155542869037, 0.49, -0.722, 0.524, 192.0, 0.0, 0.0, 0.0, 0.0, 0.0, 0.0, 0.0, 0.0, 0.0, 1.6635812929169574E9, 0.0, 2022-09-19 14:54:52.916
108.0, 35844.75497540891, 29040.191059135326, 6784.603808474995, 15268.87896882045, 10433.436683826052, 187500.0, -96222.78466496285, 32502.364516540114, 0.49, -0.722, 0.524, 192.0, 0.0, 0.0, 0.0, 0.0, 0.0, 0.0, 0.0, 0.0, 0.0, 1.6635812929210024E9, 0.0, 2022-09-19 14:54:52.921
109.0, 35860.065920360794, 29038.805250979098, 6784.089718352523, 15262.620480372963, 10436.1635966496, 187500.0, -96214.26865032538, 32516.11083938013, 0.49, -0.722, 0.524, 192.0, 0.0, 0.0, 0.0, 0.0, 0.0, 0.0, 0.0, 0.0, 0.0, 1.6635812929261253E9, 0.0, 2022-09-19 14:54:52.926
110.0, 35892.453598076536, 29043.141489403428, 6777.831229905037, 15261.681707105841, 10448.725277033482, 187500.0, -96144.21828320246, 32552.767700286833, 0.49, -0.722, 0.524, 192.0, 0.0, 0.0, 0.0, 0.0, 0.0, 0.0, 0.0, 0.0, 0.0, 1.6635812929290516E9, 0.0, 2022-09-19 14:54:52.929
111.0, 35869.587763498756, 29050.696379029323, 6778.658244449884, 15269.124838009458, 10440.455131585019, 187500.0, -96209.44067352303, 32538.172011157516, 0.49, -0.722, 0.524, 192.0, 0.0, 0.0, 0.0, 0.0, 0.0, 0.0, 0.0, 0.0, 0.0, 1.663581292932048E9, 0.0, 2022-09-19 14:54:52.932
112.0, 35834.562579937294, 29051.99278020773, 6786.861334664981, 15277.68555613584, 10434.800140237825, 187500.0, -96350.88251243622, 32496.083676348175, 0.49, -0.722, 0.524, 192.0, 0.0, 0.0, 0.0, 0.0, 0.0, 0.0, 0.0, 0.0, 0.0, 1.663581292937044E9, 0.0, 2022-09-19 14:54:52.937
113.0, 35836.306016004804, 29059.257097155703, 6788.157735843389, 15270.957681054793, 10439.181082151066, 187500.0, -96413.69091435563, 32483.209071541914, 0.49, -0.722, 0.524, 192.0, 0.0, 0.0, 0.0, 0.0, 0.0, 0.0, 0.0, 0.0, 0.0, 1.663581292941105E9, 0.0, 2022-09-19 14:54:52.941
114.0, 35855.17088832508, 29061.04523671213, 6785.184953830833, 15267.291994964124, 10450.580471823272, 187500.0, -96417.82598707986, 32492.753266424334, 0.49, -0.722, 0.524, 192.0, 0.0, 0.0, 0.0, 0.0, 0.0, 0.0, 0.0, 0.0, 0.0, 1.6635812929450145E9, 0.0, 2022-09-19 14:54:52.945
115.0, 35889.3243538528, 29062.051065212618, 6775.059613592579, 15272.20937874429, 10462.650413829138, 187500.0, -96351.79893395888, 32530.25949362034, 0.492, -0.718, 0.526, 192.0, 15.0, 96.0, 233.0, 144.0, 16.0, 112.0, 0.0, 0.0, 0.0, 1.6635812929491038E9, 0.0, 2022-09-19 14:54:52.949
116.0, 35866.34676055274, 29056.75370177671, 6769.963415856769, 15277.17146601337, 10451.631003812672, 187500.0, -96414.29441145592, 32515.395583557558, 0.492, -0.718, 0.526, 192.0, 0.0, 0.0, 0.0, 0.0, 0.0, 0.0, 0.0, 0.0, 0.0, 1.6635812929530852E9, 0.0, 2022-09-19 14:54:52.953
117.0, 35828.19233276753, 29048.014169694685, 6781.385157273431, 15287.36386148499, 10440.030448440368, 187500.0, -96559.40193645978, 32472.14495803654, 0.492, -0.718, 0.526, 192.0, 0.0, 0.0, 0.0, 0.0, 0.0, 0.0, 0.0, 0.0, 0.0, 1.6635812929570374E9, 0.0, 2022-09-19 14:54:52.957
118.0, 35825.64423389962, 29048.774129006164, 6783.463869507775, 15286.469791706777, 10439.806930995814, 187500.0, -96625.16076864729, 32461.23730674235, 0.492, -0.718, 0.526, 192.0, 0.0, 0.0, 0.0, 0.0, 0.0, 0.0, 0.0, 0.0, 0.0, 1.6635812929601727E9, 0.0, 2022-09-19 14:54:52.960
119.0, 35838.38472823915, 29048.84118423953, 6780.334625284032, 15285.419259717377, 10449.976974722978, 187500.0, -96632.89447222883, 32474.04485631524, 0.492, -0.718, 0.526, 192.0, 0.0, 0.0, 0.0, 0.0, 0.0, 0.0, 0.0, 0.0, 0.0, 1.663581292964104E9, 0.0, 2022-09-19 14:54:52.964
120.0, 35871.97940015548, 29048.37179760597, 6773.562046714073, 15276.076230535058, 10463.812704540815, 187500.0, -96564.47578245113, 32514.546217268256, 0.492, -0.718, 0.526, 192.0, 0.0, 0.0, 0.0, 0.0, 0.0, 0.0, 0.0, 0.0, 0.0, 1.6635812929690983E9, 0.0, 2022-09-19 14:54:52.969
121.0, 35859.12714709368, 29053.758568019697, 6773.584398458529, 15281.798277115617, 10454.156750936121, 187500.0, -96608.41931205026, 32510.90288292204, 0.492, -0.718, 0.526, 192.0, 0.0, 0.0, 0.0, 0.0, 0.0, 0.0, 0.0, 0.0, 0.0, 1.6635812929731295E9, 0.0, 2022-09-19 14:54:52.973
122.0, 35820.302166974805, 29047.83535573904, 6790.4599655222855, 15296.215152289291, 10447.831207255269, 187500.0, -96756.05258417757, 32471.42970221397, 0.492, -0.718, 0.526, 192.0, 0.0, 0.0, 0.0, 0.0, 0.0, 0.0, 0.0, 0.0, 0.0, 1.6635812929771366E9, 0.0, 2022-09-19 14:54:52.977
123.0, 35814.37895469415, 29048.7070737728, 6797.29959932561, 15297.846829634527, 10453.30738464682, 187500.0, -96838.28465202864, 32461.41612069799, 0.492, -0.718, 0.526, 192.0, 0.0, 0.0, 0.0, 0.0, 0.0, 0.0, 0.0, 0.0, 0.0, 1.663581292981118E9, 0.0, 2022-09-19 14:54:52.981
124.0, 35821.17388500856, 29052.37275986347, 6794.460927779785, 15294.65053017742, 10468.461867387517, 187500.0, -96875.05327165763, 32466.53467017826, 0.492, -0.718, 0.526, 192.0, 0.0, 0.0, 0.0, 0.0, 0.0, 0.0, 0.0, 0.0, 0.0, 1.6635812929851143E9, 0.0, 2022-09-19 14:54:52.985
125.0, 35846.07372833177, 29049.60114355101, 6784.112070096979, 15285.039280061637, 10480.710623349027, 187500.0, -96836.31769851658, 32498.00592637133, 0.492, -0.718, 0.526, 192.0, 0.0, 0.0, 0.0, 0.0, 0.0, 0.0, 0.0, 0.0, 0.0, 1.6635812929882271E9, 0.0, 2022-09-19 14:54:52.988
126.0, 35822.04560304232, 29039.364044590482, 6774.120840325456, 15281.910035837895, 10456.950718993035, 187500.0, -96911.88894651998, 32484.8183971427, 0.496, -0.716, 0.532, 192.0, 15.0, 128.0, 233.0, 160.0, 16.0, 160.0, 0.0, 0.0, 0.0, 1.6635812929921987E9, 0.0, 2022-09-19 14:54:52.992
127.0, 35771.1953844065, 29034.670178254866, 6780.714604939772, 15288.54850394112, 10423.378398821164, 187500.0, -97102.99636161285, 32435.555152363202, 0.496, -0.716, 0.532, 192.0, 0.0, 0.0, 0.0, 0.0, 0.0, 0.0, 0.0, 0.0, 0.0, 1.6635812929971697E9, 0.0, 2022-09-19 14:54:52.997
128.0, 35760.399491834585, 29043.99085569273, 6787.196610831811, 15295.656358677908, 10415.264715583888, 187500.0, -97224.32163051625, 32417.450239354403, 0.496, -0.716, 0.532, 192.0, 0.0, 0.0, 0.0, 0.0, 0.0, 0.0, 0.0, 0.0, 0.0, 1.6635812930011733E9, 0.0, 2022-09-19 14:54:53.001
129.0, 35763.528736058324, 29033.26201835418, 6776.914808382369, 15286.514495195688, 10408.693302714028, 187500.0, -97289.99105572594, 32416.98085272084, 0.496, -0.716, 0.532, 192.0, 0.0, 0.0, 0.0, 0.0, 0.0, 0.0, 0.0, 0.0, 0.0, 1.663581293005202E9, 0.0, 2022-09-19 14:54:53.005
130.0, 35791.490768371914, 29034.871343954965, 6770.231636790233, 15277.283224735645, 10413.521279516373, 187500.0, -97270.455631072, 32446.820431568678, 0.496, -0.716, 0.532, 192.0, 0.0, 0.0, 0.0, 0.0, 0.0, 0.0, 0.0, 0.0, 0.0, 1.66358129300921E9, 0.0, 2022-09-19 14:54:53.009
131.0, 35780.96309673347, 29042.649751025412, 6773.226770547244, 15283.11703003848, 10405.608761979194, 187500.0, -97344.55166394135, 32438.95261752041, 0.496, -0.716, 0.532, 192.0, 0.0, 0.0, 0.0, 0.0, 0.0, 0.0, 0.0, 0.0, 0.0, 1.663581293012238E9, 0.0, 2022-09-19 14:54:53.012
132.0, 35742.38398580361, 29034.714881743777, 6786.079023609045, 15299.657320935408, 10394.030558351345, 187500.0, -97532.08279992138, 32394.249128609794, 0.496, -0.716, 0.532, 192.0, 0.0, 0.0, 0.0, 0.0, 0.0, 0.0, 0.0, 0.0, 0.0, 1.663581293016235E9, 0.0, 2022-09-19 14:54:53.016
133.0, 35736.50547701186, 29040.302817857602, 6789.431785277341, 15302.808916903607, 10391.951846117003, 187500.0, -97647.28369084402, 32375.227794078328, 0.496, -0.716, 0.532, 192.0, 0.0, 0.0, 0.0, 0.0, 0.0, 0.0, 0.0, 0.0, 0.0, 1.6635812930202703E9, 0.0, 2022-09-19 14:54:53.020
134.0, 35736.72899445641, 29029.12694562995, 6774.299654281099, 15286.760364384696, 10387.973235603957, 187500.0, -97704.32534269398, 32372.724398699334, 0.496, -0.716, 0.532, 192.0, 0.0, 0.0, 0.0, 0.0, 0.0, 0.0, 0.0, 0.0, 0.0, 1.6635812930252795E9, 0.0, 2022-09-19 14:54:53.025
135.0, 35764.55691630327, 29030.356291574994, 6761.089773308012, 15275.316271223579, 10392.980026361945, 187500.0, -97686.48865061863, 32400.686431012924, 0.496, -0.716, 0.532, 192.0, 0.0, 0.0, 0.0, 0.0, 0.0, 0.0, 0.0, 0.0, 0.0, 1.6635812930292573E9, 0.0, 2022-09-19 14:54:53.029
136.0, 35747.30136958377, 29034.469012554768, 6764.621348931951, 15282.267663749179, 10384.642825680117, 187500.0, -97780.25421860865, 32394.204425120883, 0.498, -0.716, 0.528, 192.0, 15.0, 144.0, 233.0, 160.0, 16.0, 128.0, 0.0, 0.0, 0.0, 1.6635812930332415E9, 0.0, 2022-09-19 14:54:53.033
137.0, 35669.27142969029, 29024.857762438987, 6780.289921795121, 15304.59705646003, 10372.617587163162, 187500.0, -98066.87063775906, 32325.942197554377, 0.498, -0.716, 0.528, 192.0, 0.0, 0.0, 0.0, 0.0, 0.0, 0.0, 0.0, 0.0, 0.0, 1.6635812930362346E9, 0.0, 2022-09-19 14:54:53.036
138.0, 35606.19480683742, 29015.738250701223, 6796.986674903235, 15324.490109025253, 10380.217180277967, 187500.0, -98359.63378663466, 32273.884984717966, 0.498, -0.716, 0.528, 192.0, 0.0, 0.0, 0.0, 0.0, 0.0, 0.0, 0.0, 0.0, 0.0, 1.663581293040221E9, 0.0, 2022-09-19 14:54:53.040
139.0, 35543.051128751176, 29005.5458552296, 6808.497823297718, 15335.397760319443, 10385.827468136247, 187500.0, -98677.40853755576, 32227.303949273104, 0.498, -0.716, 0.528, 192.0, 0.0, 0.0, 0.0, 0.0, 0.0, 0.0, 0.0, 0.0, 0.0, 1.6635812930442145E9, 0.0, 2022-09-19 14:54:53.044
140.0, 35482.567308255115, 28996.515750469658, 6808.274305853165, 15337.387065575966, 10394.879924640647, 187500.0, -98999.51952690119, 32195.586823891026, 0.498, -0.716, 0.528, 192.0, 0.0, 0.0, 0.0, 0.0, 0.0, 0.0, 0.0, 0.0, 0.0, 1.663581293048296E9, 0.0, 2022-09-19 14:54:53.048
141.0, 35362.71725448576, 28985.65280266438, 6823.182919404855, 15353.70383902834, 10389.560209460284, 187500.0, -99505.1383382247, 32119.41207878734, 0.498, -0.716, 0.528, 192.0, 0.0, 0.0, 0.0, 0.0, 0.0, 0.0, 0.0, 0.0, 0.0, 1.6635812930522456E9, 0.0, 2022-09-19 14:54:53.052
142.0, 35164.278467211545, 28945.464366133736, 6851.167303462899, 15386.560903377642, 10375.880941853637, 187500.0, -100298.24528673236, 31963.57571644494, 0.498, -0.716, 0.528, 192.0, 0.0, 0.0, 0.0, 0.0, 0.0, 0.0, 0.0, 0.0, 0.0, 1.6635812930572739E9, 0.0, 2022-09-19 14:54:53.057
143.0, 34983.18463363464, 28916.6753192753, 6877.698824131349, 15409.940828077893, 10377.24439826541, 187500.0, -101151.97016620281, 31813.260234982998, 0.498, -0.716, 0.528, 192.0, 0.0, 0.0, 0.0, 0.0, 0.0, 0.0, 0.0, 0.0, 0.0, 1.66358129306131E9, 0.0, 2022-09-19 14:54:53.061
144.0, 34844.20148661154, 28904.29245284706, 6892.853306872047, 15426.972857352837, 10382.452354723497, 187500.0, -101990.11587978792, 31684.245965986964, 0.498, -0.716, 0.528, 192.0, 0.0, 0.0, 0.0, 0.0, 0.0, 0.0, 0.0, 0.0, 0.0, 1.6635812930643303E9, 0.0, 2022-09-19 14:54:53.064
145.0, 34778.97909629096, 28895.77643820959, 6897.837745885581, 15438.394598769499, 10404.982913134447, 187500.0, -102689.47961205001, 31602.706802214005, 0.498, -0.716, 0.528, 192.0, 0.0, 0.0, 0.0, 0.0, 0.0, 0.0, 0.0, 0.0, 0.0, 1.6635812930684147E9, 0.0, 2022-09-19 14:54:53.068
146.0, 34741.62933130614, 28896.022307398598, 6892.339216749575, 15435.175947567934, 10410.548497503818, 187500.0, -103331.71228548436, 31529.41543214505, 0.498, -0.714, 0.526, 192.0, 15.0, 144.0, 233.0, 176.0, 16.0, 112.0, 0.0, 0.0, 0.0, 1.6635812930723393E9, 0.0, 2022-09-19 14:54:53.072
147.0, 34699.92097615254, 28894.412981797814, 6887.555943436139, 15427.822223642139, 10396.511601985885, 187500.0, -104014.91570650527, 31428.474954184887, 0.498, -0.714, 0.526, 192.0, 0.0, 0.0, 0.0, 0.0, 0.0, 0.0, 0.0, 0.0, 0.0, 1.6635812930762725E9, 0.0, 2022-09-19 14:54:53.076
148.0, 34721.28924385181, 28885.9193189048, 6872.803792095637, 15403.592932652586, 10394.701110685004, 187500.0, -104546.9766315194, 31372.662648279984, 0.498, -0.714, 0.526, 192.0, 0.0, 0.0, 0.0, 0.0, 0.0, 0.0, 0.0, 0.0, 0.0, 1.663581293080325E9, 0.0, 2022-09-19 14:54:53.080
149.0, 34783.963535304494, 28888.601528239433, 6855.414134909408, 15363.784475777684, 10401.943075888525, 187500.0, -104924.27407792499, 31365.44303482092, 0.498, -0.714, 0.526, 192.0, 0.0, 0.0, 0.0, 0.0, 0.0, 0.0, 0.0, 0.0, 0.0, 1.6635812930853312E9, 0.0, 2022-09-19 14:54:53.085
150.0, 34879.65135331766, 28908.047545915553, 6835.20815792181, 15335.487167297266, 10409.743834703426, 187500.0, -105143.03060090907, 31402.2116544499, 0.498, -0.714, 0.526, 192.0, 0.0, 0.0, 0.0, 0.0, 0.0, 0.0, 0.0, 0.0, 0.0, 1.6635812930892751E9, 0.0, 2022-09-19 14:54:53.089
151.0, 34958.41890077817, 28924.789002512578, 6813.459910566797, 15313.761271686706, 10397.450375253007, 187500.0, -105338.72012361529, 31429.279616985277, 0.498, -0.714, 0.526, 192.0, 0.0, 0.0, 0.0, 0.0, 0.0, 0.0, 0.0, 0.0, 0.0, 1.6635812930923605E9, 0.0, 2022-09-19 14:54:53.092
152.0, 34999.79197976494, 28934.377900883905, 6814.130462900456, 15313.64951296443, 10376.886770354125, 187500.0, -105628.30932477824, 31418.12609650208, 0.498, -0.714, 0.526, 192.0, 0.0, 0.0, 0.0, 0.0, 0.0, 0.0, 0.0, 0.0, 0.0, 1.6635812930964222E9, 0.0, 2022-09-19 14:54:53.096
153.0, 35074.11153007884, 28941.105775964952, 6805.480337796252, 15304.351187271022, 10378.160819788078, 187500.0, -105822.90361200615, 31433.12411703159, 0.498, -0.714, 0.526, 192.0, 0.0, 0.0, 0.0, 0.0, 0.0, 0.0, 0.0, 0.0, 0.0, 1.6635812931003911E9, 0.0, 2022-09-19 14:54:53.100
154.0, 35167.81004283548, 28957.176680228316, 6787.4648317652745, 15284.368727727979, 10381.178305289544, 187500.0, -105903.77222344546, 31474.966582651927, 0.498, -0.714, 0.526, 192.0, 0.0, 0.0, 0.0, 0.0, 0.0, 0.0, 0.0, 0.0, 0.0, 1.6635812931043856E9, 0.0, 2022-09-19 14:54:53.104
155.0, 35294.00799203014, 28975.527462426122, 6774.76904091466, 15270.890625821428, 10392.86826763967, 187500.0, -105841.14263548168, 31564.418263962063, 0.498, -0.714, 0.526, 192.0, 0.0, 0.0, 0.0, 0.0, 0.0, 0.0, 0.0, 0.0, 0.0, 1.6635812931083689E9, 0.0, 2022-09-19 14:54:53.108
156.0, 35393.45090311181, 28983.663497407855, 6757.737011639716, 15255.959660525283, 10387.593255948217, 187500.0, -105762.55390197682, 31644.34810213424, 0.492, -0.714, 0.528, 192.0, 15.0, 96.0, 233.0, 176.0, 16.0, 128.0, 0.0, 0.0, 0.0, 1.66358129311337E9, 0.0, 2022-09-19 14:54:53.113
157.0, 35433.46052568681, 28986.859796864963, 6747.790485357104, 15248.762398810673, 10363.632185892127, 187500.0, -105813.6723415461, 31667.37039892321, 0.492, -0.714, 0.528, 192.0, 0.0, 0.0, 0.0, 0.0, 0.0, 0.0, 0.0, 0.0, 0.0, 1.6635812931173687E9, 0.0, 2022-09-19 14:54:53.117
158.0, 35496.55950028414, 28995.86754988045, 6739.185063741811, 15235.530166093133, 10362.33578471372, 187500.0, -105798.45080357204, 31708.810533143347, 0.492, -0.714, 0.528, 192.0, 0.0, 0.0, 0.0, 0.0, 0.0, 0.0, 0.0, 0.0, 0.0, 1.6635812931204045E9, 0.0, 2022-09-19 14:54:53.120
159.0, 35584.82653913814, 29011.089087854518, 6735.09469450649, 15228.467014845255, 10373.824581363748, 187500.0, -105683.45107834949, 31778.9503072441, 0.492, -0.714, 0.528, 192.0, 0.0, 0.0, 0.0, 0.0, 0.0, 0.0, 0.0, 0.0, 0.0, 1.6635812931244142E9, 0.0, 2022-09-19 14:54:53.124
160.0, 35698.038124804276, 29025.394204305914, 6730.803159571071, 15214.005436182671, 10387.883828626136, 187500.0, -105448.6907063354, 31888.16093065273, 0.492, -0.714, 0.528, 192.0, 0.0, 0.0, 0.0, 0.0, 0.0, 0.0, 0.0, 0.0, 0.0, 1.6635812931283998E9, 0.0, 2022-09-19 14:54:53.128
161.0, 35788.02624798134, 29032.25618985369, 6718.174423953823, 15198.403918552867, 10381.938264601025, 187500.0, -105199.20053472526, 31989.99547839111, 0.492, -0.714, 0.528, 192.0, 0.0, 0.0, 0.0, 0.0, 0.0, 0.0, 0.0, 0.0, 0.0, 1.6635812931324239E9, 0.0, 2022-09-19 14:54:53.132
162.0, 35818.04464078482, 29030.512753786177, 6714.262868674144, 15196.347558062978, 10359.00537478988, 187500.0, -105096.49426895313, 32026.09354568643, 0.492, -0.714, 0.528, 192.0, 0.0, 0.0, 0.0, 0.0, 0.0, 0.0, 0.0, 0.0, 0.0, 1.6635812931363647E9, 0.0, 2022-09-19 14:54:53.136
163.0, 35863.12810935117, 29029.708090985787, 6711.670066317328, 15196.39226155189, 10349.103551996179, 187500.0, -104959.20985450863, 32070.349999707938, 0.492, -0.714, 0.528, 192.0, 0.0, 0.0, 0.0, 0.0, 0.0, 0.0, 0.0, 0.0, 0.0, 1.6635812931414683E9, 0.0, 2022-09-19 14:54:53.141
164.0, 35919.34274665627, 29039.52050680167, 6705.590391825484, 15193.218313839236, 10349.036496762812, 187500.0, -104762.02276492391, 32136.913494695844, 0.492, -0.714, 0.528, 192.0, 0.0, 0.0, 0.0, 0.0, 0.0, 0.0, 0.0, 0.0, 0.0, 1.6635812931454003E9, 0.0, 2022-09-19 14:54:53.145
165.0, 35992.7458754475, 29057.245440154726, 6701.544726079074, 15182.19890382277, 10362.961633558469, 187500.0, -104484.63761623355, 32230.656710941403, 0.492, -0.714, 0.528, 192.0, 0.0, 0.0, 0.0, 0.0, 0.0, 0.0, 0.0, 0.0, 0.0, 1.6635812931484876E9, 0.0, 2022-09-19 14:54:53.148
166.0, 36054.012006999495, 29069.740065305243, 6688.670121272818, 15169.23489203869, 10365.710898126472, 187500.0, -104198.87056337245, 32318.074383506108, 0.496, -0.712, 0.53, 192.0, 15.0, 128.0, 233.0, 192.0, 16.0, 144.0, 0.0, 0.0, 0.0, 1.663581293152496E9, 0.0, 2022-09-19 14:54:53.152
167.0, 36058.99644601303, 29071.03646648365, 6689.9665224512255, 15179.360232276946, 10350.578767130228, 187500.0, -104061.65320416132, 32344.11416579654, 0.496, -0.712, 0.53, 192.0, 0.0, 0.0, 0.0, 0.0, 0.0, 0.0, 0.0, 0.0, 0.0, 1.6635812931564877E9, 0.0, 2022-09-19 14:54:53.156
168.0, 36089.4171702167, 29069.628306582967, 6695.688569031784, 15179.449639254766, 10347.494226395396, 187500.0, -103882.90630375223, 32381.732151714823, 0.496, -0.712, 0.53, 192.0, 0.0, 0.0, 0.0, 0.0, 0.0, 0.0, 0.0, 0.0, 0.0, 1.6635812931604855E9, 0.0, 2022-09-19 14:54:53.160
169.0, 36143.64250226528, 29066.588469337046, 6689.653598028851, 15168.76550540513, 10345.482569394419, 187500.0, -103601.96722769347, 32444.875829801065, 0.496, -0.712, 0.53, 192.0, 0.0, 0.0, 0.0, 0.0, 0.0, 0.0, 0.0, 0.0, 0.0, 1.6635812931644316E9, 0.0, 2022-09-19 14:54:53.164
