%OpenBCI Raw EEG Data
%Number of channels = 8
%Sample Rate = 250 Hz
%Board = OpenBCI_GUI$BoardCytonSerial
Sample Index, EXG Channel 0, EXG Channel 1, EXG Channel 2, EXG Channel 3, EXG Channel 4, EXG Channel 5, EXG Channel 6, EXG Channel 7, Accel Channel 0, Accel Channel 1, Accel Channel 2, Other, Other, Other, Other, Other, Other, Other, Analog Channel 0, Analog Channel 1, Analog Channel 2, Timestamp, Other, Timestamp (Formatted)
88.0, 8273.58761710973, -15585.111449374135, -45527.57537693684, -21376.291975533008, -77568.28696349704, -187500.02235174447, -24607.504857481108, -16876.4834852795, 0.0, 0.0, 0.0, 192.0, 0.0, 0.0, 0.0, 0.0, 0.0, 0.0, 0.0, 0.0, 0.0, 1.663579922692962E9, 0.0, 2022-09-19 14:32:02.692
89.0, 8118.287696634257, -15693.405651260096, -45585.13111890926, -21377.90130113379, -77546.02462601956, -187500.02235174447, -24622.54758149953, -16858.937365882084, 0.0, 0.0, 0.0, 192.0, 0.0, 0.0, 0.0, 0.0, 0.0, 0.0, 0.0, 0.0, 0.0, 1.6635799226929913E9, 0.0, 2022-09-19 14:32:02.692
90.0, 8005.254924923769, -15836.903850663168, -45601.06791270589, -21360.46694045865, -77523.35995714187, -187500.02235174447, -24601.939273111737, -16837.05500806034, 0.0, 0.0, 0.0, 192.0, 0.0, 0.0, 0.0, 0.0, 0.0, 0.0, 0.0, 0.0, 0.0, 1.6635799226930058E9, 0.0, 2022-09-19 14:32:02.693
91.0, 8036.435608438923, -15885.742412298014, -45578.02326417247, -21369.76526615206, -77527.00329148809, -187500.02235174447, -24590.741049139626, -16831.578830668786, 0.0, 0.0, 0.0, 192.0, 0.0, 0.0, 0.0, 0.0, 0.0, 0.0, 0.0, 0.0, 0.0, 1.6635799226930196E9, 0.0, 2022-09-19 14:32:02.693
0.0, 0.0, 0.0, 0.0, 0.0, 0.0, 0.0, 0.0, 0.0, 0.0, 0.0, 0.0, 192.0, 0.0, 0.0, 0.0, 0.0, 0.0, 0.0, 0.0, 0.0, 0.0, 1.6635799227886665E9, 0.0, 2022-09-19 14:32:02.788
1.0, 7856.124085917961, -17353.648525911394, -45526.72601064754, -19141.564564891407, -78232.7149191755, -187500.02235174447, -24327.616313411752, -16227.50058501966, 0.52, -0.8300000000000001, 0.264, 192.0, 16.0, 64.0, 230.0, 16.0, 8.0, 64.0, 0.0, 0.0, 0.0, 1.6635799228056176E9, 0.0, 2022-09-19 14:32:02.805
2.0, 7973.67191000842, -17432.50548034972, -45493.33250443131, -19149.097102772845, -78254.44081478607, -187500.02235174447, -24332.0419588139, -16261.788161014101, 0.52, -0.8300000000000001, 0.264, 192.0, 0.0, 0.0, 0.0, 0.0, 0.0, 0.0, 0.0, 0.0, 0.0, 1.6635799228086503E9, 0.0, 2022-09-19 14:32:02.808
3.0, 8093.544315522232, -17454.611355616016, -45472.59008557678, -19164.497454702552, -78272.76924523941, -187500.02235174447, -24346.928220621136, -16242.20803287125, 0.52, -0.8300000000000001, 0.264, 192.0, 0.0, 0.0, 0.0, 0.0, 0.0, 0.0, 0.0, 0.0, 0.0, 1.663579922811618E9, 0.0, 2022-09-19 14:32:02.811
4.0, 7959.769124957219, -17644.288259063753, -45527.1953972811, -19157.50135868804, -78250.93159090658, -187500.02235174447, -24365.234299330034, -16200.454974228738, 0.52, -0.8300000000000001, 0.264, 192.0, 0.0, 0.0, 0.0, 0.0, 0.0, 0.0, 0.0, 0.0, 0.0, 1.6635799228166816E9, 0.0, 2022-09-19 14:32:02.816
5.0, 7868.574007579567, -17845.521014394883, -45540.986423610026, -19154.21565225311, -78245.79068968186, -187500.02235174447, -24354.66192420267, -16219.252791315652, 0.52, -0.8300000000000001, 0.264, 192.0, 0.0, 0.0, 0.0, 0.0, 0.0, 0.0, 0.0, 0.0, 0.0, 1.6635799228196359E9, 0.0, 2022-09-19 14:32:02.819
6.0, 7929.61662168701, -17934.324495115816, -45510.67745812863, -19163.581033179886, -78256.3183613203, -187500.02235174447, -24348.33638052182, -16237.469463046726, 0.52, -0.8300000000000001, 0.264, 192.0, 0.0, 0.0, 0.0, 0.0, 0.0, 0.0, 0.0, 0.0, 0.0, 1.6635799228236988E9, 0.0, 2022-09-19 14:32:02.823
7.0, 8047.812646366674, -17956.519777359936, -45478.625056579716, -19173.41580074022, -78280.7264662655, -187500.02235174447, -24346.10120607629, -16272.874626263932, 0.52, -0.8300000000000001, 0.264, 192.0, 0.0, 0.0, 0.0, 0.0, 0.0, 0.0, 0.0, 0.0, 0.0, 1.6635799228297124E9, 0.0, 2022-09-19 14:32:02.829
8.0, 8152.4411621619665, -17942.281716141908, -45471.80777452085, -19174.913367618727, -78300.15013219716, -187500.02235174447, -24377.997145414014, -16283.826981047034, 0.53, -0.8200000000000001, 0.272, 192.0, 16.0, 144.0, 230.0, 96.0, 8.0, 128.0, 0.0, 0.0, 0.0, 1.66357992283265E9, 0.0, 2022-09-19 14:32:02.832
9.0, 8006.372512146535, -18100.889694796766, -45535.800818896394, -19175.963899608123, -78280.32413486531, -187500.02235174447, -24396.146761911725, -16265.163274426852, 0.53, -0.8200000000000001, 0.272, 192.0, 0.0, 0.0, 0.0, 0.0, 0.0, 0.0, 0.0, 0.0, 0.0, 1.66357992283775E9, 0.0, 2022-09-19 14:32:02.837
10.0, 7935.4951304787555, -18257.7095338952, -45536.73959216352, -19150.661724884718, -78258.0170938989, -187500.02235174447, -24375.359639568287, -16245.493739306181, 0.53, -0.8200000000000001, 0.272, 192.0, 0.0, 0.0, 0.0, 0.0, 0.0, 0.0, 0.0, 0.0, 0.0, 1.6635799228416803E9, 0.0, 2022-09-19 14:32:02.841
11.0, 7999.376416132023, -18311.040796165562, -45511.415065695655, -19153.478044686086, -78264.49909979095, -187500.02235174447, -24352.4491015016, -16234.988419412188, 0.53, -0.8200000000000001, 0.272, 192.0, 0.0, 0.0, 0.0, 0.0, 0.0, 0.0, 0.0, 0.0, 0.0, 1.663579922844654E9, 0.0, 2022-09-19 14:32:02.844
12.0, 8125.596717071143, -18285.828028419975, -45478.5356496019, -19169.101914060346, -78281.30761162133, -187500.02235174447, -24366.240127830522, -16270.147713440385, 0.53, -0.8200000000000001, 0.272, 192.0, 0.0, 0.0, 0.0, 0.0, 0.0, 0.0, 0.0, 0.0, 0.0, 1.6635799228506863E9, 0.0, 2022-09-19 14:32:02.850
13.0, 8225.218442108446, -18235.201327228704, -45473.6853210551, -19180.300138032453, -78304.01698398794, -187500.02235174447, -24378.377125069754, -16287.693832837802, 0.53, -0.8200000000000001, 0.272, 192.0, 0.0, 0.0, 0.0, 0.0, 0.0, 0.0, 0.0, 0.0, 0.0, 1.6635799228537495E9, 0.0, 2022-09-19 14:32:02.853
14.0, 8081.921408405472, -18362.136883990395, -45534.83969388482, -19170.241853027565, -78278.75951275343, -187500.02235174447, -24406.227398661067, -16276.003870487675, 0.53, -0.8200000000000001, 0.272, 192.0, 0.0, 0.0, 0.0, 0.0, 0.0, 0.0, 0.0, 0.0, 0.0, 1.6635799228567045E9, 0.0, 2022-09-19 14:32:02.856
15.0, 8012.072206982638, -18489.363013430004, -45536.56077820787, -19152.405160952232, -78257.50300377644, -187500.02235174447, -24358.72994169354, -16252.60159404297, 0.53, -0.8200000000000001, 0.272, 192.0, 0.0, 0.0, 0.0, 0.0, 0.0, 0.0, 0.0, 0.0, 0.0, 1.663579922860669E9, 0.0, 2022-09-19 14:32:02.860
16.0, 8051.567739435165, -18538.358037276037, -45518.187644265614, -19158.46248369962, -78271.18227138309, -187500.02235174447, -24372.476264533554, -16232.485024033193, 0.53, -0.8200000000000001, 0.272, 192.0, 0.0, 0.0, 0.0, 0.0, 0.0, 0.0, 0.0, 0.0, 0.0, 1.6635799228637595E9, 0.0, 2022-09-19 14:32:02.863
17.0, 8158.587891887176, -18517.928542843885, -45480.70376881406, -19177.17089380871, -78289.64481230317, -187500.02235174447, -24361.63566847273, -16273.679289064325, 0.53, -0.8200000000000001, 0.272, 192.0, 0.0, 0.0, 0.0, 0.0, 0.0, 0.0, 0.0, 0.0, 0.0, 1.6635799228676963E9, 0.0, 2022-09-19 14:32:02.867
18.0, 8253.672212800051, -18464.306707895605, -45475.09348095578, -19186.692736946672, -78309.9848997575, -187500.02235174447, -24383.272157105468, -16290.286635194618, 0.528, -0.812, 0.28, 192.0, 16.0, 128.0, 230.0, 160.0, 8.0, 192.0, 0.0, 0.0, 0.0, 1.66357992287168E9, 0.0, 2022-09-19 14:32:02.871
19.0, 8102.015626670794, -18586.280177388213, -45534.66087992917, -19173.92989086269, -78294.09280944978, -187500.02235174447, -24400.371241613775, -16261.922271480833, 0.528, -0.812, 0.28, 192.0, 0.0, 0.0, 0.0, 0.0, 0.0, 0.0, 0.0, 0.0, 0.0, 1.6635799228757617E9, 0.0, 2022-09-19 14:32:02.875
20.0, 8029.618326380054, -18699.111783398603, -45538.66184218667, -19164.31864074691, -78291.9246902376, -187500.02235174447, -24375.270232590465, -16264.895053493388, 0.528, -0.812, 0.28, 192.0, 0.0, 0.0, 0.0, 0.0, 0.0, 0.0, 0.0, 0.0, 0.0, 1.663579922879763E9, 0.0, 2022-09-19 14:32:02.879
21.0, 8080.893228160528, -18719.876553997583, -45531.21871128306, -19185.23987355708, -78317.87506555022, -187500.02235174447, -24393.55395955491, -16312.571324416558, 0.528, -0.812, 0.28, 192.0, 0.0, 0.0, 0.0, 0.0, 0.0, 0.0, 0.0, 0.0, 0.0, 1.66357992288372E9, 0.0, 2022-09-19 14:32:02.883
22.0, 8209.058130867259, -18656.643468933522, -45497.57933587782, -19182.73647817808, -78329.1403447557, -187500.02235174447, -24392.2575583765, -16270.773562285134, 0.528, -0.812, 0.28, 192.0, 0.0, 0.0, 0.0, 0.0, 0.0, 0.0, 0.0, 0.0, 0.0, 1.6635799228877945E9, 0.0, 2022-09-19 14:32:02.887
23.0, 8320.056893832314, -18558.92164217492, -45480.81552753634, -19200.260245831043, -78341.21028676156, -187500.02235174447, -24394.559788055398, -16299.204981232284, 0.528, -0.812, 0.28, 192.0, 0.0, 0.0, 0.0, 0.0, 0.0, 0.0, 0.0, 0.0, 0.0, 1.6635799228908699E9, 0.0, 2022-09-19 14:32:02.890
24.0, 8172.647139149563, -18642.673628648954, -45542.998080611, -19209.782088969005, -78320.87019930723, -187500.02235174447, -24431.2166489621, -16259.932966224309, 0.528, -0.812, 0.28, 192.0, 0.0, 0.0, 0.0, 0.0, 0.0, 0.0, 0.0, 0.0, 0.0, 1.6635799228957286E9, 0.0, 2022-09-19 14:32:02.895
25.0, 8106.217754628391, -18719.18364991947, -45548.85423765829, -19188.88320790329, -78310.78956255788, -187500.02235174447, -24384.0544681614, -16266.750248283179, 0.528, -0.812, 0.28, 192.0, 0.0, 0.0, 0.0, 0.0, 0.0, 0.0, 0.0, 0.0, 0.0, 1.6635799228998284E9, 0.0, 2022-09-19 14:32:02.899
26.0, 8162.968833800416, -18709.013606192304, -45530.30228976039, -19194.89582716177, -78323.41829817514, -187500.02235174447, -24387.563692040887, -16302.155411500386, 0.528, -0.812, 0.28, 192.0, 0.0, 0.0, 0.0, 0.0, 0.0, 0.0, 0.0, 0.0, 0.0, 1.663579922903726E9, 0.0, 2022-09-19 14:32:02.903
27.0, 8274.772259565862, -18632.794157599707, -45507.838786582804, -19201.958978409646, -78346.21707751956, -187500.02235174447, -24410.11660219629, -16323.903658855399, 0.528, -0.812, 0.28, 192.0, 0.0, 0.0, 0.0, 0.0, 0.0, 0.0, 0.0, 0.0, 0.0, 1.663579922907768E9, 0.0, 2022-09-19 14:32:02.907
28.0, 8363.531036797885, -18532.546583717656, -45507.88349007172, -19231.977371213125, -78373.3520952883, -187500.02235174447, -24421.1136604683, -16340.220432307773, 0.53, -0.8180000000000001, 0.28400000000000003, 192.0, 16.0, 144.0, 230.0, 112.0, 8.0, 224.0, 0.0, 0.0, 0.0, 1.663579922911864E9, 0.0, 2022-09-19 14:32:02.911
29.0, 8209.639276223097, -18612.76699456775, -45573.5082117925, -19233.76551076955, -78352.58732468932, -187500.02235174447, -24449.768596860005, -16317.265190752172, 0.53, -0.8180000000000001, 0.28400000000000003, 192.0, 0.0, 0.0, 0.0, 0.0, 0.0, 0.0, 0.0, 0.0, 0.0, 1.6635799229158535E9, 0.0, 2022-09-19 14:32:02.915
30.0, 8122.422769358489, -18693.970882173882, -45582.717130508085, -19209.84914420237, -78342.46198445106, -187500.02235174447, -24426.299265181933, -16307.251609236195, 0.53, -0.8180000000000001, 0.28400000000000003, 192.0, 0.0, 0.0, 0.0, 0.0, 0.0, 0.0, 0.0, 0.0, 0.0, 1.6635799229188442E9, 0.0, 2022-09-19 14:32:02.918
31.0, 8167.305072224745, -18680.80570468971, -45562.62291224276, -19209.51386803554, -78351.76031014447, -187500.02235174447, -24429.763785572504, -16326.630571678947, 0.53, -0.8180000000000001, 0.28400000000000003, 192.0, 0.0, 0.0, 0.0, 0.0, 0.0, 0.0, 0.0, 0.0, 0.0, 1.663579922922935E9, 0.0, 2022-09-19 14:32:02.922
32.0, 8276.4039369111, -18606.553209609177, -45537.63366194173, -19231.753853768572, -78381.28696456992, -187500.02235174447, -24439.285628710466, -16328.552821702102, 0.53, -0.8180000000000001, 0.28400000000000003, 192.0, 0.0, 0.0, 0.0, 0.0, 0.0, 0.0, 0.0, 0.0, 0.0, 1.6635799229278E9, 0.0, 2022-09-19 14:32:02.927
33.0, 8357.965452428514, -18505.366862460003, -45526.502493202985, -19243.287353907508, -78396.1061711438, -187500.02235174447, -24428.579143116374, -16337.605278206502, 0.53, -0.8180000000000001, 0.28400000000000003, 192.0, 0.0, 0.0, 0.0, 0.0, 0.0, 0.0, 0.0, 0.0, 0.0, 1.6635799229318752E9, 0.0, 2022-09-19 14:32:02.931
34.0, 8198.731624928907, -18585.319052376635, -45588.32741836637, -19231.28446713501, -78368.83704290832, -187500.02235174447, -24446.684056125174, -16304.837620835022, 0.53, -0.8180000000000001, 0.28400000000000003, 192.0, 0.0, 0.0, 0.0, 0.0, 0.0, 0.0, 0.0, 0.0, 0.0, 1.663579922935861E9, 0.0, 2022-09-19 14:32:02.935
35.0, 8127.966001983405, -18657.53753871173, -45603.325438895874, -19219.885077462804, -78364.41139750618, -187500.02235174447, -24442.437224678662, -16306.089318524519, 0.53, -0.8180000000000001, 0.28400000000000003, 192.0, 0.0, 0.0, 0.0, 0.0, 0.0, 0.0, 0.0, 0.0, 0.0, 1.6635799229398093E9, 0.0, 2022-09-19 14:32:02.939
36.0, 8173.3400432276785, -18641.667800148465, -45582.91829620818, -19232.200888657677, -78377.8000924349, -187500.02235174447, -24439.576201388383, -16350.502234757214, 0.53, -0.8180000000000001, 0.28400000000000003, 192.0, 0.0, 0.0, 0.0, 0.0, 0.0, 0.0, 0.0, 0.0, 0.0, 1.66357992294388E9, 0.0, 2022-09-19 14:32:02.943
37.0, 8285.769317837872, -18555.725342717808, -45547.91546439117, -19253.47974937913, -78399.72715374555, -187500.02235174447, -24424.10879422531, -16333.89488862692, 0.53, -0.8180000000000001, 0.28400000000000003, 192.0, 0.0, 0.0, 0.0, 0.0, 0.0, 0.0, 0.0, 0.0, 0.0, 1.6635799229469376E9, 0.0, 2022-09-19 14:32:02.946
38.0, 8367.12966765519, -18449.59926004401, -45546.73082193504, -19273.1492844998, -78411.77474400697, -187500.02235174447, -24455.2224225071, -16346.94830738882, 0.534, -0.8180000000000001, 0.28200000000000003, 192.0, 16.0, 176.0, 230.0, 112.0, 8.0, 208.0, 0.0, 0.0, 0.0, 1.6635799229509017E9, 0.0, 2022-09-19 14:32:02.950
39.0, 8202.754938930862, -18529.216173793815, -45605.27004066349, -19242.505042851575, -78383.9021186712, -187500.02235174447, -24472.90265237125, -16359.264118583695, 0.534, -0.8180000000000001, 0.28200000000000003, 192.0, 0.0, 0.0, 0.0, 0.0, 0.0, 0.0, 0.0, 0.0, 0.0, 1.6635799229558342E9, 0.0, 2022-09-19 14:32:02.955
40.0, 8136.861996276617, -18587.196598910883, -45604.30891565191, -19203.2330278436, -78371.0945690983, -187500.02235174447, -24456.78704461897, -16290.59955961699, 0.534, -0.8180000000000001, 0.28200000000000003, 192.0, 0.0, 0.0, 0.0, 0.0, 0.0, 0.0, 0.0, 0.0, 0.0, 1.6635799229599452E9, 0.0, 2022-09-19 14:32:02.959
41.0, 8189.3662440021335, -18553.71368571683, -45575.005778671, -19204.194152855176, -78380.21408083607, -187500.02235174447, -24420.778384301473, -16315.320588984561, 0.534, -0.8180000000000001, 0.28200000000000003, 192.0, 0.0, 0.0, 0.0, 0.0, 0.0, 0.0, 0.0, 0.0, 0.0, 1.6635799229639018E9, 0.0, 2022-09-19 14:32:02.963
42.0, 8310.73621639445, -18451.074475178062, -45541.58992071032, -19218.27575186202, -78397.33551708884, -187500.02235174447, -24427.81918380489, -16341.673295697368, 0.534, -0.8180000000000001, 0.28200000000000003, 192.0, 0.0, 0.0, 0.0, 0.0, 0.0, 0.0, 0.0, 0.0, 0.0, 1.6635799229679573E9, 0.0, 2022-09-19 14:32:02.967
43.0, 8396.589266847286, -18332.230249909193, -45538.5500834644, -19243.62263007434, -78411.0594881844, -187500.02235174447, -24454.708332384627, -16343.640249209435, 0.534, -0.8180000000000001, 0.28200000000000003, 192.0, 0.0, 0.0, 0.0, 0.0, 0.0, 0.0, 0.0, 0.0, 0.0, 1.663579922970948E9, 0.0, 2022-09-19 14:32:02.970
44.0, 8238.24950912589, -18395.97742509573, -45596.10582543681, -19242.639153318305, -78381.68929597012, -187500.02235174447, -24470.3769052478, -16326.362350745483, 0.534, -0.8180000000000001, 0.28200000000000003, 192.0, 0.0, 0.0, 0.0, 0.0, 0.0, 0.0, 0.0, 0.0, 0.0, 1.6635799229749146E9, 0.0, 2022-09-19 14:32:02.974
45.0, 8179.486772952888, -18434.51183253668, -45597.603392315315, -19229.04929268948, -78376.81661567886, -187500.02235174447, -24460.340971987363, -16311.006702304687, 0.534, -0.8180000000000001, 0.28200000000000003, 192.0, 0.0, 0.0, 0.0, 0.0, 0.0, 0.0, 0.0, 0.0, 0.0, 1.6635799229790761E9, 0.0, 2022-09-19 14:32:02.979
46.0, 8237.266032369856, -18380.375907465925, -45575.89984844922, -19230.03276944551, -78393.17809262015, -187500.02235174447, -24448.36043695932, -16321.824946621055, 0.534, -0.8180000000000001, 0.28200000000000003, 192.0, 0.0, 0.0, 0.0, 0.0, 0.0, 0.0, 0.0, 0.0, 0.0, 1.6635799229839697E9, 0.0, 2022-09-19 14:32:02.983
47.0, 8372.047051435358, -18248.545318668523, -45542.953377122096, -19236.62653405983, -78417.09445918733, -187500.02235174447, -24450.103873026834, -16351.530415002158, 0.534, -0.8180000000000001, 0.28200000000000003, 192.0, 0.0, 0.0, 0.0, 0.0, 0.0, 0.0, 0.0, 0.0, 0.0, 1.6635799229879744E9, 0.0, 2022-09-19 14:32:02.987
48.0, 8468.628939226739, -18094.7206133271, -45531.08460081633, -19247.08715046491, -78428.78442153745, -187500.02235174447, -24450.28268698248, -16367.62367100998, 0.532, -0.8160000000000001, 0.28600000000000003, 192.0, 16.0, 160.0, 230.0, 128.0, 8.0, 240.0, 0.0, 0.0, 0.0, 1.663579922991971E9, 0.0, 2022-09-19 14:32:02.991
49.0, 8304.701245391518, -18126.527145687003, -45589.3108951224, -19240.85101376188, -78403.12461890276, -187500.02235174447, -24476.970669862112, -16357.09599937153, 0.532, -0.8160000000000001, 0.28600000000000003, 192.0, 0.0, 0.0, 0.0, 0.0, 0.0, 0.0, 0.0, 0.0, 0.0, 1.6635799229950142E9, 0.0, 2022-09-19 14:32:02.995
50.0, 8253.001660466392, -18129.701093399657, -45586.1592991542, -19240.538089339505, -78392.12756063075, -187500.02235174447, -24442.45957642312, -16318.248667508205, 0.532, -0.8160000000000001, 0.28600000000000003, 192.0, 0.0, 0.0, 0.0, 0.0, 0.0, 0.0, 0.0, 0.0, 0.0, 1.6635799229989593E9, 0.0, 2022-09-19 14:32:02.998
51.0, 8318.268754275889, -18041.255240590006, -45560.2536273305, -19237.699417793683, -78398.4084008227, -187500.02235174447, -24438.033931020967, -16322.89783035491, 0.532, -0.8160000000000001, 0.28600000000000003, 192.0, 0.0, 0.0, 0.0, 0.0, 0.0, 0.0, 0.0, 0.0, 0.0, 1.6635799230029507E9, 0.0, 2022-09-19 14:32:03.002
52.0, 8449.697011673095, -17876.858160121225, -45521.45099895609, -19229.876307234324, -78415.21691265308, -187500.02235174447, -24438.54802114344, -16357.230109838261, 0.532, -0.8160000000000001, 0.28600000000000003, 192.0, 0.0, 0.0, 0.0, 0.0, 0.0, 0.0, 0.0, 0.0, 0.0, 1.6635799230070677E9, 0.0, 2022-09-19 14:32:03.007
53.0, 8533.40429465822, -17699.78764054628, -45522.9932693235, -19247.8918132653, -78426.50454360302, -187500.02235174447, -24468.767579647018, -16380.297110116138, 0.532, -0.8160000000000001, 0.28600000000000003, 192.0, 0.0, 0.0, 0.0, 0.0, 0.0, 0.0, 0.0, 0.0, 0.0, 1.6635799230120149E9, 0.0, 2022-09-19 14:32:03.012
54.0, 8375.690385781572, -17700.7264138134, -45588.103900921815, -19256.161958713765, -78403.9516334476, -187500.02235174447, -24500.015318395534, -16374.083325157562, 0.532, -0.8160000000000001, 0.28600000000000003, 192.0, 0.0, 0.0, 0.0, 0.0, 0.0, 0.0, 0.0, 0.0, 0.0, 1.6635799230159714E9, 0.0, 2022-09-19 14:32:03.015
55.0, 8341.425161531588, -17657.900471437035, -45583.633552030755, -19240.0910544504, -78400.59887177931, -187500.02235174447, -24462.106759799335, -16338.09701658452, 0.532, -0.8160000000000001, 0.28600000000000003, 192.0, 0.0, 0.0, 0.0, 0.0, 0.0, 0.0, 0.0, 0.0, 0.0, 1.6635799230200205E9, 0.0, 2022-09-19 14:32:03.020
56.0, 8415.23062172301, -17524.57231576113, -45555.0009673835, -19227.12704266632, -78413.20525565211, -187500.02235174447, -24449.88035558228, -16365.746124475734, 0.532, -0.8160000000000001, 0.28600000000000003, 192.0, 0.0, 0.0, 0.0, 0.0, 0.0, 0.0, 0.0, 0.0, 0.0, 1.6635799230230253E9, 0.0, 2022-09-19 14:32:03.023
57.0, 8555.800742602438, -17310.66612132384, -45520.2440047555, -19249.121159210346, -78441.14493622124, -187500.02235174447, -24452.920192828202, -16410.181392452883, 0.532, -0.8160000000000001, 0.28600000000000003, 192.0, 0.0, 0.0, 0.0, 0.0, 0.0, 0.0, 0.0, 0.0, 0.0, 1.6635799230270083E9, 0.0, 2022-09-19 14:32:03.027
58.0, 8644.961851234657, -17082.208941246146, -45520.93690883362, -19261.638136105317, -78457.03702652897, -187500.02235174447, -24480.301079785953, -16397.977339980287, 0.534, -0.8200000000000001, 0.28600000000000003, 192.0, 16.0, 176.0, 230.0, 96.0, 8.0, 240.0, 0.0, 0.0, 0.0, 1.66357992303095E9, 0.0, 2022-09-19 14:32:03.030
59.0, 8516.484024105552, -17017.94767593714, -45576.16806938268, -19247.623592331838, -78430.9078372607, -187500.02235174447, -24492.460428769642, -16372.786923979154, 0.534, -0.8200000000000001, 0.28600000000000003, 192.0, 0.0, 0.0, 0.0, 0.0, 0.0, 0.0, 0.0, 0.0, 0.0, 1.6635799230351267E9, 0.0, 2022-09-19 14:32:03.035
60.0, 8495.562791295384, -16914.660264809165, -45582.60537178581, -19238.302914893975, -78434.23824718455, -187500.02235174447, -24496.237873582588, -16381.012365938708, 0.534, -0.8200000000000001, 0.28600000000000003, 192.0, 0.0, 0.0, 0.0, 0.0, 0.0, 0.0, 0.0, 0.0, 0.0, 1.6635799230390136E9, 0.0, 2022-09-19 14:32:03.039
61.0, 8576.565513201418, -16725.02806485034, -45564.27694133246, -19240.068702705947, -78454.64538987224, -187500.02235174447, -24496.37198404932, -16401.28539815967, 0.534, -0.8200000000000001, 0.28600000000000003, 192.0, 0.0, 0.0, 0.0, 0.0, 0.0, 0.0, 0.0, 0.0, 0.0, 1.663579923044047E9, 0.0, 2022-09-19 14:32:03.044
62.0, 8688.950084322702, -16500.88477145252, -45532.78333339493, -19260.0958657379, -78478.74057039506, -187500.02235174447, -24453.54604167295, -16398.111450447017, 0.534, -0.8200000000000001, 0.28600000000000003, 192.0, 0.0, 0.0, 0.0, 0.0, 0.0, 0.0, 0.0, 0.0, 0.0, 1.663579923048016E9, 0.0, 2022-09-19 14:32:03.048
63.0, 8720.622506215872, -16318.539240186125, -45538.41597299767, -19265.661450107273, -78479.0758465619, -187500.02235174447, -24487.140713589277, -16398.066746958106, 0.534, -0.8200000000000001, 0.28600000000000003, 192.0, 0.0, 0.0, 0.0, 0.0, 0.0, 0.0, 0.0, 0.0, 0.0, 1.6635799230510569E9, 0.0, 2022-09-19 14:32:03.051
64.0, 8515.098215949323, -16338.678161940357, -45600.84439526134, -19258.553595370486, -78447.24696245753, -187500.02235174447, -24510.23006561161, -16383.895740973443, 0.534, -0.8200000000000001, 0.28600000000000003, 192.0, 0.0, 0.0, 0.0, 0.0, 0.0, 0.0, 0.0, 0.0, 0.0, 1.6635799230550656E9, 0.0, 2022-09-19 14:32:03.055
65.0, 8442.991488336504, -16322.003760576697, -45597.044598703935, -19245.23195567512, -78438.50743037551, -187500.02235174447, -24472.813245393427, -16349.831682423555, 0.534, -0.8200000000000001, 0.28600000000000003, 192.0, 0.0, 0.0, 0.0, 0.0, 0.0, 0.0, 0.0, 0.0, 0.0, 1.6635799230590627E9, 0.0, 2022-09-19 14:32:03.059
66.0, 8486.219762113067, -16221.845593672466, -45566.51211577799, -19234.90544973677, -78436.69693907464, -187500.02235174447, -24451.333218971875, -16353.43031328086, 0.534, -0.8200000000000001, 0.28600000000000003, 192.0, 0.0, 0.0, 0.0, 0.0, 0.0, 0.0, 0.0, 0.0, 0.0, 1.6635799230631015E9, 0.0, 2022-09-19 14:32:03.063
67.0, 8593.217562820622, -16058.096713792887, -45531.10695256078, -19238.52643233853, -78451.87377355978, -187500.02235174447, -24449.27685848199, -16387.09204043055, 0.534, -0.8200000000000001, 0.28600000000000003, 192.0, 0.0, 0.0, 0.0, 0.0, 0.0, 0.0, 0.0, 0.0, 0.0, 1.6635799230670981E9, 0.0, 2022-09-19 14:32:03.067
68.0, 8646.146493690789, -15894.90662752469, -45532.42570548364, -19257.74893257009, -78455.78532883947, -187500.02235174447, -24474.98136460559, -16392.322348633093, 0.534, -0.8180000000000001, 0.28800000000000003, 192.0, 16.0, 176.0, 230.0, 112.0, 9.0, 0.0, 0.0, 0.0, 0.0, 1.663579923072091E9, 0.0, 2022-09-19 14:32:03.072
69.0, 8467.489000259518, -15912.855078322302, -45591.031979445455, -19245.164900441756, -78424.42583136867, -187500.02235174447, -24486.98425137809, -16366.036697153653, 0.534, -0.8180000000000001, 0.28800000000000003, 192.0, 0.0, 0.0, 0.0, 0.0, 0.0, 0.0, 0.0, 0.0, 0.0, 1.6635799230761237E9, 0.0, 2022-09-19 14:32:03.076
70.0, 8413.509537399952, -15890.346871655807, -45588.75210151102, -19231.038597946, -78422.90591274571, -187500.02235174447, -24482.782123420493, -16361.767513962688, 0.534, -0.8180000000000001, 0.28800000000000003, 192.0, 0.0, 0.0, 0.0, 0.0, 0.0, 0.0, 0.0, 0.0, 0.0, 1.6635799230791612E9, 0.0, 2022-09-19 14:32:03.079
71.0, 8467.1984275816, -15784.779582593392, -45566.40035705571, -19234.70428403667, -78432.58421809485, -187500.02235174447, -24463.89489935576, -16377.033755425664, 0.534, -0.8180000000000001, 0.28800000000000003, 192.0, 0.0, 0.0, 0.0, 0.0, 0.0, 0.0, 0.0, 0.0, 0.0, 1.6635799230831432E9, 0.0, 2022-09-19 14:32:03.083
72.0, 8590.736519186083, -15617.1862026675, -45533.47623747304, -19254.776150557536, -78451.53849739296, -187500.02235174447, -24455.78121611848, -16359.554691261614, 0.534, -0.8180000000000001, 0.28800000000000003, 192.0, 0.0, 0.0, 0.0, 0.0, 0.0, 0.0, 0.0, 0.0, 0.0, 1.6635799230871065E9, 0.0, 2022-09-19 14:32:03.087
73.0, 8650.594490837395, -15462.15450312549, -45537.05251658589, -19244.04731321899, -78457.52876490698, -187500.02235174447, -24476.925966373205, -16386.868522986, 0.534, -0.8180000000000001, 0.28800000000000003, 192.0, 0.0, 0.0, 0.0, 0.0, 0.0, 0.0, 0.0, 0.0, 0.0, 1.6635799230912619E9, 0.0, 2022-09-19 14:32:03.091
74.0, 8462.795133923904, -15492.575227329164, -45594.250630647024, -19233.318475880442, -78431.7125000611, -187500.02235174447, -24483.922062387715, -16380.990014194253, 0.534, -0.8180000000000001, 0.28800000000000003, 192.0, 0.0, 0.0, 0.0, 0.0, 0.0, 0.0, 0.0, 0.0, 0.0, 1.663579923095251E9, 0.0, 2022-09-19 14:32:03.095
75.0, 8407.407511163654, -15483.20984640239, -45581.62189502978, -19217.828716972916, -78426.37043313628, -187500.02235174447, -24460.542137687462, -16376.072630414086, 0.534, -0.8180000000000001, 0.28800000000000003, 192.0, 0.0, 0.0, 0.0, 0.0, 0.0, 0.0, 0.0, 0.0, 0.0, 1.6635799230991757E9, 0.0, 2022-09-19 14:32:03.099
76.0, 8458.883578644227, -15401.603627396064, -45554.620987727765, -19218.27575186202, -78433.94767450663, -187500.02235174447, -24446.41583519171, -16350.032848123652, 0.534, -0.8180000000000001, 0.28800000000000003, 192.0, 0.0, 0.0, 0.0, 0.0, 0.0, 0.0, 0.0, 0.0, 0.0, 1.6635799231041481E9, 0.0, 2022-09-19 14:32:03.104
77.0, 8571.201094532144, -15258.328945437544, -45522.41212396767, -19231.195060157188, -78454.22070672759, -187500.02235174447, -24444.001846790536, -16385.080383429573, 0.534, -0.8180000000000001, 0.28800000000000003, 192.0, 0.0, 0.0, 0.0, 0.0, 0.0, 0.0, 0.0, 0.0, 0.0, 1.663579923107214E9, 0.0, 2022-09-19 14:32:03.107
78.0, 8612.12713862981, -15127.32537118499, -45535.13026656274, -19248.003571987578, -78462.84848008734, -187500.02235174447, -24496.95312940516, -16395.33983413456, 0.534, -0.8180000000000001, 0.28800000000000003, 192.0, 0.0, 0.0, 0.0, 0.0, 0.0, 0.0, 0.0, 0.0, 0.0, 1.6635799231111567E9, 0.0, 2022-09-19 14:32:03.111
79.0, 8424.506595671965, -15179.516694488133, -45600.59852607233, -19233.05025494698, -78430.68431981615, -187500.02235174447, -24497.824847438915, -16353.497368514225, 0.53, -0.81, 0.28800000000000003, 192.0, 16.0, 144.0, 230.0, 176.0, 9.0, 0.0, 0.0, 0.0, 0.0, 1.663579923115156E9, 0.0, 2022-09-19 14:32:03.115
80.0, 8366.950853699547, -15192.905389416861, -45583.566496797386, -19210.51969653603, -78417.89912198772, -187500.02235174447, -24428.154459971724, -16351.66452546889, 0.53, -0.81, 0.28800000000000003, 192.0, 0.0, 0.0, 0.0, 0.0, 0.0, 0.0, 0.0, 0.0, 0.0, 1.6635799231191697E9, 0.0, 2022-09-19 14:32:03.119
81.0, 8425.780645105917, -15128.4206066633, -45554.464525516574, -19202.71893772113, -78420.46957260008, -187500.02235174447, -24435.46348040861, -16353.47501676977, 0.53, -0.81, 0.28800000000000003, 192.0, 0.0, 0.0, 0.0, 0.0, 0.0, 0.0, 0.0, 0.0, 0.0, 1.6635799231231856E9, 0.0, 2022-09-19 14:32:03.123
82.0, 8552.269166978498, -14991.762041063554, -45516.89124308721, -19214.900638449268, -78433.63475008425, -187500.02235174447, -24435.865811808802, -16377.033755425664, 0.53, -0.81, 0.28800000000000003, 192.0, 0.0, 0.0, 0.0, 0.0, 0.0, 0.0, 0.0, 0.0, 0.0, 1.663579923127231E9, 0.0, 2022-09-19 14:32:03.127
83.0, 8600.705397213149, -14866.726382580566, -45521.51805418945, -19228.33403686691, -78441.52491587697, -187500.02235174447, -24462.97847783309, -16381.459400827815, 0.53, -0.81, 0.28800000000000003, 192.0, 0.0, 0.0, 0.0, 0.0, 0.0, 0.0, 0.0, 0.0, 0.0, 1.663579923131161E9, 0.0, 2022-09-19 14:32:03.131
84.0, 8416.28115371241, -14925.779691431486, -45584.01353168649, -19219.37098734033, -78423.39765112373, -187500.02235174447, -24473.237928538078, -16365.544958775636, 0.53, -0.81, 0.28800000000000003, 192.0, 0.0, 0.0, 0.0, 0.0, 0.0, 0.0, 0.0, 0.0, 0.0, 1.6635799231341896E9, 0.0, 2022-09-19 14:32:03.134
85.0, 8375.243350892468, -14931.501738012044, -45573.32939783685, -19197.667443474227, -78417.00505220951, -187500.02235174447, -24442.79485258995, -16351.57511849107, 0.53, -0.81, 0.28800000000000003, 192.0, 0.0, 0.0, 0.0, 0.0, 0.0, 0.0, 0.0, 0.0, 0.0, 1.6635799231391785E9, 0.0, 2022-09-19 14:32:03.139
86.0, 8434.207252765567, -14860.624356344266, -45561.05829013089, -19202.04838538747, -78430.9078372607, -187500.02235174447, -24453.07665503939, -16351.128083601963, 0.53, -0.81, 0.28800000000000003, 192.0, 0.0, 0.0, 0.0, 0.0, 0.0, 0.0, 0.0, 0.0, 0.0, 1.6635799231432064E9, 0.0, 2022-09-19 14:32:03.143
87.0, 8572.206923032632, -14702.552819556335, -45526.12251354725, -19208.575094768417, -78446.2187822126, -187500.02235174447, -24467.06884706841, -16366.99782216523, 0.53, -0.81, 0.28800000000000003, 192.0, 0.0, 0.0, 0.0, 0.0, 0.0, 0.0, 0.0, 0.0, 0.0, 1.6635799231472368E9, 0.0, 2022-09-19 14:32:03.147
88.0, 8631.75197026157, -14555.344230573683, -45525.67547865814, -19219.14746989578, -78451.09146250386, -187500.02235174447, -24467.873509868805, -16374.753877491223, 0.53, -0.81, 0.28800000000000003, 192.0, 0.0, 0.0, 0.0, 0.0, 0.0, 0.0, 0.0, 0.0, 0.0, 1.663579923151213E9, 0.0, 2022-09-19 14:32:03.151
89.0, 8469.210084582577, -14578.590044807203, -45579.721996751075, -19209.625626757817, -78423.24118891254, -187500.02235174447, -24470.488663970074, -16375.133857146962, 0.526, -0.81, 0.29, 192.0, 16.0, 112.0, 230.0, 176.0, 9.0, 16.0, 0.0, 0.0, 0.0, 1.6635799231552148E9, 0.0, 2022-09-19 14:32:03.155
90.0, 8444.444351726097, -14545.420056035526, -45567.85322044531, -19188.45852475864, -78418.61437781029, -187500.02235174447, -24450.819128849405, -16356.604260993512, 0.526, -0.81, 0.29, 192.0, 0.0, 0.0, 0.0, 0.0, 0.0, 0.0, 0.0, 0.0, 0.0, 1.6635799231592095E9, 0.0, 2022-09-19 14:32:03.159
91.0, 8520.68615206315, -14424.117138876574, -45540.82996139884, -19192.280673060497, -78433.2100669396, -187500.02235174447, -24453.74720737305, -16377.369031592492, 0.526, -0.81, 0.29, 192.0, 0.0, 0.0, 0.0, 0.0, 0.0, 0.0, 0.0, 0.0, 0.0, 1.6635799231633143E9, 0.0, 2022-09-19 14:32:03.163
92.0, 8663.938482277214, -14219.889249788434, -45509.06813252785, -19206.272865089522, -78455.11477650581, -187500.02235174447, -24460.475082454097, -16395.116316690008, 0.526, -0.81, 0.29, 192.0, 0.0, 0.0, 0.0, 0.0, 0.0, 0.0, 0.0, 0.0, 0.0, 1.6635799231672368E9, 0.0, 2022-09-19 14:32:03.167
93.0, 8715.861584646891, -14035.576765009971, -45521.58510942282, -19218.834545473404, -78469.68811389066, -187500.02235174447, -24473.304983771442, -16389.640139298455, 0.526, -0.81, 0.29, 192.0, 0.0, 0.0, 0.0, 0.0, 0.0, 0.0, 0.0, 0.0, 0.0, 1.663579923171254E9, 0.0, 2022-09-19 14:32:03.171
94.0, 8569.681175909183, -14013.895572888325, -45576.4586420606, -19214.43125181571, -78451.96318053761, -187500.02235174447, -24480.859873397338, -16385.929749718875, 0.526, -0.81, 0.29, 192.0, 0.0, 0.0, 0.0, 0.0, 0.0, 0.0, 0.0, 0.0, 0.0, 1.6635799231752713E9, 0.0, 2022-09-19 14:32:03.175
95.0, 8551.576262900384, -13941.990010975602, -45576.52569729396, -19208.21746685713, -78454.75714859452, -187500.02235174447, -24493.354498547855, -16391.361223621516, 0.526, -0.81, 0.29, 192.0, 0.0, 0.0, 0.0, 0.0, 0.0, 0.0, 0.0, 0.0, 0.0, 1.66357992317935E9, 0.0, 2022-09-19 14:32:03.179
96.0, 8624.532356802507, -13797.217762138578, -45559.516019763476, -19199.634396986294, -78467.34118072285, -187500.02235174447, -24475.31664077242, -16406.985092995776, 0.526, -0.81, 0.29, 192.0, 0.0, 0.0, 0.0, 0.0, 0.0, 0.0, 0.0, 0.0, 0.0, 1.6635799231832645E9, 0.0, 2022-09-19 14:32:03.183
97.0, 8766.532989327072, -13575.44375365302, -45527.88830135921, -19214.319493093433, -78489.75998041153, -187500.02235174447, -24479.83169315239, -16414.785851810677, 0.526, -0.81, 0.29, 192.0, 0.0, 0.0, 0.0, 0.0, 0.0, 0.0, 0.0, 0.0, 0.0, 1.6635799231872785E9, 0.0, 2022-09-19 14:32:03.187
98.0, 8809.113062514432, -13377.876684412562, -45530.43640022712, -19230.65861829026, -78494.23032930259, -187500.02235174447, -24471.40508549274, -16429.515651406724, 0.526, -0.81, 0.29, 192.0, 0.0, 0.0, 0.0, 0.0, 0.0, 0.0, 0.0, 0.0, 0.0, 1.663579923190287E9, 0.0, 2022-09-19 14:32:03.190
99.0, 8636.557595319462, -13358.765942903274, -45588.08154917736, -19222.47787981962, -78469.68811389066, -187500.02235174447, -24490.3817165353, -16386.91322647491, 0.532, -0.812, 0.28800000000000003, 192.0, 16.0, 160.0, 230.0, 160.0, 9.0, 0.0, 0.0, 0.0, 0.0, 1.6635799231953812E9, 0.0, 2022-09-19 14:32:03.195
100.0, 8594.938647143681, -13295.354043883568, -45578.73851999504, -19201.333129564897, -78465.1730615107, -187500.02235174447, -24471.807416892938, -16369.188293121852, 0.532, -0.812, 0.28800000000000003, 192.0, 0.0, 0.0, 0.0, 0.0, 0.0, 0.0, 0.0, 0.0, 0.0, 1.663579923199347E9, 0.0, 2022-09-19 14:32:03.199
101.0, 8648.0910954584, -13159.634251550944, -45554.620987727765, -19197.46627777413, -78472.86206160331, -187500.02235174447, -24464.0737133114, -16387.226150897284, 0.532, -0.812, 0.28800000000000003, 192.0, 0.0, 0.0, 0.0, 0.0, 0.0, 0.0, 0.0, 0.0, 0.0, 1.663579923203357E9, 0.0, 2022-09-19 14:32:03.203
102.0, 8767.650576549839, -12956.747467130122, -45525.809589124874, -19205.781126711503, -78497.6277944598, -187500.02235174447, -24466.822977879405, -16402.559447593623, 0.532, -0.812, 0.28800000000000003, 192.0, 0.0, 0.0, 0.0, 0.0, 0.0, 0.0, 0.0, 0.0, 0.0, 1.6635799232073233E9, 0.0, 2022-09-19 14:32:03.207
103.0, 8790.35994891643, -12788.081203470374, -45542.171066066156, -19224.578943798417, -78504.89211140778, -187500.02235174447, -24494.94147240418, -16403.76644179421, 0.532, -0.812, 0.28800000000000003, 192.0, 0.0, 0.0, 0.0, 0.0, 0.0, 0.0, 0.0, 0.0, 0.0, 1.6635799232114196E9, 0.0, 2022-09-19 14:32:03.211
104.0, 8604.03580713699, -12798.184191964174, -45602.65488656222, -19212.486650048097, -78474.13611103727, -187500.02235174447, -24516.265036614543, -16391.562389321614, 0.532, -0.812, 0.28800000000000003, 192.0, 0.0, 0.0, 0.0, 0.0, 0.0, 0.0, 0.0, 0.0, 0.0, 1.6635799232153375E9, 0.0, 2022-09-19 14:32:03.215
105.0, 8579.158315558234, -12742.237775592539, -45579.38672058424, -19185.23987355708, -78461.06034053092, -187500.02235174447, -24472.768541904516, -16383.672223528889, 0.532, -0.812, 0.28800000000000003, 192.0, 0.0, 0.0, 0.0, 0.0, 0.0, 0.0, 0.0, 0.0, 0.0, 1.663579923218316E9, 0.0, 2022-09-19 14:32:03.218
106.0, 8641.653793055271, -12612.620009496213, -45552.67638596015, -19196.415745784732, -78473.19733777015, -187500.02235174447, -24460.966820832113, -16379.738316504756, 0.532, -0.812, 0.28800000000000003, 192.0, 0.0, 0.0, 0.0, 0.0, 0.0, 0.0, 0.0, 0.0, 0.0, 1.6635799232233837E9, 0.0, 2022-09-19 14:32:03.223
107.0, 8773.350271385942, -12408.392120408073, -45520.15459777768, -19218.27575186202, -78501.89697765076, -187500.02235174447, -24467.31471625742, -16433.941296808876, 0.532, -0.812, 0.28800000000000003, 192.0, 0.0, 0.0, 0.0, 0.0, 0.0, 0.0, 0.0, 0.0, 0.0, 1.663579923227362E9, 0.0, 2022-09-19 14:32:03.227
108.0, 8802.943981044767, -12225.778368208215, -45532.939795606115, -19219.549801295972, -78508.9824806431, -187500.02235174447, -24500.17178060672, -16430.812052585134, 0.532, -0.812, 0.28800000000000003, 192.0, 0.0, 0.0, 0.0, 0.0, 0.0, 0.0, 0.0, 0.0, 0.0, 1.663579923231378E9, 0.0, 2022-09-19 14:32:03.231
109.0, 8632.534281317507, -12209.595705222573, -45584.482918320056, -19181.1271525773, -78474.00200057054, -187500.02235174447, -24504.865646942337, -16348.66939171188, 0.532, -0.8140000000000001, 0.28400000000000003, 192.0, 16.0, 160.0, 230.0, 144.0, 8.0, 224.0, 0.0, 0.0, 0.0, 1.6635799232354312E9, 0.0, 2022-09-19 14:32:03.235
110.0, 8620.240821867088, -12125.240221648244, -45565.28276983294, -19172.857007128838, -78466.73768362256, -187500.02235174447, -24472.2768035265, -16370.529397789169, 0.532, -0.8140000000000001, 0.28400000000000003, 192.0, 0.0, 0.0, 0.0, 0.0, 0.0, 0.0, 0.0, 0.0, 0.0, 1.6635799232393095E9, 0.0, 2022-09-19 14:32:03.239
111.0, 8681.90928481928, -11973.695394241262, -45540.36057476528, -19178.154370564745, -78477.84650061686, -187500.02235174447, -24468.231137780087, -16379.827723482576, 0.532, -0.8140000000000001, 0.28400000000000003, 192.0, 0.0, 0.0, 0.0, 0.0, 0.0, 0.0, 0.0, 0.0, 0.0, 1.6635799232434227E9, 0.0, 2022-09-19 14:32:03.243
112.0, 8815.259792239642, -11747.786313031473, -45516.42185645364, -19198.717975463627, -78508.80366668745, -187500.02235174447, -24485.017297866023, -16423.01129377023, 0.532, -0.8140000000000001, 0.28400000000000003, 192.0, 0.0, 0.0, 0.0, 0.0, 0.0, 0.0, 0.0, 0.0, 0.0, 1.663579923248447E9, 0.0, 2022-09-19 14:32:03.248
113.0, 8849.03327811161, -11550.979203102494, -45529.11764730426, -19208.306873834954, -78513.56458825643, -187500.02235174447, -24496.75196370506, -16421.20080246935, 0.532, -0.8140000000000001, 0.28400000000000003, 192.0, 0.0, 0.0, 0.0, 0.0, 0.0, 0.0, 0.0, 0.0, 0.0, 1.6635799232514367E9, 0.0, 2022-09-19 14:32:03.251
114.0, 8685.351453465397, -11517.272772463892, -45571.63066525825, -19188.771449181015, -78483.03210533048, -187500.02235174447, -24479.116437329823, -16385.52741831868, 0.532, -0.8140000000000001, 0.28400000000000003, 192.0, 0.0, 0.0, 0.0, 0.0, 0.0, 0.0, 0.0, 0.0, 0.0, 1.6635799232553897E9, 0.0, 2022-09-19 14:32:03.255
115.0, 8665.503104389085, -11427.351704520192, -45558.30902556289, -19183.98817586758, -78484.06028557543, -187500.02235174447, -24457.323486485897, -16394.91515098991, 0.532, -0.8140000000000001, 0.28400000000000003, 192.0, 0.0, 0.0, 0.0, 0.0, 0.0, 0.0, 0.0, 0.0, 0.0, 1.6635799232604263E9, 0.0, 2022-09-19 14:32:03.260
116.0, 8710.854793888902, -11287.988577841352, -45548.09427834681, -19198.89678941927, -78496.55491072594, -187500.02235174447, -24476.031896594992, -16424.240639715274, 0.532, -0.8140000000000001, 0.28400000000000003, 192.0, 0.0, 0.0, 0.0, 0.0, 0.0, 0.0, 0.0, 0.0, 0.0, 1.663579923264465E9, 0.0, 2022-09-19 14:32:03.264
117.0, 8836.851577383468, -11073.367127581492, -45518.7911413659, -19222.43317633071, -78518.0349371475, -187500.02235174447, -24476.590690206373, -16438.232831744295, 0.532, -0.8140000000000001, 0.28400000000000003, 192.0, 0.0, 0.0, 0.0, 0.0, 0.0, 0.0, 0.0, 0.0, 0.0, 1.663579923267462E9, 0.0, 2022-09-19 14:32:03.267
118.0, 8855.962318892756, -10900.766956897613, -45533.27507177294, -19214.095975648877, -78516.85029469136, -187500.02235174447, -24495.880245671302, -16417.73628207878, 0.532, -0.8140000000000001, 0.28400000000000003, 192.0, 0.0, 0.0, 0.0, 0.0, 0.0, 0.0, 0.0, 0.0, 0.0, 1.6635799232704296E9, 0.0, 2022-09-19 14:32:03.270
119.0, 8670.107563746878, -10903.985608099176, -45582.87359271927, -19197.667443474227, -78483.99323034206, -187500.02235174447, -24494.762658448537, -16393.082307944573, 0.532, -0.808, 0.292, 192.0, 16.0, 160.0, 230.0, 192.0, 9.0, 32.0, 0.0, 0.0, 0.0, 1.6635799232744696E9, 0.0, 2022-09-19 14:32:03.274
120.0, 8636.289374385999, -10852.263671429595, -45572.68119724765, -19189.240835814577, -78478.31588725041, -187500.02235174447, -24484.480855999096, -16372.831627468066, 0.532, -0.808, 0.292, 192.0, 0.0, 0.0, 0.0, 0.0, 0.0, 0.0, 0.0, 0.0, 0.0, 1.6635799232785232E9, 0.0, 2022-09-19 14:32:03.278
121.0, 8688.19012501122, -10738.135664240797, -45551.15646733719, -19185.530446234996, -78483.70265766415, -187500.02235174447, -24478.64705069626, -16383.694575273345, 0.532, -0.808, 0.292, 192.0, 0.0, 0.0, 0.0, 0.0, 0.0, 0.0, 0.0, 0.0, 0.0, 1.6635799232834487E9, 0.0, 2022-09-19 14:32:03.283
122.0, 8816.93617307379, -10548.458760793063, -45511.63858314021, -19204.775298211014, -78506.032050375, -187500.02235174447, -24459.93864058717, -16412.282456431683, 0.532, -0.808, 0.292, 192.0, 0.0, 0.0, 0.0, 0.0, 0.0, 0.0, 0.0, 0.0, 0.0, 1.6635799232874868E9, 0.0, 2022-09-19 14:32:03.287
123.0, 8824.222841766219, -10404.960561389991, -45525.116685046756, -19214.095975648877, -78508.51309400954, -187500.02235174447, -24486.42545776671, -16420.843174558064, 0.532, -0.808, 0.292, 192.0, 0.0, 0.0, 0.0, 0.0, 0.0, 0.0, 0.0, 0.0, 0.0, 1.6635799232915165E9, 0.0, 2022-09-19 14:32:03.291
124.0, 8645.967679735146, -10429.100445401722, -45576.30217984941, -19188.972614881113, -78478.4723494616, -187500.02235174447, -24487.788914178484, -16357.364220304993, 0.532, -0.808, 0.292, 192.0, 0.0, 0.0, 0.0, 0.0, 0.0, 0.0, 0.0, 0.0, 0.0, 1.6635799232944584E9, 0.0, 2022-09-19 14:32:03.294
125.0, 8626.968696948135, -10378.67490991055, -45561.50532502, -19180.568358965917, -78470.55983192443, -187500.02235174447, -24461.950297588148, -16362.683935485356, 0.532, -0.808, 0.292, 192.0, 0.0, 0.0, 0.0, 0.0, 0.0, 0.0, 0.0, 0.0, 0.0, 1.6635799232984529E9, 0.0, 2022-09-19 14:32:03.298
126.0, 8679.808220840481, -10269.419583013008, -45550.37415628126, -19197.063946373935, -78485.1778727982, -187500.02235174447, -24479.876396641303, -16398.066746958106, 0.532, -0.808, 0.292, 192.0, 0.0, 0.0, 0.0, 0.0, 0.0, 0.0, 0.0, 0.0, 0.0, 1.6635799233025E9, 0.0, 2022-09-19 14:32:03.302
127.0, 8816.757359118148, -10079.2285894428, -45516.377152964735, -19208.061004645944, -78510.10006786586, -187500.02235174447, -24470.89099537027, -16423.10070074805, 0.532, -0.808, 0.292, 192.0, 0.0, 0.0, 0.0, 0.0, 0.0, 0.0, 0.0, 0.0, 0.0, 1.663579923306488E9, 0.0, 2022-09-19 14:32:03.306
128.0, 8830.973068591722, -9936.803273773585, -45535.82317064085, -19219.52744955152, -78512.60346324486, -187500.02235174447, -24493.84623692587, -16423.391273425972, 0.532, -0.808, 0.292, 192.0, 0.0, 0.0, 0.0, 0.0, 0.0, 0.0, 0.0, 0.0, 0.0, 1.6635799233114831E9, 0.0, 2022-09-19 14:32:03.311
129.0, 8658.819932796947, -9954.103523981992, -45592.283677134954, -19194.42644052821, -78481.48983496307, -187500.02235174447, -24513.9851586801, -16382.19700839484, 0.536, -0.812, 0.292, 192.0, 16.0, 192.0, 230.0, 160.0, 9.0, 32.0, 0.0, 0.0, 0.0, 1.6635799233155115E9, 0.0, 2022-09-19 14:32:03.315
130.0, 8641.072647699433, -9909.109462393459, -45578.246781617025, -19175.874492630304, -78474.09140754836, -187500.02235174447, -24484.97259437711, -16390.57891256558, 0.536, -0.812, 0.292, 192.0, 0.0, 0.0, 0.0, 0.0, 0.0, 0.0, 0.0, 0.0, 0.0, 1.6635799233195913E9, 0.0, 2022-09-19 14:32:03.319
131.0, 8705.87035487537, -9796.635484294353, -45549.77065918096, -19166.68792565917, -78473.4208552147, -187500.02235174447, -24476.970669862112, -16381.124124660984, 0.536, -0.812, 0.292, 192.0, 0.0, 0.0, 0.0, 0.0, 0.0, 0.0, 0.0, 0.0, 0.0, 1.6635799233225193E9, 0.0, 2022-09-19 14:32:03.322
132.0, 8820.780673120104, -9616.301610028937, -45513.13615001871, -19179.964861865625, -78496.21963455912, -187500.02235174447, -24455.468291696106, -16404.52640110569, 0.536, -0.812, 0.292, 192.0, 0.0, 0.0, 0.0, 0.0, 0.0, 0.0, 0.0, 0.0, 0.0, 1.6635799233265605E9, 0.0, 2022-09-19 14:32:03.326
133.0, 8808.55426890305, -9493.54582948039, -45536.091391574315, -19196.102821362358, -78502.18755032869, -187500.02235174447, -24490.538178746487, -16401.821840026598, 0.536, -0.812, 0.292, 192.0, 0.0, 0.0, 0.0, 0.0, 0.0, 0.0, 0.0, 0.0, 0.0, 1.6635799233305151E9, 0.0, 2022-09-19 14:32:03.330
134.0, 8625.89581321428, -9528.235736875027, -45587.45570033261, -19168.40900998223, -78469.3751894683, -187500.02235174447, -24491.14167584678, -16374.128028646473, 0.536, -0.812, 0.292, 192.0, 0.0, 0.0, 0.0, 0.0, 0.0, 0.0, 0.0, 0.0, 0.0, 1.6635799233345883E9, 0.0, 2022-09-19 14:32:03.334
135.0, 8600.168955346222, -9501.63716097321, -45574.625799015266, -19156.495530187553, -78464.39075045475, -187500.02235174447, -24471.203919792646, -16385.952101463332, 0.536, -0.812, 0.292, 192.0, 0.0, 0.0, 0.0, 0.0, 0.0, 0.0, 0.0, 0.0, 0.0, 1.6635799233396127E9, 0.0, 2022-09-19 14:32:03.339
136.0, 8652.159112949266, -9414.510061086425, -45550.53061849244, -19149.49943417304, -78462.04381728695, -187500.02235174447, -24474.199053549655, -16363.846226197033, 0.536, -0.812, 0.292, 192.0, 0.0, 0.0, 0.0, 0.0, 0.0, 0.0, 0.0, 0.0, 0.0, 1.6635799233435507E9, 0.0, 2022-09-19 14:32:03.343
137.0, 8782.246265679154, -9254.382163808605, -45513.87375758574, -19163.17870177969, -78481.24396577406, -187500.02235174447, -24462.576146432897, -16394.91515098991, 0.536, -0.812, 0.292, 192.0, 0.0, 0.0, 0.0, 0.0, 0.0, 0.0, 0.0, 0.0, 0.0, 1.6635799233476825E9, 0.0, 2022-09-19 14:32:03.347
138.0, 8777.887675510368, -9155.788619016244, -45533.76681015096, -19189.285539303488, -78484.30615476443, -187500.02235174447, -24472.343858759865, -16403.408813882925, 0.536, -0.812, 0.292, 192.0, 0.0, 0.0, 0.0, 0.0, 0.0, 0.0, 0.0, 0.0, 0.0, 1.6635799233505778E9, 0.0, 2022-09-19 14:32:03.350
139.0, 8592.301141297954, -9222.218003537417, -45590.629648045266, -19162.731666890584, -78457.17113699569, -187500.02235174447, -24482.89388214277, -16375.424429824881, 0.532, -0.812, 0.29, 192.0, 16.0, 160.0, 230.0, 160.0, 9.0, 16.0, 0.0, 0.0, 0.0, 1.6635799233546069E9, 0.0, 2022-09-19 14:32:03.354
140.0, 8572.430440477186, -9217.457081968438, -45573.1058803923, -19151.287573729467, -78449.77270958098, -187500.02235174447, -24461.79383537696, -16392.81408701111, 0.532, -0.812, 0.29, 192.0, 0.0, 0.0, 0.0, 0.0, 0.0, 0.0, 0.0, 0.0, 0.0, 1.663579923358637E9, 0.0, 2022-09-19 14:32:03.358
141.0, 8621.939554445691, -9155.520398082781, -45547.28961554642, -19156.920213332203, -78452.63373287127, -187500.02235174447, -24454.238945751065, -16386.130915418973, 0.532, -0.812, 0.29, 192.0, 0.0, 0.0, 0.0, 0.0, 0.0, 0.0, 0.0, 0.0, 0.0, 1.6635799233626568E9, 0.0, 2022-09-19 14:32:03.362
142.0, 8750.171512385788, -9020.806434250646, -45510.923327317636, -19160.764713378514, -78472.92911683669, -187500.02235174447, -24447.30990496992, -16371.490522800748, 0.532, -0.812, 0.29, 192.0, 0.0, 0.0, 0.0, 0.0, 0.0, 0.0, 0.0, 0.0, 0.0, 1.6635799233666143E9, 0.0, 2022-09-19 14:32:03.366
143.0, 8739.733247725158, -8951.940709583845, -45535.532597962934, -19171.65001292825, -78483.56854719741, -187500.02235174447, -24473.372039004807, -16404.01231098322, 0.532, -0.812, 0.29, 192.0, 0.0, 0.0, 0.0, 0.0, 0.0, 0.0, 0.0, 0.0, 0.0, 1.663579923371549E9, 0.0, 2022-09-19 14:32:03.371
144.0, 8563.825018861893, -9033.368114634528, -45584.86289797579, -19147.130149260778, -78457.95344805163, -187500.02235174447, -24484.726725188106, -16374.150380390929, 0.532, -0.812, 0.29, 192.0, 0.0, 0.0, 0.0, 0.0, 0.0, 0.0, 0.0, 0.0, 0.0, 1.663579923375633E9, 0.0, 2022-09-19 14:32:03.375
145.0, 8549.408143688219, -9033.278707656707, -45556.856162173295, -19131.34981767533, -78455.56181139492, -187500.02235174447, -24452.94254457266, -16344.936650387843, 0.532, -0.812, 0.29, 192.0, 0.0, 0.0, 0.0, 0.0, 0.0, 0.0, 0.0, 0.0, 0.0, 1.663579923378659E9, 0.0, 2022-09-19 14:32:03.378
146.0, 8606.762719960538, -8973.130163327476, -45531.24106302751, -19134.233192710068, -78462.93788706517, -187500.02235174447, -24437.40808217622, -16366.930766931864, 0.532, -0.812, 0.29, 192.0, 0.0, 0.0, 0.0, 0.0, 0.0, 0.0, 0.0, 0.0, 0.0, 1.6635799233826396E9, 0.0, 2022-09-19 14:32:03.382
147.0, 8738.369791313386, -8833.94585060428, -45490.650295096675, -19148.44890218364, -78485.02141058701, -187500.02235174447, -24428.40032916073, -16390.176581165386, 0.532, -0.812, 0.29, 192.0, 0.0, 0.0, 0.0, 0.0, 0.0, 0.0, 0.0, 0.0, 0.0, 1.6635799233865707E9, 0.0, 2022-09-19 14:32:03.386
148.0, 8734.994677900635, -8753.099590909433, -45517.78531286542, -19161.859948856825, -78485.91548036522, -187500.02235174447, -24465.303059256443, -16356.604260993512, 0.532, -0.812, 0.29, 192.0, 0.0, 0.0, 0.0, 0.0, 0.0, 0.0, 0.0, 0.0, 0.0, 1.6635799233906665E9, 0.0, 2022-09-19 14:32:03.390
149.0, 8555.197245502144, -8831.80008313657, -45571.96594142508, -19142.726855603083, -78453.30428520493, -187500.02235174447, -24470.93569885918, -16350.457531268303, 0.536, -0.812, 0.294, 192.0, 16.0, 192.0, 230.0, 160.0, 9.0, 48.0, 0.0, 0.0, 0.0, 1.6635799233946457E9, 0.0, 2022-09-19 14:32:03.394
150.0, 8545.496588408541, -8828.648487168372, -45556.14090635072, -19136.915402044702, -78450.55502063692, -187500.02235174447, -24460.184509776176, -16366.930766931864, 0.536, -0.812, 0.294, 192.0, 0.0, 0.0, 0.0, 0.0, 0.0, 0.0, 0.0, 0.0, 0.0, 1.66357992339963E9, 0.0, 2022-09-19 14:32:03.399
151.0, 8608.684969983695, -8762.062640436012, -45525.83194086933, -19129.27110544099, -78451.89612530424, -187500.02235174447, -24425.58400935936, -16364.203854108317, 0.536, -0.812, 0.294, 192.0, 0.0, 0.0, 0.0, 0.0, 0.0, 0.0, 0.0, 0.0, 0.0, 1.6635799234037538E9, 0.0, 2022-09-19 14:32:03.403
152.0, 8732.40187554382, -8637.876348242326, -45501.71440860205, -19151.68990512966, -78487.90478562174, -187500.02235174447, -24441.341989200355, -16413.645912843458, 0.536, -0.812, 0.294, 192.0, 0.0, 0.0, 0.0, 0.0, 0.0, 0.0, 0.0, 0.0, 0.0, 1.663579923407702E9, 0.0, 2022-09-19 14:32:03.407
153.0, 8711.368884011375, -8588.903676140748, -45529.72114440455, -19168.94545184916, -78493.98446011358, -187500.02235174447, -24478.60234720735, -16401.687729559868, 0.536, -0.812, 0.294, 192.0, 0.0, 0.0, 0.0, 0.0, 0.0, 0.0, 0.0, 0.0, 0.0, 1.6635799234106212E9, 0.0, 2022-09-19 14:32:03.410
154.0, 8532.599631857829, -8688.547752922506, -45569.507249534996, -19137.608306122816, -78453.66191311622, -187500.02235174447, -24457.63641090827, -16354.838473181544, 0.536, -0.812, 0.294, 192.0, 0.0, 0.0, 0.0, 0.0, 0.0, 0.0, 0.0, 0.0, 0.0, 1.66357992341466E9, 0.0, 2022-09-19 14:32:03.414
155.0, 8514.382960126753, -8715.77217766907, -45546.95433937959, -19131.640390353252, -78446.28583744596, -187500.02235174447, -24415.995110988035, -16345.920127143876, 0.536, -0.812, 0.294, 192.0, 0.0, 0.0, 0.0, 0.0, 0.0, 0.0, 0.0, 0.0, 0.0, 1.6635799234187045E9, 0.0, 2022-09-19 14:32:03.418
156.0, 8553.409105945719, -8694.560372180984, -45523.842635612804, -19136.49071890005, -78446.35289267932, -187500.02235174447, -24416.442145877143, -16391.227113154782, 0.536, -0.812, 0.294, 192.0, 0.0, 0.0, 0.0, 0.0, 0.0, 0.0, 0.0, 0.0, 0.0, 1.6635799234226751E9, 0.0, 2022-09-19 14:32:03.422
157.0, 8679.584703395927, -8589.820097663414, -45488.16925146213, -19144.962030048613, -78469.73281737958, -187500.02235174447, -24426.433375648663, -16367.198987865328, 0.536, -0.812, 0.294, 192.0, 0.0, 0.0, 0.0, 0.0, 0.0, 0.0, 0.0, 0.0, 0.0, 1.6635799234276955E9, 0.0, 2022-09-19 14:32:03.427
158.0, 8659.691650830704, -8555.353707713331, -45520.86985360025, -19153.9697830641, -78471.61036391382, -187500.02235174447, -24469.393428491763, -16351.373952790971, 0.536, -0.812, 0.294, 192.0, 0.0, 0.0, 0.0, 0.0, 0.0, 0.0, 0.0, 0.0, 0.0, 1.6635799234317117E9, 0.0, 2022-09-19 14:32:03.431
159.0, 8481.190619610623, -8663.580854365928, -45573.44115655913, -19139.016466023502, -78447.78340432447, -187500.02235174447, -24455.26712599601, -16344.489615498736, 0.534, -0.8140000000000001, 0.28600000000000003, 192.0, 16.0, 176.0, 230.0, 144.0, 8.0, 240.0, 0.0, 0.0, 0.0, 1.6635799234347208E9, 0.0, 2022-09-19 14:32:03.434
160.0, 8467.265482814966, -8698.874258860858, -45559.225447085555, -19132.02037000899, -78445.10119498982, -187500.02235174447, -24437.02810252048, -16340.063970096586, 0.534, -0.8140000000000001, 0.28600000000000003, 192.0, 0.0, 0.0, 0.0, 0.0, 0.0, 0.0, 0.0, 0.0, 0.0, 1.6635799234401464E9, 0.0, 2022-09-19 14:32:03.440
161.0, 8521.915498008191, -8673.28151145953, -45529.89995836019, -19136.803643322426, -78441.1672879657, -187500.02235174447, -24430.30022743943, -16348.155301589406, 0.534, -0.8140000000000001, 0.28600000000000003, 192.0, 0.0, 0.0, 0.0, 0.0, 0.0, 0.0, 0.0, 0.0, 0.0, 1.663579923442907E9, 0.0, 2022-09-19 14:32:03.442
162.0, 8659.937520019714, -8572.385736988275, -45491.47730964152, -19144.917326559702, -78462.33438996488, -187500.02235174447, -24438.72683509908, -16380.52062756069, 0.534, -0.8140000000000001, 0.28600000000000003, 192.0, 0.0, 0.0, 0.0, 0.0, 0.0, 0.0, 0.0, 0.0, 0.0, 1.663579923446679E9, 0.0, 2022-09-19 14:32:03.446
163.0, 8642.838435511403, -8544.937794797159, -45517.45003669859, -19152.248698741045, -78462.84848008734, -187500.02235174447, -24461.36915223231, -16348.71409520079, 0.534, -0.8140000000000001, 0.28600000000000003, 192.0, 0.0, 0.0, 0.0, 0.0, 0.0, 0.0, 0.0, 0.0, 0.0, 1.6635799234507563E9, 0.0, 2022-09-19 14:32:03.450
164.0, 8467.600758981796, -8664.340813677409, -45561.99706339801, -19134.83668981036, -78440.40732865421, -187500.02235174447, -24443.55481190143, -16323.501327455204, 0.534, -0.8140000000000001, 0.28600000000000003, 192.0, 0.0, 0.0, 0.0, 0.0, 0.0, 0.0, 0.0, 0.0, 0.0, 1.6635799234546974E9, 0.0, 2022-09-19 14:32:03.454
165.0, 8476.116773619267, -8696.572029181962, -45541.053478843394, -19128.198221707135, -78440.1614594652, -187500.02235174447, -24423.415890147196, -16340.287487541138, 0.534, -0.8140000000000001, 0.28600000000000003, 192.0, 0.0, 0.0, 0.0, 0.0, 0.0, 0.0, 0.0, 0.0, 0.0, 1.6635799234587471E9, 0.0, 2022-09-19 14:32:03.458
166.0, 8532.197300457634, -8674.913188804769, -45526.301327502886, -19142.749207347537, -78454.31011370542, -187500.02235174447, -24428.89206753875, -16351.508063257703, 0.534, -0.8140000000000001, 0.28600000000000003, 192.0, 0.0, 0.0, 0.0, 0.0, 0.0, 0.0, 0.0, 0.0, 0.0, 1.6635799234627223E9, 0.0, 2022-09-19 14:32:03.462
167.0, 8661.278624687031, -8574.017414333513, -45492.05845499736, -19128.64525659624, -78470.76099762451, -187500.02235174447, -24427.93094252717, -16387.449668341837, 0.534, -0.8140000000000001, 0.28600000000000003, 192.0, 0.0, 0.0, 0.0, 0.0, 0.0, 0.0, 0.0, 0.0, 0.0, 1.6635799234668484E9, 0.0, 2022-09-19 14:32:03.466
168.0, 8636.579947063918, -8553.476161179085, -45526.994231581004, -19136.803643322426, -78463.9213638212, -187500.02235174447, -24481.88805364228, -16355.129045859463, 0.534, -0.8140000000000001, 0.28600000000000003, 192.0, 0.0, 0.0, 0.0, 0.0, 0.0, 0.0, 0.0, 0.0, 0.0, 1.6635799234707305E9, 0.0, 2022-09-19 14:32:03.470
169.0, 8459.218854811055, -8675.76255509407, -45573.754080981504, -19125.717178072595, -78439.35679666481, -187500.02235174447, -24447.332256714377, -16312.124289527452, 0.532, -0.8160000000000001, 0.28600000000000003, 192.0, 16.0, 160.0, 230.0, 128.0, 8.0, 240.0, 0.0, 0.0, 0.0, 1.663579923474733E9, 0.0, 2022-09-19 14:32:03.474
170.0, 8452.938014619114, -8711.055959589, -45553.97278713856, -19123.705521071617, -78445.19060196765, -187500.02235174447, -24415.704538310118, -16308.816231348066, 0.532, -0.8160000000000001, 0.28600000000000003, 192.0, 0.0, 0.0, 0.0, 0.0, 0.0, 0.0, 0.0, 0.0, 0.0, 1.663579923478763E9, 0.0, 2022-09-19 14:32:03.478
171.0, 8509.331465879854, -8694.269799503065, -45535.733763663025, -19128.980532763067, -78452.70078810463, -187500.02235174447, -24429.87554429478, -16337.940554373332, 0.532, -0.8160000000000001, 0.28600000000000003, 192.0, 0.0, 0.0, 0.0, 0.0, 0.0, 0.0, 0.0, 0.0, 0.0, 1.66357992348278E9, 0.0, 2022-09-19 14:32:03.482
172.0, 8643.37487737833, -8595.408033777241, -45501.893222557694, -19147.465425427607, -78473.13028253679, -187500.02235174447, -24445.007675291024, -16397.105621946528, 0.532, -0.8160000000000001, 0.28600000000000003, 192.0, 0.0, 0.0, 0.0, 0.0, 0.0, 0.0, 0.0, 0.0, 0.0, 1.6635799234867413E9, 0.0, 2022-09-19 14:32:03.486
173.0, 8623.168900390732, -8569.927045098191, -45527.57537693684, -19155.40029470924, -78470.11279703531, -187500.02235174447, -24455.93767832967, -16384.61099679601, 0.532, -0.8160000000000001, 0.28600000000000003, 192.0, 0.0, 0.0, 0.0, 0.0, 0.0, 0.0, 0.0, 0.0, 0.0, 1.6635799234897616E9, 0.0, 2022-09-19 14:32:03.489
174.0, 8453.072125085846, -8690.604113412395, -45573.5082117925, -19134.233192710068, -78443.55892462241, -187500.02235174447, -24444.851213079837, -16314.784147117633, 0.532, -0.8160000000000001, 0.28600000000000003, 192.0, 0.0, 0.0, 0.0, 0.0, 0.0, 0.0, 0.0, 0.0, 0.0, 1.6635799234948378E9, 0.0, 2022-09-19 14:32:03.494
175.0, 8449.361735506265, -8729.29498306453, -45559.784240696936, -19142.793910836448, -78450.93500029267, -187500.02235174447, -24439.151518243732, -16336.37593226146, 0.532, -0.8160000000000001, 0.28600000000000003, 192.0, 0.0, 0.0, 0.0, 0.0, 0.0, 0.0, 0.0, 0.0, 0.0, 1.6635799234988625E9, 0.0, 2022-09-19 14:32:03.498
176.0, 8517.042817716934, -8710.63127644435, -45538.5500834644, -19137.54125088945, -78457.10408176233, -187500.02235174447, -24438.570372887894, -16347.149473088917, 0.532, -0.8160000000000001, 0.28600000000000003, 192.0, 0.0, 0.0, 0.0, 0.0, 0.0, 0.0, 0.0, 0.0, 0.0, 1.6635799235028048E9, 0.0, 2022-09-19 14:32:03.502
177.0, 8654.953081006179, -8605.17574610421, -45492.08080674181, -19138.54707938994, -78468.79404411245, -187500.02235174447, -24432.893029796247, -16349.675220212368, 0.532, -0.8160000000000001, 0.28600000000000003, 192.0, 0.0, 0.0, 0.0, 0.0, 0.0, 0.0, 0.0, 0.0, 0.0, 1.6635799235068123E9, 0.0, 2022-09-19 14:32:03.506
178.0, 8618.787958477493, -8587.339054028876, -45522.9932693235, -19145.3196579599, -78466.29064873345, -187500.02235174447, -24452.339047472364, -16347.730618444755, 0.532, -0.8160000000000001, 0.28600000000000003, 192.0, 0.0, 0.0, 0.0, 0.0, 0.0, 0.0, 0.0, 0.0, 0.0, 1.6635799235108368E9, 0.0, 2022-09-19 14:32:03.510
179.0, 8448.53472096142, -8711.01125610009, -45565.21571459958, -19118.54226810244, -78435.13231696276, -187500.02235174447, -24440.000884533034, -16323.166051288374, 0.532, -0.8160000000000001, 0.28600000000000003, 192.0, 0.0, 0.0, 0.0, 0.0, 0.0, 0.0, 0.0, 0.0, 0.0, 1.6635799235148897E9, 0.0, 2022-09-19 14:32:03.514
180.0, 8448.802941894883, -8748.182207129264, -45543.73568817803, -19112.619055821786, -78432.00307273903, -187500.02235174447, -24424.578180858873, -16327.658751923891, 0.532, -0.808, 0.28200000000000003, 192.0, 16.0, 160.0, 230.0, 192.0, 8.0, 208.0, 0.0, 0.0, 0.0, 1.663579923517835E9, 0.0, 2022-09-19 14:32:03.517
181.0, 8508.929134479658, -8728.803244686515, -45516.53361517592, -19115.278913411967, -78432.02542448348, -187500.02235174447, -24419.772555800984, -16321.400263476404, 0.532, -0.808, 0.28200000000000003, 192.0, 0.0, 0.0, 0.0, 0.0, 0.0, 0.0, 0.0, 0.0, 0.0, 1.6635799235229506E9, 0.0, 2022-09-19 14:32:03.522
182.0, 8650.438028626208, -8625.784054492004, -45479.36266414674, -19124.21961119409, -78451.96318053761, -187500.02235174447, -24437.765710087504, -16361.18636860685, 0.532, -0.808, 0.28200000000000003, 192.0, 0.0, 0.0, 0.0, 0.0, 0.0, 0.0, 0.0, 0.0, 0.0, 1.6635799235268936E9, 0.0, 2022-09-19 14:32:03.526
183.0, 8611.434234551696, -8616.172804376221, -45515.57249016434, -19148.203032994632, -78457.19348874014, -187500.02235174447, -24461.011524321024, -16351.061028368596, 0.532, -0.808, 0.28200000000000003, 192.0, 0.0, 0.0, 0.0, 0.0, 0.0, 0.0, 0.0, 0.0, 0.0, 1.6635799235308592E9, 0.0, 2022-09-19 14:32:03.530
184.0, 8441.04688656889, -8743.980079171668, -45556.6549964732, -19115.74830004553, -78424.64934881323, -187500.02235174447, -24454.93184982918, -16307.855106336488, 0.532, -0.808, 0.28200000000000003, 192.0, 0.0, 0.0, 0.0, 0.0, 0.0, 0.0, 0.0, 0.0, 0.0, 1.6635799235348616E9, 0.0, 2022-09-19 14:32:03.534
185.0, 8449.540549461908, -8776.300701654041, -45532.11278106127, -19107.25463715251, -78425.11873544678, -187500.02235174447, -24437.519840898498, -16316.952266329798, 0.532, -0.808, 0.28200000000000003, 192.0, 0.0, 0.0, 0.0, 0.0, 0.0, 0.0, 0.0, 0.0, 0.0, 1.6635799235388632E9, 0.0, 2022-09-19 14:32:03.538
186.0, 8518.428625873164, -8752.585500786961, -45504.95541154807, -19115.770651789982, -78436.9651600081, -187500.02235174447, -24419.146706956235, -16348.825853923066, 0.532, -0.808, 0.28200000000000003, 192.0, 0.0, 0.0, 0.0, 0.0, 0.0, 0.0, 0.0, 0.0, 0.0, 1.663579923541892E9, 0.0, 2022-09-19 14:32:03.541
187.0, 8660.13868571981, -8649.543958847995, -45466.71157678504, -19120.88920127025, -78466.33535222238, -187500.02235174447, -24413.469363864588, -16384.119258417995, 0.532, -0.808, 0.28200000000000003, 192.0, 0.0, 0.0, 0.0, 0.0, 0.0, 0.0, 0.0, 0.0, 0.0, 1.663579923545863E9, 0.0, 2022-09-19 14:32:03.545
188.0, 8608.863783939336, -8645.744162290594, -45501.04385626839, -19120.039834980947, -78464.52486092149, -187500.02235174447, -24451.31086722742, -16343.506138742703, 0.532, -0.808, 0.28200000000000003, 192.0, 0.0, 0.0, 0.0, 0.0, 0.0, 0.0, 0.0, 0.0, 0.0, 1.6635799235508888E9, 0.0, 2022-09-19 14:32:03.550
189.0, 8437.42590396713, -8775.719556298203, -45548.07192660236, -19111.523820343475, -78437.009863497, -187500.02235174447, -24450.59561140485, -16305.374062701949, 0.532, -0.808, 0.28200000000000003, 192.0, 0.0, 0.0, 0.0, 0.0, 0.0, 0.0, 0.0, 0.0, 0.0, 1.6635799235548728E9, 0.0, 2022-09-19 14:32:03.554
190.0, 8443.416171481154, -8812.93521081629, -45526.68130715863, -19108.97572147557, -78432.18188669466, -187500.02235174447, -24419.526686611975, -16319.768586131167, 0.53, -0.8140000000000001, 0.28200000000000003, 192.0, 16.0, 144.0, 230.0, 144.0, 8.0, 208.0, 0.0, 0.0, 0.0, 1.6635799235589192E9, 0.0, 2022-09-19 14:32:03.558
191.0, 8503.58706755484, -8795.277332696598, -45505.491853415, -19114.563657589395, -78439.0662239869, -187500.02235174447, -24417.649140077727, -16321.377911731948, 0.53, -0.8140000000000001, 0.28200000000000003, 192.0, 0.0, 0.0, 0.0, 0.0, 0.0, 0.0, 0.0, 0.0, 0.0, 1.6635799235629766E9, 0.0, 2022-09-19 14:32:03.562
192.0, 8636.736409275105, -8701.265895517576, -45474.37822513321, -19129.204050207623, -78459.18279399668, -187500.02235174447, -24428.31092218291, -16370.529397789169, 0.53, -0.8140000000000001, 0.28200000000000003, 192.0, 0.0, 0.0, 0.0, 0.0, 0.0, 0.0, 0.0, 0.0, 0.0, 1.6635799235669188E9, 0.0, 2022-09-19 14:32:03.566
193.0, 8593.821059920914, -8701.847040873414, -45507.212937738055, -19137.764768334004, -78449.39272992525, -187500.02235174447, -24447.108739269825, -16372.965737934797, 0.53, -0.8140000000000001, 0.28200000000000003, 192.0, 0.0, 0.0, 0.0, 0.0, 0.0, 0.0, 0.0, 0.0, 0.0, 1.6635799235709312E9, 0.0, 2022-09-19 14:32:03.570
194.0, 8420.885613070204, -8836.404542494362, -45552.028185370946, -19108.77455577547, -78421.11777318928, -187500.02235174447, -24430.903724539727, -16315.7005686403, 0.53, -0.8140000000000001, 0.28200000000000003, 192.0, 0.0, 0.0, 0.0, 0.0, 0.0, 0.0, 0.0, 0.0, 0.0, 1.6635799235739675E9, 0.0, 2022-09-19 14:32:03.573
195.0, 8428.529909673918, -8876.391813324906, -45535.51024621847, -19106.20410516311, -78424.04585171293, -187500.02235174447, -24433.809451318917, -16312.168993016363, 0.53, -0.8140000000000001, 0.28200000000000003, 192.0, 0.0, 0.0, 0.0, 0.0, 0.0, 0.0, 0.0, 0.0, 0.0, 1.6635799235779657E9, 0.0, 2022-09-19 14:32:03.577
196.0, 8479.58129400984, -8867.071135887043, -45526.56954843635, -19121.1127187148, -78451.98553228207, -187500.02235174447, -24444.87356482429, -16340.198080563317, 0.53, -0.8140000000000001, 0.28200000000000003, 192.0, 0.0, 0.0, 0.0, 0.0, 0.0, 0.0, 0.0, 0.0, 0.0, 1.66357992358294E9, 0.0, 2022-09-19 14:32:03.582
197.0, 8615.368141575831, -8766.30947188252, -45488.124547973224, -19133.987323521058, -78477.89120410576, -187500.02235174447, -24418.297340666933, -16369.255348355216, 0.53, -0.8140000000000001, 0.28200000000000003, 192.0, 0.0, 0.0, 0.0, 0.0, 0.0, 0.0, 0.0, 0.0, 0.0, 1.663579923586959E9, 0.0, 2022-09-19 14:32:03.586
198.0, 8582.913408626724, -8763.560207314516, -45511.03508603991, -19133.942620032147, -78460.99328529755, -187500.02235174447, -24439.062111265914, -16353.050333625119, 0.53, -0.8140000000000001, 0.28200000000000003, 192.0, 0.0, 0.0, 0.0, 0.0, 0.0, 0.0, 0.0, 0.0, 0.0, 1.6635799235910032E9, 0.0, 2022-09-19 14:32:03.591
199.0, 8431.279174241921, -8887.880609974934, -45550.77648768145, -19123.034968737957, -78431.511334361, -187500.02235174447, -24437.36337868731, -16315.074719795552, 0.53, -0.8140000000000001, 0.28200000000000003, 192.0, 0.0, 0.0, 0.0, 0.0, 0.0, 0.0, 0.0, 0.0, 0.0, 1.6635799235940135E9, 0.0, 2022-09-19 14:32:03.594
200.0, 8437.984697578513, -8927.890232549935, -45541.746382921505, -19105.466497596088, -78438.37331990879, -187500.02235174447, -24456.518823685507, -16326.205888534296, 0.532, -0.8160000000000001, 0.28600000000000003, 192.0, 16.0, 160.0, 230.0, 128.0, 8.0, 240.0, 0.0, 0.0, 0.0, 1.6635799235979924E9, 0.0, 2022-09-19 14:32:03.597
201.0, 8499.451994830608, -8909.67356081886, -45515.21486225306, -19105.846477251827, -78442.35193042182, -187500.02235174447, -24410.898913252226, -16325.42357747836, 0.532, -0.8160000000000001, 0.28600000000000003, 192.0, 0.0, 0.0, 0.0, 0.0, 0.0, 0.0, 0.0, 0.0, 0.0, 1.6635799236020103E9, 0.0, 2022-09-19 14:32:03.602
202.0, 8634.99297320759, -8815.729178873204, -45481.93311475911, -19123.996093749534, -78463.0719975319, -187500.02235174447, -24420.152535456724, -16349.786978934644, 0.532, -0.8160000000000001, 0.28600000000000003, 192.0, 0.0, 0.0, 0.0, 0.0, 0.0, 0.0, 0.0, 0.0, 0.0, 1.663579923606027E9, 0.0, 2022-09-19 14:32:03.606
203.0, 8587.383757517786, -8820.847728353468, -45518.746437876995, -19128.30998042941, -78455.74062535056, -187500.02235174447, -24460.586841176373, -16334.677199682857, 0.532, -0.8160000000000001, 0.28600000000000003, 192.0, 0.0, 0.0, 0.0, 0.0, 0.0, 0.0, 0.0, 0.0, 0.0, 1.6635799236110091E9, 0.0, 2022-09-19 14:32:03.611
204.0, 8423.277249726922, -8949.504369438217, -45551.35763303729, -19111.03208196546, -78425.02932846897, -187500.02235174447, -24440.850250822336, -16341.405074763905, 0.532, -0.8160000000000001, 0.28600000000000003, 192.0, 0.0, 0.0, 0.0, 0.0, 0.0, 0.0, 0.0, 0.0, 0.0, 1.66357992361507E9, 0.0, 2022-09-19 14:32:03.615
205.0, 8428.95459281857, -8987.390576289961, -45535.331432262836, -19113.200201177624, -78436.71929081909, -187500.02235174447, -24431.060186750914, -16305.195248746306, 0.532, -0.8160000000000001, 0.28600000000000003, 192.0, 0.0, 0.0, 0.0, 0.0, 0.0, 0.0, 0.0, 0.0, 0.0, 1.6635799236190417E9, 0.0, 2022-09-19 14:32:03.619
206.0, 8493.528782549953, -8970.760878415213, -45512.86792908525, -19095.899950969215, -78444.43064265617, -187500.02235174447, -24430.92607628418, -16313.688911639323, 0.532, -0.8160000000000001, 0.28600000000000003, 192.0, 0.0, 0.0, 0.0, 0.0, 0.0, 0.0, 0.0, 0.0, 0.0, 1.6635799236220064E9, 0.0, 2022-09-19 14:32:03.622
207.0, 8637.876348242326, -8869.932159177322, -45480.90493451416, -19109.847439509325, -78467.74351212305, -187500.02235174447, -24441.87843106728, -16361.342830818037, 0.532, -0.8160000000000001, 0.28600000000000003, 192.0, 0.0, 0.0, 0.0, 0.0, 0.0, 0.0, 0.0, 0.0, 0.0, 1.663579923626056E9, 0.0, 2022-09-19 14:32:03.626
208.0, 8586.55674297294, -8876.525923791638, -45526.81541762536, -19126.946524017636, -78459.47336667459, -187500.02235174447, -24463.112588299824, -16338.94638287382, 0.532, -0.8160000000000001, 0.28600000000000003, 192.0, 0.0, 0.0, 0.0, 0.0, 0.0, 0.0, 0.0, 0.0, 0.0, 1.663579923630095E9, 0.0, 2022-09-19 14:32:03.630
209.0, 8420.19270899209, -9012.156309146441, -45571.29538909142, -19111.680282554662, -78440.78730830995, -187500.02235174447, -24443.44305317915, -16308.145679014408, 0.532, -0.8160000000000001, 0.28600000000000003, 192.0, 0.0, 0.0, 0.0, 0.0, 0.0, 0.0, 0.0, 0.0, 0.0, 1.6635799236340666E9, 0.0, 2022-09-19 14:32:03.634
210.0, 8440.935127846615, -9049.014335753243, -45554.39747028321, -19117.514087857497, -78450.73383459257, -187500.02235174447, -24459.55866093143, -16338.253478795707, 0.536, -0.8140000000000001, 0.29, 192.0, 16.0, 192.0, 230.0, 144.0, 9.0, 16.0, 0.0, 0.0, 0.0, 1.6635799236380732E9, 0.0, 2022-09-19 14:32:03.638
211.0, 8508.817375757382, -9030.082408199598, -45532.60451943929, -19117.134108201757, -78462.78142485398, -187500.02235174447, -24436.51401239801, -16348.222356822773, 0.536, -0.8140000000000001, 0.29, 192.0, 0.0, 0.0, 0.0, 0.0, 0.0, 0.0, 0.0, 0.0, 0.0, 1.6635799236430864E9, 0.0, 2022-09-19 14:32:03.643
212.0, 8651.600319337884, -8925.520947637671, -45496.61821086624, -19127.818242051395, -78486.00488734304, -187500.02235174447, -24439.151518243732, -16350.837510924044, 0.536, -0.8140000000000001, 0.29, 192.0, 0.0, 0.0, 0.0, 0.0, 0.0, 0.0, 0.0, 0.0, 0.0, 1.6635799236470628E9, 0.0, 2022-09-19 14:32:03.647
213.0, 8593.932818643192, -8933.701686108314, -45531.196359538604, -19136.043684010947, -78477.73474189457, -187500.02235174447, -24467.27001276851, -16346.56832773308, 0.536, -0.8140000000000001, 0.29, 192.0, 0.0, 0.0, 0.0, 0.0, 0.0, 0.0, 0.0, 0.0, 0.0, 1.6635799236511E9, 0.0, 2022-09-19 14:32:03.651
214.0, 8422.561993904352, -9069.466181929849, -45562.84642968731, -19104.728890029062, -78454.66774161671, -187500.02235174447, -24446.259372980523, -16309.553838915092, 0.536, -0.8140000000000001, 0.29, 192.0, 0.0, 0.0, 0.0, 0.0, 0.0, 0.0, 0.0, 0.0, 0.0, 1.663579923655023E9, 0.0, 2022-09-19 14:32:03.655
215.0, 8439.795188879394, -9104.670179446957, -45536.31490901887, -19105.73471852955, -78455.89708756174, -187500.02235174447, -24434.971742030593, -16297.148620742397, 0.536, -0.8140000000000001, 0.29, 192.0, 0.0, 0.0, 0.0, 0.0, 0.0, 0.0, 0.0, 0.0, 0.0, 1.6635799236591191E9, 0.0, 2022-09-19 14:32:03.659
216.0, 8513.69005604864, -9084.46420245936, -45507.279992971424, -19114.340140144843, -78463.87666033229, -187500.02235174447, -24412.329424897365, -16353.676182469868, 0.536, -0.8140000000000001, 0.29, 192.0, 0.0, 0.0, 0.0, 0.0, 0.0, 0.0, 0.0, 0.0, 0.0, 1.6635799236641774E9, 0.0, 2022-09-19 14:32:03.664
217.0, 8649.85688327037, -8989.513992013215, -45477.39571063468, -19131.662742097706, -78490.22936704509, -187500.02235174447, -24427.774480315984, -16400.72660454829, 0.536, -0.8140000000000001, 0.29, 192.0, 0.0, 0.0, 0.0, 0.0, 0.0, 0.0, 0.0, 0.0, 0.0, 1.663579923667117E9, 0.0, 2022-09-19 14:32:03.667
218.0, 8585.439155750175, -9003.39442531996, -45518.277051243436, -19138.50237590103, -78474.58314592639, -187500.02235174447, -24447.689884625663, -16325.960019345286, 0.536, -0.8140000000000001, 0.29, 192.0, 0.0, 0.0, 0.0, 0.0, 0.0, 0.0, 0.0, 0.0, 0.0, 1.663579923671104E9, 0.0, 2022-09-19 14:32:03.671
219.0, 8410.313237942844, -9143.562214799193, -45558.13021160725, -19102.896046983726, -78445.2129537121, -187500.02235174447, -24442.347817700844, -16305.530524913136, 0.536, -0.8140000000000001, 0.29, 192.0, 0.0, 0.0, 0.0, 0.0, 0.0, 0.0, 0.0, 0.0, 0.0, 1.6635799236751328E9, 0.0, 2022-09-19 14:32:03.675
220.0, 8423.433711938109, -9183.795354818745, -45525.608423424776, -19095.4082125912, -78442.17311646619, -187500.02235174447, -24429.383805916765, -16324.909487355888, 0.54, -0.81, 0.28600000000000003, 192.0, 16.0, 224.0, 230.0, 176.0, 8.0, 240.0, 0.0, 0.0, 0.0, 1.6635799236782112E9, 0.0, 2022-09-19 14:32:03.678
221.0, 8494.199334883611, -9163.030584219765, -45491.67847534162, -19100.996148705024, -78447.17990722417, -187500.02235174447, -24404.729831782563, -16324.395397233415, 0.54, -0.81, 0.28600000000000003, 192.0, 0.0, 0.0, 0.0, 0.0, 0.0, 0.0, 0.0, 0.0, 0.0, 1.6635799236821144E9, 0.0, 2022-09-19 14:32:03.682
222.0, 8625.560537047451, -9068.817981340646, -45460.83306799329, -19110.138012187246, -78478.20412852814, -187500.02235174447, -24432.60245711833, -16346.367162032982, 0.54, -0.81, 0.28600000000000003, 192.0, 0.0, 0.0, 0.0, 0.0, 0.0, 0.0, 0.0, 0.0, 0.0, 1.6635799236860518E9, 0.0, 2022-09-19 14:32:03.686
223.0, 8551.285690222465, -9089.627455428536, -45498.74162658949, -19113.44607036663, -78468.8163958569, -187500.02235174447, -24440.2691054665, -16340.265135796684, 0.54, -0.81, 0.28600000000000003, 192.0, 0.0, 0.0, 0.0, 0.0, 0.0, 0.0, 0.0, 0.0, 0.0, 1.6635799236901636E9, 0.0, 2022-09-19 14:32:03.690
224.0, 8383.222923663012, -9228.990582107375, -45533.67740317314, -19095.45291608011, -78435.15466870721, -187500.02235174447, -24424.958160514612, -16314.56062967308, 0.54, -0.81, 0.28600000000000003, 192.0, 0.0, 0.0, 0.0, 0.0, 0.0, 0.0, 0.0, 0.0, 0.0, 1.663579923694131E9, 0.0, 2022-09-19 14:32:03.694
225.0, 8402.04309249438, -9268.709632004457, -45510.856272084275, -19089.909683455193, -78431.24311342754, -187500.02235174447, -24414.050509220426, -16319.925048342355, 0.54, -0.81, 0.28600000000000003, 192.0, 0.0, 0.0, 0.0, 0.0, 0.0, 0.0, 0.0, 0.0, 0.0, 1.6635799236991768E9, 0.0, 2022-09-19 14:32:03.699
226.0, 8470.461782272076, -9258.986623166398, -45489.84563229628, -19091.988395689536, -78441.30139843242, -187500.02235174447, -24418.02911973347, -16323.434272221837, 0.54, -0.81, 0.28600000000000003, 192.0, 0.0, 0.0, 0.0, 0.0, 0.0, 0.0, 0.0, 0.0, 0.0, 1.6635799237031713E9, 0.0, 2022-09-19 14:32:03.703
227.0, 8612.618877007828, -9160.706002796413, -45455.71451851303, -19099.029195192958, -78469.4198929572, -187500.02235174447, -24428.109756482812, -16354.637307481446, 0.54, -0.81, 0.28600000000000003, 192.0, 0.0, 0.0, 0.0, 0.0, 0.0, 0.0, 0.0, 0.0, 0.0, 1.6635799237062395E9, 0.0, 2022-09-19 14:32:03.706
228.0, 8532.465521391097, -9192.557238645226, -45505.33539120381, -19106.986416219046, -78458.17696549618, -187500.02235174447, -24467.381771490785, -16327.32347575706, 0.54, -0.81, 0.28600000000000003, 192.0, 0.0, 0.0, 0.0, 0.0, 0.0, 0.0, 0.0, 0.0, 0.0, 1.663579923710163E9, 0.0, 2022-09-19 14:32:03.710
229.0, 8367.152019399646, -9341.553967184302, -45536.96310960807, -19087.808619476393, -78426.03515696945, -187500.02235174447, -24421.337177912854, -16313.286580239128, 0.54, -0.81, 0.28600000000000003, 192.0, 0.0, 0.0, 0.0, 0.0, 0.0, 0.0, 0.0, 0.0, 0.0, 1.6635799237141247E9, 0.0, 2022-09-19 14:32:03.714
230.0, 8387.559162087342, -9387.263284595405, -45515.326620975335, -19060.517139496464, -78429.1644011932, -187500.02235174447, -24410.071898707378, -16291.337167184016, 0.532, -0.806, 0.28800000000000003, 192.0, 16.0, 160.0, 230.0, 208.0, 9.0, 0.0, 0.0, 0.0, 0.0, 1.663579923718146E9, 0.0, 2022-09-19 14:32:03.718
231.0, 8456.648404198695, -9382.85999093771, -45498.92044054514, -19079.426715305653, -78440.47438388759, -187500.02235174447, -24419.191410445146, -16324.060121066586, 0.532, -0.806, 0.28800000000000003, 192.0, 0.0, 0.0, 0.0, 0.0, 0.0, 0.0, 0.0, 0.0, 0.0, 1.6635799237222083E9, 0.0, 2022-09-19 14:32:03.722
232.0, 8599.006664634546, -9292.246018915894, -45466.80098376286, -19091.653119522707, -78464.32369522139, -187500.02235174447, -24435.664646108708, -16377.972528692786, 0.532, -0.806, 0.28800000000000003, 192.0, 0.0, 0.0, 0.0, 0.0, 0.0, 0.0, 0.0, 0.0, 0.0, 1.663579923727151E9, 0.0, 2022-09-19 14:32:03.727
233.0, 8524.731817809561, -9331.763903112878, -45505.24598422599, -19079.650232750206, -78450.57737238138, -187500.02235174447, -24447.511070670018, -16302.334225456027, 0.532, -0.806, 0.28800000000000003, 192.0, 0.0, 0.0, 0.0, 0.0, 0.0, 0.0, 0.0, 0.0, 0.0, 1.6635799237311602E9, 0.0, 2022-09-19 14:32:03.731
234.0, 8365.900321710149, -9483.35343400877, -45540.248816043, -19060.651249963197, -78423.42000286818, -187500.02235174447, -24410.183657429658, -16253.473312076727, 0.532, -0.806, 0.28800000000000003, 192.0, 0.0, 0.0, 0.0, 0.0, 0.0, 0.0, 0.0, 0.0, 0.0, 1.6635799237341974E9, 0.0, 2022-09-19 14:32:03.734
235.0, 8388.967321988026, -9539.478664336046, -45518.36645822125, -19055.555052227384, -78428.65031107073, -187500.02235174447, -24399.2089509021, -16297.908580053876, 0.532, -0.806, 0.28800000000000003, 192.0, 0.0, 0.0, 0.0, 0.0, 0.0, 0.0, 0.0, 0.0, 0.0, 1.6635799237382786E9, 0.0, 2022-09-19 14:32:03.738
236.0, 8449.272328528445, -9543.546681826912, -45500.12743474572, -19069.189616345124, -78443.2683519445, -187500.02235174447, -24402.33819512584, -16336.018304350175, 0.532, -0.806, 0.28800000000000003, 192.0, 0.0, 0.0, 0.0, 0.0, 0.0, 0.0, 0.0, 0.0, 0.0, 1.6635799237421994E9, 0.0, 2022-09-19 14:32:03.742
237.0, 8590.289484296976, -9461.5828349093, -45469.50554484195, -19076.386878059733, -78460.59095389735, -187500.02235174447, -24412.0612039639, -16338.432292751348, 0.532, -0.806, 0.28800000000000003, 192.0, 0.0, 0.0, 0.0, 0.0, 0.0, 0.0, 0.0, 0.0, 0.0, 1.663579923746183E9, 0.0, 2022-09-19 14:32:03.746
238.0, 8499.2061256416, -9523.564222283867, -45522.27801350093, -19087.473343309564, -78446.33054093487, -187500.02235174447, -24454.395407962253, -16324.238935022227, 0.532, -0.806, 0.28800000000000003, 192.0, 0.0, 0.0, 0.0, 0.0, 0.0, 0.0, 0.0, 0.0, 0.0, 1.6635799237501884E9, 0.0, 2022-09-19 14:32:03.750
239.0, 8332.976202127482, -9690.844677787385, -45560.767717452974, -19071.2012733461, -78415.28396788645, -187500.02235174447, -24436.402253675733, -16298.780298087633, 0.532, -0.806, 0.28800000000000003, 192.0, 0.0, 0.0, 0.0, 0.0, 0.0, 0.0, 0.0, 0.0, 0.0, 1.6635799237552104E9, 0.0, 2022-09-19 14:32:03.755
240.0, 8361.18410363008, -9743.192463301715, -45523.90969084617, -19046.10026432279, -78405.94093870414, -187500.02235174447, -24391.475247320563, -16270.97472798523, 0.524, -0.808, 0.28600000000000003, 192.0, 16.0, 96.0, 230.0, 192.0, 8.0, 240.0, 0.0, 0.0, 0.0, 1.6635799237592409E9, 0.0, 2022-09-19 14:32:03.759
241.0, 8427.680543384617, -9751.552015727999, -45501.24502196849, -19052.42580800364, -78427.59977908133, -187500.02235174447, -24409.803677773914, -16294.332300941027, 0.524, -0.808, 0.28600000000000003, 192.0, 0.0, 0.0, 0.0, 0.0, 0.0, 0.0, 0.0, 0.0, 0.0, 1.663579923762231E9, 0.0, 2022-09-19 14:32:03.762
242.0, 8565.657861907228, -9680.898151504774, -45473.61826582173, -19076.92331992666, -78461.97676205359, -187500.02235174447, -24406.62973006126, -16348.401170778416, 0.524, -0.808, 0.28600000000000003, 192.0, 0.0, 0.0, 0.0, 0.0, 0.0, 0.0, 0.0, 0.0, 0.0, 1.6635799237662833E9, 0.0, 2022-09-19 14:32:03.766
243.0, 8476.362642808275, -9747.372239514856, -45518.411161710166, -19083.67354675216, -78448.29749444693, -187500.02235174447, -24422.49946862453, -16326.965847845775, 0.524, -0.808, 0.28600000000000003, 192.0, 0.0, 0.0, 0.0, 0.0, 0.0, 0.0, 0.0, 0.0, 0.0, 1.6635799237702131E9, 0.0, 2022-09-19 14:32:03.770
244.0, 8319.386341498655, -9917.91604970885, -45552.67638596015, -19064.495750009508, -78421.00601446701, -187500.02235174447, -24431.037835006457, -16282.530579868626, 0.524, -0.808, 0.28600000000000003, 192.0, 0.0, 0.0, 0.0, 0.0, 0.0, 0.0, 0.0, 0.0, 0.0, 1.6635799237742805E9, 0.0, 2022-09-19 14:32:03.774
245.0, 8340.195815586545, -9986.178277275358, -45530.92813860514, -19038.344208996798, -78423.42000286818, -187500.02235174447, -24408.864904506794, -16276.920292010343, 0.524, -0.808, 0.28600000000000003, 192.0, 0.0, 0.0, 0.0, 0.0, 0.0, 0.0, 0.0, 0.0, 0.0, 1.6635799237782726E9, 0.0, 2022-09-19 14:32:03.778
246.0, 8412.123729243724, -10000.483393726754, -45501.9379260466, -19053.34222952631, -78435.7134623186, -187500.02235174447, -24376.276061090954, -16326.585868190035, 0.524, -0.808, 0.28600000000000003, 192.0, 0.0, 0.0, 0.0, 0.0, 0.0, 0.0, 0.0, 0.0, 0.0, 1.663579923783234E9, 0.0, 2022-09-19 14:32:03.783
247.0, 8549.609309388317, -9937.697343551796, -45476.725158301015, -19083.62884326325, -78461.99911379804, -187500.02235174447, -24401.086497436347, -16349.921089401376, 0.524, -0.808, 0.28600000000000003, 192.0, 0.0, 0.0, 0.0, 0.0, 0.0, 0.0, 0.0, 0.0, 0.0, 1.6635799237862935E9, 0.0, 2022-09-19 14:32:03.786
248.0, 8455.329651275832, -10013.939143888849, -45526.63660366972, -19074.06229663638, -78440.67554958767, -187500.02235174447, -24436.983399031567, -16283.581111858024, 0.524, -0.808, 0.28600000000000003, 192.0, 0.0, 0.0, 0.0, 0.0, 0.0, 0.0, 0.0, 0.0, 0.0, 1.6635799237892773E9, 0.0, 2022-09-19 14:32:03.789
249.0, 8286.663387616085, -10199.68214031245, -45567.09326113382, -19055.979735372035, -78419.95548247761, -187500.02235174447, -24425.427547148174, -16267.711373294756, 0.524, -0.808, 0.28600000000000003, 192.0, 0.0, 0.0, 0.0, 0.0, 0.0, 0.0, 0.0, 0.0, 0.0, 1.6635799237943106E9, 0.0, 2022-09-19 14:32:03.794
250.0, 8316.592373441741, -10272.235902814378, -45537.99128985302, -19056.71734293906, -78423.95644473511, -187500.02235174447, -24401.757049770004, -16291.448925906292, 0.532, -0.804, 0.28600000000000003, 192.0, 16.0, 160.0, 230.0, 224.0, 8.0, 240.0, 0.0, 0.0, 0.0, 1.6635799237982762E9, 0.0, 2022-09-19 14:32:03.798
251.0, 8392.990635989981, -10289.491449533874, -45513.940812819106, -19061.768837185962, -78435.66875882969, -187500.02235174447, -24405.86977074978, -16299.830830077033, 0.532, -0.804, 0.28600000000000003, 192.0, 0.0, 0.0, 0.0, 0.0, 0.0, 0.0, 0.0, 0.0, 0.0, 1.663579923802312E9, 0.0, 2022-09-19 14:32:03.802
252.0, 8535.661820848205, -10221.340980689643, -45477.507469356955, -19066.462703521574, -78455.15947999472, -187500.02235174447, -24396.906721223204, -16318.740405886223, 0.532, -0.804, 0.28600000000000003, 192.0, 0.0, 0.0, 0.0, 0.0, 0.0, 0.0, 0.0, 0.0, 0.0, 1.6635799238063176E9, 0.0, 2022-09-19 14:32:03.806
253.0, 8437.850587111781, -10303.126013651612, -45521.0933710448, -19064.875729665247, -78436.94280826364, -187500.02235174447, -24419.481983123063, -16279.31192866706, 0.532, -0.804, 0.28600000000000003, 192.0, 0.0, 0.0, 0.0, 0.0, 0.0, 0.0, 0.0, 0.0, 0.0, 1.663579923810305E9, 0.0, 2022-09-19 14:32:03.810
254.0, 8285.501096904409, -10488.936065308579, -45555.515057505974, -19046.01085734497, -78413.65229054121, -187500.02235174447, -24409.69191905164, -16257.11664642294, 0.532, -0.804, 0.28600000000000003, 192.0, 0.0, 0.0, 0.0, 0.0, 0.0, 0.0, 0.0, 0.0, 0.0, 1.6635799238143923E9, 0.0, 2022-09-19 14:32:03.814
255.0, 8318.335809509255, -10565.155513901176, -45533.65505142869, -19037.114863051756, -78419.68726154414, -187500.02235174447, -24399.566578813385, -16279.490742622704, 0.532, -0.804, 0.28600000000000003, 192.0, 0.0, 0.0, 0.0, 0.0, 0.0, 0.0, 0.0, 0.0, 0.0, 1.6635799238173475E9, 0.0, 2022-09-19 14:32:03.817
0.0, 8403.227734950511, -10584.020386221455, -45505.20128073708, -19042.94866835459, -78430.19258143814, -187500.02235174447, -24401.73469802555, -16314.22535350625, 0.532, -0.804, 0.28600000000000003, 192.0, 0.0, 0.0, 0.0, 0.0, 0.0, 0.0, 0.0, 0.0, 0.0, 1.6635799238223436E9, 0.0, 2022-09-19 14:32:03.822
1.0, 8540.40039067273, -10520.720245924025, -45471.204277420555, -19065.63568897673, -78451.47144215959, -187500.02235174447, -24389.485942064042, -16309.08445228153, 0.532, -0.804, 0.28600000000000003, 192.0, 0.0, 0.0, 0.0, 0.0, 0.0, 0.0, 0.0, 0.0, 0.0, 1.6635799238263197E9, 0.0, 2022-09-19 14:32:03.826
2.0, 8433.849624854282, -10610.037816767433, -45518.679382643626, -19065.72509595455, -78426.70570930312, -187500.02235174447, -24429.048529749936, -16309.710301126279, 0.532, -0.804, 0.28600000000000003, 192.0, 0.0, 0.0, 0.0, 0.0, 0.0, 0.0, 0.0, 0.0, 0.0, 1.663579923830354E9, 0.0, 2022-09-19 14:32:03.830
3.0, 8272.917064776071, -10794.462060268172, -45545.76969692346, -19047.06138933437, -78402.2081973801, -187500.02235174447, -24404.662776549194, -16262.145788925385, 0.532, -0.804, 0.28600000000000003, 192.0, 0.0, 0.0, 0.0, 0.0, 0.0, 0.0, 0.0, 0.0, 0.0, 1.6635799238343425E9, 0.0, 2022-09-19 14:32:03.834
4.0, 8302.644884901629, -10860.28794768905, -45511.14684476219, -19025.00021755698, -78404.64453752572, -187500.02235174447, -24380.29937509291, -16261.564643569547, 0.536, -0.806, 0.28200000000000003, 192.0, 16.0, 192.0, 230.0, 208.0, 8.0, 208.0, 0.0, 0.0, 0.0, 1.6635799238383696E9, 0.0, 2022-09-19 14:32:03.838
5.0, 8380.250141650456, -10876.20238974123, -45484.25769618246, -19039.461796219566, -78421.22953191157, -187500.02235174447, -24370.28579357693, -16283.402297902383, 0.536, -0.806, 0.28200000000000003, 192.0, 0.0, 0.0, 0.0, 0.0, 0.0, 0.0, 0.0, 0.0, 0.0, 1.6635799238423667E9, 0.0, 2022-09-19 14:32:03.842
6.0, 8515.657009560706, -10817.014970423577, -45458.57554180331, -19070.217796590066, -78453.77367183848, -187500.02235174447, -24390.134142653245, -16332.352618259505, 0.536, -0.806, 0.28200000000000003, 192.0, 0.0, 0.0, 0.0, 0.0, 0.0, 0.0, 0.0, 0.0, 0.0, 1.66357992384541E9, 0.0, 2022-09-19 14:32:03.845
7.0, 8404.792357062383, -10911.92047738081, -45514.767827363954, -19074.06229663638, -78441.99430251055, -187500.02235174447, -24423.237076191555, -16327.99402809072, 0.536, -0.806, 0.28200000000000003, 192.0, 0.0, 0.0, 0.0, 0.0, 0.0, 0.0, 0.0, 0.0, 0.0, 1.6635799238493688E9, 0.0, 2022-09-19 14:32:03.849
8.0, 8258.097858202203, -11094.109546436019, -45544.00390911149, -19046.323781767343, -78412.17707540716, -187500.02235174447, -24408.12729693977, -16251.439303331294, 0.536, -0.806, 0.28200000000000003, 192.0, 0.0, 0.0, 0.0, 0.0, 0.0, 0.0, 0.0, 0.0, 0.0, 1.663579923854361E9, 0.0, 2022-09-19 14:32:03.854
9.0, 8293.793594097328, -11169.904311883964, -45519.305231488375, -19038.567726441353, -78420.17899992217, -187500.02235174447, -24391.944633954125, -16262.145788925385, 0.536, -0.806, 0.28200000000000003, 192.0, 0.0, 0.0, 0.0, 0.0, 0.0, 0.0, 0.0, 0.0, 0.0, 1.6635799238585012E9, 0.0, 2022-09-19 14:32:03.858
10.0, 8363.46398156452, -11185.729346958322, -45489.39859740718, -19042.47928172103, -78430.61726458279, -187500.02235174447, -24389.77651474196, -16284.095201980497, 0.536, -0.806, 0.28200000000000003, 192.0, 0.0, 0.0, 0.0, 0.0, 0.0, 0.0, 0.0, 0.0, 0.0, 1.6635799238624427E9, 0.0, 2022-09-19 14:32:03.862
11.0, 8493.908762205692, -11126.117244496018, -45457.90498946965, -19059.600717973797, -78458.80281434093, -187500.02235174447, -24390.044735675423, -16313.621856405958, 0.536, -0.806, 0.28200000000000003, 192.0, 0.0, 0.0, 0.0, 0.0, 0.0, 0.0, 0.0, 0.0, 0.0, 1.663579923866414E9, 0.0, 2022-09-19 14:32:03.866
12.0, 8379.579589316796, -11226.36481837807, -45511.21389999556, -19061.545319741406, -78438.32861641987, -187500.02235174447, -24416.12922145477, -16282.709393824267, 0.536, -0.806, 0.28200000000000003, 192.0, 0.0, 0.0, 0.0, 0.0, 0.0, 0.0, 0.0, 0.0, 0.0, 1.6635799238703725E9, 0.0, 2022-09-19 14:32:03.870
13.0, 8228.548852032287, -11412.152518290583, -45537.58895845282, -19051.352924269788, -78412.1100201738, -187500.02235174447, -24392.905758965702, -16274.573358842536, 0.536, -0.806, 0.28200000000000003, 192.0, 0.0, 0.0, 0.0, 0.0, 0.0, 0.0, 0.0, 0.0, 0.0, 1.6635799238734012E9, 0.0, 2022-09-19 14:32:03.873
14.0, 8258.63430006913, -11486.829696515762, -45512.800873851884, -19062.394686030708, -78418.90495048821, -187500.02235174447, -24382.44514256062, -16301.104879510985, 0.536, -0.806, 0.28200000000000003, 192.0, 0.0, 0.0, 0.0, 0.0, 0.0, 0.0, 0.0, 0.0, 0.0, 1.663579923878454E9, 0.0, 2022-09-19 14:32:03.878
15.0, 8348.957699413026, -11498.340844910246, -45481.553135103364, -19050.078874835835, -78433.29947391743, -187500.02235174447, -24389.843569975328, -16293.281768951629, 0.536, -0.806, 0.29, 192.0, 16.0, 192.0, 230.0, 208.0, 9.0, 16.0, 0.0, 0.0, 0.0, 1.663579923881466E9, 0.0, 2022-09-19 14:32:03.881
16.0, 8492.29943660491, -11436.515919746867, -45459.35785285924, -19074.419924547663, -78462.98259055408, -187500.02235174447, -24403.321671881877, -16297.908580053876, 0.536, -0.806, 0.29, 192.0, 0.0, 0.0, 0.0, 0.0, 0.0, 0.0, 0.0, 0.0, 0.0, 1.6635799238864713E9, 0.0, 2022-09-19 14:32:03.886
17.0, 8378.707871283039, -11539.37864773019, -45521.67451640064, -19085.12641014176, -78444.3188839339, -187500.02235174447, -24437.251619965034, -16290.487800894714, 0.536, -0.806, 0.29, 192.0, 0.0, 0.0, 0.0, 0.0, 0.0, 0.0, 0.0, 0.0, 0.0, 1.663579923890494E9, 0.0, 2022-09-19 14:32:03.890
18.0, 8227.76654097635, -11722.37237958579, -45549.994176625514, -19047.597831201296, -78416.15568592021, -187500.02235174447, -24400.438296847144, -16282.441172890804, 0.536, -0.806, 0.29, 192.0, 0.0, 0.0, 0.0, 0.0, 0.0, 0.0, 0.0, 0.0, 0.0, 1.663579923894538E9, 0.0, 2022-09-19 14:32:03.894
19.0, 8256.82380876825, -11798.413014222744, -45520.57928092233, -19041.786377642915, -78419.12846793277, -187500.02235174447, -24376.119598879766, -16291.806553817578, 0.536, -0.806, 0.29, 192.0, 0.0, 0.0, 0.0, 0.0, 0.0, 0.0, 0.0, 0.0, 0.0, 1.663579923897473E9, 0.0, 2022-09-19 14:32:03.897
20.0, 8345.806103444827, -11813.835717896905, -45492.393731164186, -19046.39083700071, -78428.38209013725, -187500.02235174447, -24382.26632860498, -16307.944513314309, 0.536, -0.806, 0.29, 192.0, 0.0, 0.0, 0.0, 0.0, 0.0, 0.0, 0.0, 0.0, 0.0, 1.6635799239014697E9, 0.0, 2022-09-19 14:32:03.901
21.0, 8482.375262066753, -11749.216824676612, -45466.733928529495, -19080.656061250695, -78451.24792471503, -187500.02235174447, -24400.371241613775, -16343.126159086964, 0.536, -0.806, 0.29, 192.0, 0.0, 0.0, 0.0, 0.0, 0.0, 0.0, 0.0, 0.0, 0.0, 1.663579923905456E9, 0.0, 2022-09-19 14:32:03.905
22.0, 8356.736106483473, -11853.711230005174, -45521.562757678366, -19066.373296543756, -78423.64352031273, -187500.02235174447, -24431.104890239825, -16272.181722185818, 0.536, -0.806, 0.29, 192.0, 0.0, 0.0, 0.0, 0.0, 0.0, 0.0, 0.0, 0.0, 0.0, 1.6635799239105248E9, 0.0, 2022-09-19 14:32:03.910
23.0, 8203.850174409172, -12037.28610721661, -45549.16716208067, -19042.59104044331, -78393.08868564233, -187500.02235174447, -24414.162267942702, -16252.534538809603, 0.536, -0.806, 0.29, 192.0, 0.0, 0.0, 0.0, 0.0, 0.0, 0.0, 0.0, 0.0, 0.0, 1.6635799239145317E9, 0.0, 2022-09-19 14:32:03.914
24.0, 8238.763599248363, -12105.414224316386, -45514.767827363954, -19040.95936309807, -78397.76020023349, -187500.02235174447, -24380.992279171023, -16278.149637955385, 0.536, -0.806, 0.29, 192.0, 0.0, 0.0, 0.0, 0.0, 0.0, 0.0, 0.0, 0.0, 0.0, 1.6635799239185202E9, 0.0, 2022-09-19 14:32:03.918
25.0, 8327.611783458207, -12113.907887209403, -45481.39667289218, -19056.560880727873, -78416.58036906486, -187500.02235174447, -24376.29841283541, -16315.387644217926, 0.532, -0.81, 0.28800000000000003, 192.0, 16.0, 160.0, 230.0, 176.0, 9.0, 0.0, 0.0, 0.0, 0.0, 1.6635799239225073E9, 0.0, 2022-09-19 14:32:03.922
26.0, 8470.372375294253, -12044.550424164585, -45450.64067252167, -19063.400514531197, -78440.9661222656, -187500.02235174447, -24385.01559317298, -16291.13600148392, 0.532, -0.81, 0.28800000000000003, 192.0, 0.0, 0.0, 0.0, 0.0, 0.0, 0.0, 0.0, 0.0, 0.0, 1.6635799239255412E9, 0.0, 2022-09-19 14:32:03.925
27.0, 8344.085019121769, -12157.426733663886, -45512.62205989624, -19074.107000125292, -78429.52202910448, -187500.02235174447, -24412.083555708356, -16275.17685594283, 0.532, -0.81, 0.28800000000000003, 192.0, 0.0, 0.0, 0.0, 0.0, 0.0, 0.0, 0.0, 0.0, 0.0, 1.6635799239296575E9, 0.0, 2022-09-19 14:32:03.929
28.0, 8204.00663662036, -12341.426294019973, -45542.305176532886, -19062.640555219717, -78410.23247363955, -187500.02235174447, -24398.381936357255, -16266.50437909417, 0.532, -0.81, 0.28800000000000003, 192.0, 0.0, 0.0, 0.0, 0.0, 0.0, 0.0, 0.0, 0.0, 0.0, 1.66357992393355E9, 0.0, 2022-09-19 14:32:03.933
29.0, 8233.175663134536, -12413.801242566258, -45517.9417750766, -19052.649325448194, -78420.46957260008, -187500.02235174447, -24395.364450855788, -16292.36534742896, 0.532, -0.81, 0.28800000000000003, 192.0, 0.0, 0.0, 0.0, 0.0, 0.0, 0.0, 0.0, 0.0, 0.0, 1.663579923937595E9, 0.0, 2022-09-19 14:32:03.937
30.0, 8319.07341707628, -12427.234640983897, -45490.359722418754, -19051.129406825235, -78439.3120931759, -187500.02235174447, -24398.73956426854, -16313.621856405958, 0.532, -0.81, 0.28800000000000003, 192.0, 0.0, 0.0, 0.0, 0.0, 0.0, 0.0, 0.0, 0.0, 0.0, 1.66357992394258E9, 0.0, 2022-09-19 14:32:03.942
31.0, 8459.777648422438, -12359.486503539862, -45462.80002150536, -19067.289718066422, -78462.89318357625, -187500.02235174447, -24406.74148878354, -16311.386681960426, 0.532, -0.81, 0.28800000000000003, 192.0, 0.0, 0.0, 0.0, 0.0, 0.0, 0.0, 0.0, 0.0, 0.0, 1.6635799239466243E9, 0.0, 2022-09-19 14:32:03.946
32.0, 8330.27164104839, -12467.333670536718, -45524.893167602204, -19062.752313941994, -78441.14493622124, -187500.02235174447, -24423.147669213733, -16288.297329938094, 0.532, -0.81, 0.28800000000000003, 192.0, 0.0, 0.0, 0.0, 0.0, 0.0, 0.0, 0.0, 0.0, 0.0, 1.663579923949612E9, 0.0, 2022-09-19 14:32:03.949
33.0, 8192.540191714786, -12644.292431389384, -45546.26143530148, -19051.285869036423, -78409.85249398381, -187500.02235174447, -24383.406267572198, -16262.88339649241, 0.532, -0.81, 0.28800000000000003, 192.0, 0.0, 0.0, 0.0, 0.0, 0.0, 0.0, 0.0, 0.0, 0.0, 1.6635799239536052E9, 0.0, 2022-09-19 14:32:03.953
34.0, 8234.539119546309, -12710.006560087986, -45516.175987264636, -19039.66296191966, -78412.91468297418, -187500.02235174447, -24374.82319770136, -16282.17295195734, 0.532, -0.81, 0.28800000000000003, 192.0, 0.0, 0.0, 0.0, 0.0, 0.0, 0.0, 0.0, 0.0, 0.0, 1.6635799239576797E9, 0.0, 2022-09-19 14:32:03.957
35.0, 8332.707981194018, -12713.828708389845, -45489.37624566272, -19037.494842707496, -78425.14108719124, -187500.02235174447, -24385.239110617535, -16302.647149878401, 0.532, -0.81, 0.28800000000000003, 192.0, 16.0, 160.0, 230.0, 176.0, 9.0, 0.0, 0.0, 0.0, 0.0, 1.663579923961723E9, 0.0, 2022-09-19 14:32:03.961
36.0, 8469.947692149603, -12643.554823822358, -45468.49971634147, -19065.43452327663, -78452.36551193781, -187500.02235174447, -24401.98056721456, -16325.08830131153, 0.532, -0.81, 0.28800000000000003, 192.0, 0.0, 0.0, 0.0, 0.0, 0.0, 0.0, 0.0, 0.0, 0.0, 1.6635799239666283E9, 0.0, 2022-09-19 14:32:03.966
37.0, 8343.526225510386, -12746.797531461423, -45525.22844376903, -19066.19448258811, -78434.4170611402, -187500.02235174447, -24414.74341329854, -16291.56068462857, 0.532, -0.81, 0.28800000000000003, 192.0, 0.0, 0.0, 0.0, 0.0, 0.0, 0.0, 0.0, 0.0, 0.0, 1.6635799239706233E9, 0.0, 2022-09-19 14:32:03.970
38.0, 8207.314694799745, -12913.966228242663, -45549.994176625514, -19050.548261469397, -78417.47443884307, -187500.02235174447, -24400.59475905833, -16263.822169759533, 0.532, -0.81, 0.28800000000000003, 192.0, 0.0, 0.0, 0.0, 0.0, 0.0, 0.0, 0.0, 0.0, 0.0, 1.6635799239746337E9, 0.0, 2022-09-19 14:32:03.974
39.0, 8248.598366808697, -12970.85141788142, -45523.842635612804, -19053.63280220423, -78430.84078202734, -187500.02235174447, -24392.97281419907, -16299.31673995456, 0.532, -0.81, 0.28800000000000003, 192.0, 0.0, 0.0, 0.0, 0.0, 0.0, 0.0, 0.0, 0.0, 0.0, 1.6635799239776523E9, 0.0, 2022-09-19 14:32:03.977
40.0, 8350.924652925092, -12961.463685210192, -45482.08957697029, -19057.231433061534, -78444.90002928973, -187500.02235174447, -24375.784322712938, -16318.449833208304, 0.532, -0.81, 0.28800000000000003, 192.0, 0.0, 0.0, 0.0, 0.0, 0.0, 0.0, 0.0, 0.0, 0.0, 1.663579923981632E9, 0.0, 2022-09-19 14:32:03.981
41.0, 8489.594875525818, -12874.7389167236, -45454.216951634524, -19066.127427354746, -78462.62496264279, -187500.02235174447, -24394.96211945559, -16348.445874267325, 0.532, -0.81, 0.28800000000000003, 192.0, 0.0, 0.0, 0.0, 0.0, 0.0, 0.0, 0.0, 0.0, 0.0, 1.6635799239856381E9, 0.0, 2022-09-19 14:32:03.985
42.0, 8361.452324563543, -12968.325670757971, -45516.444208198096, -19060.271270307454, -78439.55796236491, -187500.02235174447, -24427.81918380489, -16304.412937690371, 0.532, -0.81, 0.28800000000000003, 192.0, 0.0, 0.0, 0.0, 0.0, 0.0, 0.0, 0.0, 0.0, 0.0, 1.6635799239896133E9, 0.0, 2022-09-19 14:32:03.989
43.0, 8230.940488689004, -13123.6479429779, -45546.75317367949, -19049.743598669007, -78420.02253771097, -187500.02235174447, -24422.611227346806, -16264.537425582103, 0.532, -0.81, 0.28800000000000003, 192.0, 0.0, 0.0, 0.0, 0.0, 0.0, 0.0, 0.0, 0.0, 0.0, 1.6635799239937136E9, 0.0, 2022-09-19 14:32:03.993
44.0, 8281.701300347007, -13158.94134747283, -45517.003001809484, -19039.372389241744, -78429.18675293765, -187500.02235174447, -24384.88148270625, -16279.26722517815, 0.532, -0.81, 0.28800000000000003, 192.0, 0.0, 0.0, 0.0, 0.0, 0.0, 0.0, 0.0, 0.0, 0.0, 1.663579923999727E9, 0.0, 2022-09-19 14:32:03.999
45.0, 8383.3793858742, -13133.795634960608, -45487.3869404062, -19049.654191691185, -78444.60945661181, -187500.02235174447, -24395.677375278163, -16308.525658670147, 0.534, -0.81, 0.28800000000000003, 192.0, 16.0, 176.0, 230.0, 176.0, 9.0, 0.0, 0.0, 0.0, 0.0, 1.6635799240026755E9, 0.0, 2022-09-19 14:32:04.002
46.0, 8511.834861258849, -13050.378924653403, -45463.247056394466, -19064.16047384268, -78461.97676205359, -187500.02235174447, -24403.96987247108, -16323.858955366488, 0.534, -0.81, 0.28800000000000003, 192.0, 0.0, 0.0, 0.0, 0.0, 0.0, 0.0, 0.0, 0.0, 0.0, 1.6635799240066388E9, 0.0, 2022-09-19 14:32:04.006
47.0, 8364.827437976293, -13156.326193371558, -45527.977708337035, -19067.06620062187, -78442.4189856552, -187500.02235174447, -24410.518933596486, -16288.610254360468, 0.534, -0.81, 0.28800000000000003, 192.0, 0.0, 0.0, 0.0, 0.0, 0.0, 0.0, 0.0, 0.0, 0.0, 1.6635799240096397E9, 0.0, 2022-09-19 14:32:04.009
48.0, 8225.754883975373, -13322.712579096864, -45552.74344119352, -19054.035133604426, -78418.34615687683, -187500.02235174447, -24395.073878177867, -16278.976652500232, 0.534, -0.81, 0.28800000000000003, 192.0, 0.0, 0.0, 0.0, 0.0, 0.0, 0.0, 0.0, 0.0, 0.0, 1.663579924013665E9, 0.0, 2022-09-19 14:32:04.013
49.0, 8269.318433918766, -13371.998175620816, -45519.14876927719, -19047.083741078823, -78421.47540110057, -187500.02235174447, -24376.58898551333, -16306.51400166917, 0.534, -0.81, 0.28800000000000003, 192.0, 0.0, 0.0, 0.0, 0.0, 0.0, 0.0, 0.0, 0.0, 0.0, 1.663579924017671E9, 0.0, 2022-09-19 14:32:04.017
50.0, 8363.061650164325, -13357.983631847339, -45486.89520202818, -19049.855357391283, -78435.84757278534, -187500.02235174447, -24378.39947681421, -16318.22631576375, 0.534, -0.81, 0.28800000000000003, 192.0, 0.0, 0.0, 0.0, 0.0, 0.0, 0.0, 0.0, 0.0, 0.0, 1.663579924021701E9, 0.0, 2022-09-19 14:32:04.021
51.0, 8489.371358081265, -13278.366718097535, -45464.90108548416, -19064.38399128723, -78459.33925620787, -187500.02235174447, -24397.957253212604, -16336.800615406111, 0.534, -0.81, 0.28800000000000003, 192.0, 0.0, 0.0, 0.0, 0.0, 0.0, 0.0, 0.0, 0.0, 0.0, 1.6635799240267036E9, 0.0, 2022-09-19 14:32:04.026
52.0, 8345.426123789088, -13384.60455949361, -45529.028240326435, -19068.027325633448, -78438.88741003125, -187500.02235174447, -24423.147669213733, -16274.46160012026, 0.534, -0.81, 0.28800000000000003, 192.0, 0.0, 0.0, 0.0, 0.0, 0.0, 0.0, 0.0, 0.0, 0.0, 1.6635799240306883E9, 0.0, 2022-09-19 14:32:04.030
53.0, 8209.81809017874, -13550.700372540996, -45553.503400505, -19042.05459857638, -78421.65421505622, -187500.02235174447, -24402.047622447924, -16274.685117564812, 0.534, -0.81, 0.28800000000000003, 192.0, 0.0, 0.0, 0.0, 0.0, 0.0, 0.0, 0.0, 0.0, 0.0, 1.6635799240337636E9, 0.0, 2022-09-19 14:32:04.033
54.0, 8259.617776825164, -13591.73817536094, -45521.696868145096, -19042.367522998753, -78427.80094478143, -187500.02235174447, -24389.977680442058, -16286.688004337313, 0.534, -0.81, 0.28800000000000003, 192.0, 0.0, 0.0, 0.0, 0.0, 0.0, 0.0, 0.0, 0.0, 0.0, 1.6635799240377395E9, 0.0, 2022-09-19 14:32:04.037
55.0, 8361.027641418892, -13568.559416360786, -45490.784405563405, -19046.68140967863, -78441.1672879657, -187500.02235174447, -24401.622939303274, -16302.624798133946, 0.54, -0.8140000000000001, 0.28800000000000003, 192.0, 16.0, 224.0, 230.0, 144.0, 9.0, 0.0, 0.0, 0.0, 0.0, 1.663579924041824E9, 0.0, 2022-09-19 14:32:04.041
56.0, 8491.472422060064, -13479.822990873217, -45470.153745431155, -19064.316936053867, -78465.28482023298, -187500.02235174447, -24409.69191905164, -16313.174821516852, 0.54, -0.8140000000000001, 0.28800000000000003, 192.0, 0.0, 0.0, 0.0, 0.0, 0.0, 0.0, 0.0, 0.0, 0.0, 1.6635799240457897E9, 0.0, 2022-09-19 14:32:04.045
57.0, 8345.336716811265, -13585.144410746625, -45523.73087689053, -19059.332497040334, -78437.30043617493, -187500.02235174447, -24405.06510794939, -16283.64816709139, 0.54, -0.8140000000000001, 0.28800000000000003, 192.0, 0.0, 0.0, 0.0, 0.0, 0.0, 0.0, 0.0, 0.0, 0.0, 1.663579924049709E9, 0.0, 2022-09-19 14:32:04.049
58.0, 8213.215555335946, -13745.048790579891, -45546.48495274603, -19039.752368897483, -78424.62699706877, -187500.02235174447, -24397.06318343439, -16283.156428713373, 0.54, -0.8140000000000001, 0.28800000000000003, 192.0, 0.0, 0.0, 0.0, 0.0, 0.0, 0.0, 0.0, 0.0, 0.0, 1.6635799240538652E9, 0.0, 2022-09-19 14:32:04.053
59.0, 8257.851989013194, -13787.651215511707, -45534.23619678452, -19048.73777016852, -78439.22268619809, -187500.02235174447, -24425.472250637085, -16305.463469679771, 0.54, -0.8140000000000001, 0.28800000000000003, 192.0, 0.0, 0.0, 0.0, 0.0, 0.0, 0.0, 0.0, 0.0, 0.0, 1.663579924057884E9, 0.0, 2022-09-19 14:32:04.057
60.0, 8369.901283967649, -13756.33642152982, -45501.0885597573, -19057.54435748391, -78452.92430554918, -187500.02235174447, -24402.98639571505, -16313.398338961404, 0.54, -0.8140000000000001, 0.28800000000000003, 192.0, 0.0, 0.0, 0.0, 0.0, 0.0, 0.0, 0.0, 0.0, 0.0, 1.663579924060808E9, 0.0, 2022-09-19 14:32:04.060
61.0, 8499.072015174868, -13662.302632606345, -45467.00214946296, -19069.770761700962, -78467.0729597894, -187500.02235174447, -24380.858168704293, -16319.18744077533, 0.54, -0.8140000000000001, 0.28800000000000003, 192.0, 0.0, 0.0, 0.0, 0.0, 0.0, 0.0, 0.0, 0.0, 0.0, 1.663579924065756E9, 0.0, 2022-09-19 14:32:04.065
62.0, 8342.878024921183, -13768.875750169249, -45538.48302823103, -19066.976793644048, -78439.55796236491, -187500.02235174447, -24432.893029796247, -16274.707469309267, 0.54, -0.8140000000000001, 0.28800000000000003, 192.0, 0.0, 0.0, 0.0, 0.0, 0.0, 0.0, 0.0, 0.0, 0.0, 1.66357992406983E9, 0.0, 2022-09-19 14:32:04.069
63.0, 8212.321485557733, -13918.833603719904, -45559.650130230206, -19061.701781952594, -78423.19648542363, -187500.02235174447, -24410.876561507772, -16278.194341444296, 0.54, -0.8140000000000001, 0.28800000000000003, 192.0, 0.0, 0.0, 0.0, 0.0, 0.0, 0.0, 0.0, 0.0, 0.0, 1.6635799240737407E9, 0.0, 2022-09-19 14:32:04.073
64.0, 8257.382602379634, -13954.529339615028, -45529.05059207089, -19063.71343895357, -78434.39470939574, -187500.02235174447, -24401.086497436347, -16285.726879325734, 0.54, -0.8140000000000001, 0.28800000000000003, 192.0, 0.0, 0.0, 0.0, 0.0, 0.0, 0.0, 0.0, 0.0, 0.0, 1.663579924077822E9, 0.0, 2022-09-19 14:32:04.077
65.0, 8355.327946582789, -13931.819967248437, -45495.277106198926, -19062.998183131003, -78456.67939861768, -187500.02235174447, -24388.815389730382, -16335.638324694435, 0.54, -0.8160000000000001, 0.278, 192.0, 16.0, 224.0, 230.0, 128.0, 8.0, 176.0, 0.0, 0.0, 0.0, 1.6635799240818615E9, 0.0, 2022-09-19 14:32:04.081
66.0, 8482.665834744672, -13841.36245743781, -45467.56094307434, -19071.87182567976, -78476.39363722726, -187500.02235174447, -24399.141895668734, -16320.32737974255, 0.54, -0.8160000000000001, 0.278, 192.0, 0.0, 0.0, 0.0, 0.0, 0.0, 0.0, 0.0, 0.0, 0.0, 1.6635799240857763E9, 0.0, 2022-09-19 14:32:04.085
67.0, 8330.763379426406, -13947.980278489624, -45532.82803688384, -19070.508369267987, -78458.80281434093, -187500.02235174447, -24438.860945565815, -16297.841524820511, 0.54, -0.8160000000000001, 0.278, 192.0, 0.0, 0.0, 0.0, 0.0, 0.0, 0.0, 0.0, 0.0, 0.0, 1.663579924088859E9, 0.0, 2022-09-19 14:32:04.088
68.0, 8210.667456468042, -14100.50858265264, -45561.527676764454, -19065.903909910194, -78450.19739272563, -187500.02235174447, -24411.658872563705, -16275.378021642928, 0.54, -0.8160000000000001, 0.278, 192.0, 0.0, 0.0, 0.0, 0.0, 0.0, 0.0, 0.0, 0.0, 0.0, 1.6635799240928538E9, 0.0, 2022-09-19 14:32:04.092
69.0, 8253.806323266785, -14131.957487101256, -45536.381964252236, -19065.747447699006, -78458.33342770737, -187500.02235174447, -24391.25172987601, -16292.834734062522, 0.54, -0.8160000000000001, 0.278, 192.0, 0.0, 0.0, 0.0, 0.0, 0.0, 0.0, 0.0, 0.0, 0.0, 1.6635799240978467E9, 0.0, 2022-09-19 14:32:04.097
70.0, 8353.875083193194, -14097.26757970662, -45502.876699313725, -19068.340250055822, -78473.08557904787, -187500.02235174447, -24392.72694501006, -16320.595600676013, 0.54, -0.8160000000000001, 0.278, 192.0, 0.0, 0.0, 0.0, 0.0, 0.0, 0.0, 0.0, 0.0, 0.0, 1.663579924101864E9, 0.0, 2022-09-19 14:32:04.101
71.0, 8478.3519480648, -14002.540886705028, -45487.43164389511, -19088.21095087659, -78494.34208802487, -187500.02235174447, -24437.92217229869, -16338.141720073429, 0.54, -0.8160000000000001, 0.278, 192.0, 0.0, 0.0, 0.0, 0.0, 0.0, 0.0, 0.0, 0.0, 0.0, 1.663579924105828E9, 0.0, 2022-09-19 14:32:04.105
72.0, 8318.73814090945, -14103.548419898561, -45546.41789751266, -19086.199293875612, -78466.58122141138, -187500.02235174447, -24442.772500845495, -16296.947455042298, 0.54, -0.8160000000000001, 0.278, 192.0, 0.0, 0.0, 0.0, 0.0, 0.0, 0.0, 0.0, 0.0, 0.0, 1.6635799241098804E9, 0.0, 2022-09-19 14:32:04.109
73.0, 8198.843383651183, -14247.49365419074, -45563.15935410969, -19063.06523836437, -78448.54336363595, -187500.02235174447, -24420.756032557016, -16284.162257213862, 0.54, -0.8160000000000001, 0.278, 192.0, 0.0, 0.0, 0.0, 0.0, 0.0, 0.0, 0.0, 0.0, 0.0, 1.663579924113867E9, 0.0, 2022-09-19 14:32:04.113
74.0, 8252.666384299562, -14275.723907437792, -45543.24394980001, -19069.01080238948, -78464.14488126575, -187500.02235174447, -24404.193389915632, -16299.473202165747, 0.54, -0.8160000000000001, 0.278, 192.0, 0.0, 0.0, 0.0, 0.0, 0.0, 0.0, 0.0, 0.0, 0.0, 1.6635799241168401E9, 0.0, 2022-09-19 14:32:04.116
75.0, 8367.12966765519, -14228.069988259076, -45503.61430688075, -19072.76589545797, -78481.93686985217, -187500.02235174447, -24383.294508849922, -16318.606295419491, 0.538, -0.8140000000000001, 0.28400000000000003, 192.0, 16.0, 208.0, 230.0, 144.0, 8.0, 224.0, 0.0, 0.0, 0.0, 1.6635799241208472E9, 0.0, 2022-09-19 14:32:04.120
76.0, 8493.68524476114, -14128.26944926613, -45487.230478195015, -19087.58510203184, -78507.86489342034, -187500.02235174447, -24414.274026664978, -16354.14556910343, 0.538, -0.8140000000000001, 0.28400000000000003, 192.0, 0.0, 0.0, 0.0, 0.0, 0.0, 0.0, 0.0, 0.0, 0.0, 1.663579924125831E9, 0.0, 2022-09-19 14:32:04.125
77.0, 8335.144321339647, -14228.494671403727, -45553.39164178272, -19092.368375345275, -78480.41695122921, -187500.02235174447, -24434.50235539703, -16326.47410946776, 0.538, -0.8140000000000001, 0.28400000000000003, 192.0, 0.0, 0.0, 0.0, 0.0, 0.0, 0.0, 0.0, 0.0, 0.0, 1.6635799241299536E9, 0.0, 2022-09-19 14:32:04.129
78.0, 8216.903593171071, -14360.906405556967, -45571.42949955815, -19078.756162971993, -78464.72602662159, -187500.02235174447, -24419.83961103435, -16289.616082860957, 0.538, -0.8140000000000001, 0.28400000000000003, 192.0, 0.0, 0.0, 0.0, 0.0, 0.0, 0.0, 0.0, 0.0, 0.0, 1.6635799241338987E9, 0.0, 2022-09-19 14:32:04.133
79.0, 8262.858779771183, -14382.118211045054, -45546.39554576821, -19067.02149713296, -78479.03114307298, -187500.02235174447, -24414.69870980963, -16316.147603529407, 0.538, -0.8140000000000001, 0.28400000000000003, 192.0, 0.0, 0.0, 0.0, 0.0, 0.0, 0.0, 0.0, 0.0, 0.0, 1.6635799241378934E9, 0.0, 2022-09-19 14:32:04.137
80.0, 8373.164638658123, -14340.275745424718, -45520.93690883362, -19077.526817026952, -78504.55683524095, -187500.02235174447, -24428.40032916073, -16305.75404235769, 0.538, -0.8140000000000001, 0.28400000000000003, 192.0, 0.0, 0.0, 0.0, 0.0, 0.0, 0.0, 0.0, 0.0, 0.0, 1.6635799241419306E9, 0.0, 2022-09-19 14:32:04.141
81.0, 8499.429643086152, -14242.598622155027, -45507.838786582804, -19099.07389868187, -78528.09322215238, -187500.02235174447, -24435.418776919698, -16344.959002132298, 0.538, -0.8140000000000001, 0.28400000000000003, 192.0, 0.0, 0.0, 0.0, 0.0, 0.0, 0.0, 0.0, 0.0, 0.0, 1.6635799241448975E9, 0.0, 2022-09-19 14:32:04.144
82.0, 8336.17250158459, -14343.829672793112, -45561.17004885317, -19092.0554509229, -78489.96114611163, -187500.02235174447, -24431.73073908457, -16318.427481463848, 0.538, -0.8140000000000001, 0.28400000000000003, 192.0, 0.0, 0.0, 0.0, 0.0, 0.0, 0.0, 0.0, 0.0, 0.0, 1.6635799241489284E9, 0.0, 2022-09-19 14:32:04.148
83.0, 8231.007543922371, -14481.069383748698, -45568.21084835659, -19064.853377920794, -78462.60261089834, -187500.02235174447, -24417.246808677533, -16280.608329845469, 0.538, -0.8140000000000001, 0.28400000000000003, 192.0, 0.0, 0.0, 0.0, 0.0, 0.0, 0.0, 0.0, 0.0, 0.0, 1.6635799241538696E9, 0.0, 2022-09-19 14:32:04.153
84.0, 8272.358271164689, -14508.651436406546, -45542.752211422, -19067.736752955527, -78472.07975054739, -187500.02235174447, -24424.511125625508, -16297.17097248685, 0.538, -0.8140000000000001, 0.28400000000000003, 192.0, 0.0, 0.0, 0.0, 0.0, 0.0, 0.0, 0.0, 0.0, 0.0, 1.6635799241580007E9, 0.0, 2022-09-19 14:32:04.158
85.0, 8377.143249171168, -14463.970299240387, -45499.36747543424, -19068.58611924483, -78485.15552105373, -187500.02235174447, -24398.20312240161, -16312.548972672103, 0.538, -0.8260000000000001, 0.28400000000000003, 192.0, 16.0, 208.0, 230.0, 48.0, 8.0, 224.0, 0.0, 0.0, 0.0, 1.6635799241619115E9, 0.0, 2022-09-19 14:32:04.161
86.0, 8493.305265105399, -14371.277614984228, -45478.28978041289, -19076.744505971015, -78501.00290787255, -187500.02235174447, -24417.224456933076, -16317.913391341377, 0.538, -0.8260000000000001, 0.28400000000000003, 192.0, 0.0, 0.0, 0.0, 0.0, 0.0, 0.0, 0.0, 0.0, 0.0, 1.6635799241659136E9, 0.0, 2022-09-19 14:32:04.165
87.0, 8319.40869324311, -14486.925540795988, -45544.406240511686, -19074.174055358657, -78473.59966917035, -187500.02235174447, -24422.92415176918, -16282.12824846843, 0.538, -0.8260000000000001, 0.28400000000000003, 192.0, 0.0, 0.0, 0.0, 0.0, 0.0, 0.0, 0.0, 0.0, 0.0, 1.663579924169898E9, 0.0, 2022-09-19 14:32:04.169
88.0, 8207.67232271103, -14621.7512633504, -45558.19726684061, -19062.417037775165, -78460.68036087518, -187500.02235174447, -24403.947520726626, -16271.622928574436, 0.538, -0.8260000000000001, 0.28400000000000003, 192.0, 0.0, 0.0, 0.0, 0.0, 0.0, 0.0, 0.0, 0.0, 0.0, 1.6635799241728997E9, 0.0, 2022-09-19 14:32:04.172
89.0, 8261.182398937035, -14640.593783926224, -45529.72114440455, -19045.87674687824, -78466.60357315584, -187500.02235174447, -24392.168151398677, -16290.465449150259, 0.538, -0.8260000000000001, 0.28400000000000003, 192.0, 0.0, 0.0, 0.0, 0.0, 0.0, 0.0, 0.0, 0.0, 0.0, 1.663579924176999E9, 0.0, 2022-09-19 14:32:04.176
90.0, 8372.225865391001, -14602.03702474082, -45503.368437691744, -19057.566709228362, -78485.75901815403, -187500.02235174447, -24398.69486077963, -16300.166106243863, 0.538, -0.8260000000000001, 0.28400000000000003, 192.0, 0.0, 0.0, 0.0, 0.0, 0.0, 0.0, 0.0, 0.0, 0.0, 1.663579924182016E9, 0.0, 2022-09-19 14:32:04.182
91.0, 8494.847535472814, -14504.91869508251, -45486.49287062799, -19075.135180370235, -78503.95333814065, -187500.02235174447, -24422.030081990968, -16308.27978948114, 0.538, -0.8260000000000001, 0.28400000000000003, 192.0, 0.0, 0.0, 0.0, 0.0, 0.0, 0.0, 0.0, 0.0, 0.0, 1.6635799241859608E9, 0.0, 2022-09-19 14:32:04.185
92.0, 8312.97139083998, -14620.03017902734, -45549.927121392146, -19065.501578509997, -78472.72795113659, -187500.02235174447, -24455.691809140662, -16292.521809640148, 0.538, -0.8260000000000001, 0.28400000000000003, 192.0, 0.0, 0.0, 0.0, 0.0, 0.0, 0.0, 0.0, 0.0, 0.0, 1.6635799241899576E9, 0.0, 2022-09-19 14:32:04.189
93.0, 8205.034816865304, -14749.335020701292, -45553.861028416286, -19049.497729479997, -78452.29845670443, -187500.02235174447, -24414.45284062062, -16296.142792241908, 0.538, -0.8260000000000001, 0.28400000000000003, 192.0, 0.0, 0.0, 0.0, 0.0, 0.0, 0.0, 0.0, 0.0, 0.0, 1.663579924194032E9, 0.0, 2022-09-19 14:32:04.194
94.0, 8264.15518094959, -14754.453570181558, -45520.15459777768, -19043.418054988153, -78458.62400038529, -187500.02235174447, -24396.39263110073, -16303.407109189882, 0.538, -0.8260000000000001, 0.28400000000000003, 192.0, 0.0, 0.0, 0.0, 0.0, 0.0, 0.0, 0.0, 0.0, 0.0, 1.6635799241970177E9, 0.0, 2022-09-19 14:32:04.197
95.0, 8385.771022530917, -14677.407107044115, -45485.24117293849, -19049.207156802076, -78478.24883201705, -187500.02235174447, -24397.957253212604, -16281.301233923583, 0.534, -0.81, 0.28200000000000003, 192.0, 16.0, 176.0, 230.0, 176.0, 8.0, 208.0, 0.0, 0.0, 0.0, 1.6635799242010095E9, 0.0, 2022-09-19 14:32:04.201
96.0, 8517.288686905944, -14536.725227442412, -45461.81654474933, -19064.38399128723, -78494.99028861408, -187500.02235174447, -24418.185581944657, -16306.670463880357, 0.534, -0.81, 0.28200000000000003, 192.0, 0.0, 0.0, 0.0, 0.0, 0.0, 0.0, 0.0, 0.0, 0.0, 1.6635799242049909E9, 0.0, 2022-09-19 14:32:04.204
97.0, 8353.584510515275, -14616.74447259241, -45531.66574617216, -19074.129351869746, -78474.20316627064, -187500.02235174447, -24455.088312040367, -16280.071887978542, 0.534, -0.81, 0.28200000000000003, 192.0, 0.0, 0.0, 0.0, 0.0, 0.0, 0.0, 0.0, 0.0, 0.0, 1.663579924210022E9, 0.0, 2022-09-19 14:32:04.210
98.0, 8250.67707904304, -14719.607200575734, -45552.162295837676, -19066.06037212138, -78472.88441334777, -187500.02235174447, -24419.996073245537, -16308.413899947871, 0.534, -0.81, 0.28200000000000003, 192.0, 0.0, 0.0, 0.0, 0.0, 0.0, 0.0, 0.0, 0.0, 0.0, 1.6635799242139952E9, 0.0, 2022-09-19 14:32:04.213
99.0, 8308.903373349116, -14704.899752724143, -45532.71627816156, -19077.05743039339, -78490.02820134499, -187500.02235174447, -24423.59470410284, -16323.948362344308, 0.534, -0.81, 0.28200000000000003, 192.0, 0.0, 0.0, 0.0, 0.0, 0.0, 0.0, 0.0, 0.0, 0.0, 1.6635799242180037E9, 0.0, 2022-09-19 14:32:04.218
100.0, 8437.649421411685, -14614.866926058165, -45499.47923415652, -19092.658948023196, -78518.28080633651, -187500.02235174447, -24402.271139892477, -16330.765644403178, 0.534, -0.81, 0.28200000000000003, 192.0, 0.0, 0.0, 0.0, 0.0, 0.0, 0.0, 0.0, 0.0, 0.0, 1.6635799242210598E9, 0.0, 2022-09-19 14:32:04.221
101.0, 8553.990251301557, -14478.901264536533, -45481.86605952574, -19098.716270770583, -78538.21856239064, -187500.02235174447, -24420.82308779038, -16354.57025224808, 0.534, -0.81, 0.28200000000000003, 192.0, 0.0, 0.0, 0.0, 0.0, 0.0, 0.0, 0.0, 0.0, 0.0, 1.6635799242251146E9, 0.0, 2022-09-19 14:32:04.225
102.0, 8387.313292898332, -14555.88067244061, -45549.90476964769, -19109.333349386856, -78512.67051847822, -187500.02235174447, -24449.63448639327, -16353.85499642551, 0.534, -0.81, 0.28200000000000003, 192.0, 0.0, 0.0, 0.0, 0.0, 0.0, 0.0, 0.0, 0.0, 0.0, 1.663579924231068E9, 0.0, 2022-09-19 14:32:04.231
103.0, 8290.865515573683, -14644.28182176135, -45560.767717452974, -19082.82418046286, -78493.38096301329, -187500.02235174447, -24436.156384486723, -16311.073757538052, 0.534, -0.81, 0.28200000000000003, 192.0, 0.0, 0.0, 0.0, 0.0, 0.0, 0.0, 0.0, 0.0, 0.0, 1.6635799242340825E9, 0.0, 2022-09-19 14:32:04.234
104.0, 8345.56023425582, -14622.42181568406, -45532.023374083445, -19071.044811134914, -78492.64335544627, -187500.02235174447, -24433.854154807825, -16320.349731487006, 0.534, -0.81, 0.28200000000000003, 192.0, 0.0, 0.0, 0.0, 0.0, 0.0, 0.0, 0.0, 0.0, 0.0, 1.6635799242370863E9, 0.0, 2022-09-19 14:32:04.237
105.0, 8467.24313107051, -14525.459948236938, -45494.070111998335, -19073.168226858168, -78506.99317538657, -187500.02235174447, -24410.384823129752, -16364.583833764058, 0.534, -0.812, 0.28, 192.0, 16.0, 176.0, 230.0, 160.0, 8.0, 192.0, 0.0, 0.0, 0.0, 1.663579924242088E9, 0.0, 2022-09-19 14:32:04.242
106.0, 8566.775449129993, -14399.865496142567, -45479.98851299149, -19093.06127942339, -78526.6850622517, -187500.02235174447, -24423.773518058482, -16357.252461582717, 0.534, -0.812, 0.28, 192.0, 0.0, 0.0, 0.0, 0.0, 0.0, 0.0, 0.0, 0.0, 0.0, 1.6635799242460785E9, 0.0, 2022-09-19 14:32:04.246
107.0, 8388.453231865553, -14482.768116327301, -45543.04278409991, -19087.33923284283, -78497.0242973595, -187500.02235174447, -24449.813300348917, -16294.89109455241, 0.534, -0.812, 0.28, 192.0, 0.0, 0.0, 0.0, 0.0, 0.0, 0.0, 0.0, 0.0, 0.0, 1.6635799242490833E9, 0.0, 2022-09-19 14:32:04.249
108.0, 8293.368910952677, -14570.699879014479, -45556.18560983963, -19072.900005924705, -78480.7298756516, -187500.02235174447, -24448.74041661506, -16304.949379557298, 0.534, -0.812, 0.28, 192.0, 0.0, 0.0, 0.0, 0.0, 0.0, 0.0, 0.0, 0.0, 0.0, 1.6635799242530825E9, 0.0, 2022-09-19 14:32:04.253
109.0, 8345.98491740047, -14548.862224681643, -45528.20122578159, -19075.0010699035, -78486.78719839898, -187500.02235174447, -24424.22055294759, -16309.710301126279, 0.534, -0.812, 0.28, 192.0, 0.0, 0.0, 0.0, 0.0, 0.0, 0.0, 0.0, 0.0, 0.0, 1.6635799242570574E9, 0.0, 2022-09-19 14:32:04.257
110.0, 8467.891331659715, -14456.326002636672, -45488.90685902916, -19080.745468228517, -78508.64720447626, -187500.02235174447, -24409.78132602946, -16334.632496193946, 0.534, -0.812, 0.28, 192.0, 0.0, 0.0, 0.0, 0.0, 0.0, 0.0, 0.0, 0.0, 0.0, 1.6635799242611833E9, 0.0, 2022-09-19 14:32:04.261
111.0, 8577.057251579434, -14324.227192905808, -45478.84857402427, -19094.290625368434, -78523.51111453904, -187500.02235174447, -24442.906611312224, -16345.18251957685, 0.534, -0.812, 0.28, 192.0, 0.0, 0.0, 0.0, 0.0, 0.0, 0.0, 0.0, 0.0, 0.0, 1.663579924265192E9, 0.0, 2022-09-19 14:32:04.265
112.0, 8396.298694169367, -14406.19103982342, -45547.759002179984, -19092.34602360082, -78491.50341647904, -187500.02235174447, -24469.92987035869, -16295.494591652703, 0.534, -0.812, 0.28, 192.0, 0.0, 0.0, 0.0, 0.0, 0.0, 0.0, 0.0, 0.0, 0.0, 1.6635799242701676E9, 0.0, 2022-09-19 14:32:04.270
113.0, 8297.88396333265, -14498.503744423837, -45555.313891805876, -19056.694991194607, -78471.81152961391, -187500.02235174447, -24426.478079137574, -16279.088411222509, 0.534, -0.812, 0.28, 192.0, 0.0, 0.0, 0.0, 0.0, 0.0, 0.0, 0.0, 0.0, 0.0, 1.6635799242741504E9, 0.0, 2022-09-19 14:32:04.274
114.0, 8347.661298234618, -14485.338566939661, -45529.56468219336, -19052.02347660345, -78473.6220209148, -187500.02235174447, -24433.675340852184, -16313.84537385051, 0.534, -0.812, 0.28, 192.0, 0.0, 0.0, 0.0, 0.0, 0.0, 0.0, 0.0, 0.0, 0.0, 1.6635799242771735E9, 0.0, 2022-09-19 14:32:04.277
115.0, 8469.701822960595, -14396.222161796351, -45492.41608290865, -19066.3509447993, -78495.77259967002, -187500.02235174447, -24414.654006320718, -16323.61308617748, 0.534, -0.812, 0.28, 192.0, 0.0, 0.0, 0.0, 0.0, 0.0, 0.0, 0.0, 0.0, 0.0, 1.6635799242811127E9, 0.0, 2022-09-19 14:32:04.281
116.0, 8575.470277723107, -14278.45082026134, -45482.20133569257, -19087.62980552075, -78518.52667552551, -187500.02235174447, -24420.867791279292, -16319.433309964337, 0.538, -0.812, 0.28200000000000003, 192.0, 16.0, 208.0, 230.0, 160.0, 8.0, 208.0, 0.0, 0.0, 0.0, 1.663579924285136E9, 0.0, 2022-09-19 14:32:04.285
117.0, 8400.813746549338, -14379.145429032496, -45547.37902252424, -19082.846532207317, -78489.06707633342, -187500.02235174447, -24440.671436866694, -16287.202094459784, 0.538, -0.812, 0.28200000000000003, 192.0, 0.0, 0.0, 0.0, 0.0, 0.0, 0.0, 0.0, 0.0, 0.0, 1.6635799242891808E9, 0.0, 2022-09-19 14:32:04.289
118.0, 8304.410672713599, -14481.67288084899, -45550.552970236895, -19069.591947745317, -78472.70559939214, -187500.02235174447, -24423.482945380565, -16303.831792334533, 0.538, -0.812, 0.28200000000000003, 192.0, 0.0, 0.0, 0.0, 0.0, 0.0, 0.0, 0.0, 0.0, 0.0, 1.663579924293118E9, 0.0, 2022-09-19 14:32:04.293
119.0, 8352.51162678142, -14475.280281934773, -45521.495702445, -19061.210043574578, -78476.43834071617, -187500.02235174447, -24425.807526803917, -16288.856123549478, 0.538, -0.812, 0.28200000000000003, 192.0, 0.0, 0.0, 0.0, 0.0, 0.0, 0.0, 0.0, 0.0, 0.0, 1.6635799242981806E9, 0.0, 2022-09-19 14:32:04.298
120.0, 8466.125543847746, -14400.625455454046, -45480.52495485842, -19064.004011631492, -78496.64431770377, -187500.02235174447, -24394.850360733315, -16336.353580517005, 0.538, -0.812, 0.28200000000000003, 192.0, 0.0, 0.0, 0.0, 0.0, 0.0, 0.0, 0.0, 0.0, 0.0, 1.663579924302134E9, 0.0, 2022-09-19 14:32:04.302
121.0, 8558.997042059545, -14292.912398923923, -45470.75724253145, -19077.526817026952, -78515.15156211276, -187500.02235174447, -24419.750204056527, -16305.128193512941, 0.538, -0.812, 0.28200000000000003, 192.0, 0.0, 0.0, 0.0, 0.0, 0.0, 0.0, 0.0, 0.0, 0.0, 1.663579924305141E9, 0.0, 2022-09-19 14:32:04.305
122.0, 8363.866312964716, -14410.66138871448, -45533.74445840651, -19066.86503492177, -78480.19343378466, -187500.02235174447, -24429.473212894587, -16287.760888071167, 0.538, -0.812, 0.28200000000000003, 192.0, 0.0, 0.0, 0.0, 0.0, 0.0, 0.0, 0.0, 0.0, 0.0, 1.6635799243091795E9, 0.0, 2022-09-19 14:32:04.309
123.0, 8272.514733375876, -14518.977942344898, -45529.452923471086, -19046.949630612093, -78455.33829395036, -187500.02235174447, -24392.168151398677, -16298.489725409714, 0.538, -0.812, 0.28200000000000003, 192.0, 0.0, 0.0, 0.0, 0.0, 0.0, 0.0, 0.0, 0.0, 0.0, 1.6635799243131948E9, 0.0, 2022-09-19 14:32:04.313
124.0, 8314.871289118682, -14528.343323271672, -45512.91263257416, -19052.58227021483, -78473.24204125906, -187500.02235174447, -24410.720099296585, -16289.303158438583, 0.538, -0.812, 0.28200000000000003, 192.0, 0.0, 0.0, 0.0, 0.0, 0.0, 0.0, 0.0, 0.0, 0.0, 1.663579924317155E9, 0.0, 2022-09-19 14:32:04.317
125.0, 8436.464778955553, -14460.394020127538, -45479.56382984684, -19056.67263945015, -78498.70067819365, -187500.02235174447, -24406.02623296097, -16336.04065609463, 0.538, -0.812, 0.28200000000000003, 192.0, 0.0, 0.0, 0.0, 0.0, 0.0, 0.0, 0.0, 0.0, 0.0, 1.663579924321198E9, 0.0, 2022-09-19 14:32:04.321
126.0, 8529.425684145175, -14365.421457936938, -45470.578428575805, -19075.06812513687, -78516.85029469136, -187500.02235174447, -24429.428509405676, -16324.730673400245, 0.536, -0.812, 0.276, 192.0, 16.0, 192.0, 230.0, 160.0, 8.0, 160.0, 0.0, 0.0, 0.0, 1.6635799243262043E9, 0.0, 2022-09-19 14:32:04.326
