%OpenBCI Raw EEG Data
%Number of channels = 8
%Sample Rate = 250 Hz
%Board = OpenBCI_GUI$BoardCytonSerial
Sample Index, EXG Channel 0, EXG Channel 1, EXG Channel 2, EXG Channel 3, EXG Channel 4, EXG Channel 5, EXG Channel 6, EXG Channel 7, Accel Channel 0, Accel Channel 1, Accel Channel 2, Other, Other, Other, Other, Other, Other, Other, Analog Channel 0, Analog Channel 1, Analog Channel 2, Timestamp, Other, Timestamp (Formatted)
59.0, 73641.17486967742, 40204.19451048309, 13245.062618859127, 21180.46834236006, 19176.053306585945, 187500.0, 43730.2716052856, 42255.92818926909, 0.0, 0.0, 0.0, 192.0, 0.0, 0.0, 0.0, 0.0, 0.0, 0.0, 0.0, 0.0, 0.0, 1.6635817109662888E9, 0.0, 2022-09-19 15:01:50.966
60.0, 73630.20016314986, 40204.37332443873, 13243.319182791613, 21161.916394462158, 19177.08148683089, 187500.0, 43714.15599753332, 42242.31597689581, 0.0, 0.0, 0.0, 192.0, 0.0, 0.0, 0.0, 0.0, 0.0, 0.0, 0.0, 0.0, 0.0, 1.6635817109663277E9, 0.0, 2022-09-19 15:01:50.966
61.0, 73633.88820098498, 40210.56475765285, 13238.625316455998, 21166.81142649787, 19183.027050856002, 187500.0, 43727.03060233958, 42237.17507567109, 0.53, -0.716, 0.47600000000000003, 192.0, 16.0, 144.0, 233.0, 160.0, 14.0, 224.0, 0.0, 0.0, 0.0, 1.6635817109663413E9, 0.0, 2022-09-19 15:01:50.966
0.0, 0.0, 0.0, 0.0, 0.0, 0.0, 0.0, 0.0, 0.0, 0.496, -0.718, 0.5, 192.0, 15.0, 128.0, 233.0, 144.0, 15.0, 160.0, 0.0, 0.0, 0.0, 1.6635817110691814E9, 0.0, 2022-09-19 15:01:51.069
1.0, 73093.40066831121, 40423.50982707856, 12933.881632552342, 21092.178951761598, 19921.551039403803, 187500.0, 43627.34182206891, 42061.91504739703, 0.496, -0.718, 0.5, 192.0, 0.0, 0.0, 0.0, 0.0, 0.0, 0.0, 0.0, 0.0, 0.0, 1.6635817110871496E9, 0.0, 2022-09-19 15:01:51.087
2.0, 73066.86914764275, 40408.46710306014, 12920.18001320124, 21086.25573948094, 19901.99326300541, 187500.0, 43588.94152509469, 42028.521541180795, 0.496, -0.718, 0.5, 192.0, 0.0, 0.0, 0.0, 0.0, 0.0, 0.0, 0.0, 0.0, 0.0, 1.6635817110902102E9, 0.0, 2022-09-19 15:01:51.090
3.0, 73057.97315334954, 40397.58180351041, 12912.491013108614, 21070.11777998421, 19889.677451810534, 187500.0, 43581.09606279088, 42015.7139916079, 0.496, -0.718, 0.5, 192.0, 0.0, 0.0, 0.0, 0.0, 0.0, 0.0, 0.0, 0.0, 0.0, 1.663581711093216E9, 0.0, 2022-09-19 15:01:51.093
4.0, 73082.8506449283, 40395.97247790962, 12909.6970450517, 21066.54150087136, 19890.146838444096, 187500.0, 43612.23204281712, 42035.115305795116, 0.496, -0.718, 0.5, 192.0, 0.0, 0.0, 0.0, 0.0, 0.0, 0.0, 0.0, 0.0, 0.0, 1.6635817110962286E9, 0.0, 2022-09-19 15:01:51.096
5.0, 73072.61354596778, 40379.34278003487, 12895.011948944564, 21045.664971550104, 19874.388858603103, 187500.0, 43616.657688219275, 42024.542930667754, 0.496, -0.718, 0.5, 192.0, 0.0, 0.0, 0.0, 0.0, 0.0, 0.0, 0.0, 0.0, 0.0, 1.6635817110992024E9, 0.0, 2022-09-19 15:01:51.099
6.0, 73055.62622018173, 40381.1309195913, 12887.524114552036, 21038.132433668667, 19867.25865212186, 187500.0, 43594.52946120852, 42004.80634031371, 0.496, -0.718, 0.5, 192.0, 0.0, 0.0, 0.0, 0.0, 0.0, 0.0, 0.0, 0.0, 0.0, 1.6635817111032252E9, 0.0, 2022-09-19 15:01:51.103
7.0, 73051.96053409106, 40387.6352772278, 12891.033338431518, 21049.330657640774, 19873.65125103608, 187500.0, 43577.60919065585, 41997.45261638792, 0.496, -0.718, 0.5, 192.0, 0.0, 0.0, 0.0, 0.0, 0.0, 0.0, 0.0, 0.0, 0.0, 1.6635817111072817E9, 0.0, 2022-09-19 15:01:51.107
8.0, 73049.88182185672, 40384.77425393752, 12893.35791985487, 21038.870041235692, 19868.01861143334, 187500.0, 43577.72094937813, 41986.656723816006, 0.486, -0.72, 0.514, 192.0, 15.0, 48.0, 233.0, 128.0, 16.0, 16.0, 0.0, 0.0, 0.0, 1.6635817111112545E9, 0.0, 2022-09-19 15:01:51.111
9.0, 73057.19084229361, 40392.19503309668, 12892.374443098837, 21044.614439560704, 19868.487998066903, 187500.0, 43599.75976941106, 41992.535232607755, 0.486, -0.72, 0.514, 192.0, 0.0, 0.0, 0.0, 0.0, 0.0, 0.0, 0.0, 0.0, 0.0, 1.6635817111161878E9, 0.0, 2022-09-19 15:01:51.116
10.0, 73074.31227854638, 40397.38063781031, 12883.232579616617, 21039.1159104247, 19867.21394863295, 187500.0, 43632.05804014898, 42004.15813972451, 0.486, -0.72, 0.514, 192.0, 0.0, 0.0, 0.0, 0.0, 0.0, 0.0, 0.0, 0.0, 0.0, 1.6635817111202636E9, 0.0, 2022-09-19 15:01:51.120
11.0, 73074.02170586845, 40402.05215240147, 12886.36182384036, 21050.44824486354, 19868.97973644492, 187500.0, 43625.84425519041, 42000.22423270038, 0.486, -0.72, 0.514, 192.0, 0.0, 0.0, 0.0, 0.0, 0.0, 0.0, 0.0, 0.0, 0.0, 1.6635817111242576E9, 0.0, 2022-09-19 15:01:51.124
12.0, 73060.40949349517, 40402.87916694632, 12893.492030321602, 21043.698018038038, 19858.809692717754, 187500.0, 43601.905536878774, 41979.70533129041, 0.486, -0.72, 0.514, 192.0, 0.0, 0.0, 0.0, 0.0, 0.0, 0.0, 0.0, 0.0, 0.0, 1.663581711128226E9, 0.0, 2022-09-19 15:01:51.128
13.0, 73055.53681320391, 40397.55945176595, 12893.201457643683, 21024.699035251026, 19849.287849579796, 187500.0, 43597.25637403207, 41971.79281375323, 0.486, -0.72, 0.514, 192.0, 0.0, 0.0, 0.0, 0.0, 0.0, 0.0, 0.0, 0.0, 0.0, 1.6635817111312473E9, 0.0, 2022-09-19 15:01:51.131
14.0, 73067.13736857622, 40396.79949245447, 12891.07804192043, 21034.399692344632, 19847.20913734545, 187500.0, 43620.12220860985, 41973.93858122094, 0.486, -0.72, 0.514, 192.0, 0.0, 0.0, 0.0, 0.0, 0.0, 0.0, 0.0, 0.0, 0.0, 1.6635817111353817E9, 0.0, 2022-09-19 15:01:51.135
15.0, 73086.31516531887, 40402.20861461265, 12893.559085554969, 21054.35980014322, 19854.89813743808, 187500.0, 43653.82863924845, 41987.79666278323, 0.486, -0.72, 0.514, 192.0, 0.0, 0.0, 0.0, 0.0, 0.0, 0.0, 0.0, 0.0, 0.0, 1.6635817111393754E9, 0.0, 2022-09-19 15:01:51.139
16.0, 73080.07902861584, 40399.90638493376, 12892.329739609926, 21045.754378527927, 19854.965192671443, 187500.0, 43644.64207227732, 41981.18054642445, 0.486, -0.72, 0.514, 192.0, 0.0, 0.0, 0.0, 0.0, 0.0, 0.0, 0.0, 0.0, 0.0, 1.6635817111442757E9, 0.0, 2022-09-19 15:01:51.144
17.0, 73056.69910391558, 40386.74120744958, 12883.545504038992, 21035.517279567397, 19839.11780585263, 187500.0, 43610.019220116046, 41957.17477287946, 0.486, -0.72, 0.514, 192.0, 0.0, 0.0, 0.0, 0.0, 0.0, 0.0, 0.0, 0.0, 0.0, 1.6635817111483643E9, 0.0, 2022-09-19 15:01:51.148
18.0, 73054.17335679213, 40380.79564342447, 12880.50566679307, 21032.231573132467, 19838.06727386323, 187500.0, 43607.20290031468, 41956.660682756985, 0.48, -0.72, 0.52, 192.0, 15.0, 0.0, 233.0, 128.0, 16.0, 64.0, 0.0, 0.0, 0.0, 1.6635817111523516E9, 0.0, 2022-09-19 15:01:51.152
19.0, 73061.48237722903, 40377.73345443409, 12873.062535889452, 21037.77480575738, 19837.68729420749, 187500.0, 43627.54298776901, 41967.83655498464, 0.48, -0.72, 0.52, 192.0, 0.0, 0.0, 0.0, 0.0, 0.0, 0.0, 0.0, 0.0, 0.0, 1.663581711155344E9, 0.0, 2022-09-19 15:01:51.155
20.0, 73070.0430953554, 40377.66639920073, 12876.147076624284, 21029.616419031194, 19834.28982905028, 187500.0, 43656.26497939408, 41978.185412667444, 0.48, -0.72, 0.52, 192.0, 0.0, 0.0, 0.0, 0.0, 0.0, 0.0, 0.0, 0.0, 0.0, 1.66358171115927E9, 0.0, 2022-09-19 15:01:51.159
21.0, 73065.48333948653, 40369.88799213028, 12873.330756822916, 21022.240343360943, 19828.098395836165, 187500.0, 43649.04536593502, 41976.71019753339, 0.48, -0.72, 0.52, 192.0, 0.0, 0.0, 0.0, 0.0, 0.0, 0.0, 0.0, 0.0, 0.0, 1.6635817111633468E9, 0.0, 2022-09-19 15:01:51.163
22.0, 73042.8857258422, 40353.23594251108, 12850.48727398959, 21006.705880964506, 19813.055671817743, 187500.0, 43616.47887426363, 41957.53240079074, 0.48, -0.72, 0.52, 192.0, 0.0, 0.0, 0.0, 0.0, 0.0, 0.0, 0.0, 0.0, 0.0, 1.663581711168382E9, 0.0, 2022-09-19 15:01:51.168
23.0, 73027.66418786814, 40349.592608164865, 12847.179215810207, 20988.757430166894, 19800.270473989305, 187500.0, 43601.92788862323, 41940.05333662669, 0.48, -0.72, 0.52, 192.0, 0.0, 0.0, 0.0, 0.0, 0.0, 0.0, 0.0, 0.0, 0.0, 1.6635817111723871E9, 0.0, 2022-09-19 15:01:51.172
24.0, 73040.69525488559, 40357.41571872422, 12853.750628680067, 20992.1548953241, 19802.595055412658, 187500.0, 43625.15135111229, 41946.06595588517, 0.48, -0.72, 0.52, 192.0, 0.0, 0.0, 0.0, 0.0, 0.0, 0.0, 0.0, 0.0, 0.0, 1.663581711176397E9, 0.0, 2022-09-19 15:01:51.176
25.0, 73064.20929005257, 40366.60228569535, 12858.35508803786, 21006.415308286585, 19814.061500318232, 187500.0, 43659.12600268436, 41969.669398029975, 0.48, -0.72, 0.52, 192.0, 0.0, 0.0, 0.0, 0.0, 0.0, 0.0, 0.0, 0.0, 0.0, 1.6635817111803744E9, 0.0, 2022-09-19 15:01:51.180
26.0, 73060.40949349517, 40373.03958809848, 12866.513474764048, 21024.743738739937, 19822.756328911346, 187500.0, 43646.20669438919, 41976.82195625567, 0.48, -0.72, 0.52, 192.0, 0.0, 0.0, 0.0, 0.0, 0.0, 0.0, 0.0, 0.0, 0.0, 1.6635817111834147E9, 0.0, 2022-09-19 15:01:51.183
27.0, 73026.07721401182, 40361.93077110419, 12871.184989355206, 21014.908971179604, 19811.021663072308, 187500.0, 43596.20584204267, 41951.408022809985, 0.48, -0.72, 0.52, 192.0, 0.0, 0.0, 0.0, 0.0, 0.0, 0.0, 0.0, 0.0, 0.0, 1.6635817111873195E9, 0.0, 2022-09-19 15:01:51.187
28.0, 73010.60980684875, 40358.62271292481, 12872.324928322427, 21027.24713411893, 19808.58532292668, 187500.0, 43574.14467026528, 41933.7501446903, 0.47600000000000003, -0.728, 0.518, 192.0, 14.0, 224.0, 233.0, 64.0, 16.0, 48.0, 0.0, 0.0, 0.0, 1.663581711191662E9, 0.0, 2022-09-19 15:01:51.191
29.0, 73008.4863911255, 40353.302997744446, 12866.82639918642, 21015.557171768807, 19805.9254653365, 187500.0, 43575.17285051022, 41930.509141744275, 0.47600000000000003, -0.728, 0.518, 192.0, 0.0, 0.0, 0.0, 0.0, 0.0, 0.0, 0.0, 0.0, 0.0, 1.663581711195465E9, 0.0, 2022-09-19 15:01:51.195
30.0, 73012.06267023835, 40348.65383489774, 12853.907090891254, 21004.91774140808, 19800.270473989305, 187500.0, 43581.90072559127, 41936.521761002754, 0.47600000000000003, -0.728, 0.518, 192.0, 0.0, 0.0, 0.0, 0.0, 0.0, 0.0, 0.0, 0.0, 0.0, 1.6635817112004404E9, 0.0, 2022-09-19 15:01:51.200
31.0, 72993.13074268469, 40348.85500059784, 12858.936233393697, 21006.10238386421, 19799.264645488816, 187500.0, 43544.439201884175, 41920.92024337295, 0.47600000000000003, -0.728, 0.518, 192.0, 0.0, 0.0, 0.0, 0.0, 0.0, 0.0, 0.0, 0.0, 0.0, 1.663581711204452E9, 0.0, 2022-09-19 15:01:51.204
32.0, 72963.82760570379, 40345.63634939627, 12864.16654159624, 21012.29381707833, 19799.845790844654, 187500.0, 43491.33145705837, 41893.27113548174, 0.47600000000000003, -0.728, 0.518, 192.0, 0.0, 0.0, 0.0, 0.0, 0.0, 0.0, 0.0, 0.0, 0.0, 1.663581711208466E9, 0.0, 2022-09-19 15:01:51.208
33.0, 72947.95786714052, 40344.02702379549, 12861.841960172887, 21008.739889709937, 19804.562008924724, 187500.0, 43465.17991604566, 41881.80469057616, 0.47600000000000003, -0.728, 0.518, 192.0, 0.0, 0.0, 0.0, 0.0, 0.0, 0.0, 0.0, 0.0, 0.0, 1.6635817112114196E9, 0.0, 2022-09-19 15:01:51.211
34.0, 72952.94230615406, 40349.54790467595, 12858.802122926965, 21018.529953781363, 19816.341378252673, 187500.0, 43469.65026493672, 41892.555879659165, 0.47600000000000003, -0.728, 0.518, 192.0, 0.0, 0.0, 0.0, 0.0, 0.0, 0.0, 0.0, 0.0, 0.0, 1.6635817112154527E9, 0.0, 2022-09-19 15:01:51.215
35.0, 72954.84220443276, 40354.487640200576, 12851.358992023348, 21012.830258945258, 19818.576552698203, 187500.0, 43472.868916138286, 41902.43535070841, 0.47600000000000003, -0.728, 0.518, 192.0, 0.0, 0.0, 0.0, 0.0, 0.0, 0.0, 0.0, 0.0, 0.0, 1.6635817112194233E9, 0.0, 2022-09-19 15:01:51.219
36.0, 72923.14743079513, 40341.74714586105, 12849.101465833362, 21012.226761844966, 19813.145078795562, 187500.0, 43429.081848750335, 41884.2857342107, 0.47600000000000003, -0.728, 0.518, 192.0, 0.0, 0.0, 0.0, 0.0, 0.0, 0.0, 0.0, 0.0, 0.0, 1.6635817112235115E9, 0.0, 2022-09-19 15:01:51.223
37.0, 72885.41768615457, 40326.34679393134, 12847.849768143866, 20996.424078515065, 19802.997386812855, 187500.0, 43373.738929479, 41855.429632118896, 0.47600000000000003, -0.728, 0.518, 192.0, 0.0, 0.0, 0.0, 0.0, 0.0, 0.0, 0.0, 0.0, 0.0, 1.663581711228534E9, 0.0, 2022-09-19 15:01:51.228
38.0, 72864.45174985549, 40325.98916602006, 12851.895433890277, 21000.58150298375, 19806.059575803232, 187500.0, 43348.05677509985, 41841.37038485651, 0.488, -0.73, 0.51, 192.0, 15.0, 64.0, 233.0, 48.0, 15.0, 240.0, 0.0, 0.0, 0.0, 1.6635817112324793E9, 0.0, 2022-09-19 15:01:51.232
39.0, 72872.6995435595, 40344.92109357371, 12864.747686952078, 21015.53482002435, 19823.49393647837, 187500.0, 43364.82058344133, 41864.90677176795, 0.488, -0.73, 0.51, 192.0, 0.0, 0.0, 0.0, 0.0, 0.0, 0.0, 0.0, 0.0, 0.0, 1.6635817112364092E9, 0.0, 2022-09-19 15:01:51.236
40.0, 72881.97551750846, 40355.76168963453, 12859.83030317191, 21006.460011775496, 19829.707721436946, 187500.0, 43380.93619119361, 41891.34888545858, 0.488, -0.73, 0.51, 192.0, 0.0, 0.0, 0.0, 0.0, 0.0, 0.0, 0.0, 0.0, 0.0, 1.663581711239556E9, 0.0, 2022-09-19 15:01:51.239
41.0, 72843.01642692286, 40337.701480114636, 12844.608765197847, 21003.26371231839, 19813.435651473483, 187500.0, 43327.8284463678, 41856.413108874935, 0.488, -0.73, 0.51, 192.0, 0.0, 0.0, 0.0, 0.0, 0.0, 0.0, 0.0, 0.0, 0.0, 1.6635817112434757E9, 0.0, 2022-09-19 15:01:51.243
42.0, 72816.8872376546, 40335.823933580396, 12854.331774035905, 21021.435680560553, 19819.403567243047, 187500.0, 43284.242544679946, 41839.15756215544, 0.488, -0.73, 0.51, 192.0, 0.0, 0.0, 0.0, 0.0, 0.0, 0.0, 0.0, 0.0, 0.0, 1.6635817112475226E9, 0.0, 2022-09-19 15:01:51.247
43.0, 72802.7832869033, 40336.248616725046, 12857.416314770737, 21020.698072993528, 19827.092567335676, 187500.0, 43266.696425282535, 41836.52005630971, 0.488, -0.73, 0.51, 192.0, 0.0, 0.0, 0.0, 0.0, 0.0, 0.0, 0.0, 0.0, 0.0, 1.6635817112515323E9, 0.0, 2022-09-19 15:01:51.251
44.0, 72797.39651648958, 40336.53918940296, 12853.549462979969, 21012.31616882279, 19824.946799867965, 187500.0, 43265.48943108194, 41838.308195866135, 0.488, -0.73, 0.51, 192.0, 0.0, 0.0, 0.0, 0.0, 0.0, 0.0, 0.0, 0.0, 0.0, 1.6635817112564733E9, 0.0, 2022-09-19 15:01:51.256
45.0, 72802.24684503638, 40345.21166625162, 12858.444495015681, 21029.504660308918, 19833.172241827517, 187500.0, 43273.75957653041, 41853.95441698485, 0.488, -0.73, 0.51, 192.0, 0.0, 0.0, 0.0, 0.0, 0.0, 0.0, 0.0, 0.0, 0.0, 1.6635817112605383E9, 0.0, 2022-09-19 15:01:51.260
46.0, 72764.98648702938, 40336.449782425145, 12850.889605389788, 21027.15772714111, 19826.466718490927, 187500.0, 43218.036677603326, 41826.50647479373, 0.488, -0.73, 0.51, 192.0, 0.0, 0.0, 0.0, 0.0, 0.0, 0.0, 0.0, 0.0, 0.0, 1.6635817112634473E9, 0.0, 2022-09-19 15:01:51.263
47.0, 72724.14984990953, 40325.92211078669, 12844.742875664579, 21022.039177660845, 19815.44730847446, 187500.0, 43154.35655765016, 41794.7669976672, 0.488, -0.73, 0.51, 192.0, 0.0, 0.0, 0.0, 0.0, 0.0, 0.0, 0.0, 0.0, 0.0, 1.663581711267628E9, 0.0, 2022-09-19 15:01:51.267
48.0, 72710.87291370308, 40332.806448078925, 12845.413427998237, 21030.488137064953, 19822.085776577685, 187500.0, 43133.34591786217, 41787.972067352785, 0.5, -0.736, 0.512, 192.0, 15.0, 160.0, 233.0, 0.0, 16.0, 0.0, 0.0, 0.0, 0.0, 1.6635817112715268E9, 0.0, 2022-09-19 15:01:51.271
49.0, 72714.47154456038, 40348.09504128636, 12851.426047256715, 21030.711654509505, 19836.30148605126, 187500.0, 43146.75696453536, 41800.53374773666, 0.5, -0.736, 0.512, 192.0, 0.0, 0.0, 0.0, 0.0, 0.0, 0.0, 0.0, 0.0, 0.0, 1.663581711275512E9, 0.0, 2022-09-19 15:01:51.275
50.0, 72708.74949797982, 40338.260273726024, 12841.211300040639, 21023.268523605886, 19836.63676221809, 187500.0, 43154.982406494906, 41806.769884439695, 0.5, -0.736, 0.512, 192.0, 0.0, 0.0, 0.0, 0.0, 0.0, 0.0, 0.0, 0.0, 0.0, 1.6635817112795858E9, 0.0, 2022-09-19 15:01:51.279
51.0, 72683.29086104523, 40327.33027068738, 12835.422198226715, 21022.441509061042, 19829.35009352566, 187500.0, 43124.31581310223, 41789.11200632001, 0.5, -0.736, 0.512, 192.0, 0.0, 0.0, 0.0, 0.0, 0.0, 0.0, 0.0, 0.0, 0.0, 1.6635817112846057E9, 0.0, 2022-09-19 15:01:51.284
52.0, 72672.24909928431, 40344.02702379549, 12847.44743674367, 21027.940038197048, 19839.45308201946, 187500.0, 43103.68515296998, 41786.89918361893, 0.5, -0.736, 0.512, 192.0, 0.0, 0.0, 0.0, 0.0, 0.0, 0.0, 0.0, 0.0, 0.0, 1.6635817112885842E9, 0.0, 2022-09-19 15:01:51.288
53.0, 72671.42208473946, 40354.353529733846, 12857.326907792916, 21044.50268083843, 19853.35586707066, 187500.0, 43109.898937928556, 41792.12949182147, 0.5, -0.736, 0.512, 192.0, 0.0, 0.0, 0.0, 0.0, 0.0, 0.0, 0.0, 0.0, 0.0, 1.6635817112915733E9, 0.0, 2022-09-19 15:01:51.291
54.0, 72678.77580866526, 40365.663512428226, 12853.929442635708, 21022.553267783318, 19856.64157350559, 187500.0, 43136.07283068572, 41803.148901837936, 0.5, -0.736, 0.512, 192.0, 0.0, 0.0, 0.0, 0.0, 0.0, 0.0, 0.0, 0.0, 0.0, 1.6635817112955897E9, 0.0, 2022-09-19 15:01:51.295
55.0, 72667.7563986488, 40360.83553562588, 12854.242367058083, 21035.9643144565, 19855.6357450051, 187500.0, 43146.645205813074, 41788.79908189763, 0.5, -0.736, 0.512, 192.0, 0.0, 0.0, 0.0, 0.0, 0.0, 0.0, 0.0, 0.0, 0.0, 1.6635817112996013E9, 0.0, 2022-09-19 15:01:51.299
56.0, 72644.62234313755, 40356.141669290264, 12856.499893248068, 21046.313172139307, 19855.188710115995, 187500.0, 43125.276938113806, 41767.207296753804, 0.5, -0.736, 0.512, 192.0, 0.0, 0.0, 0.0, 0.0, 0.0, 0.0, 0.0, 0.0, 0.0, 1.663581711303578E9, 0.0, 2022-09-19 15:01:51.303
57.0, 72631.9489040314, 40363.2271722826, 12867.295785819982, 21046.089654694755, 19864.50938755386, 187500.0, 43105.24977508185, 41754.69031985883, 0.5, -0.736, 0.512, 192.0, 0.0, 0.0, 0.0, 0.0, 0.0, 0.0, 0.0, 0.0, 0.0, 1.6635817113075492E9, 0.0, 2022-09-19 15:01:51.307
58.0, 72621.46593588185, 40357.482773957585, 12858.042163615486, 21029.504660308918, 19859.41318981805, 187500.0, 43100.55590874623, 41738.17238070636, 0.506, -0.726, 0.512, 192.0, 15.0, 208.0, 233.0, 80.0, 16.0, 0.0, 0.0, 0.0, 0.0, 1.6635817113117137E9, 0.0, 2022-09-19 15:01:51.311
59.0, 72646.14226176051, 40368.65864618524, 12861.864311917343, 21043.809776760314, 19877.83102724922, 187500.0, 43142.7336505334, 41767.22964849826, 0.506, -0.726, 0.512, 192.0, 0.0, 0.0, 0.0, 0.0, 0.0, 0.0, 0.0, 0.0, 0.0, 1.6635817113165479E9, 0.0, 2022-09-19 15:01:51.316
60.0, 72658.77099737775, 40373.95600962115, 12864.300652062971, 21048.861271007216, 19891.28677741132, 187500.0, 43176.19421198299, 41788.41910224189, 0.506, -0.726, 0.512, 192.0, 0.0, 0.0, 0.0, 0.0, 0.0, 0.0, 0.0, 0.0, 0.0, 1.6635817113196096E9, 0.0, 2022-09-19 15:01:51.319
61.0, 72638.72148260135, 40358.957989091636, 12854.711753691645, 21037.59599180174, 19884.31303314126, 187500.0, 43159.87743853062, 41777.64556141443, 0.506, -0.726, 0.512, 192.0, 0.0, 0.0, 0.0, 0.0, 0.0, 0.0, 0.0, 0.0, 0.0, 1.663581711322587E9, 0.0, 2022-09-19 15:01:51.322
62.0, 72618.35904340257, 40347.2233232526, 12837.791483138977, 21030.957523698515, 19876.579329559725, 187500.0, 43136.69867953047, 41764.59214265253, 0.506, -0.726, 0.512, 192.0, 0.0, 0.0, 0.0, 0.0, 0.0, 0.0, 0.0, 0.0, 0.0, 1.6635817113276937E9, 0.0, 2022-09-19 15:01:51.327
63.0, 72624.08108998313, 40353.59357042236, 12843.267660530528, 21028.811756230803, 19884.134219185617, 187500.0, 43153.01545298284, 41778.360817237, 0.506, -0.726, 0.512, 192.0, 0.0, 0.0, 0.0, 0.0, 0.0, 0.0, 0.0, 0.0, 0.0, 1.6635817113316104E9, 0.0, 2022-09-19 15:01:51.331
64.0, 72649.56207866217, 40364.70238741665, 12850.643736200778, 21034.31028536681, 19895.22068443545, 187500.0, 43201.40697972858, 41812.2684135757, 0.506, -0.726, 0.512, 192.0, 0.0, 0.0, 0.0, 0.0, 0.0, 0.0, 0.0, 0.0, 0.0, 1.6635817113356032E9, 0.0, 2022-09-19 15:01:51.335
65.0, 72680.27337554377, 40367.00461709555, 12849.97318386712, 21034.48909932245, 19900.51804787136, 187500.0, 43257.44280307803, 41853.37327162901, 0.506, -0.726, 0.512, 192.0, 0.0, 0.0, 0.0, 0.0, 0.0, 0.0, 0.0, 0.0, 0.0, 1.6635817113396337E9, 0.0, 2022-09-19 15:01:51.339
66.0, 72676.36182026408, 40359.94146584767, 12857.773942682023, 21041.708712781518, 19901.389765905114, 187500.0, 43258.023948433874, 41858.313007153636, 0.506, -0.726, 0.512, 192.0, 0.0, 0.0, 0.0, 0.0, 0.0, 0.0, 0.0, 0.0, 0.0, 1.6635817113446193E9, 0.0, 2022-09-19 15:01:51.344
67.0, 72673.16552080697, 40371.76553866453, 12871.54261726649, 21051.34231464175, 19906.597722363204, 187500.0, 43252.0560326643, 41864.83971653458, 0.506, -0.726, 0.512, 192.0, 0.0, 0.0, 0.0, 0.0, 0.0, 0.0, 0.0, 0.0, 0.0, 1.6635817113475943E9, 0.0, 2022-09-19 15:01:51.347
68.0, 72702.28984383224, 40396.061884887444, 12881.109163893363, 21057.153768200133, 19926.89310632862, 187500.0, 43292.825614550784, 41906.79394087719, 0.512, -0.716, 0.51, 192.0, 16.0, 0.0, 233.0, 160.0, 15.0, 240.0, 0.0, 0.0, 0.0, 1.663581711351653E9, 0.0, 2022-09-19 15:01:51.351
69.0, 72713.42101257098, 40399.436998300196, 12878.046974902985, 21054.315096654307, 19927.22838249545, 187500.0, 43326.86732135622, 41929.77153417725, 0.512, -0.716, 0.51, 192.0, 0.0, 0.0, 0.0, 0.0, 0.0, 0.0, 0.0, 0.0, 0.0, 1.6635817113556201E9, 0.0, 2022-09-19 15:01:51.355
70.0, 72719.59009404064, 40393.200861597164, 12880.237445859606, 21050.49294835245, 19924.345007460717, 187500.0, 43357.153935093156, 41947.31765357467, 0.512, -0.716, 0.51, 192.0, 0.0, 0.0, 0.0, 0.0, 0.0, 0.0, 0.0, 0.0, 0.0, 1.6635817113597093E9, 0.0, 2022-09-19 15:01:51.359
71.0, 72718.56191379571, 40387.65762897225, 12871.743782966589, 21051.632887319673, 19920.299341714304, 187500.0, 43357.31039730435, 41960.75105199231, 0.512, -0.716, 0.51, 192.0, 0.0, 0.0, 0.0, 0.0, 0.0, 0.0, 0.0, 0.0, 0.0, 1.6635817113636792E9, 0.0, 2022-09-19 15:01:51.363
72.0, 72718.13723065106, 40385.82478592692, 12870.514437021548, 21065.26745143741, 19922.04277778182, 187500.0, 43353.10826934675, 41980.5099940908, 0.512, -0.716, 0.51, 192.0, 0.0, 0.0, 0.0, 0.0, 0.0, 0.0, 0.0, 0.0, 0.0, 1.6635817113676553E9, 0.0, 2022-09-19 15:01:51.367
73.0, 72729.29075113425, 40392.23973658559, 12886.920617451742, 21063.50166362544, 19932.682208142545, 187500.0, 43373.62717075672, 42007.98028802637, 0.512, -0.716, 0.51, 192.0, 0.0, 0.0, 0.0, 0.0, 0.0, 0.0, 0.0, 0.0, 0.0, 1.66358171137169E9, 0.0, 2022-09-19 15:01:51.371
74.0, 72746.07691122018, 40391.90446041876, 12880.282149348515, 21051.78934953086, 19934.09036804323, 187500.0, 43408.339429895816, 42033.10364879414, 0.512, -0.716, 0.51, 192.0, 0.0, 0.0, 0.0, 0.0, 0.0, 0.0, 0.0, 0.0, 0.0, 1.6635817113756776E9, 0.0, 2022-09-19 15:01:51.375
75.0, 72770.19444348746, 40400.0851988894, 12875.677689990724, 21066.02741074889, 19938.51601344538, 187500.0, 43449.04195654893, 42062.67500670851, 0.512, -0.716, 0.51, 192.0, 0.0, 0.0, 0.0, 0.0, 0.0, 0.0, 0.0, 0.0, 0.0, 1.663581711378678E9, 0.0, 2022-09-19 15:01:51.378
76.0, 72782.28673723778, 40417.76542875355, 12882.830248216422, 21078.566739388316, 19945.914440860088, 187500.0, 43456.574494430366, 42084.22208836342, 0.512, -0.716, 0.51, 192.0, 0.0, 0.0, 0.0, 0.0, 0.0, 0.0, 0.0, 0.0, 0.0, 1.6635817113836844E9, 0.0, 2022-09-19 15:01:51.383
77.0, 72780.38683895908, 40419.844140987894, 12874.113067878852, 21074.58812887527, 19943.299286758815, 187500.0, 43442.15761925669, 42089.47474831042, 0.512, -0.716, 0.51, 192.0, 0.0, 0.0, 0.0, 0.0, 0.0, 0.0, 0.0, 0.0, 0.0, 1.6635817113878727E9, 0.0, 2022-09-19 15:01:51.387
78.0, 72771.60260338815, 40403.057980901955, 12862.445457273181, 21044.055645949324, 19926.42371969506, 187500.0, 43429.46182840608, 42082.366893573635, 0.512, -0.716, 0.51, 192.0, 0.0, 0.0, 0.0, 0.0, 0.0, 0.0, 0.0, 0.0, 0.0, 1.6635817113917644E9, 0.0, 2022-09-19 15:01:51.391
79.0, 72779.69393488097, 40394.45255928666, 12859.159750838251, 21043.9662389715, 19921.32752195925, 187500.0, 43447.544389670424, 42079.59527726117, 0.516, -0.726, 0.508, 192.0, 16.0, 32.0, 233.0, 80.0, 15.0, 224.0, 0.0, 0.0, 0.0, 1.6635817113957596E9, 0.0, 2022-09-19 15:01:51.395
80.0, 72810.76285967385, 40400.621640756326, 12872.436687044703, 21057.667858322606, 19938.046626811818, 187500.0, 43492.60550649232, 42112.698210799485, 0.516, -0.726, 0.508, 192.0, 0.0, 0.0, 0.0, 0.0, 0.0, 0.0, 0.0, 0.0, 0.0, 1.66358171139974E9, 0.0, 2022-09-19 15:01:51.399
81.0, 72810.3381765292, 40393.916117419736, 12866.424067786225, 21055.03035247688, 19938.672475656567, 187500.0, 43489.81153843541, 42121.437742881506, 0.516, -0.726, 0.508, 192.0, 0.0, 0.0, 0.0, 0.0, 0.0, 0.0, 0.0, 0.0, 0.0, 1.6635817114028597E9, 0.0, 2022-09-19 15:01:51.402
82.0, 72788.25465300735, 40383.85783241485, 12862.378402039814, 21037.216012146, 19927.787176106835, 187500.0, 43461.71539565508, 42098.72837051492, 0.516, -0.726, 0.508, 192.0, 0.0, 0.0, 0.0, 0.0, 0.0, 0.0, 0.0, 0.0, 0.0, 1.66358171140674E9, 0.0, 2022-09-19 15:01:51.406
83.0, 72796.0330600778, 40391.70329471866, 12865.664108474746, 21045.55321282783, 19933.352760476206, 187500.0, 43473.1594888162, 42107.91493748605, 0.516, -0.726, 0.508, 192.0, 0.0, 0.0, 0.0, 0.0, 0.0, 0.0, 0.0, 0.0, 0.0, 1.6635817114117255E9, 0.0, 2022-09-19 15:01:51.411
84.0, 72831.57233376174, 40411.395181583786, 12880.103335392874, 21055.20916643252, 19946.786158893843, 187500.0, 43518.10884691583, 42136.27930119983, 0.516, -0.726, 0.508, 192.0, 0.0, 0.0, 0.0, 0.0, 0.0, 0.0, 0.0, 0.0, 0.0, 1.6635817114158514E9, 0.0, 2022-09-19 15:01:51.415
85.0, 72860.85311899819, 40423.6439375453, 12884.618387772845, 21058.941907756558, 19952.57526070777, 187500.0, 43562.2311904706, 42168.48816495993, 0.516, -0.726, 0.508, 192.0, 0.0, 0.0, 0.0, 0.0, 0.0, 0.0, 0.0, 0.0, 0.0, 1.6635817114198153E9, 0.0, 2022-09-19 15:01:51.419
86.0, 72859.33320037523, 40423.420420100745, 12893.670844277245, 21060.439474635063, 19954.38575200865, 187500.0, 43558.02906251301, 42171.68446441704, 0.516, -0.726, 0.508, 192.0, 0.0, 0.0, 0.0, 0.0, 0.0, 0.0, 0.0, 0.0, 0.0, 1.6635817114238183E9, 0.0, 2022-09-19 15:01:51.423
87.0, 72859.6461247976, 40429.701260292684, 12904.46673684916, 21058.830149034282, 19958.967859621986, 187500.0, 43544.81918153992, 42168.10818530419, 0.516, -0.726, 0.508, 192.0, 0.0, 0.0, 0.0, 0.0, 0.0, 0.0, 0.0, 0.0, 0.0, 1.6635817114267807E9, 0.0, 2022-09-19 15:01:51.426
88.0, 72865.52463358935, 40425.655594546275, 12902.008044959075, 21044.703846538527, 19954.13988281964, 187500.0, 43548.26135018603, 42164.26368525788, 0.516, -0.726, 0.508, 192.0, 0.0, 0.0, 0.0, 0.0, 0.0, 0.0, 0.0, 0.0, 0.0, 1.6635817114307623E9, 0.0, 2022-09-19 15:01:51.430
89.0, 72892.30202344681, 40427.4437341027, 12895.637797789312, 21052.459901864517, 19961.09127534524, 187500.0, 43585.85698435986, 42186.593077968726, 0.496, -0.722, 0.51, 192.0, 15.0, 128.0, 233.0, 112.0, 15.0, 240.0, 0.0, 0.0, 0.0, 1.6635817114347627E9, 0.0, 2022-09-19 15:01:51.434
90.0, 72911.12219227817, 40432.204655671674, 12894.006120444075, 21048.45893960702, 19964.488740502446, 187500.0, 43622.84912143339, 42212.69991549253, 0.496, -0.722, 0.51, 192.0, 0.0, 0.0, 0.0, 0.0, 0.0, 0.0, 0.0, 0.0, 0.0, 1.6635817114398582E9, 0.0, 2022-09-19 15:01:51.439
91.0, 72895.76654383738, 40413.764466496046, 12891.189800642705, 21035.91961096759, 19949.334257761748, 187500.0, 43602.129054323326, 42190.77285418187, 0.496, -0.722, 0.51, 192.0, 0.0, 0.0, 0.0, 0.0, 0.0, 0.0, 0.0, 0.0, 0.0, 1.6635817114438798E9, 0.0, 2022-09-19 15:01:51.443
92.0, 72892.52554089137, 40416.558434552964, 12900.21990540265, 21042.088692437257, 19951.70354267401, 187500.0, 43593.56833619694, 42195.176147839564, 0.496, -0.722, 0.51, 192.0, 0.0, 0.0, 0.0, 0.0, 0.0, 0.0, 0.0, 0.0, 0.0, 1.6635817114478407E9, 0.0, 2022-09-19 15:01:51.447
93.0, 72912.82092485677, 40432.24935916059, 12908.445347362203, 21050.247079163444, 19960.241909055938, 187500.0, 43620.859816176875, 42223.60756678672, 0.496, -0.722, 0.51, 192.0, 0.0, 0.0, 0.0, 0.0, 0.0, 0.0, 0.0, 0.0, 0.0, 1.663581711451876E9, 0.0, 2022-09-19 15:01:51.451
94.0, 72953.61285848772, 40454.55640012698, 12926.349094670904, 21071.794160818357, 19977.34099356425, 187500.0, 43679.24257269414, 42271.14972724316, 0.496, -0.722, 0.51, 192.0, 0.0, 0.0, 0.0, 0.0, 0.0, 0.0, 0.0, 0.0, 0.0, 1.6635817114547968E9, 0.0, 2022-09-19 15:01:51.454
95.0, 72965.99572491595, 40450.264865191566, 12923.689237080722, 21058.338410656263, 19971.261319072404, 187500.0, 43708.63511665286, 42286.30420998386, 0.496, -0.722, 0.51, 192.0, 0.0, 0.0, 0.0, 0.0, 0.0, 0.0, 0.0, 0.0, 0.0, 1.663581711458843E9, 0.0, 2022-09-19 15:01:51.458
96.0, 72966.12983538269, 40445.25807443358, 12919.934144012232, 21071.436532907075, 19970.791932438842, 187500.0, 43707.13754977436, 42296.54130894438, 0.496, -0.722, 0.51, 192.0, 0.0, 0.0, 0.0, 0.0, 0.0, 0.0, 0.0, 0.0, 0.0, 1.66358171146291E9, 0.0, 2022-09-19 15:01:51.462
97.0, 72967.78386447238, 40443.894618021804, 12917.184879444228, 21070.564814873316, 19976.066944130296, 187500.0, 43706.57875616298, 42310.77937016242, 0.496, -0.722, 0.51, 192.0, 0.0, 0.0, 0.0, 0.0, 0.0, 0.0, 0.0, 0.0, 0.0, 1.6635817114668255E9, 0.0, 2022-09-19 15:01:51.466
98.0, 72963.60408825924, 40436.47383886264, 12910.83698401892, 21059.679515323583, 19974.032935384865, 187500.0, 43711.943174832246, 42314.243890552985, 0.496, -0.722, 0.51, 192.0, 0.0, 0.0, 0.0, 0.0, 0.0, 0.0, 0.0, 0.0, 0.0, 1.6635817114718351E9, 0.0, 2022-09-19 15:01:51.471
99.0, 72994.04716420737, 40440.608911586874, 12913.139213697817, 21059.567756601307, 19979.6655749876, 187500.0, 43759.37357656641, 42347.726803747035, 0.484, -0.724, 0.518, 192.0, 15.0, 32.0, 233.0, 96.0, 16.0, 48.0, 0.0, 0.0, 0.0, 1.6635817114758728E9, 0.0, 2022-09-19 15:01:51.475
100.0, 73043.91390608715, 40454.601103615896, 12919.50946086758, 21057.444340878053, 19991.690813504556, 187500.0, 43826.875844821436, 42400.27575496146, 0.484, -0.724, 0.518, 192.0, 0.0, 0.0, 0.0, 0.0, 0.0, 0.0, 0.0, 0.0, 0.0, 1.6635817114799762E9, 0.0, 2022-09-19 15:01:51.479
101.0, 73036.89545832819, 40437.949053996694, 12899.079966435429, 21052.303439653333, 19973.965880151496, 187500.0, 43821.33261219652, 42409.81994984388, 0.484, -0.724, 0.518, 192.0, 0.0, 0.0, 0.0, 0.0, 0.0, 0.0, 0.0, 0.0, 0.0, 1.6635817114829452E9, 0.0, 2022-09-19 15:01:51.482
102.0, 73044.6962171431, 40445.012205244566, 12908.579457828935, 21078.11970449921, 19984.113572134207, 187500.0, 43826.20529248778, 42437.78198215747, 0.484, -0.724, 0.518, 192.0, 0.0, 0.0, 0.0, 0.0, 0.0, 0.0, 0.0, 0.0, 0.0, 1.6635817114869292E9, 0.0, 2022-09-19 15:01:51.486
103.0, 73054.75450214797, 40448.297911679496, 12916.514327110568, 21067.726143327494, 19983.443019800547, 187500.0, 43852.28977826712, 42463.03945339197, 0.484, -0.724, 0.518, 192.0, 0.0, 0.0, 0.0, 0.0, 0.0, 0.0, 0.0, 0.0, 0.0, 1.6635817114908764E9, 0.0, 2022-09-19 15:01:51.490
104.0, 73079.4531797711, 40451.941246025715, 12913.630952075835, 21051.297611152844, 19981.85604594422, 187500.0, 43905.241060881744, 42502.04324746648, 0.484, -0.724, 0.518, 192.0, 0.0, 0.0, 0.0, 0.0, 0.0, 0.0, 0.0, 0.0, 0.0, 1.6635817114950452E9, 0.0, 2022-09-19 15:01:51.495
105.0, 73122.05560470291, 40459.563190884975, 12910.166431685262, 21048.70480879603, 19992.920159449597, 187500.0, 43977.392491983475, 42569.56786746596, 0.484, -0.724, 0.518, 192.0, 0.0, 0.0, 0.0, 0.0, 0.0, 0.0, 0.0, 0.0, 0.0, 1.6635817114999018E9, 0.0, 2022-09-19 15:01:51.499
106.0, 73141.1663462122, 40460.70312985219, 12900.823402502943, 21059.880681023682, 20001.212656642518, 187500.0, 44007.85791967606, 42619.8592924904, 0.484, -0.724, 0.518, 192.0, 0.0, 0.0, 0.0, 0.0, 0.0, 0.0, 0.0, 0.0, 0.0, 1.663581711503899E9, 0.0, 2022-09-19 15:01:51.503
107.0, 73151.33638993936, 40466.17930724374, 12910.971094485652, 21079.08082951079, 20006.6217788007, 187500.0, 44021.13485588251, 42648.64833934884, 0.484, -0.724, 0.518, 192.0, 0.0, 0.0, 0.0, 0.0, 0.0, 0.0, 0.0, 0.0, 0.0, 1.66358171150792E9, 0.0, 2022-09-19 15:01:51.507
108.0, 73174.11281753932, 40470.38143520134, 12904.958475227175, 21064.820416548304, 20005.10186017774, 187500.0, 44062.5526383582, 42694.134139315385, 0.484, -0.724, 0.518, 192.0, 0.0, 0.0, 0.0, 0.0, 0.0, 0.0, 0.0, 0.0, 0.0, 1.6635817115109422E9, 0.0, 2022-09-19 15:01:51.510
109.0, 73223.06313789645, 40484.73125514165, 12905.964303727664, 21062.227614191488, 20012.075604447797, 187500.0, 44140.58257825167, 42767.76078555117, 0.48, -0.724, 0.514, 192.0, 15.0, 0.0, 233.0, 96.0, 16.0, 16.0, 0.0, 0.0, 0.0, 1.663581711515036E9, 0.0, 2022-09-19 15:01:51.515
110.0, 73271.16409196427, 40495.974182602666, 12914.368559642859, 21068.709620083526, 20020.368101640714, 187500.0, 44219.52893966782, 42847.24358883424, 0.48, -0.724, 0.514, 192.0, 0.0, 0.0, 0.0, 0.0, 0.0, 0.0, 0.0, 0.0, 0.0, 1.6635817115189612E9, 0.0, 2022-09-19 15:01:51.518
111.0, 73280.44006591321, 40484.17246153027, 12904.17616417124, 21050.649410563638, 20013.372005626203, 187500.0, 44240.2937102668, 42886.470900353306, 0.48, -0.724, 0.514, 192.0, 0.0, 0.0, 0.0, 0.0, 0.0, 0.0, 0.0, 0.0, 0.0, 1.6635817115229776E9, 0.0, 2022-09-19 15:01:51.522
112.0, 73302.16596152377, 40484.999476075114, 12908.534754340024, 21057.377285644685, 20019.026996973396, 187500.0, 44267.38402454663, 42938.952796334364, 0.48, -0.724, 0.514, 192.0, 0.0, 0.0, 0.0, 0.0, 0.0, 0.0, 0.0, 0.0, 0.0, 1.6635817115279863E9, 0.0, 2022-09-19 15:01:51.527
113.0, 73338.33108405246, 40491.54853720052, 12910.769928785556, 21071.615346862716, 20028.14650871116, 187500.0, 44323.15162696262, 43012.42298035896, 0.48, -0.724, 0.514, 192.0, 0.0, 0.0, 0.0, 0.0, 0.0, 0.0, 0.0, 0.0, 0.0, 1.6635817115319653E9, 0.0, 2022-09-19 15:01:51.531
114.0, 73399.86543653792, 40511.82156942148, 12916.380216643836, 21078.611442877227, 20042.272811206916, 187500.0, 44410.32343033832, 43100.175929090496, 0.48, -0.724, 0.514, 192.0, 0.0, 0.0, 0.0, 0.0, 0.0, 0.0, 0.0, 0.0, 0.0, 1.6635817115359244E9, 0.0, 2022-09-19 15:01:51.535
115.0, 73439.76330039064, 40513.85557816691, 12917.430748633236, 21055.745608299447, 20040.81994781732, 187500.0, 44474.36117820277, 43159.96684550844, 0.48, -0.724, 0.514, 192.0, 0.0, 0.0, 0.0, 0.0, 0.0, 0.0, 0.0, 0.0, 0.0, 1.6635817115389469E9, 0.0, 2022-09-19 15:01:51.538
116.0, 73456.52710873212, 40507.999421119624, 12905.517268838557, 21059.36659090121, 20031.968657013018, 187500.0, 44496.77997789145, 43201.31757275076, 0.48, -0.724, 0.514, 192.0, 0.0, 0.0, 0.0, 0.0, 0.0, 0.0, 0.0, 0.0, 0.0, 1.663581711542961E9, 0.0, 2022-09-19 15:01:51.542
117.0, 73486.7913707246, 40505.67483969627, 12895.41428034476, 21057.332582155774, 20035.567287870323, 187500.0, 44529.23471084055, 43259.25329437891, 0.48, -0.724, 0.514, 192.0, 0.0, 0.0, 0.0, 0.0, 0.0, 0.0, 0.0, 0.0, 0.0, 1.6635817115469787E9, 0.0, 2022-09-19 15:01:51.546
118.0, 73536.8592783045, 40524.89733992783, 12902.7456525261, 21081.248948722954, 20053.046352034373, 187500.0, 44597.58634538488, 43346.5815599658, 0.48, -0.724, 0.514, 192.0, 0.0, 0.0, 0.0, 0.0, 0.0, 0.0, 0.0, 0.0, 0.0, 1.663581711550979E9, 0.0, 2022-09-19 15:01:51.550
119.0, 73602.48400002527, 40557.97792172169, 12912.35690264188, 21094.570588418315, 20066.010363818452, 187500.0, 44689.36260811837, 43444.817476846874, 0.486, -0.74, 0.516, 192.0, 15.0, 48.0, 232.0, 224.0, 16.0, 32.0, 0.0, 0.0, 0.0, 1.6635817115549726E9, 0.0, 2022-09-19 15:01:51.554
120.0, 73646.02519822422, 40562.0235874681, 12908.400643873292, 21079.907844055637, 20060.757703871455, 187500.0, 44756.44019322875, 43515.53839630347, 0.486, -0.74, 0.516, 192.0, 0.0, 0.0, 0.0, 0.0, 0.0, 0.0, 0.0, 0.0, 0.0, 1.6635817115599704E9, 0.0, 2022-09-19 15:01:51.559
121.0, 73662.1408059765, 40550.04305244006, 12892.30738786547, 21054.248041420942, 20045.558517641846, 187500.0, 44774.969789382194, 43557.649082857264, 0.486, -0.74, 0.516, 192.0, 0.0, 0.0, 0.0, 0.0, 0.0, 0.0, 0.0, 0.0, 0.0, 1.663581711563054E9, 0.0, 2022-09-19 15:01:51.563
122.0, 73691.80157086869, 40555.608636809426, 12901.717472281156, 21067.50262588294, 20050.11827351073, 187500.0, 44805.23405137468, 43620.97157489915, 0.486, -0.74, 0.516, 192.0, 0.0, 0.0, 0.0, 0.0, 0.0, 0.0, 0.0, 0.0, 0.0, 1.663581711567036E9, 0.0, 2022-09-19 15:01:51.567
123.0, 73737.42148130196, 40569.801994538546, 12909.451175862692, 21083.238253979478, 20057.40494220316, 187500.0, 44864.26500848115, 43694.48646241266, 0.486, -0.74, 0.516, 192.0, 0.0, 0.0, 0.0, 0.0, 0.0, 0.0, 0.0, 0.0, 0.0, 1.6635817115710135E9, 0.0, 2022-09-19 15:01:51.571
124.0, 73796.3183279417, 40591.63964887138, 12914.83794627642, 21089.072059282313, 20068.82668361982, 187500.0, 44948.776954266665, 43782.79820475557, 0.486, -0.74, 0.516, 192.0, 0.0, 0.0, 0.0, 0.0, 0.0, 0.0, 0.0, 0.0, 0.0, 1.6635817115750208E9, 0.0, 2022-09-19 15:01:51.575
125.0, 73825.73322364489, 40588.89038430338, 12907.998312473097, 21079.729030099992, 20055.527395668913, 187500.0, 45003.4716729488, 43838.766972871665, 0.486, -0.74, 0.516, 192.0, 0.0, 0.0, 0.0, 0.0, 0.0, 0.0, 0.0, 0.0, 0.0, 1.6635817115790884E9, 0.0, 2022-09-19 15:01:51.579
126.0, 73843.74872967586, 40579.45794814324, 12901.27043739205, 21079.25964346643, 20049.827700832808, 187500.0, 45024.7281819258, 43887.85140369552, 0.486, -0.74, 0.516, 192.0, 0.0, 0.0, 0.0, 0.0, 0.0, 0.0, 0.0, 0.0, 0.0, 1.6635817115831096E9, 0.0, 2022-09-19 15:01:51.583
127.0, 73861.54071826229, 40579.4802998877, 12900.845754247399, 21069.938966028567, 20049.49242466598, 187500.0, 45040.508513511246, 43936.10881997452, 0.486, -0.74, 0.516, 192.0, 0.0, 0.0, 0.0, 0.0, 0.0, 0.0, 0.0, 0.0, 0.0, 1.6635817115880215E9, 0.0, 2022-09-19 15:01:51.588
128.0, 73896.29768089029, 40585.71643659072, 12901.829231003432, 21093.587111662284, 20059.26013699295, 187500.0, 45083.04388320969, 43990.110634578545, 0.486, -0.74, 0.516, 192.0, 0.0, 0.0, 0.0, 0.0, 0.0, 0.0, 0.0, 0.0, 0.0, 1.6635817115910504E9, 0.0, 2022-09-19 15:01:51.591
129.0, 73937.96133255499, 40591.79611108257, 12905.874896749843, 21094.838809351782, 20066.815026618842, 187500.0, 45135.011689068284, 44041.89962648149, 0.504, -0.734, 0.508, 192.0, 15.0, 192.0, 233.0, 16.0, 15.0, 224.0, 0.0, 0.0, 0.0, 1.6635817115950289E9, 0.0, 2022-09-19 15:01:51.595
130.0, 73961.2071467885, 40597.29464021858, 12904.60084731589, 21077.44915216555, 20061.316497482836, 187500.0, 45164.80656442721, 44070.84513555111, 0.504, -0.734, 0.508, 192.0, 0.0, 0.0, 0.0, 0.0, 0.0, 0.0, 0.0, 0.0, 0.0, 1.663581711599072E9, 0.0, 2022-09-19 15:01:51.599
131.0, 73961.25185027742, 40588.666866858825, 12900.689292036212, 21083.46177142403, 20055.192119502084, 187500.0, 45153.049546843715, 44080.54579264472, 0.504, -0.734, 0.508, 192.0, 0.0, 0.0, 0.0, 0.0, 0.0, 0.0, 0.0, 0.0, 0.0, 1.66358171160308E9, 0.0, 2022-09-19 15:01:51.603
132.0, 73956.20035603052, 40573.73590156268, 12891.547428553991, 21078.097352754754, 20047.34665719827, 187500.0, 45121.71240111737, 44077.9529902879, 0.504, -0.734, 0.508, 192.0, 0.0, 0.0, 0.0, 0.0, 0.0, 0.0, 0.0, 0.0, 0.0, 1.6635817116070557E9, 0.0, 2022-09-19 15:01:51.607
133.0, 73964.13522531214, 40568.77381429361, 12896.55421931198, 21083.305309212843, 20052.800482845367, 187500.0, 45112.101151001596, 44081.79749033422, 0.504, -0.734, 0.508, 192.0, 0.0, 0.0, 0.0, 0.0, 0.0, 0.0, 0.0, 0.0, 0.0, 1.6635817116110828E9, 0.0, 2022-09-19 15:01:51.611
134.0, 73968.91849862559, 40564.70579680274, 12893.872009977344, 21077.493855654462, 20050.92293631112, 187500.0, 45109.75421783379, 44075.471946653364, 0.504, -0.734, 0.508, 192.0, 0.0, 0.0, 0.0, 0.0, 0.0, 0.0, 0.0, 0.0, 0.0, 1.663581711616098E9, 0.0, 2022-09-19 15:01:51.616
135.0, 73960.69305666603, 40552.9711309637, 12886.183009884717, 21064.26162293692, 20041.222279217516, 187500.0, 45093.66096182597, 44050.236827163324, 0.504, -0.734, 0.508, 192.0, 0.0, 0.0, 0.0, 0.0, 0.0, 0.0, 0.0, 0.0, 0.0, 1.6635817116191075E9, 0.0, 2022-09-19 15:01:51.619
136.0, 73931.5016784074, 40534.575645276986, 12880.8409429599, 21071.391829418164, 20031.231049445993, 187500.0, 45034.87587390851, 44009.71311446585, 0.504, -0.734, 0.508, 192.0, 0.0, 0.0, 0.0, 0.0, 0.0, 0.0, 0.0, 0.0, 0.0, 1.663581711623174E9, 0.0, 2022-09-19 15:01:51.623
137.0, 73902.82439027124, 40532.92161618729, 12888.55229479698, 21074.677535853094, 20028.124156966707, 187500.0, 44970.52520162168, 43963.959093565834, 0.504, -0.734, 0.508, 192.0, 0.0, 0.0, 0.0, 0.0, 0.0, 0.0, 0.0, 0.0, 0.0, 1.6635817116270945E9, 0.0, 2022-09-19 15:01:51.627
138.0, 73892.96727096644, 40546.26560762711, 12907.484222350624, 21093.676518640106, 20038.24949720496, 187500.0, 44937.13169540545, 43928.59863383754, 0.504, -0.734, 0.508, 192.0, 0.0, 0.0, 0.0, 0.0, 0.0, 0.0, 0.0, 0.0, 0.0, 1.6635817116310976E9, 0.0, 2022-09-19 15:01:51.631
139.0, 73869.5873462662, 40528.1159911294, 12893.581437299425, 21077.73972484347, 20023.989084242476, 187500.0, 44898.55258447559, 43877.68135996835, 0.514, -0.73, 0.512, 192.0, 16.0, 16.0, 233.0, 48.0, 16.0, 0.0, 0.0, 0.0, 0.0, 1.6635817116351397E9, 0.0, 2022-09-19 15:01:51.635
140.0, 73855.79631993728, 40520.29288057004, 12889.893399464298, 21085.115800513722, 20018.53525859538, 187500.0, 44869.62942715042, 43835.548321670096, 0.514, -0.73, 0.512, 192.0, 0.0, 0.0, 0.0, 0.0, 0.0, 0.0, 0.0, 0.0, 0.0, 1.6635817116391687E9, 0.0, 2022-09-19 15:01:51.639
141.0, 73830.44944172495, 40507.507682741605, 12883.858428461364, 21074.36461143072, 20015.361310882727, 187500.0, 44813.03481018959, 43789.6378385589, 0.514, -0.73, 0.512, 192.0, 0.0, 0.0, 0.0, 0.0, 0.0, 0.0, 0.0, 0.0, 0.0, 1.663581711644142E9, 0.0, 2022-09-19 15:01:51.644
142.0, 73797.72648784239, 40490.028618577555, 12881.042108659996, 21075.63866086467, 20015.76364228292, 187500.0, 44745.64430065684, 43735.83718965497, 0.514, -0.73, 0.512, 192.0, 0.0, 0.0, 0.0, 0.0, 0.0, 0.0, 0.0, 0.0, 0.0, 1.6635817116471813E9, 0.0, 2022-09-19 15:01:51.647
143.0, 73786.19298770344, 40494.27545002406, 12897.828268745932, 21088.35680345974, 20030.00170350095, 187500.0, 44714.24009969713, 43703.918898572796, 0.514, -0.73, 0.512, 192.0, 0.0, 0.0, 0.0, 0.0, 0.0, 0.0, 0.0, 0.0, 0.0, 1.663581711651152E9, 0.0, 2022-09-19 15:01:51.651
144.0, 73785.92476676998, 40506.524205985574, 12901.449251347693, 21090.860198838735, 20036.841337304275, 187500.0, 44697.520994844555, 43674.52635461406, 0.514, -0.73, 0.512, 192.0, 0.0, 0.0, 0.0, 0.0, 0.0, 0.0, 0.0, 0.0, 0.0, 1.6635817116551795E9, 0.0, 2022-09-19 15:01:51.655
145.0, 73776.58173758766, 40505.428970507266, 12893.514382066058, 21088.647376137662, 20029.264095933926, 187500.0, 44671.83884046541, 43635.746077984106, 0.514, -0.73, 0.512, 192.0, 0.0, 0.0, 0.0, 0.0, 0.0, 0.0, 0.0, 0.0, 0.0, 1.6635817116591933E9, 0.0, 2022-09-19 15:01:51.659
146.0, 73747.77033898477, 40494.856595379904, 12889.915751208753, 21083.55117840185, 20023.497345864456, 187500.0, 44611.69029613618, 43582.2360017581, 0.514, -0.73, 0.512, 192.0, 0.0, 0.0, 0.0, 0.0, 0.0, 0.0, 0.0, 0.0, 0.0, 1.6635817116632092E9, 0.0, 2022-09-19 15:01:51.663
147.0, 73701.36811749556, 40478.361007971886, 12889.468716319647, 21072.08473349628, 20017.171802183606, 187500.0, 44532.475713786574, 43510.822178223396, 0.514, -0.73, 0.512, 192.0, 0.0, 0.0, 0.0, 0.0, 0.0, 0.0, 0.0, 0.0, 0.0, 1.6635817116672175E9, 0.0, 2022-09-19 15:01:51.667
148.0, 73665.67238160044, 40471.364911957375, 12890.496896564591, 21075.057515508834, 20016.031863216383, 187500.0, 44479.39032070521, 43449.37723271576, 0.514, -0.73, 0.512, 192.0, 0.0, 0.0, 0.0, 0.0, 0.0, 0.0, 0.0, 0.0, 0.0, 1.6635817116722317E9, 0.0, 2022-09-19 15:01:51.672
149.0, 73646.20401217986, 40456.18807747222, 12881.176219126728, 21060.014791490412, 20011.606217814235, 187500.0, 44455.04927099339, 43399.13051118023, 0.52, -0.722, 0.506, 192.0, 16.0, 64.0, 233.0, 112.0, 15.0, 208.0, 0.0, 0.0, 0.0, 1.663581711675162E9, 0.0, 2022-09-19 15:01:51.675
150.0, 73648.39448313648, 40456.121022238854, 12880.17039062624, 21056.751436799936, 20013.9755027265, 187500.0, 44451.62945409172, 43372.91191493415, 0.52, -0.722, 0.506, 192.0, 0.0, 0.0, 0.0, 0.0, 0.0, 0.0, 0.0, 0.0, 0.0, 1.6635817116782084E9, 0.0, 2022-09-19 15:01:51.678
151.0, 73623.24877062425, 40464.100595009404, 12876.50470453557, 21057.06436122231, 20005.615950300213, 187500.0, 44396.95708715404, 43323.96159457703, 0.52, -0.722, 0.506, 192.0, 0.0, 0.0, 0.0, 0.0, 0.0, 0.0, 0.0, 0.0, 0.0, 1.6635817116832294E9, 0.0, 2022-09-19 15:01:51.683
152.0, 73569.38106648697, 40442.53116161003, 12867.653413731268, 21025.973084684978, 19991.91433094911, 187500.0, 44312.534548346346, 43247.07159365077, 0.52, -0.722, 0.506, 192.0, 0.0, 0.0, 0.0, 0.0, 0.0, 0.0, 0.0, 0.0, 0.0, 1.6635817116872652E9, 0.0, 2022-09-19 15:01:51.687
153.0, 73532.67950209136, 40434.43983011721, 12870.82736144392, 21045.039122705355, 19990.595578026245, 187500.0, 44256.878704652634, 43174.204906726474, 0.52, -0.722, 0.506, 192.0, 0.0, 0.0, 0.0, 0.0, 0.0, 0.0, 0.0, 0.0, 0.0, 1.6635817116912827E9, 0.0, 2022-09-19 15:01:51.691
154.0, 73534.84762130352, 40458.512658895575, 12889.088736663907, 21075.705716098037, 20006.666482289613, 187500.0, 44245.16639055806, 43137.0339556973, 0.52, -0.722, 0.506, 192.0, 0.0, 0.0, 0.0, 0.0, 0.0, 0.0, 0.0, 0.0, 0.0, 1.6635817116952295E9, 0.0, 2022-09-19 15:01:51.695
155.0, 73509.03135645764, 40455.13754548282, 12883.634911016812, 21060.238308934964, 20002.68787177657, 187500.0, 44206.475520905915, 43070.2692950093, 0.52, -0.722, 0.506, 192.0, 0.0, 0.0, 0.0, 0.0, 0.0, 0.0, 0.0, 0.0, 0.0, 1.663581711699275E9, 0.0, 2022-09-19 15:01:51.699
156.0, 73442.08788181399, 40429.075411447935, 12882.338509838404, 21069.223710206, 19990.8190954708, 187500.0, 44110.072447070175, 42972.100433361586, 0.52, -0.722, 0.506, 192.0, 0.0, 0.0, 0.0, 0.0, 0.0, 0.0, 0.0, 0.0, 0.0, 1.6635817117022114E9, 0.0, 2022-09-19 15:01:51.702
157.0, 73384.59919507494, 40421.72168752214, 12887.255893618572, 21079.952547544544, 19988.62862451418, 187500.0, 44013.44585578988, 42872.38930134646, 0.52, -0.722, 0.506, 192.0, 0.0, 0.0, 0.0, 0.0, 0.0, 0.0, 0.0, 0.0, 0.0, 1.663581711706266E9, 0.0, 2022-09-19 15:01:51.706
158.0, 73327.42343275827, 40410.702277505676, 12877.085849891408, 21075.348088186754, 19979.44205754305, 187500.0, 43932.93487226187, 42771.42647164184, 0.52, -0.722, 0.506, 192.0, 0.0, 0.0, 0.0, 0.0, 0.0, 0.0, 0.0, 0.0, 0.0, 1.663581711711259E9, 0.0, 2022-09-19 15:01:51.711
159.0, 73275.07564724394, 40394.09493137538, 12878.605768514368, 21067.480274138485, 19971.57424349478, 187500.0, 43868.22657206376, 42671.73769137117, 0.51, -0.6960000000000001, 0.516, 192.0, 15.0, 240.0, 234.0, 64.0, 16.0, 32.0, 0.0, 0.0, 0.0, 1.6635817117153006E9, 0.0, 2022-09-19 15:01:51.715
160.0, 73228.1369838878, 40381.399140524765, 12874.40364055677, 21058.874852523193, 19963.102932346217, 187500.0, 43807.027495745126, 42576.407501269285, 0.51, -0.6960000000000001, 0.516, 192.0, 0.0, 0.0, 0.0, 0.0, 0.0, 0.0, 0.0, 0.0, 0.0, 1.663581711719276E9, 0.0, 2022-09-19 15:01:51.719
161.0, 73169.06132329242, 40376.59351546688, 12878.136381880806, 21057.98078274498, 19958.6102317107, 187500.0, 43719.25219526913, 42472.248372107555, 0.51, -0.6960000000000001, 0.516, 192.0, 0.0, 0.0, 0.0, 0.0, 0.0, 0.0, 0.0, 0.0, 0.0, 1.6635817117234056E9, 0.0, 2022-09-19 15:01:51.723
162.0, 73112.44435458713, 40373.7324921766, 12887.434707574213, 21067.61438460522, 19967.394467281636, 187500.0, 43639.32235709696, 42379.48863261803, 0.51, -0.6960000000000001, 0.516, 192.0, 0.0, 0.0, 0.0, 0.0, 0.0, 0.0, 0.0, 0.0, 0.0, 1.6635817117273118E9, 0.0, 2022-09-19 15:01:51.727
163.0, 73079.11790360426, 40376.97349512261, 12900.041091447007, 21091.530751172395, 19985.38762156816, 187500.0, 43603.023124101535, 42327.85610292627, 0.51, -0.6960000000000001, 0.516, 192.0, 0.0, 0.0, 0.0, 0.0, 0.0, 0.0, 0.0, 0.0, 0.0, 1.6635817117303388E9, 0.0, 2022-09-19 15:01:51.730
164.0, 73057.52611846043, 40376.83938465588, 12896.509515823069, 21087.73095461499, 19990.260301859416, 187500.0, 43593.72479840813, 42286.013637305936, 0.51, -0.6960000000000001, 0.516, 192.0, 0.0, 0.0, 0.0, 0.0, 0.0, 0.0, 0.0, 0.0, 0.0, 1.663581711734308E9, 0.0, 2022-09-19 15:01:51.734
165.0, 73046.30554274387, 40377.88991664528, 12888.55229479698, 21091.016661049922, 19991.71316524901, 187500.0, 43599.044513588495, 42258.096308481254, 0.51, -0.6960000000000001, 0.516, 192.0, 0.0, 0.0, 0.0, 0.0, 0.0, 0.0, 0.0, 0.0, 0.0, 1.6635817117393904E9, 0.0, 2022-09-19 15:01:51.739
166.0, 73016.42126040712, 40376.61586721133, 12883.858428461364, 21098.59390242027, 19992.830752471775, 187500.0, 43568.64614112928, 42221.23828187445, 0.51, -0.6960000000000001, 0.516, 192.0, 0.0, 0.0, 0.0, 0.0, 0.0, 0.0, 0.0, 0.0, 0.0, 1.6635817117433517E9, 0.0, 2022-09-19 15:01:51.743
167.0, 72963.08999813677, 40357.482773957585, 12877.778753969522, 21077.918538799113, 19982.28072908887, 187500.0, 43514.51021605852, 42164.33074049124, 0.51, -0.6960000000000001, 0.516, 192.0, 0.0, 0.0, 0.0, 0.0, 0.0, 0.0, 0.0, 0.0, 0.0, 1.6635817117473533E9, 0.0, 2022-09-19 15:01:51.747
168.0, 72940.2688670479, 40349.592608164865, 12872.771963211533, 21069.26841369491, 19979.509112776414, 187500.0, 43505.54716653194, 42129.819647052245, 0.51, -0.6960000000000001, 0.516, 192.0, 0.0, 0.0, 0.0, 0.0, 0.0, 0.0, 0.0, 0.0, 0.0, 1.66358171175138E9, 0.0, 2022-09-19 15:01:51.751
169.0, 72939.75477692542, 40355.4264134677, 12870.805009699467, 21077.0244690209, 19986.01347041291, 187500.0, 43531.631652311284, 42129.35026041869, 0.512, -0.6880000000000001, 0.512, 192.0, 16.0, 0.0, 234.0, 128.0, 16.0, 0.0, 0.0, 0.0, 0.0, 1.663581711755452E9, 0.0, 2022-09-19 15:01:51.755
170.0, 72951.13181485317, 40370.84911714186, 12885.31129185096, 21080.846617322757, 19999.670386275102, 187500.0, 43571.507164419556, 42140.928464046534, 0.512, -0.6880000000000001, 0.512, 192.0, 0.0, 0.0, 0.0, 0.0, 0.0, 0.0, 0.0, 0.0, 0.0, 1.663581711758507E9, 0.0, 2022-09-19 15:01:51.758
171.0, 72923.59446568423, 40361.193163537166, 12871.810838199955, 21064.68630608157, 19985.722897734988, 187500.0, 43548.86484728633, 42114.10637070017, 0.512, -0.6880000000000001, 0.512, 192.0, 0.0, 0.0, 0.0, 0.0, 0.0, 0.0, 0.0, 0.0, 0.0, 1.6635817117625043E9, 0.0, 2022-09-19 15:01:51.762
173.0, 72906.54008466484, 40375.319466032925, 12886.764155240555, 21081.80774233434, 20003.71605202151, 187500.0, 43550.876504287306, 42101.90231822757, 0.512, -0.6880000000000001, 0.512, 192.0, 0.0, 0.0, 0.0, 0.0, 0.0, 0.0, 0.0, 0.0, 0.0, 1.6635817117715285E9, 0.0, 2022-09-19 15:01:51.771
174.0, 72928.13186980867, 40389.75869295105, 12896.330701867426, 21099.17504777611, 20023.43029063109, 187500.0, 43599.22332754413, 42129.01498425186, 0.512, -0.6880000000000001, 0.512, 192.0, 0.0, 0.0, 0.0, 0.0, 0.0, 0.0, 0.0, 0.0, 0.0, 1.6635817117754605E9, 0.0, 2022-09-19 15:01:51.775
175.0, 72936.49142223495, 40389.51282376204, 12887.568818040947, 21079.863140566726, 20018.73642429548, 187500.0, 43638.11536289637, 42143.185990236525, 0.512, -0.6880000000000001, 0.512, 192.0, 0.0, 0.0, 0.0, 0.0, 0.0, 0.0, 0.0, 0.0, 0.0, 1.6635817117795372E9, 0.0, 2022-09-19 15:01:51.779
176.0, 72925.98610234095, 40385.109530104346, 12873.353108567371, 21067.770846816406, 20010.24276140246, 187500.0, 43639.791743730515, 42148.23748448342, 0.512, -0.6880000000000001, 0.512, 192.0, 0.0, 0.0, 0.0, 0.0, 0.0, 0.0, 0.0, 0.0, 0.0, 1.6635817117824254E9, 0.0, 2022-09-19 15:01:51.782
177.0, 72917.87241910367, 40386.20476558265, 12875.320062079438, 21094.637643651684, 20012.433232359082, 187500.0, 43640.30583385299, 42160.32977823374, 0.512, -0.6880000000000001, 0.512, 192.0, 0.0, 0.0, 0.0, 0.0, 0.0, 0.0, 0.0, 0.0, 0.0, 1.6635817117865324E9, 0.0, 2022-09-19 15:01:51.786
178.0, 72927.461317475, 40390.630410984806, 12877.01879465804, 21091.061364538833, 20013.081432948286, 187500.0, 43668.469031866676, 42186.14604307962, 0.512, -0.6880000000000001, 0.512, 192.0, 0.0, 0.0, 0.0, 0.0, 0.0, 0.0, 0.0, 0.0, 0.0, 1.6635817117904687E9, 0.0, 2022-09-19 15:01:51.790
179.0, 72943.04048336035, 40400.01814365604, 12878.561065025457, 21081.293652211865, 20018.04352021736, 187500.0, 43710.691477142755, 42217.46083706151, 0.508, -0.704, 0.498, 192.0, 15.0, 224.0, 234.0, 0.0, 15.0, 144.0, 0.0, 0.0, 0.0, 1.663581711794608E9, 0.0, 2022-09-19 15:01:51.794
180.0, 72958.73140796798, 40401.672172745726, 12872.302576577971, 21061.154730457634, 20017.507078350434, 187500.0, 43749.695271217264, 42254.43062239059, 0.508, -0.704, 0.498, 192.0, 0.0, 0.0, 0.0, 0.0, 0.0, 0.0, 0.0, 0.0, 0.0, 1.6635817117995207E9, 0.0, 2022-09-19 15:01:51.799
181.0, 72957.45735853403, 40398.721742477625, 12870.335623065905, 21076.800951576348, 20016.791822527866, 187500.0, 43751.61752124042, 42273.83193657779, 0.508, -0.704, 0.498, 192.0, 0.0, 0.0, 0.0, 0.0, 0.0, 0.0, 0.0, 0.0, 0.0, 1.663581711803408E9, 0.0, 2022-09-19 15:01:51.803
182.0, 72959.35725681273, 40402.25331810157, 12872.570797511435, 21082.41123943463, 20019.988121984974, 187500.0, 43756.534905020584, 42302.66568692514, 0.508, -0.704, 0.498, 192.0, 0.0, 0.0, 0.0, 0.0, 0.0, 0.0, 0.0, 0.0, 0.0, 1.6635817118075871E9, 0.0, 2022-09-19 15:01:51.807
183.0, 72982.7818850019, 40409.83055947191, 12870.782657955011, 21078.164407988123, 20026.20190694355, 187500.0, 43800.165510197345, 42357.96390270757, 0.508, -0.704, 0.498, 192.0, 0.0, 0.0, 0.0, 0.0, 0.0, 0.0, 0.0, 0.0, 0.0, 1.6635817118105068E9, 0.0, 2022-09-19 15:01:51.810
184.0, 73018.61173136375, 40424.15802766777, 12877.197608613684, 21071.16831197361, 20034.226183203005, 187500.0, 43869.12064184197, 42423.70038315062, 0.508, -0.704, 0.498, 192.0, 0.0, 0.0, 0.0, 0.0, 0.0, 0.0, 0.0, 0.0, 0.0, 1.6635817118145032E9, 0.0, 2022-09-19 15:01:51.814
185.0, 73065.17041506415, 40447.42619364574, 12892.240332632105, 21087.485085425986, 20047.771340342922, 187500.0, 43954.28078821669, 42504.50193935656, 0.508, -0.704, 0.498, 192.0, 0.0, 0.0, 0.0, 0.0, 0.0, 0.0, 0.0, 0.0, 0.0, 1.6635817118184967E9, 0.0, 2022-09-19 15:01:51.818
186.0, 73098.13923813573, 40455.852801305395, 12878.985748170107, 21081.472466167506, 20047.704285109554, 187500.0, 44011.74712321128, 42575.73694893563, 0.508, -0.704, 0.498, 192.0, 0.0, 0.0, 0.0, 0.0, 0.0, 0.0, 0.0, 0.0, 0.0, 1.6635817118224907E9, 0.0, 2022-09-19 15:01:51.822
187.0, 73129.27521816197, 40458.46795540666, 12867.36284105335, 21069.804855561837, 20044.373875185716, 187500.0, 44067.53707737173, 42649.65416784932, 0.508, -0.704, 0.498, 192.0, 0.0, 0.0, 0.0, 0.0, 0.0, 0.0, 0.0, 0.0, 0.0, 1.6635817118265197E9, 0.0, 2022-09-19 15:01:51.826
188.0, 73189.44611423566, 40474.583563158936, 12876.482352791114, 21062.674649080593, 20052.040523533884, 187500.0, 44168.90223847655, 42753.85800049997, 0.508, -0.704, 0.498, 192.0, 0.0, 0.0, 0.0, 0.0, 0.0, 0.0, 0.0, 0.0, 0.0, 1.6635817118315687E9, 0.0, 2022-09-19 15:01:51.831
189.0, 73259.65294356977, 40491.03444707805, 12882.047937160485, 21061.668820580104, 20060.78005561591, 187500.0, 44292.19446089202, 42874.4680135808, 0.508, -0.704, 0.498, 192.0, 0.0, 0.0, 0.0, 0.0, 0.0, 0.0, 0.0, 0.0, 0.0, 1.663581711835548E9, 0.0, 2022-09-19 15:01:51.835
190.0, 73335.69357820673, 40502.746761172624, 12876.102373135374, 21043.452148849028, 20065.898605096176, 187500.0, 44423.689773522594, 43010.612489058076, 0.504, -0.732, 0.48, 192.0, 15.0, 192.0, 233.0, 32.0, 15.0, 0.0, 0.0, 0.0, 0.0, 1.6635817118385308E9, 0.0, 2022-09-19 15:01:51.838
191.0, 73406.03451800758, 40517.61067123541, 12869.106277120862, 21042.11104418171, 20077.812084890855, 187500.0, 44533.70505973161, 43152.031976226805, 0.504, -0.732, 0.48, 192.0, 0.0, 0.0, 0.0, 0.0, 0.0, 0.0, 0.0, 0.0, 0.0, 1.6635817118425756E9, 0.0, 2022-09-19 15:01:51.842
192.0, 73485.20439686828, 40536.47554355569, 12874.694213234689, 21047.63192506217, 20093.25714030947, 187500.0, 44654.62799723483, 43312.89748107165, 0.504, -0.732, 0.48, 192.0, 0.0, 0.0, 0.0, 0.0, 0.0, 0.0, 0.0, 0.0, 0.0, 1.6635817118465264E9, 0.0, 2022-09-19 15:01:51.846
193.0, 73602.41694479191, 40568.1256137044, 12883.299634849982, 21038.892392980146, 20118.26874235496, 187500.0, 44834.64894707787, 43518.935861460675, 0.504, -0.732, 0.48, 192.0, 0.0, 0.0, 0.0, 0.0, 0.0, 0.0, 0.0, 0.0, 0.0, 1.6635817118506293E9, 0.0, 2022-09-19 15:01:51.850
194.0, 73733.71109172239, 40598.99337279718, 12882.986710427609, 21043.228631404476, 20136.954800719595, 187500.0, 45046.4317257919, 43750.16465785082, 0.504, -0.732, 0.48, 192.0, 0.0, 0.0, 0.0, 0.0, 0.0, 0.0, 0.0, 0.0, 0.0, 1.663581711855572E9, 0.0, 2022-09-19 15:01:51.855
195.0, 73893.14608492209, 40639.60649247247, 12884.439573817202, 21041.239326147956, 20160.424132397668, 187500.0, 45295.89954565759, 44025.560501284664, 0.504, -0.732, 0.48, 192.0, 0.0, 0.0, 0.0, 0.0, 0.0, 0.0, 0.0, 0.0, 0.0, 1.6635817118596013E9, 0.0, 2022-09-19 15:01:51.859
196.0, 74049.07185424231, 40678.54323131362, 12879.186913870206, 21038.44535809104, 20179.7136878626, 187500.0, 45533.096257817306, 44317.228414681966, 0.504, -0.732, 0.48, 192.0, 0.0, 0.0, 0.0, 0.0, 0.0, 0.0, 0.0, 0.0, 0.0, 1.6635817118625846E9, 0.0, 2022-09-19 15:01:51.862
197.0, 74205.75758287401, 40717.032935265655, 12876.907035935765, 21055.07505596579, 20200.076127061384, 187500.0, 45777.803156114, 44616.853549105355, 0.504, -0.732, 0.48, 192.0, 0.0, 0.0, 0.0, 0.0, 0.0, 0.0, 0.0, 0.0, 0.0, 1.6635817118665745E9, 0.0, 2022-09-19 15:01:51.866
198.0, 74387.56667227349, 40759.63536019747, 12886.652396518279, 21050.671762308095, 20223.165479083716, 187500.0, 46069.20284857784, 44950.20746591181, 0.504, -0.732, 0.48, 192.0, 0.0, 0.0, 0.0, 0.0, 0.0, 0.0, 0.0, 0.0, 0.0, 1.6635817118716297E9, 0.0, 2022-09-19 15:01:51.871
199.0, 74598.54478818712, 40806.9316514649, 12882.338509838404, 21040.613477303206, 20244.176118871703, 187500.0, 46404.702532852, 45323.839226226715, 0.504, -0.732, 0.48, 192.0, 0.0, 0.0, 0.0, 0.0, 0.0, 0.0, 0.0, 0.0, 0.0, 1.663581711875605E9, 0.0, 2022-09-19 15:01:51.875
200.0, 74827.33724443165, 40857.334835211615, 12876.839980702398, 21031.941000454546, 20266.52786332701, 187500.0, 46761.21285691415, 45728.405800867775, 0.512, -0.76, 0.47000000000000003, 192.0, 16.0, 0.0, 232.0, 64.0, 14.0, 176.0, 0.0, 0.0, 0.0, 1.6635817118786416E9, 0.0, 2022-09-19 15:01:51.878
201.0, 75042.22691562497, 40896.76331243078, 12876.415297557747, 21030.242267875943, 20289.058421737962, 187500.0, 47090.31994227409, 46130.89366327449, 0.512, -0.76, 0.47000000000000003, 192.0, 0.0, 0.0, 0.0, 0.0, 0.0, 0.0, 0.0, 0.0, 0.0, 1.663581711882583E9, 0.0, 2022-09-19 15:01:51.882
202.0, 75260.17877580867, 40937.13056291707, 12873.464867289647, 21030.041102175845, 20311.38781444881, 187500.0, 47420.52226311234, 46536.86839781623, 0.512, -0.76, 0.47000000000000003, 192.0, 0.0, 0.0, 0.0, 0.0, 0.0, 0.0, 0.0, 0.0, 0.0, 1.663581711886593E9, 0.0, 2022-09-19 15:01:51.886
203.0, 75498.78364786907, 40983.21985998391, 12872.950777167176, 21017.524125280874, 20337.896983372808, 187500.0, 47781.16765989872, 46969.55346698206, 0.512, -0.76, 0.47000000000000003, 192.0, 0.0, 0.0, 0.0, 0.0, 0.0, 0.0, 0.0, 0.0, 0.0, 1.6635817118907025E9, 0.0, 2022-09-19 15:01:51.890
204.0, 75741.59064788707, 41023.00596511435, 12857.662183959745, 20992.1548953241, 20351.777416679553, 187500.0, 48152.161914367905, 47399.2881058798, 0.512, -0.76, 0.47000000000000003, 192.0, 0.0, 0.0, 0.0, 0.0, 0.0, 0.0, 0.0, 0.0, 0.0, 1.6635817118945732E9, 0.0, 2022-09-19 15:01:51.894
205.0, 75992.31016544225, 41067.39652960259, 12851.314288534439, 20996.87111340417, 20367.669506987277, 187500.0, 48530.84516892972, 47842.41143970626, 0.512, -0.76, 0.47000000000000003, 192.0, 0.0, 0.0, 0.0, 0.0, 0.0, 0.0, 0.0, 0.0, 0.0, 1.6635817118996184E9, 0.0, 2022-09-19 15:01:51.899
206.0, 76220.49912458648, 41106.82500682175, 12854.041201357986, 21012.91966592308, 20382.064030416495, 187500.0, 48857.02417576602, 48268.83802042461, 0.512, -0.76, 0.47000000000000003, 192.0, 0.0, 0.0, 0.0, 0.0, 0.0, 0.0, 0.0, 0.0, 0.0, 1.6635817119036815E9, 0.0, 2022-09-19 15:01:51.903
207.0, 76428.12447883183, 41131.747201889426, 12853.97414612462, 21020.698072993528, 20389.730678764663, 187500.0, 49147.1498187959, 48661.22289433752, 0.512, -0.76, 0.47000000000000003, 192.0, 0.0, 0.0, 0.0, 0.0, 0.0, 0.0, 0.0, 0.0, 0.0, 1.6635817119066749E9, 0.0, 2022-09-19 15:01:51.906
208.0, 76644.37760643693, 41159.19514408054, 12853.772980424523, 21024.58727652875, 20397.71025153521, 187500.0, 49450.68650849897, 49048.46686702572, 0.512, -0.76, 0.47000000000000003, 192.0, 0.0, 0.0, 0.0, 0.0, 0.0, 0.0, 0.0, 0.0, 0.0, 1.6635817119106505E9, 0.0, 2022-09-19 15:01:51.910
209.0, 76867.06803644515, 41189.34764735075, 12858.600957226869, 21022.620323016683, 20407.79088828455, 187500.0, 49760.97342502754, 49429.340592544155, 0.512, -0.76, 0.47000000000000003, 192.0, 0.0, 0.0, 0.0, 0.0, 0.0, 0.0, 0.0, 0.0, 0.0, 1.6635817119145954E9, 0.0, 2022-09-19 15:01:51.914
210.0, 77076.34741978018, 41210.671211561115, 12855.762285681045, 21021.659198005105, 20411.27776041958, 187500.0, 50042.33718423095, 49781.98406481553, 0.522, -0.766, 0.462, 192.0, 16.0, 80.0, 232.0, 16.0, 14.0, 112.0, 0.0, 0.0, 0.0, 1.663581711918706E9, 0.0, 2022-09-19 15:01:51.918
211.0, 77240.8786107157, 41216.34855465276, 12864.345355551883, 21036.59016330125, 20415.681054077275, 187500.0, 50247.03445995265, 50081.22921958318, 0.522, -0.766, 0.462, 192.0, 0.0, 0.0, 0.0, 0.0, 0.0, 0.0, 0.0, 0.0, 0.0, 1.6635817119226723E9, 0.0, 2022-09-19 15:01:51.922
212.0, 77375.95020245912, 41205.61971731421, 12869.955643410165, 21037.037198190355, 20412.93178950927, 187500.0, 50404.569554873655, 50335.4803127623, 0.522, -0.766, 0.462, 192.0, 0.0, 0.0, 0.0, 0.0, 0.0, 0.0, 0.0, 0.0, 0.0, 1.6635817119276493E9, 0.0, 2022-09-19 15:01:51.927
213.0, 77508.20547440118, 41193.10274041924, 12870.603843999368, 21023.246171861432, 20409.780193541075, 187500.0, 50564.09395505118, 50570.397146987576, 0.522, -0.766, 0.462, 192.0, 0.0, 0.0, 0.0, 0.0, 0.0, 0.0, 0.0, 0.0, 0.0, 1.6635817119307263E9, 0.0, 2022-09-19 15:01:51.930
214.0, 77640.30428413204, 41183.24562111445, 12868.726297465122, 21012.58438975625, 20410.94248425275, 187500.0, 50730.055657631834, 50797.06618750885, 0.522, -0.766, 0.462, 192.0, 0.0, 0.0, 0.0, 0.0, 0.0, 0.0, 0.0, 0.0, 0.0, 1.6635817119346983E9, 0.0, 2022-09-19 15:01:51.934
215.0, 77754.29818085411, 41175.95895242202, 12870.872064932832, 21012.897314178626, 20408.886123762863, 187500.0, 50866.5577610204, 51000.24354460759, 0.522, -0.766, 0.462, 192.0, 0.0, 0.0, 0.0, 0.0, 0.0, 0.0, 0.0, 0.0, 0.0, 1.663581711938671E9, 0.0, 2022-09-19 15:01:51.938
216.0, 77826.60607416702, 41160.13391734766, 12862.892492162287, 21004.381299541154, 20391.56352181, 187500.0, 50929.030886772984, 51144.16642715531, 0.522, -0.766, 0.462, 192.0, 0.0, 0.0, 0.0, 0.0, 0.0, 0.0, 0.0, 0.0, 0.0, 1.6635817119426725E9, 0.0, 2022-09-19 15:01:51.942
217.0, 77903.83135126012, 41162.95023714903, 12867.87693117582, 20997.899293649112, 20385.081515917962, 187500.0, 50981.91511415424, 51283.79777476761, 0.522, -0.766, 0.462, 192.0, 0.0, 0.0, 0.0, 0.0, 0.0, 0.0, 0.0, 0.0, 0.0, 1.6635817119468105E9, 0.0, 2022-09-19 15:01:51.946
218.0, 77970.68541892593, 41154.47892600047, 12870.782657955011, 21015.557171768807, 20381.41582982729, 187500.0, 51032.40770487877, 51403.290200625685, 0.522, -0.766, 0.462, 192.0, 0.0, 0.0, 0.0, 0.0, 0.0, 0.0, 0.0, 0.0, 0.0, 1.663581711950693E9, 0.0, 2022-09-19 15:01:51.950
219.0, 78033.60557956762, 41144.39828925113, 12864.121838107329, 21015.311302579797, 20373.74918147912, 187500.0, 51086.454222971704, 51515.428902557964, 0.522, -0.766, 0.462, 192.0, 0.0, 0.0, 0.0, 0.0, 0.0, 0.0, 0.0, 0.0, 0.0, 1.6635817119557164E9, 0.0, 2022-09-19 15:01:51.955
220.0, 78082.64530690257, 41133.22241702347, 12859.517378749535, 21011.936189167045, 20364.719076719175, 187500.0, 51117.1655198533, 51609.038008336785, 0.536, -0.756, 0.46, 192.0, 16.0, 192.0, 232.0, 96.0, 14.0, 96.0, 0.0, 0.0, 0.0, 1.663581711958672E9, 0.0, 2022-09-19 15:01:51.958
221.0, 78103.90181587957, 41124.527588430356, 12860.50085550557, 21042.98276221547, 20364.584966252445, 187500.0, 51090.0081503401, 51652.33333734672, 0.536, -0.756, 0.46, 192.0, 0.0, 0.0, 0.0, 0.0, 0.0, 0.0, 0.0, 0.0, 0.0, 1.6635817119617476E9, 0.0, 2022-09-19 15:01:51.961
222.0, 78087.51798719383, 41092.81046304828, 12849.995535611575, 21045.866137250203, 20347.754102677598, 187500.0, 51015.934469215215, 51646.36542157715, 0.536, -0.756, 0.46, 192.0, 0.0, 0.0, 0.0, 0.0, 0.0, 0.0, 0.0, 0.0, 0.0, 1.6635817119667113E9, 0.0, 2022-09-19 15:01:51.966
223.0, 78072.76583585332, 41062.523849311336, 12846.106332076351, 21027.3141893523, 20329.11274780187, 187500.0, 50951.76261088403, 51631.65797372556, 0.536, -0.756, 0.46, 192.0, 0.0, 0.0, 0.0, 0.0, 0.0, 0.0, 0.0, 0.0, 0.0, 1.663581711970724E9, 0.0, 2022-09-19 15:01:51.970
224.0, 78079.24784174537, 41043.79308745779, 12844.049971586463, 21028.320017852788, 20329.291561757513, 187500.0, 50919.55374712393, 51636.06126738325, 0.536, -0.756, 0.46, 192.0, 0.0, 0.0, 0.0, 0.0, 0.0, 0.0, 0.0, 0.0, 0.0, 1.6635817119747386E9, 0.0, 2022-09-19 15:01:51.974
225.0, 78081.23714700188, 41026.53754073829, 12831.82356736941, 21028.74470099744, 20325.6482274113, 187500.0, 50880.19232513814, 51634.96603190494, 0.536, -0.756, 0.46, 192.0, 0.0, 0.0, 0.0, 0.0, 0.0, 0.0, 0.0, 0.0, 0.0, 1.6635817119788144E9, 0.0, 2022-09-19 15:01:51.978
226.0, 78061.94759153695, 41019.943776123975, 12832.561174936436, 21034.042064433346, 20324.12830878834, 187500.0, 50798.653161365175, 51610.04383683728, 0.536, -0.756, 0.46, 192.0, 0.0, 0.0, 0.0, 0.0, 0.0, 0.0, 0.0, 0.0, 0.0, 1.6635817119837675E9, 0.0, 2022-09-19 15:01:51.983
227.0, 78021.9603207064, 40996.452092701446, 12834.885756359787, 21027.940038197048, 20316.461660440167, 187500.0, 50694.78460488136, 51561.00410950233, 0.536, -0.756, 0.46, 192.0, 0.0, 0.0, 0.0, 0.0, 0.0, 0.0, 0.0, 0.0, 0.0, 1.66358171198675E9, 0.0, 2022-09-19 15:01:51.986
228.0, 78005.21886410938, 40974.18975522396, 12819.261886985529, 21005.58829374174, 20305.576360890434, 187500.0, 50634.18902566302, 51538.18297841346, 0.536, -0.756, 0.46, 192.0, 0.0, 0.0, 0.0, 0.0, 0.0, 0.0, 0.0, 0.0, 0.0, 1.6635817119897492E9, 0.0, 2022-09-19 15:01:51.989
229.0, 78036.53365809127, 40973.96623777941, 12819.887735830276, 21004.06837511878, 20314.45000343919, 187500.0, 50646.84011302473, 51577.63380737708, 0.536, -0.756, 0.46, 192.0, 0.0, 0.0, 0.0, 0.0, 0.0, 0.0, 0.0, 0.0, 0.0, 1.663581711994742E9, 0.0, 2022-09-19 15:01:51.994
230.0, 78097.86684487664, 40986.43851118547, 12820.87121258631, 21002.548456495817, 20331.325570502948, 187500.0, 50710.02849459988, 51677.3002359033, 0.55, -0.746, 0.462, 192.0, 17.0, 48.0, 232.0, 176.0, 14.0, 112.0, 0.0, 0.0, 0.0, 1.6635817119987566E9, 0.0, 2022-09-19 15:01:51.998
231.0, 78175.47210162546, 41012.52299696481, 12819.910087574732, 21011.377395555664, 20353.431445769245, 187500.0, 50788.05843449336, 51816.35043815976, 0.55, -0.746, 0.462, 192.0, 0.0, 0.0, 0.0, 0.0, 0.0, 0.0, 0.0, 0.0, 0.0, 1.6635817120028014E9, 0.0, 2022-09-19 15:01:52.002
232.0, 78261.34750382275, 41034.9865001424, 12824.380436465794, 21011.66796823358, 20378.487751303644, 187500.0, 50883.27686587297, 51980.613408161815, 0.55, -0.746, 0.462, 192.0, 0.0, 0.0, 0.0, 0.0, 0.0, 0.0, 0.0, 0.0, 0.0, 1.6635817120067654E9, 0.0, 2022-09-19 15:01:52.006
233.0, 78364.61256320626, 41056.4888783084, 12824.626305654801, 21001.96731113998, 20396.816181756996, 187500.0, 51021.298887884484, 52173.196038388734, 0.55, -0.746, 0.462, 192.0, 0.0, 0.0, 0.0, 0.0, 0.0, 0.0, 0.0, 0.0, 0.0, 1.66358171201082E9, 0.0, 2022-09-19 15:01:52.010
234.0, 78508.66955622072, 41093.279849681836, 12818.859555585332, 20993.63011045815, 20416.932751766773, 187500.0, 51212.04867506608, 52406.95058190234, 0.55, -0.746, 0.462, 192.0, 0.0, 0.0, 0.0, 0.0, 0.0, 0.0, 0.0, 0.0, 0.0, 1.6635817120148022E9, 0.0, 2022-09-19 15:01:52.014
235.0, 78660.23673537216, 41133.960024590495, 12823.843994598867, 20989.04800284481, 20437.4740049212, 187500.0, 51411.7838635187, 52654.406744767046, 0.55, -0.746, 0.462, 192.0, 0.0, 0.0, 0.0, 0.0, 0.0, 0.0, 0.0, 0.0, 0.0, 1.6635817120178375E9, 0.0, 2022-09-19 15:01:52.017
236.0, 78762.98770463321, 41160.08921385875, 12829.63309641279, 21004.06837511878, 20442.10081602345, 187500.0, 51536.596004557134, 52842.96606099201, 0.55, -0.746, 0.462, 192.0, 0.0, 0.0, 0.0, 0.0, 0.0, 0.0, 0.0, 0.0, 0.0, 1.6635817120228477E9, 0.0, 2022-09-19 15:01:52.022
237.0, 78845.44328992884, 41167.465289529006, 12825.341561477371, 21009.902180421614, 20433.249525219147, 187500.0, 51620.705618942455, 52993.035673264945, 0.55, -0.746, 0.462, 192.0, 0.0, 0.0, 0.0, 0.0, 0.0, 0.0, 0.0, 0.0, 0.0, 1.663581712026819E9, 0.0, 2022-09-19 15:01:52.026
238.0, 78934.17971541641, 41183.24562111445, 12830.102483046352, 21015.87009619118, 20432.266048463112, 187500.0, 51709.844375830224, 53138.56788141345, 0.55, -0.746, 0.462, 192.0, 0.0, 0.0, 0.0, 0.0, 0.0, 0.0, 0.0, 0.0, 0.0, 1.6635817120308115E9, 0.0, 2022-09-19 15:01:52.030
239.0, 78985.45461719688, 41180.67517050209, 12836.562137193936, 21016.093613635734, 20422.408929158322, 187500.0, 51764.13676311216, 53227.12549294538, 0.55, -0.746, 0.462, 192.0, 0.0, 0.0, 0.0, 0.0, 0.0, 0.0, 0.0, 0.0, 0.0, 1.663581712036877E9, 0.0, 2022-09-19 15:01:52.036
240.0, 79018.02110886826, 41173.83553669877, 12844.720523920123, 21022.888543950146, 20412.03771973106, 187500.0, 51782.46519356551, 53277.9757115812, 0.532, -0.732, 0.468, 192.0, 16.0, 160.0, 233.0, 32.0, 14.0, 160.0, 0.0, 0.0, 0.0, 1.6635817120398338E9, 0.0, 2022-09-19 15:01:52.039
241.0, 79001.97255634936, 41153.04841435533, 12839.624326184312, 21029.839936475746, 20392.077611932473, 187500.0, 51711.29723921981, 53255.78042933708, 0.532, -0.732, 0.468, 192.0, 0.0, 0.0, 0.0, 0.0, 0.0, 0.0, 0.0, 0.0, 0.0, 1.6635817120428464E9, 0.0, 2022-09-19 15:01:52.042
242.0, 78956.82203254962, 41119.74431511692, 12839.601974439856, 21032.857421977213, 20367.378934309356, 187500.0, 51593.61530466263, 53183.98662614663, 0.532, -0.732, 0.468, 192.0, 0.0, 0.0, 0.0, 0.0, 0.0, 0.0, 0.0, 0.0, 0.0, 1.6635817120458395E9, 0.0, 2022-09-19 15:01:52.045
243.0, 78903.80369470164, 41087.15547170109, 12833.522299948014, 21030.44343357604, 20347.016495110573, 187500.0, 51477.92267536196, 53098.60296232736, 0.532, -0.732, 0.468, 192.0, 0.0, 0.0, 0.0, 0.0, 0.0, 0.0, 0.0, 0.0, 0.0, 1.6635817120498445E9, 0.0, 2022-09-19 15:01:52.049
244.0, 78855.70274063382, 41065.83190749072, 12838.618497683823, 21020.1616311266, 20336.377064749846, 187500.0, 51368.28736880868, 53000.88113556876, 0.532, -0.732, 0.468, 192.0, 0.0, 0.0, 0.0, 0.0, 0.0, 0.0, 0.0, 0.0, 0.0, 1.663581712054843E9, 0.0, 2022-09-19 15:01:52.054
245.0, 78784.78065547714, 41031.49962800737, 12833.052913314452, 21013.612570001194, 20317.60159940739, 187500.0, 51226.912585128855, 52871.79981133936, 0.532, -0.732, 0.468, 192.0, 0.0, 0.0, 0.0, 0.0, 0.0, 0.0, 0.0, 0.0, 0.0, 1.6635817120588703E9, 0.0, 2022-09-19 15:01:52.058
246.0, 78686.9247182518, 40999.335467736186, 12836.91976510522, 21032.231573132467, 20301.217770721647, 187500.0, 51037.66036482577, 52709.43673961601, 0.532, -0.732, 0.468, 192.0, 0.0, 0.0, 0.0, 0.0, 0.0, 0.0, 0.0, 0.0, 0.0, 1.663581712062898E9, 0.0, 2022-09-19 15:01:52.062
247.0, 78585.87248156936, 40967.998322009844, 12853.236538557594, 21030.309323109308, 20293.707584584667, 187500.0, 50845.837693910325, 52539.65288873349, 0.532, -0.732, 0.468, 192.0, 0.0, 0.0, 0.0, 0.0, 0.0, 0.0, 0.0, 0.0, 0.0, 1.66358171206691E9, 0.0, 2022-09-19 15:01:52.066
248.0, 78495.88435839229, 40938.20344665092, 12851.314288534439, 21027.135375396654, 20283.694003068686, 187500.0, 50681.99940705293, 52378.40740423291, 0.532, -0.732, 0.468, 192.0, 0.0, 0.0, 0.0, 0.0, 0.0, 0.0, 0.0, 0.0, 0.0, 1.6635817120709608E9, 0.0, 2022-09-19 15:01:52.070
249.0, 78416.02157545347, 40920.16558887548, 12845.122855320318, 21024.63198001766, 20274.239215164092, 187500.0, 50541.56339664023, 52224.515643658124, 0.532, -0.732, 0.468, 192.0, 0.0, 0.0, 0.0, 0.0, 0.0, 0.0, 0.0, 0.0, 0.0, 1.6635817120739515E9, 0.0, 2022-09-19 15:01:52.073
250.0, 78340.38327221671, 40907.55920500269, 12849.324983277917, 21038.22184064649, 20271.445247107178, 187500.0, 50406.78237757473, 52074.17781045173, 0.522, -0.726, 0.466, 192.0, 16.0, 80.0, 233.0, 80.0, 14.0, 144.0, 0.0, 0.0, 0.0, 1.6635817120779216E9, 0.0, 2022-09-19 15:01:52.077
251.0, 78233.07254708679, 40875.931486598434, 12848.363858266337, 21035.517279567397, 20259.308249867947, 187500.0, 50227.342573087524, 51899.0518926444, 0.522, -0.726, 0.466, 192.0, 0.0, 0.0, 0.0, 0.0, 0.0, 0.0, 0.0, 0.0, 0.0, 1.6635817120829575E9, 0.0, 2022-09-19 15:01:52.082
252.0, 78122.76668819984, 40839.60990185856, 12847.313326276939, 21033.416215588597, 20250.881642208296, 187500.0, 50046.31579474399, 51728.932765595055, 0.522, -0.726, 0.466, 192.0, 0.0, 0.0, 0.0, 0.0, 0.0, 0.0, 0.0, 0.0, 0.0, 1.6635817120869226E9, 0.0, 2022-09-19 15:01:52.086
253.0, 78037.89711450305, 40824.410715628954, 12846.933346621197, 21035.74079701195, 20251.19456663067, 187500.0, 49906.21506049813, 51579.86898182261, 0.522, -0.726, 0.466, 192.0, 0.0, 0.0, 0.0, 0.0, 0.0, 0.0, 0.0, 0.0, 0.0, 1.663581712090976E9, 0.0, 2022-09-19 15:01:52.090
254.0, 77968.36083750258, 40817.57108182563, 12843.960564608642, 21030.063453920302, 20249.406427074246, 187500.0, 49793.785785887936, 51444.03743076771, 0.522, -0.726, 0.466, 192.0, 0.0, 0.0, 0.0, 0.0, 0.0, 0.0, 0.0, 0.0, 0.0, 1.6635817120939813E9, 0.0, 2022-09-19 15:01:52.093
255.0, 77898.86926399103, 40805.83641598659, 12848.229747799605, 21035.025541189378, 20244.421988060712, 187500.0, 49680.68595894408, 51308.40704541291, 0.522, -0.726, 0.466, 192.0, 0.0, 0.0, 0.0, 0.0, 0.0, 0.0, 0.0, 0.0, 0.0, 1.6635817120979874E9, 0.0, 2022-09-19 15:01:52.097
0.0, 77803.76259133371, 40788.53616577818, 12857.349259537372, 21048.481291351472, 20237.76116821303, 187500.0, 49522.27914598932, 51151.58720631447, 0.522, -0.726, 0.466, 192.0, 0.0, 0.0, 0.0, 0.0, 0.0, 0.0, 0.0, 0.0, 0.0, 1.6635817121020105E9, 0.0, 2022-09-19 15:01:52.102
1.0, 77685.52186316512, 40757.8695723855, 12851.336640278894, 21042.9157069821, 20221.466746505113, 187500.0, 49337.698440277396, 50965.9783203576, 0.522, -0.726, 0.466, 192.0, 0.0, 0.0, 0.0, 0.0, 0.0, 0.0, 0.0, 0.0, 0.0, 1.6635817121059513E9, 0.0, 2022-09-19 15:01:52.105
2.0, 77564.55422217301, 40723.22436847977, 12837.143282549774, 21017.2112008585, 20198.28798750496, 187500.0, 49161.723156180764, 50766.95838772755, 0.522, -0.726, 0.466, 192.0, 0.0, 0.0, 0.0, 0.0, 0.0, 0.0, 0.0, 0.0, 0.0, 1.6635817121109612E9, 0.0, 2022-09-19 15:01:52.110
3.0, 77474.6331542293, 40714.32837418656, 12849.570852466924, 21023.1120613947, 20198.556208438422, 187500.0, 49026.740971415165, 50592.34656004269, 0.522, -0.726, 0.466, 192.0, 0.0, 0.0, 0.0, 0.0, 0.0, 0.0, 0.0, 0.0, 0.0, 1.6635817121150837E9, 0.0, 2022-09-19 15:01:52.115
4.0, 77379.97351646108, 40704.42655139286, 12854.242367058083, 21036.657218534616, 20199.584388683368, 187500.0, 48884.874449357325, 50418.494691669315, 0.522, -0.716, 0.47000000000000003, 192.0, 16.0, 80.0, 233.0, 160.0, 14.0, 176.0, 0.0, 0.0, 0.0, 1.6635817121190708E9, 0.0, 2022-09-19 15:01:52.119
5.0, 77243.56082005035, 40678.230306891244, 12850.531977478502, 21040.45701509202, 20181.591234396845, 187500.0, 48681.83120272532, 50202.73330244223, 0.522, -0.716, 0.47000000000000003, 192.0, 0.0, 0.0, 0.0, 0.0, 0.0, 0.0, 0.0, 0.0, 0.0, 1.6635817121220653E9, 0.0, 2022-09-19 15:01:52.122
6.0, 77104.7564869829, 40652.928132167835, 12850.375515267315, 21044.234459904965, 20171.577652880867, 187500.0, 48473.51294440186, 49978.56765729996, 0.522, -0.716, 0.47000000000000003, 192.0, 0.0, 0.0, 0.0, 0.0, 0.0, 0.0, 0.0, 0.0, 0.0, 1.663581712126093E9, 0.0, 2022-09-19 15:01:52.126
7.0, 76979.16203488852, 40626.10603882147, 12847.358029765848, 21039.562945313806, 20163.776894065966, 187500.0, 48295.39189283751, 49761.93455003912, 0.522, -0.716, 0.47000000000000003, 192.0, 0.0, 0.0, 0.0, 0.0, 0.0, 0.0, 0.0, 0.0, 0.0, 1.6635817121300316E9, 0.0, 2022-09-19 15:01:52.130
8.0, 76870.48785334681, 40610.79509386958, 12852.320117034928, 21042.200451159533, 20164.492149888534, 187500.0, 48149.14442886644, 49570.04482389031, 0.522, -0.716, 0.47000000000000003, 192.0, 0.0, 0.0, 0.0, 0.0, 0.0, 0.0, 0.0, 0.0, 0.0, 1.6635817121340723E9, 0.0, 2022-09-19 15:01:52.134
9.0, 76766.12755848498, 40601.407361198355, 12858.153922337762, 21047.07313145079, 20166.88378654525, 187500.0, 48006.02620911911, 49380.63614137604, 0.522, -0.716, 0.47000000000000003, 192.0, 0.0, 0.0, 0.0, 0.0, 0.0, 0.0, 0.0, 0.0, 0.0, 1.6635817121380656E9, 0.0, 2022-09-19 15:01:52.138
10.0, 76628.8878475294, 40577.133366719885, 12846.910994876742, 21037.97597145748, 20148.264783413983, 187500.0, 47809.12969221231, 49159.73385092424, 0.522, -0.716, 0.47000000000000003, 192.0, 0.0, 0.0, 0.0, 0.0, 0.0, 0.0, 0.0, 0.0, 0.0, 1.6635817121430137E9, 0.0, 2022-09-19 15:01:52.143
11.0, 76479.26527014557, 40549.28309312858, 12856.58930022589, 21038.802986002327, 20139.54760307641, 187500.0, 47602.04077983389, 48928.81797895646, 0.522, -0.716, 0.47000000000000003, 192.0, 0.0, 0.0, 0.0, 0.0, 0.0, 0.0, 0.0, 0.0, 0.0, 1.663581712147043E9, 0.0, 2022-09-19 15:01:52.147
12.0, 76339.23159113308, 40524.07032538299, 12856.946928137175, 21032.186869643556, 20130.048111682907, 187500.0, 47417.080094466226, 48702.37245587975, 0.522, -0.716, 0.47000000000000003, 192.0, 0.0, 0.0, 0.0, 0.0, 0.0, 0.0, 0.0, 0.0, 0.0, 1.6635817121500354E9, 0.0, 2022-09-19 15:01:52.150
13.0, 76217.21341815156, 40513.60970897791, 12854.421181013726, 21026.844802718737, 20123.342588346313, 187500.0, 47261.69076701293, 48485.560534663266, 0.522, -0.716, 0.47000000000000003, 192.0, 0.0, 0.0, 0.0, 0.0, 0.0, 0.0, 0.0, 0.0, 0.0, 1.6635817121540527E9, 0.0, 2022-09-19 15:01:52.154
14.0, 76087.50624507741, 40504.33373502895, 12853.63886995779, 21031.672779521083, 20115.228905109037, 187500.0, 47096.533727232665, 48261.17137207644, 0.526, -0.71, 0.466, 192.0, 16.0, 112.0, 233.0, 208.0, 14.0, 144.0, 0.0, 0.0, 0.0, 1.6635817121580856E9, 0.0, 2022-09-19 15:01:52.158
15.0, 75919.28701630677, 40475.410577703784, 12850.107294333851, 21032.45509057702, 20102.331948558327, 187500.0, 46872.45748906821, 48002.96402012873, 0.526, -0.71, 0.466, 192.0, 0.0, 0.0, 0.0, 0.0, 0.0, 0.0, 0.0, 0.0, 0.0, 1.6635817121622615E9, 0.0, 2022-09-19 15:01:52.162
16.0, 75744.31756071062, 40439.558379597474, 12845.726352420612, 21026.330712596264, 20089.993785618997, 187500.0, 46640.37932638876, 47734.63132794277, 0.526, -0.71, 0.466, 192.0, 0.0, 0.0, 0.0, 0.0, 0.0, 0.0, 0.0, 0.0, 0.0, 1.6635817121661117E9, 0.0, 2022-09-19 15:01:52.166
17.0, 75595.41023914937, 40423.688641034205, 12849.123817577818, 21034.131471411165, 20087.266872795448, 187500.0, 46447.61788220619, 47484.13532783215, 0.526, -0.71, 0.466, 192.0, 0.0, 0.0, 0.0, 0.0, 0.0, 0.0, 0.0, 0.0, 0.0, 1.6635817121710744E9, 0.0, 2022-09-19 15:01:52.171
18.0, 75461.09860671742, 40412.579824039916, 12858.064515359942, 21038.35595111322, 20088.853846651775, 187500.0, 46283.1760982485, 47246.715098227876, 0.526, -0.71, 0.466, 192.0, 0.0, 0.0, 0.0, 0.0, 0.0, 0.0, 0.0, 0.0, 0.0, 1.6635817121751363E9, 0.0, 2022-09-19 15:01:52.175
19.0, 75304.39052634127, 40384.41662602623, 12858.891529904788, 21047.25194540643, 20073.49819821098, 187500.0, 46094.102691901055, 46989.91590618085, 0.526, -0.71, 0.466, 192.0, 0.0, 0.0, 0.0, 0.0, 0.0, 0.0, 0.0, 0.0, 0.0, 1.6635817121781304E9, 0.0, 2022-09-19 15:01:52.178
20.0, 75112.56785542582, 40343.40117495074, 12839.02082908402, 21034.35498885572, 20048.754817098954, 187500.0, 45845.64070053586, 46702.42776899669, 0.526, -0.71, 0.466, 192.0, 0.0, 0.0, 0.0, 0.0, 0.0, 0.0, 0.0, 0.0, 0.0, 1.6635817121821263E9, 0.0, 2022-09-19 15:01:52.182
21.0, 74924.09794617868, 40313.40513389172, 12831.555346435947, 21038.937096469057, 20038.696532094065, 187500.0, 45596.44110160364, 46408.32351545376, 0.526, -0.71, 0.466, 192.0, 0.0, 0.0, 0.0, 0.0, 0.0, 0.0, 0.0, 0.0, 0.0, 1.66358171218612E9, 0.0, 2022-09-19 15:01:52.186
22.0, 74747.22859230383, 40289.37700860226, 12838.909070361742, 21038.82533774678, 20033.980314013996, 187500.0, 45375.225886729466, 46120.61186082505, 0.526, -0.71, 0.466, 192.0, 0.0, 0.0, 0.0, 0.0, 0.0, 0.0, 0.0, 0.0, 0.0, 1.6635817121901317E9, 0.0, 2022-09-19 15:01:52.190
23.0, 74586.94423281483, 40274.557802028394, 12848.833244899899, 21044.949715727536, 20033.376816913704, 187500.0, 45186.59951527113, 45852.79325876156, 0.526, -0.71, 0.466, 192.0, 0.0, 0.0, 0.0, 0.0, 0.0, 0.0, 0.0, 0.0, 0.0, 1.6635817121941588E9, 0.0, 2022-09-19 15:01:52.194
24.0, 74431.51020187262, 40258.50924950949, 12843.759398908544, 21038.378302857676, 20025.01726448742, 187500.0, 45005.21510901632, 45593.9600579691, 0.534, -0.718, 0.46, 192.0, 16.0, 176.0, 233.0, 144.0, 14.0, 96.0, 0.0, 0.0, 0.0, 1.663581712199155E9, 0.0, 2022-09-19 15:01:52.199
25.0, 74255.04317939797, 40231.86597011876, 12837.009172083042, 21033.907953966613, 20014.57899982679, 187500.0, 44786.39153079886, 45320.419409325055, 0.534, -0.718, 0.46, 192.0, 0.0, 0.0, 0.0, 0.0, 0.0, 0.0, 0.0, 0.0, 0.0, 1.6635817122031736E9, 0.0, 2022-09-19 15:01:52.203
26.0, 74084.7899418819, 40210.877682075225, 12835.556308693447, 21041.954581970524, 20011.874438747698, 187500.0, 44578.81088004242, 45065.40835683446, 0.534, -0.718, 0.46, 192.0, 0.0, 0.0, 0.0, 0.0, 0.0, 0.0, 0.0, 0.0, 0.0, 1.6635817122061727E9, 0.0, 2022-09-19 15:01:52.206
27.0, 73948.3548937267, 40203.99334478299, 12836.003343582553, 21047.542518084352, 20016.43419461658, 187500.0, 44415.68784900759, 44837.688784323786, 0.534, -0.718, 0.46, 192.0, 0.0, 0.0, 0.0, 0.0, 0.0, 0.0, 0.0, 0.0, 0.0, 1.6635817122101643E9, 0.0, 2022-09-19 15:01:52.210
28.0, 73816.43489795148, 40187.29659167488, 12829.409578968238, 21037.55128831283, 20009.90748523563, 187500.0, 44279.409263063586, 44622.15091254126, 0.534, -0.718, 0.46, 192.0, 0.0, 0.0, 0.0, 0.0, 0.0, 0.0, 0.0, 0.0, 0.0, 1.6635817122142491E9, 0.0, 2022-09-19 15:01:52.214
29.0, 73700.31758550616, 40184.18969919559, 12831.890622602776, 21036.076073178778, 20009.415746857616, 187500.0, 44163.53781980727, 44428.1377706692, 0.534, -0.718, 0.46, 192.0, 0.0, 0.0, 0.0, 0.0, 0.0, 0.0, 0.0, 0.0, 0.0, 1.663581712218142E9, 0.0, 2022-09-19 15:01:52.218
30.0, 73571.70564791032, 40180.36755089373, 12836.025695327007, 21036.21018364551, 20008.34286312376, 187500.0, 44015.23399534631, 44225.921538582035, 0.534, -0.718, 0.46, 192.0, 0.0, 0.0, 0.0, 0.0, 0.0, 0.0, 0.0, 0.0, 0.0, 1.6635817122221625E9, 0.0, 2022-09-19 15:01:52.222
31.0, 73430.37556771941, 40171.20333566706, 12837.053875571952, 21035.74079701195, 20003.42547934359, 187500.0, 43853.362662000975, 44013.57996625662, 0.534, -0.718, 0.46, 192.0, 0.0, 0.0, 0.0, 0.0, 0.0, 0.0, 0.0, 0.0, 0.0, 1.6635817122272265E9, 0.0, 2022-09-19 15:01:52.227
32.0, 73312.33600525094, 40170.197507166566, 12841.725390163112, 21013.34434906773, 20003.00079619894, 187500.0, 43730.2716052856, 43823.41132443087, 0.534, -0.718, 0.46, 192.0, 0.0, 0.0, 0.0, 0.0, 0.0, 0.0, 0.0, 0.0, 0.0, 1.6635817122302082E9, 0.0, 2022-09-19 15:01:52.230
33.0, 73207.99806213356, 40166.487117586985, 12835.466901715625, 21030.935171954057, 20001.547932809346, 187500.0, 43630.26990059255, 43643.27861586554, 0.534, -0.718, 0.46, 192.0, 0.0, 0.0, 0.0, 0.0, 0.0, 0.0, 0.0, 0.0, 0.0, 1.6635817122341971E9, 0.0, 2022-09-19 15:01:52.234
34.0, 73100.12854339225, 40158.239323882975, 12822.7264073761, 21035.606686545216, 19997.926950207588, 187500.0, 43526.80367550894, 43464.263494522995, 0.534, -0.718, 0.46, 192.0, 0.0, 0.0, 0.0, 0.0, 0.0, 0.0, 0.0, 0.0, 0.0, 1.6635817122382243E9, 0.0, 2022-09-19 15:01:52.238
35.0, 72958.50789052343, 40138.63684399567, 12802.587485621869, 21028.275314363877, 19987.220464613496, 187500.0, 43368.95565616556, 43254.62648327667, 0.556, -0.73, 0.454, 192.0, 17.0, 96.0, 233.0, 48.0, 14.0, 48.0, 0.0, 0.0, 0.0, 1.663581712242238E9, 0.0, 2022-09-19 15:01:52.242
36.0, 72804.14674331507, 40116.866244896206, 12805.49321240106, 21042.826300004283, 19987.645147758147, 187500.0, 43194.00855231388, 43020.64842231851, 0.556, -0.73, 0.454, 192.0, 0.0, 0.0, 0.0, 0.0, 0.0, 0.0, 0.0, 0.0, 0.0, 1.6635817122462757E9, 0.0, 2022-09-19 15:01:52.246
37.0, 72655.90997408748, 40094.96153533, 12798.9217995312, 21032.790366743848, 19982.66070874461, 187500.0, 43033.053640491205, 42781.529460135636, 0.556, -0.73, 0.454, 192.0, 0.0, 0.0, 0.0, 0.0, 0.0, 0.0, 0.0, 0.0, 0.0, 1.6635817122502396E9, 0.0, 2022-09-19 15:01:52.250
38.0, 72524.63817890146, 40085.529099169864, 12798.608875108825, 21026.86715446319, 19982.884226189166, 187500.0, 42896.730351058286, 42551.1947335237, 0.556, -0.73, 0.454, 192.0, 0.0, 0.0, 0.0, 0.0, 0.0, 0.0, 0.0, 0.0, 0.0, 1.6635817122552545E9, 0.0, 2022-09-19 15:01:52.255
39.0, 72388.42664819081, 40070.285209451344, 12794.317340173406, 21020.988645671445, 19975.932833663563, 187500.0, 42749.76763126464, 42310.37703876222, 0.556, -0.73, 0.454, 192.0, 0.0, 0.0, 0.0, 0.0, 0.0, 0.0, 0.0, 0.0, 0.0, 1.6635817122582626E9, 0.0, 2022-09-19 15:01:52.258
40.0, 72218.88866649731, 40039.77507826985, 12787.947093003642, 21025.68251200706, 19959.347839277725, 187500.0, 42548.26665500005, 42032.92483483849, 0.556, -0.73, 0.454, 192.0, 0.0, 0.0, 0.0, 0.0, 0.0, 0.0, 0.0, 0.0, 0.0, 1.6635817122612653E9, 0.0, 2022-09-19 15:01:52.261
41.0, 72037.19133582013, 40010.36018256667, 12780.146334188741, 21029.012921930902, 19943.209879780996, 187500.0, 42329.26426282695, 41739.044098740116, 0.556, -0.73, 0.454, 192.0, 0.0, 0.0, 0.0, 0.0, 0.0, 0.0, 0.0, 0.0, 0.0, 1.6635817122662768E9, 0.0, 2022-09-19 15:01:52.266
42.0, 71859.13733948914, 39983.538089220296, 12768.277557882973, 21020.72042473798, 19924.590876649723, 187500.0, 42125.282242927824, 41443.62109227432, 0.556, -0.73, 0.454, 192.0, 0.0, 0.0, 0.0, 0.0, 0.0, 0.0, 0.0, 0.0, 0.0, 1.6635817122702777E9, 0.0, 2022-09-19 15:01:52.270
43.0, 71692.169808408, 39969.344731491175, 12773.127886429775, 21022.01682591639, 19920.522859158857, 187500.0, 41940.32155756016, 41158.05520511332, 0.556, -0.73, 0.454, 192.0, 0.0, 0.0, 0.0, 0.0, 0.0, 0.0, 0.0, 0.0, 0.0, 1.6635817122742915E9, 0.0, 2022-09-19 15:01:52.274
44.0, 71512.26061728723, 39953.60910339464, 12786.270712169495, 21040.389959858654, 19915.583123634235, 187500.0, 41736.585406850034, 40859.88293407952, 0.556, -0.73, 0.454, 192.0, 0.0, 0.0, 0.0, 0.0, 0.0, 0.0, 0.0, 0.0, 0.0, 1.6635817122782528E9, 0.0, 2022-09-19 15:01:52.278
45.0, 71285.05513489904, 39915.65584130953, 12782.537970845458, 21018.88758169265, 19890.750335544388, 187500.0, 41460.519011082535, 40522.17042710429, 0.56, -0.728, 0.448, 192.0, 17.0, 128.0, 233.0, 64.0, 14.0, 0.0, 0.0, 0.0, 0.0, 1.663581712282308E9, 0.0, 2022-09-19 15:01:52.282
46.0, 71024.14322187225, 39868.471308764376, 12772.703203285124, 21027.49300330794, 19861.02251541883, 187500.0, 41143.03483283935, 40138.83800969577, 0.56, -0.728, 0.448, 192.0, 0.0, 0.0, 0.0, 0.0, 0.0, 0.0, 0.0, 0.0, 0.0, 1.6635817122862976E9, 0.0, 2022-09-19 15:01:52.286
47.0, 70760.21382334398, 39824.25955823178, 12770.646842795235, 21036.321942367787, 19842.15764309855, 187500.0, 40828.61284358655, 39737.043051367174, 0.56, -0.728, 0.448, 192.0, 0.0, 0.0, 0.0, 0.0, 0.0, 0.0, 0.0, 0.0, 0.0, 1.6635817122893205E9, 0.0, 2022-09-19 15:01:52.289
48.0, 70505.18041910892, 39790.039037470706, 12783.00735747902, 21035.427872589575, 19827.36078826914, 187500.0, 40523.77975270507, 39318.707802141646, 0.56, -0.728, 0.448, 192.0, 0.0, 0.0, 0.0, 0.0, 0.0, 0.0, 0.0, 0.0, 0.0, 1.6635817122942944E9, 0.0, 2022-09-19 15:01:52.294
49.0, 70232.55619198755, 39753.09160388608, 12790.67400582719, 21039.562945313806, 19804.897285091556, 187500.0, 40191.29755393238, 38870.15299441254, 0.56, -0.728, 0.448, 192.0, 0.0, 0.0, 0.0, 0.0, 0.0, 0.0, 0.0, 0.0, 0.0, 1.663581712298375E9, 0.0, 2022-09-19 15:01:52.298
50.0, 69908.7017665746, 39697.90514682593, 12794.809078551421, 21038.311247624308, 19773.761305065313, 187500.0, 39780.248973399284, 38357.06870044097, 0.56, -0.728, 0.448, 192.0, 0.0, 0.0, 0.0, 0.0, 0.0, 0.0, 0.0, 0.0, 0.0, 1.6635817123023665E9, 0.0, 2022-09-19 15:01:52.302
51.0, 69545.30710522021, 39622.33389882254, 12776.659462053713, 21020.318093337788, 19730.15305163301, 187500.0, 39319.35600273085, 37792.35187677764, 0.56, -0.728, 0.448, 192.0, 0.0, 0.0, 0.0, 0.0, 0.0, 0.0, 0.0, 0.0, 0.0, 1.6635817123063257E9, 0.0, 2022-09-19 15:01:52.306
52.0, 69196.8881126509, 39558.698482358275, 12760.119171156784, 21029.30349460882, 19699.106478584585, 187500.0, 38884.50281435285, 37229.60200662637, 0.56, -0.728, 0.448, 192.0, 0.0, 0.0, 0.0, 0.0, 0.0, 0.0, 0.0, 0.0, 0.0, 1.6635817123102987E9, 0.0, 2022-09-19 15:01:52.310
53.0, 68899.07346952838, 39522.265138896124, 12763.024897935975, 21032.49979406593, 19696.111344827576, 187500.0, 38527.16547574586, 36732.87918959608, 0.56, -0.728, 0.448, 192.0, 0.0, 0.0, 0.0, 0.0, 0.0, 0.0, 0.0, 0.0, 0.0, 1.6635817123143907E9, 0.0, 2022-09-19 15:01:52.314
54.0, 68642.74366411491, 39496.426522305796, 12767.942281716143, 21026.50952655191, 19701.855743152588, 187500.0, 38246.4275653872, 36317.60612936093, 0.56, -0.728, 0.448, 192.0, 0.0, 0.0, 0.0, 0.0, 0.0, 0.0, 0.0, 0.0, 0.0, 1.6635817123174157E9, 0.0, 2022-09-19 15:01:52.317
55.0, 68404.898751366, 39478.34396104145, 12758.688659511645, 21016.317131080286, 19708.114231600077, 187500.0, 37996.24448969895, 35962.436909966105, 0.5660000000000001, -0.73, 0.444, 192.0, 17.0, 176.0, 233.0, 48.0, 13.0, 224.0, 0.0, 0.0, 0.0, 1.6635817123213165E9, 0.0, 2022-09-19 15:01:52.321
56.0, 68166.96443163925, 39461.28958002205, 12748.742133229034, 21009.58925599924, 19710.57292349016, 187500.0, 37750.7105768574, 35619.024708154764, 0.5660000000000001, -0.73, 0.444, 192.0, 0.0, 0.0, 0.0, 0.0, 0.0, 0.0, 0.0, 0.0, 0.0, 1.6635817123263853E9, 0.0, 2022-09-19 15:01:52.326
57.0, 67920.00000715256, 39437.552027410515, 12733.632353977246, 20993.943034880525, 19697.720670428356, 187500.0, 37498.71700986827, 35248.61159904142, 0.5660000000000001, -0.73, 0.444, 192.0, 0.0, 0.0, 0.0, 0.0, 0.0, 0.0, 0.0, 0.0, 0.0, 1.6635817123304973E9, 0.0, 2022-09-19 15:01:52.330
58.0, 67672.45443731004, 39411.892224775824, 12733.744112699524, 20991.48434299044, 19689.249359279795, 187500.0, 37251.52906793703, 34867.782577011894, 0.5660000000000001, -0.73, 0.444, 192.0, 0.0, 0.0, 0.0, 0.0, 0.0, 0.0, 0.0, 0.0, 0.0, 1.6635817123345253E9, 0.0, 2022-09-19 15:01:52.334
59.0, 67433.33547512717, 39393.83201525593, 12735.666362722679, 20997.96634888248, 19689.092897068607, 187500.0, 37011.65014644267, 34501.16926445595, 0.5660000000000001, -0.73, 0.444, 192.0, 0.0, 0.0, 0.0, 0.0, 0.0, 0.0, 0.0, 0.0, 0.0, 1.6635817123384433E9, 0.0, 2022-09-19 15:01:52.338
60.0, 67157.80552122659, 39356.90693341577, 12731.575993487359, 21003.286064062842, 19679.32518474164, 187500.0, 36719.71401211191, 34105.20811143018, 0.5660000000000001, -0.73, 0.444, 192.0, 0.0, 0.0, 0.0, 0.0, 0.0, 0.0, 0.0, 0.0, 0.0, 1.6635817123424704E9, 0.0, 2022-09-19 15:01:52.342
61.0, 66872.57491023242, 39318.417229463725, 12725.876298651256, 20997.809886671293, 19667.568167158148, 187500.0, 36415.439714841814, 33696.886443720636, 0.5660000000000001, -0.73, 0.444, 192.0, 0.0, 0.0, 0.0, 0.0, 0.0, 0.0, 0.0, 0.0, 0.0, 1.6635817123455372E9, 0.0, 2022-09-19 15:01:52.345
62.0, 66598.56487495481, 39285.44840639215, 12719.573106714859, 21004.73892745244, 19657.196957730885, 187500.0, 36131.393746303766, 33285.30142132061, 0.5660000000000001, -0.73, 0.444, 192.0, 0.0, 0.0, 0.0, 0.0, 0.0, 0.0, 0.0, 0.0, 0.0, 1.6635817123494484E9, 0.0, 2022-09-19 15:01:52.349
63.0, 66332.31089500319, 39253.59717054333, 12711.079443821842, 21009.477497276963, 19646.9375070259, 187500.0, 35862.36815003969, 32873.69404717613, 0.5660000000000001, -0.73, 0.444, 192.0, 0.0, 0.0, 0.0, 0.0, 0.0, 0.0, 0.0, 0.0, 0.0, 1.6635817123544044E9, 0.0, 2022-09-19 15:01:52.354
64.0, 66074.57292968905, 39226.059821374394, 12713.962818856577, 21009.768069954884, 19638.242678432784, 187500.0, 35602.77498993576, 32469.127472535074, 0.5660000000000001, -0.73, 0.444, 192.0, 0.0, 0.0, 0.0, 0.0, 0.0, 0.0, 0.0, 0.0, 0.0, 1.6635817123584585E9, 0.0, 2022-09-19 15:01:52.358
65.0, 65814.06334806244, 39205.0044780975, 12718.65668519219, 21013.836087445747, 19637.929754010413, 187500.0, 35334.218780305244, 32082.934031836277, 0.554, -0.732, 0.442, 192.0, 17.0, 80.0, 233.0, 32.0, 13.0, 208.0, 0.0, 0.0, 0.0, 1.6635817123624463E9, 0.0, 2022-09-19 15:01:52.362
66.0, 65604.06870890483, 39198.83539662784, 12712.018217088964, 21013.50081127892, 19650.089102994098, 187500.0, 35138.1939814322, 31777.452740365596, 0.554, -0.732, 0.442, 192.0, 0.0, 0.0, 0.0, 0.0, 0.0, 0.0, 0.0, 0.0, 0.0, 1.6635817123664558E9, 0.0, 2022-09-19 15:01:52.366
67.0, 65474.83092246424, 39212.20173981211, 12713.985170601032, 20993.294834291322, 19680.8451033646, 187500.0, 35075.497338235065, 31597.208273078, 0.554, -0.732, 0.442, 192.0, 0.0, 0.0, 0.0, 0.0, 0.0, 0.0, 0.0, 0.0, 0.0, 1.663581712369445E9, 0.0, 2022-09-19 15:01:52.369
68.0, 65419.57741017073, 39244.23178961656, 12707.547868197904, 20982.655403930596, 19718.261923582784, 187500.0, 35137.43402212072, 31540.010159016867, 0.554, -0.732, 0.442, 192.0, 0.0, 0.0, 0.0, 0.0, 0.0, 0.0, 0.0, 0.0, 0.0, 1.6635817123734903E9, 0.0, 2022-09-19 15:01:52.373
69.0, 65432.42966323253, 39301.988697289074, 12704.977417585544, 20981.67192717456, 19766.00524973932, 187500.0, 35296.55609089805, 31596.560072488795, 0.554, -0.732, 0.442, 192.0, 0.0, 0.0, 0.0, 0.0, 0.0, 0.0, 0.0, 0.0, 0.0, 1.6635817123774116E9, 0.0, 2022-09-19 15:01:52.377
70.0, 65469.69002123953, 39360.863192184355, 12704.016292573964, 20983.996508597913, 19808.54061943777, 187500.0, 35480.60035474305, 31720.925178638125, 0.554, -0.732, 0.442, 192.0, 0.0, 0.0, 0.0, 0.0, 0.0, 0.0, 0.0, 0.0, 0.0, 1.6635817123824677E9, 0.0, 2022-09-19 15:01:52.382
71.0, 65524.07181549929, 39413.52390212106, 12693.510972679971, 20976.39691548311, 19839.87776516411, 187500.0, 35689.499758422346, 31879.376695081795, 0.554, -0.732, 0.442, 192.0, 0.0, 0.0, 0.0, 0.0, 0.0, 0.0, 0.0, 0.0, 0.0, 1.6635817123864865E9, 0.0, 2022-09-19 15:01:52.386
72.0, 65611.98122644202, 39469.067987092494, 12691.789888356912, 20961.398894953596, 19872.243091135395, 187500.0, 35947.55064815887, 32078.77660736759, 0.554, -0.732, 0.442, 192.0, 0.0, 0.0, 0.0, 0.0, 0.0, 0.0, 0.0, 0.0, 0.0, 1.663581712390485E9, 0.0, 2022-09-19 15:01:52.390
73.0, 65710.86534391229, 39517.97360396071, 12682.290396963406, 20957.710857118473, 19892.27025416735, 187500.0, 36217.62677641234, 32287.608955813525, 0.554, -0.732, 0.442, 192.0, 0.0, 0.0, 0.0, 0.0, 0.0, 0.0, 0.0, 0.0, 0.0, 1.6635817123935025E9, 0.0, 2022-09-19 15:01:52.393
74.0, 65798.86416183284, 39562.475927171225, 12686.358414454273, 20970.473703202453, 19902.84262929471, 187500.0, 36465.9546573108, 32480.392751740546, 0.554, -0.732, 0.442, 192.0, 0.0, 0.0, 0.0, 0.0, 0.0, 0.0, 0.0, 0.0, 0.0, 1.6635817123975441E9, 0.0, 2022-09-19 15:01:52.397
75.0, 65855.90581368278, 39593.723665919744, 12695.65674014768, 20967.85854910118, 19908.207047963984, 187500.0, 36653.53049677974, 32637.3019978168, 0.542, -0.732, 0.438, 192.0, 16.0, 240.0, 233.0, 32.0, 13.0, 176.0, 0.0, 0.0, 0.0, 1.663581712401522E9, 0.0, 2022-09-19 15:01:52.401
76.0, 65900.74341306012, 39610.48747426122, 12692.03575754592, 20974.47466545995, 19913.549114888803, 187500.0, 36817.279376659324, 32771.703037226565, 0.542, -0.732, 0.438, 192.0, 0.0, 0.0, 0.0, 0.0, 0.0, 0.0, 0.0, 0.0, 0.0, 1.6635817124054887E9, 0.0, 2022-09-19 15:01:52.405
77.0, 65971.50903600562, 39641.57875079856, 12701.110565794776, 20979.43675272903, 19933.106891287196, 187500.0, 37014.10883833276, 32931.026271703995, 0.542, -0.732, 0.438, 192.0, 0.0, 0.0, 0.0, 0.0, 0.0, 0.0, 0.0, 0.0, 0.0, 1.663581712409543E9, 0.0, 2022-09-19 15:01:52.409
78.0, 66054.29989746808, 39672.60297210252, 12702.921057095655, 20976.978060838945, 19950.742417662434, 187500.0, 37232.21716072764, 33105.68280287776, 0.542, -0.732, 0.438, 192.0, 0.0, 0.0, 0.0, 0.0, 0.0, 0.0, 0.0, 0.0, 0.0, 1.6635817124144835E9, 0.0, 2022-09-19 15:01:52.414
79.0, 66122.40566282341, 39688.76328334371, 12697.154307026185, 20967.746790378904, 19954.586917708748, 187500.0, 37432.04175615808, 33268.42585425686, 0.542, -0.732, 0.438, 192.0, 0.0, 0.0, 0.0, 0.0, 0.0, 0.0, 0.0, 0.0, 0.0, 1.6635817124186013E9, 0.0, 2022-09-19 15:01:52.418
80.0, 66169.99252676875, 39702.06257129462, 12691.454612190082, 20954.112226261168, 19955.6598014426, 187500.0, 37583.206603909326, 33409.353603047566, 0.542, -0.732, 0.438, 192.0, 0.0, 0.0, 0.0, 0.0, 0.0, 0.0, 0.0, 0.0, 0.0, 1.66358171242159E9, 0.0, 2022-09-19 15:01:52.421
81.0, 66224.06139660614, 39722.492065726765, 12691.476963934538, 20939.47183364294, 19960.241909055938, 187500.0, 37730.81752429218, 33556.40572981903, 0.542, -0.732, 0.438, 192.0, 0.0, 0.0, 0.0, 0.0, 0.0, 0.0, 0.0, 0.0, 0.0, 1.663581712425532E9, 0.0, 2022-09-19 15:01:52.425
82.0, 66294.96113001838, 39746.564894505136, 12693.980359313531, 20962.427075198542, 19972.311851061804, 187500.0, 37902.143645542106, 33715.95248174101, 0.542, -0.732, 0.438, 192.0, 0.0, 0.0, 0.0, 0.0, 0.0, 0.0, 0.0, 0.0, 0.0, 1.663581712429712E9, 0.0, 2022-09-19 15:01:52.429
83.0, 66365.4138285415, 39764.7368627473, 12699.188315771618, 20966.2492235004, 19980.023202898887, 187500.0, 38077.94011568309, 33871.69943710559, 0.542, -0.732, 0.438, 192.0, 0.0, 0.0, 0.0, 0.0, 0.0, 0.0, 0.0, 0.0, 0.0, 1.6635817124335797E9, 0.0, 2022-09-19 15:01:52.433
84.0, 66438.57108814373, 39781.366560622046, 12698.540115182414, 20961.15302576459, 19987.108705891216, 187500.0, 38248.86390553283, 34023.60189242386, 0.542, -0.732, 0.438, 192.0, 0.0, 0.0, 0.0, 0.0, 0.0, 0.0, 0.0, 0.0, 0.0, 1.6635817124385748E9, 0.0, 2022-09-19 15:01:52.438
85.0, 66498.42905979503, 39796.11871196255, 12690.381728456226, 20966.025706055847, 19990.57322628179, 187500.0, 38381.78972980854, 34162.36152200241, 0.538, -0.734, 0.438, 192.0, 16.0, 208.0, 233.0, 16.0, 13.0, 176.0, 0.0, 0.0, 0.0, 1.6635817124426467E9, 0.0, 2022-09-19 15:01:52.442
86.0, 66556.14126397864, 39805.9981830118, 12680.971644040543, 20961.220080997955, 19990.796743726343, 187500.0, 38505.61839409094, 34296.22611954524, 0.538, -0.734, 0.438, 192.0, 0.0, 0.0, 0.0, 0.0, 0.0, 0.0, 0.0, 0.0, 0.0, 1.663581712446576E9, 0.0, 2022-09-19 15:01:52.446
87.0, 66629.70085498106, 39821.5997006416, 12677.395364927694, 20962.047095542803, 19991.981386182473, 187500.0, 38656.447965675354, 34450.81078419814, 0.538, -0.734, 0.438, 192.0, 0.0, 0.0, 0.0, 0.0, 0.0, 0.0, 0.0, 0.0, 0.0, 1.6635817124495695E9, 0.0, 2022-09-19 15:01:52.449
88.0, 66719.57721943584, 39846.74541315382, 12678.200027728086, 20968.126770034643, 20000.98913919796, 187500.0, 38830.657461960014, 34618.202998423934, 0.538, -0.734, 0.438, 192.0, 0.0, 0.0, 0.0, 0.0, 0.0, 0.0, 0.0, 0.0, 0.0, 1.6635817124536157E9, 0.0, 2022-09-19 15:01:52.453
89.0, 66815.91323803822, 39872.02523613277, 12696.37199597025, 20964.77400836635, 20018.021168472907, 187500.0, 39004.889309989136, 34791.518424930386, 0.538, -0.734, 0.438, 192.0, 0.0, 0.0, 0.0, 0.0, 0.0, 0.0, 0.0, 0.0, 0.0, 1.663581712457611E9, 0.0, 2022-09-19 15:01:52.457
90.0, 66882.23086383712, 39885.23511710586, 12706.095004808309, 20985.24820628741, 20024.570229598314, 187500.0, 39126.70631727056, 34933.362595243765, 0.538, -0.734, 0.438, 192.0, 0.0, 0.0, 0.0, 0.0, 0.0, 0.0, 0.0, 0.0, 0.0, 1.6635817124615452E9, 0.0, 2022-09-19 15:01:52.461
91.0, 66938.1996319532, 39891.113625897604, 12703.926885596144, 20987.572787710764, 20023.542049353367, 187500.0, 39230.060783631896, 35057.101852548345, 0.538, -0.734, 0.438, 192.0, 0.0, 0.0, 0.0, 0.0, 0.0, 0.0, 0.0, 0.0, 0.0, 1.6635817124656315E9, 0.0, 2022-09-19 15:01:52.465
92.0, 67004.29374030755, 39891.962992186905, 12696.439051203615, 20968.394990968107, 20014.601351571244, 187500.0, 39353.55417174747, 35191.27937451356, 0.538, -0.734, 0.438, 192.0, 0.0, 0.0, 0.0, 0.0, 0.0, 0.0, 0.0, 0.0, 0.0, 1.6635817124706285E9, 0.0, 2022-09-19 15:01:52.470
93.0, 67091.35378496097, 39904.32350687069, 12696.863734348266, 20967.255052000888, 20018.423499873104, 187500.0, 39508.54116780057, 35347.920399656345, 0.538, -0.734, 0.438, 192.0, 0.0, 0.0, 0.0, 0.0, 0.0, 0.0, 0.0, 0.0, 0.0, 1.6635817124746225E9, 0.0, 2022-09-19 15:01:52.474
94.0, 67174.92695747936, 39918.33805064417, 12701.199972772596, 20986.58931095473, 20025.28548542088, 187500.0, 39654.69922479382, 35498.25823286274, 0.538, -0.734, 0.438, 192.0, 0.0, 0.0, 0.0, 0.0, 0.0, 0.0, 0.0, 0.0, 0.0, 1.6635817124776244E9, 0.0, 2022-09-19 15:01:52.477
95.0, 67228.57114417209, 39921.28848091227, 12700.194144272107, 20975.704011404992, 20023.989084242476, 187500.0, 39748.19657185037, 35621.72926923386, 0.54, -0.742, 0.44, 192.0, 16.0, 224.0, 232.0, 208.0, 13.0, 192.0, 0.0, 0.0, 0.0, 1.6635817124816172E9, 0.0, 2022-09-19 15:01:52.481
96.0, 67296.2298746383, 39935.39243166357, 12711.973513600055, 20980.44258122952, 20038.115386738227, 187500.0, 39852.64627369002, 35755.25859060986, 0.54, -0.742, 0.44, 192.0, 0.0, 0.0, 0.0, 0.0, 0.0, 0.0, 0.0, 0.0, 0.0, 1.6635817124856653E9, 0.0, 2022-09-19 15:01:52.485
97.0, 67375.84678838811, 39947.77529809181, 12714.029874089942, 21001.83320067325, 20048.955982799052, 187500.0, 39977.167842050534, 35892.0736184208, 0.54, -0.742, 0.44, 192.0, 0.0, 0.0, 0.0, 0.0, 0.0, 0.0, 0.0, 0.0, 0.0, 1.6635817124896567E9, 0.0, 2022-09-19 15:01:52.489
98.0, 67458.81646380622, 39959.5323156753, 12709.939504854621, 20997.362851782185, 20048.576003143313, 187500.0, 40113.0664483388, 36031.61555905528, 0.54, -0.742, 0.44, 192.0, 0.0, 0.0, 0.0, 0.0, 0.0, 0.0, 0.0, 0.0, 0.0, 1.6635817124936163E9, 0.0, 2022-09-19 15:01:52.493
99.0, 67546.7482264934, 39977.86074612865, 12710.811222888378, 20995.86528490368, 20054.901546824163, 187500.0, 40250.48497325003, 36178.60063059338, 0.54, -0.742, 0.44, 192.0, 0.0, 0.0, 0.0, 0.0, 0.0, 0.0, 0.0, 0.0, 0.0, 1.6635817124986768E9, 0.0, 2022-09-19 15:01:52.498
100.0, 67607.58967490074, 39982.82283339773, 12707.100833308798, 20998.77101168287, 20056.801445102865, 187500.0, 40337.83559058137, 36297.0648762065, 0.54, -0.742, 0.44, 192.0, 0.0, 0.0, 0.0, 0.0, 0.0, 0.0, 0.0, 0.0, 0.0, 1.663581712502716E9, 0.0, 2022-09-19 15:01:52.502
101.0, 67671.22509136499, 39991.31649629075, 12701.55760068388, 21003.06254661829, 20059.863634093243, 187500.0, 40420.51469332155, 36417.20550265378, 0.54, -0.742, 0.44, 192.0, 0.0, 0.0, 0.0, 0.0, 0.0, 0.0, 0.0, 0.0, 0.0, 1.6635817125057404E9, 0.0, 2022-09-19 15:01:52.505
102.0, 67742.16952826614, 39999.00549638337, 12698.808336115879, 20993.96538662498, 20054.8344915908, 187500.0, 40519.77879044757, 36537.10025991205, 0.54, -0.742, 0.44, 192.0, 0.0, 0.0, 0.0, 0.0, 0.0, 0.0, 0.0, 0.0, 0.0, 1.663581712509709E9, 0.0, 2022-09-19 15:01:52.509
103.0, 67830.57067758687, 40007.1415313651, 12688.593588899803, 20970.853682858193, 20048.643058376678, 187500.0, 40641.1934663288, 36658.44788055991, 0.54, -0.742, 0.44, 192.0, 0.0, 0.0, 0.0, 0.0, 0.0, 0.0, 0.0, 0.0, 0.0, 1.6635817125137317E9, 0.0, 2022-09-19 15:01:52.513
104.0, 67921.49757403106, 40017.311575092266, 12688.32536796634, 20985.494075476417, 20055.840320091287, 187500.0, 40763.1222323325, 36787.640963511585, 0.54, -0.742, 0.44, 192.0, 0.0, 0.0, 0.0, 0.0, 0.0, 0.0, 0.0, 0.0, 0.0, 1.6635817125177374E9, 0.0, 2022-09-19 15:01:52.517
105.0, 67976.90754853578, 40018.74208673741, 12684.41381268666, 20990.634976701138, 20051.794654344878, 187500.0, 40830.289224420696, 36889.22964206096, 0.558, -0.752, 0.438, 192.0, 17.0, 112.0, 232.0, 128.0, 13.0, 176.0, 0.0, 0.0, 0.0, 1.66358171252174E9, 0.0, 2022-09-19 15:01:52.521
106.0, 68026.79664216001, 40019.457342559974, 12680.74812659599, 20984.510598720386, 20043.21158447404, 187500.0, 40886.66032393698, 36977.451977426055, 0.558, -0.752, 0.438, 192.0, 0.0, 0.0, 0.0, 0.0, 0.0, 0.0, 0.0, 0.0, 0.0, 1.6635817125267575E9, 0.0, 2022-09-19 15:01:52.526
107.0, 68100.64680584036, 40031.37082235466, 12692.66160639067, 20983.951805109, 20050.140625255182, 187500.0, 40977.922496548, 37086.48378687904, 0.558, -0.752, 0.438, 192.0, 0.0, 0.0, 0.0, 0.0, 0.0, 0.0, 0.0, 0.0, 0.0, 1.6635817125297582E9, 0.0, 2022-09-19 15:01:52.529
108.0, 68191.32783309554, 40053.387290643135, 12707.167888542162, 20980.979023096446, 20058.366067214738, 187500.0, 41093.1010357262, 37208.59136683838, 0.558, -0.752, 0.438, 192.0, 0.0, 0.0, 0.0, 0.0, 0.0, 0.0, 0.0, 0.0, 0.0, 1.6635817125327697E9, 0.0, 2022-09-19 15:01:52.532
109.0, 68271.36942999, 40064.429052404055, 12712.487603722526, 20970.250185757897, 20059.97539281552, 187500.0, 41196.902536976646, 37324.820438005976, 0.558, -0.752, 0.438, 192.0, 0.0, 0.0, 0.0, 0.0, 0.0, 0.0, 0.0, 0.0, 0.0, 1.6635817125377567E9, 0.0, 2022-09-19 15:01:52.537
110.0, 68316.51995378971, 40065.546639626824, 12705.245638519007, 20956.48151117343, 20048.44189267658, 187500.0, 41249.809116102355, 37409.555901236046, 0.558, -0.752, 0.438, 192.0, 0.0, 0.0, 0.0, 0.0, 0.0, 0.0, 0.0, 0.0, 0.0, 1.663581712541772E9, 0.0, 2022-09-19 15:01:52.541
111.0, 68360.15055896647, 40072.07334900777, 12713.001693844997, 20968.417342712564, 20048.35248569876, 187500.0, 41298.26769808146, 37480.7462073262, 0.558, -0.752, 0.438, 192.0, 0.0, 0.0, 0.0, 0.0, 0.0, 0.0, 0.0, 0.0, 0.0, 1.6635817125457897E9, 0.0, 2022-09-19 15:01:52.545
112.0, 68424.27771380874, 40088.546584671334, 12721.94239162712, 20979.39204924012, 20057.5837561588, 187500.0, 41379.5162891765, 37572.83539448206, 0.558, -0.752, 0.438, 192.0, 0.0, 0.0, 0.0, 0.0, 0.0, 0.0, 0.0, 0.0, 0.0, 1.663581712549879E9, 0.0, 2022-09-19 15:01:52.549
113.0, 68492.71875533089, 40099.096608054235, 12710.632408932735, 20964.550490921796, 20050.6323636332, 187500.0, 41472.20897343266, 37668.97024738434, 0.558, -0.752, 0.438, 192.0, 0.0, 0.0, 0.0, 0.0, 0.0, 0.0, 0.0, 0.0, 0.0, 1.663581712553752E9, 0.0, 2022-09-19 15:01:52.553
114.0, 68549.9839246254, 40102.22585227798, 12694.874429091744, 20952.637011127117, 20045.044427519373, 187500.0, 41551.58001799345, 37757.70667287191, 0.558, -0.752, 0.438, 192.0, 0.0, 0.0, 0.0, 0.0, 0.0, 0.0, 0.0, 0.0, 0.0, 1.663581712557778E9, 0.0, 2022-09-19 15:01:52.557
115.0, 68587.02076518783, 40103.25403252292, 12685.531399909425, 20941.662304599562, 20042.25045946246, 187500.0, 41593.33307663597, 37826.7288597499, 0.5680000000000001, -0.746, 0.442, 192.0, 17.0, 192.0, 232.0, 176.0, 13.0, 208.0, 0.0, 0.0, 0.0, 1.663581712560804E9, 0.0, 2022-09-19 15:01:52.560
116.0, 68630.87488780914, 40107.38910524715, 12688.079498777332, 20960.191900753012, 20049.000686287964, 187500.0, 41638.30478648005, 37902.36716298666, 0.5680000000000001, -0.746, 0.442, 192.0, 0.0, 0.0, 0.0, 0.0, 0.0, 0.0, 0.0, 0.0, 0.0, 1.6635817125658412E9, 0.0, 2022-09-19 15:01:52.565
117.0, 68684.54142624635, 40110.764218659904, 12679.65289111768, 20948.971325036448, 20049.045389776875, 187500.0, 41701.78374073312, 37975.03268421086, 0.5680000000000001, -0.746, 0.442, 192.0, 0.0, 0.0, 0.0, 0.0, 0.0, 0.0, 0.0, 0.0, 0.0, 1.663581712569808E9, 0.0, 2022-09-19 15:01:52.569
118.0, 68753.76477882442, 40120.46487575351, 12675.428411415627, 20939.874165043137, 20057.270831736427, 187500.0, 41789.91666912039, 38059.00818812945, 0.5680000000000001, -0.746, 0.442, 192.0, 0.0, 0.0, 0.0, 0.0, 0.0, 0.0, 0.0, 0.0, 0.0, 1.6635817125738337E9, 0.0, 2022-09-19 15:01:52.573
119.0, 68827.7937564604, 40134.92645441609, 12666.152437466675, 20941.729359832927, 20061.718828883033, 187500.0, 41879.256591708254, 38146.112936271784, 0.5680000000000001, -0.746, 0.442, 192.0, 0.0, 0.0, 0.0, 0.0, 0.0, 0.0, 0.0, 0.0, 0.0, 1.663581712577826E9, 0.0, 2022-09-19 15:01:52.577
120.0, 68869.99384999202, 40132.55716950383, 12660.609204841758, 20940.90234528808, 20051.794654344878, 187500.0, 41916.2934322707, 38196.80669269642, 0.5680000000000001, -0.746, 0.442, 192.0, 0.0, 0.0, 0.0, 0.0, 0.0, 0.0, 0.0, 0.0, 0.0, 1.6635817125819695E9, 0.0, 2022-09-19 15:01:52.581
121.0, 68910.47285920058, 40127.639785723666, 12649.902719247666, 20922.216286923445, 20039.747064083465, 187500.0, 41948.614054753074, 38249.33329216639, 0.5680000000000001, -0.746, 0.442, 192.0, 0.0, 0.0, 0.0, 0.0, 0.0, 0.0, 0.0, 0.0, 0.0, 1.6635817125858235E9, 0.0, 2022-09-19 15:01:52.585
122.0, 68963.5806040264, 40125.02463162239, 12633.921221962122, 20901.183295391, 20030.068758734316, 187500.0, 42006.59447987014, 38321.75294420159, 0.5680000000000001, -0.746, 0.442, 192.0, 0.0, 0.0, 0.0, 0.0, 0.0, 0.0, 0.0, 0.0, 0.0, 1.6635817125888948E9, 0.0, 2022-09-19 15:01:52.588
123.0, 69024.4444041782, 40129.85260842474, 12632.557765550348, 20922.41745262354, 20032.952133769053, 187500.0, 42080.60110576166, 38394.39611368133, 0.5680000000000001, -0.746, 0.442, 192.0, 0.0, 0.0, 0.0, 0.0, 0.0, 0.0, 0.0, 0.0, 0.0, 1.6635817125938616E9, 0.0, 2022-09-19 15:01:52.593
124.0, 69081.70957347269, 40130.836085180774, 12621.717169489524, 20912.023891451823, 20022.603276086247, 187500.0, 42150.383251951134, 38464.401777315354, 0.5680000000000001, -0.746, 0.442, 192.0, 0.0, 0.0, 0.0, 0.0, 0.0, 0.0, 0.0, 0.0, 0.0, 1.6635817125978978E9, 0.0, 2022-09-19 15:01:52.597
125.0, 69121.83095476998, 40132.378355548186, 12613.558782763337, 20911.353339118166, 20012.90261899264, 187500.0, 42182.34624652222, 38522.650423365885, 0.5740000000000001, -0.75, 0.436, 192.0, 17.0, 240.0, 232.0, 144.0, 13.0, 160.0, 0.0, 0.0, 0.0, 1.6635817126018343E9, 0.0, 2022-09-19 15:01:52.601
126.0, 69155.8726615754, 40133.361832304225, 12608.574343749804, 20913.923789730525, 20007.62760730119, 187500.0, 42203.78156945486, 38574.81939492457, 0.5740000000000001, -0.75, 0.436, 192.0, 0.0, 0.0, 0.0, 0.0, 0.0, 0.0, 0.0, 0.0, 0.0, 1.6635817126058915E9, 0.0, 2022-09-19 15:01:52.605
127.0, 69205.29236856608, 40143.26365509792, 12605.914486159621, 20917.008330465356, 20008.409918357127, 187500.0, 42253.69301482356, 38641.44994514584, 0.5740000000000001, -0.75, 0.436, 192.0, 0.0, 0.0, 0.0, 0.0, 0.0, 0.0, 0.0, 0.0, 0.0, 1.6635817126099544E9, 0.0, 2022-09-19 15:01:52.609
128.0, 69267.8996047854, 40155.51241105943, 12597.286712799872, 20918.684711299506, 20012.47793584799, 187500.0, 42327.29730931489, 38716.574158260126, 0.5740000000000001, -0.75, 0.436, 192.0, 0.0, 0.0, 0.0, 0.0, 0.0, 0.0, 0.0, 0.0, 0.0, 1.663581712613915E9, 0.0, 2022-09-19 15:01:52.613
129.0, 69324.00248336823, 40168.00703620995, 12608.931971661088, 20918.930580488515, 20021.262171418926, 187500.0, 42395.000743270015, 38795.45346444291, 0.5740000000000001, -0.75, 0.436, 192.0, 0.0, 0.0, 0.0, 0.0, 0.0, 0.0, 0.0, 0.0, 0.0, 1.6635817126169384E9, 0.0, 2022-09-19 15:01:52.616
130.0, 69346.71185573481, 40164.85544024175, 12602.315855302317, 20911.152173418068, 20010.332168380282, 187500.0, 42407.69653412062, 38840.55928475372, 0.5740000000000001, -0.75, 0.436, 192.0, 0.0, 0.0, 0.0, 0.0, 0.0, 0.0, 0.0, 0.0, 0.0, 1.6635817126209128E9, 0.0, 2022-09-19 15:01:52.620
131.0, 69370.874091491, 40167.895277487674, 12608.909619916632, 20932.028702739324, 20006.286502633873, 187500.0, 42418.60418541481, 38880.993590473365, 0.5740000000000001, -0.75, 0.436, 192.0, 0.0, 0.0, 0.0, 0.0, 0.0, 0.0, 0.0, 0.0, 0.0, 1.6635817126259296E9, 0.0, 2022-09-19 15:01:52.625
132.0, 69399.84195230508, 40160.407443095144, 12600.907695401633, 20919.735243288906, 19998.977482196988, 187500.0, 42443.14640082674, 38923.52896017182, 0.5740000000000001, -0.75, 0.436, 192.0, 0.0, 0.0, 0.0, 0.0, 0.0, 0.0, 0.0, 0.0, 0.0, 1.6635817126299317E9, 0.0, 2022-09-19 15:01:52.629
133.0, 69445.70773192737, 40165.41423385313, 12593.44221275356, 20904.938388459494, 19998.99983394144, 187500.0, 42495.71770378562, 38983.543394034314, 0.5740000000000001, -0.75, 0.436, 192.0, 0.0, 0.0, 0.0, 0.0, 0.0, 0.0, 0.0, 0.0, 0.0, 1.6635817126338832E9, 0.0, 2022-09-19 15:01:52.633
134.0, 69497.13909591903, 40179.42877762661, 12598.091375600265, 20910.414565851042, 20011.315645136314, 187500.0, 42551.597064923895, 39057.12533678119, 0.5740000000000001, -0.75, 0.436, 192.0, 0.0, 0.0, 0.0, 0.0, 0.0, 0.0, 0.0, 0.0, 0.0, 1.66358171263793E9, 0.0, 2022-09-19 15:01:52.637
135.0, 69520.42961364146, 40183.65325732866, 12594.15746857613, 20914.66139729755, 20011.874438747698, 187500.0, 42559.57663769444, 39101.73941871398, 0.5740000000000001, -0.75, 0.436, 192.0, 0.0, 0.0, 0.0, 0.0, 0.0, 0.0, 0.0, 0.0, 0.0, 1.6635817126419263E9, 0.0, 2022-09-19 15:01:52.641
136.0, 69526.5092881333, 40181.14986194967, 12592.168163319608, 20918.505897343864, 20005.72770902249, 187500.0, 42550.45712595667, 39122.79476199088, 0.5740000000000001, -0.742, 0.44, 192.0, 17.0, 240.0, 232.0, 208.0, 13.0, 192.0, 0.0, 0.0, 0.0, 1.6635817126449585E9, 0.0, 2022-09-19 15:01:52.644
137.0, 69551.43148320097, 40184.86025152925, 12590.40237550764, 20912.783850763306, 20006.085336933775, 187500.0, 42569.99255061061, 39161.99972176549, 0.5740000000000001, -0.742, 0.44, 192.0, 0.0, 0.0, 0.0, 0.0, 0.0, 0.0, 0.0, 0.0, 0.0, 1.663581712648949E9, 0.0, 2022-09-19 15:01:52.648
138.0, 69599.84536169117, 40195.94671677908, 12596.750270932946, 20923.0880049572, 20019.876363262698, 187500.0, 42623.18970241424, 39222.61765272828, 0.5740000000000001, -0.742, 0.44, 192.0, 0.0, 0.0, 0.0, 0.0, 0.0, 0.0, 0.0, 0.0, 0.0, 1.6635817126539495E9, 0.0, 2022-09-19 15:01:52.653
139.0, 69641.53136510031, 40198.584222624806, 12594.716262187512, 20910.99571120688, 20020.748081296457, 187500.0, 42670.79891810405, 39273.53492659747, 0.5740000000000001, -0.742, 0.44, 192.0, 0.0, 0.0, 0.0, 0.0, 0.0, 0.0, 0.0, 0.0, 0.0, 1.663581712657942E9, 0.0, 2022-09-19 15:01:52.657
140.0, 69652.08138848322, 40191.25285044347, 12586.960206861522, 20912.22505715192, 20011.427403858594, 187500.0, 42662.57347614449, 39297.25012746455, 0.5740000000000001, -0.742, 0.44, 192.0, 0.0, 0.0, 0.0, 0.0, 0.0, 0.0, 0.0, 0.0, 0.0, 1.6635817126620336E9, 0.0, 2022-09-19 15:01:52.662
141.0, 69663.32431594424, 40185.03906548489, 12587.474296983994, 20920.651664811572, 20010.04159570236, 187500.0, 42650.503534138625, 39316.38322071829, 0.5740000000000001, -0.742, 0.44, 192.0, 0.0, 0.0, 0.0, 0.0, 0.0, 0.0, 0.0, 0.0, 0.0, 1.6635817126660337E9, 0.0, 2022-09-19 15:01:52.666
142.0, 69692.60510118068, 40187.16248120814, 12583.562741704314, 20920.919885745036, 20013.416709115114, 187500.0, 42668.25081923614, 39348.346215289384, 0.5740000000000001, -0.742, 0.44, 192.0, 0.0, 0.0, 0.0, 0.0, 0.0, 0.0, 0.0, 0.0, 0.0, 1.6635817126689837E9, 0.0, 2022-09-19 15:01:52.668
143.0, 69732.21239235549, 40197.91367029115, 12587.29548302835, 20918.95293223297, 20020.368101640714, 187500.0, 42711.0320581236, 39390.769826265554, 0.5740000000000001, -0.742, 0.44, 192.0, 0.0, 0.0, 0.0, 0.0, 0.0, 0.0, 0.0, 0.0, 0.0, 1.6635817126730032E9, 0.0, 2022-09-19 15:01:52.673
144.0, 69769.9197852516, 40203.03221977141, 12583.227465537486, 20904.401946592563, 20023.20677318654, 187500.0, 42747.10777367446, 39435.47331517617, 0.5740000000000001, -0.742, 0.44, 192.0, 0.0, 0.0, 0.0, 0.0, 0.0, 0.0, 0.0, 0.0, 0.0, 1.6635817126770053E9, 0.0, 2022-09-19 15:01:52.677
145.0, 69787.33179418228, 40201.10996974826, 12579.874703869189, 20911.398042607074, 20022.603276086247, 187500.0, 42742.54801780558, 39459.90377186582, 0.5740000000000001, -0.742, 0.44, 192.0, 0.0, 0.0, 0.0, 0.0, 0.0, 0.0, 0.0, 0.0, 0.0, 1.6635817126820412E9, 0.0, 2022-09-19 15:01:52.682
146.0, 69792.56210238482, 40198.80774006936, 12579.96411084701, 20907.66530128304, 20022.87149701971, 187500.0, 42727.70645948726, 39469.80559465952, 0.5640000000000001, -0.73, 0.444, 192.0, 17.0, 160.0, 233.0, 48.0, 13.0, 224.0, 0.0, 0.0, 0.0, 1.6635817126860104E9, 0.0, 2022-09-19 15:01:52.686
147.0, 69822.7816608884, 40214.56571991035, 12596.794974421857, 20921.881010756613, 20040.417616417126, 187500.0, 42753.768593522145, 39497.29824033955, 0.5640000000000001, -0.73, 0.444, 192.0, 0.0, 0.0, 0.0, 0.0, 0.0, 0.0, 0.0, 0.0, 0.0, 1.663581712689966E9, 0.0, 2022-09-19 15:01:52.689
148.0, 69868.82625446633, 40226.63566191622, 12599.991273878966, 20930.218211438445, 20051.995820044973, 187500.0, 42804.28353599114, 39530.69174655578, 0.5640000000000001, -0.73, 0.444, 192.0, 0.0, 0.0, 0.0, 0.0, 0.0, 0.0, 0.0, 0.0, 0.0, 1.6635817126930366E9, 0.0, 2022-09-19 15:01:52.693
149.0, 69909.03704274143, 40235.06226957587, 12593.710433687023, 20942.466967399952, 20059.707171882055, 187500.0, 42849.09878362403, 39559.950180047774, 0.5640000000000001, -0.73, 0.444, 192.0, 0.0, 0.0, 0.0, 0.0, 0.0, 0.0, 0.0, 0.0, 0.0, 1.6635817126970353E9, 0.0, 2022-09-19 15:01:52.697
150.0, 69918.02244401246, 40233.72116490855, 12596.124422088198, 20947.0937785022, 20062.05410504986, 187500.0, 42844.89665566643, 39562.94531380478, 0.5640000000000001, -0.73, 0.444, 192.0, 0.0, 0.0, 0.0, 0.0, 0.0, 0.0, 0.0, 0.0, 0.0, 1.663581712701048E9, 0.0, 2022-09-19 15:01:52.701
151.0, 69924.07976675985, 40227.328565994336, 12600.34890179025, 20959.72251411945, 20066.59150917429, 187500.0, 42832.491437493736, 39559.16786899184, 0.5640000000000001, -0.73, 0.444, 192.0, 0.0, 0.0, 0.0, 0.0, 0.0, 0.0, 0.0, 0.0, 0.0, 1.6635817127050533E9, 0.0, 2022-09-19 15:01:52.705
152.0, 69944.26339200299, 40221.159484524665, 12596.30323604384, 20951.497072159895, 20066.747971385477, 187500.0, 42845.45544927781, 39569.69554063029, 0.5640000000000001, -0.73, 0.444, 192.0, 0.0, 0.0, 0.0, 0.0, 0.0, 0.0, 0.0, 0.0, 0.0, 1.6635817127091136E9, 0.0, 2022-09-19 15:01:52.709
153.0, 69977.03104937448, 40221.74062988051, 12591.519962730405, 20948.412531425063, 20068.20083477507, 187500.0, 42885.37566487499, 39596.6964479323, 0.5640000000000001, -0.73, 0.444, 192.0, 0.0, 0.0, 0.0, 0.0, 0.0, 0.0, 0.0, 0.0, 0.0, 1.66358171271408E9, 0.0, 2022-09-19 15:01:52.714
154.0, 70009.97752070159, 40226.18862702711, 12595.275055798897, 20952.1452727491, 20075.085172067305, 187500.0, 42927.352240962064, 39634.11326815048, 0.5640000000000001, -0.73, 0.444, 192.0, 0.0, 0.0, 0.0, 0.0, 0.0, 0.0, 0.0, 0.0, 0.0, 1.6635817127180803E9, 0.0, 2022-09-19 15:01:52.718
155.0, 70016.45952659364, 40225.24985375999, 12599.432480267584, 20962.71764787646, 20075.375744745226, 187500.0, 42919.43972342488, 39645.13267816695, 0.5640000000000001, -0.73, 0.444, 192.0, 0.0, 0.0, 0.0, 0.0, 0.0, 0.0, 0.0, 0.0, 0.0, 1.6635817127210844E9, 0.0, 2022-09-19 15:01:52.721
156.0, 70033.82683203541, 40225.20515027108, 12597.756099433434, 20960.594232153206, 20080.91897737014, 187500.0, 42917.89745305746, 39660.68949230784, 0.548, -0.726, 0.454, 192.0, 17.0, 32.0, 233.0, 80.0, 14.0, 48.0, 0.0, 0.0, 0.0, 1.6635817127250876E9, 0.0, 2022-09-19 15:01:52.725
157.0, 70069.63432665281, 40239.3985080002, 12609.110785616731, 20964.23756649942, 20092.83245716482, 187500.0, 42953.39202325249, 39700.900280582944, 0.548, -0.726, 0.454, 192.0, 0.0, 0.0, 0.0, 0.0, 0.0, 0.0, 0.0, 0.0, 0.0, 1.6635817127291107E9, 0.0, 2022-09-19 15:01:52.729
158.0, 70117.51176327608, 40256.56464774188, 12615.34692231976, 20969.691392146517, 20100.812029935365, 187500.0, 43013.60762281509, 39746.29667357167, 0.548, -0.726, 0.454, 192.0, 0.0, 0.0, 0.0, 0.0, 0.0, 0.0, 0.0, 0.0, 0.0, 1.6635817127331047E9, 0.0, 2022-09-19 15:01:52.733
159.0, 70154.97328698318, 40257.81634543137, 12613.268210085418, 20968.037363056825, 20101.68374796912, 187500.0, 43063.49671643934, 39790.530775848725, 0.548, -0.726, 0.454, 192.0, 0.0, 0.0, 0.0, 0.0, 0.0, 0.0, 0.0, 0.0, 0.0, 1.6635817127371137E9, 0.0, 2022-09-19 15:01:52.737
160.0, 70164.71864756568, 40250.26145580548, 12615.54808801986, 20969.423171213053, 20100.87908516873, 187500.0, 43068.86113510861, 39814.69301160491, 0.548, -0.726, 0.454, 192.0, 0.0, 0.0, 0.0, 0.0, 0.0, 0.0, 0.0, 0.0, 0.0, 1.663581712742129E9, 0.0, 2022-09-19 15:01:52.742
161.0, 70178.93435703927, 40264.03013038995, 12626.746311991968, 20976.95570909449, 20102.35430030278, 187500.0, 43074.918457855994, 39840.12929679505, 0.548, -0.726, 0.454, 192.0, 0.0, 0.0, 0.0, 0.0, 0.0, 0.0, 0.0, 0.0, 0.0, 1.6635817127461357E9, 0.0, 2022-09-19 15:01:52.746
162.0, 70215.81473539052, 40274.89307819523, 12639.956192965055, 20981.828389385748, 20112.50199228549, 187500.0, 43113.586975763676, 39883.17875661597, 0.548, -0.726, 0.454, 192.0, 0.0, 0.0, 0.0, 0.0, 0.0, 0.0, 0.0, 0.0, 0.0, 1.6635817127491293E9, 0.0, 2022-09-19 15:01:52.749
163.0, 70262.55223304656, 40285.82308123387, 12639.285640631395, 20987.885712133135, 20122.806146479386, 187500.0, 43171.36623518065, 39929.916254272015, 0.548, -0.726, 0.454, 192.0, 0.0, 0.0, 0.0, 0.0, 0.0, 0.0, 0.0, 0.0, 0.0, 1.6635817127531333E9, 0.0, 2022-09-19 15:01:52.753
164.0, 70303.50062888868, 40291.83570049235, 12629.584983537792, 20983.594177197716, 20126.02479768095, 187500.0, 43218.21549155897, 39980.43119674101, 0.548, -0.726, 0.454, 192.0, 0.0, 0.0, 0.0, 0.0, 0.0, 0.0, 0.0, 0.0, 0.0, 1.6635817127571588E9, 0.0, 2022-09-19 15:01:52.757
165.0, 70315.65997787238, 40286.65009577872, 12625.695780002568, 20980.19671204051, 20123.36494009077, 187500.0, 43215.242709546415, 40006.64979298709, 0.548, -0.726, 0.454, 192.0, 0.0, 0.0, 0.0, 0.0, 0.0, 0.0, 0.0, 0.0, 0.0, 1.663581712761142E9, 0.0, 2022-09-19 15:01:52.761
166.0, 70323.88541983193, 40283.69966551062, 12625.919297447123, 20981.269595774367, 20125.466004069567, 187500.0, 43209.63242168813, 40026.36403159667, 0.542, -0.716, 0.458, 192.0, 16.0, 240.0, 233.0, 160.0, 14.0, 80.0, 0.0, 0.0, 0.0, 1.6635817127650936E9, 0.0, 2022-09-19 15:01:52.765
167.0, 70340.17984153985, 40279.72105499757, 12617.671503743113, 20963.20938625448, 20124.102547657796, 187500.0, 43224.40692477309, 40050.32510165276, 0.542, -0.716, 0.458, 192.0, 0.0, 0.0, 0.0, 0.0, 0.0, 0.0, 0.0, 0.0, 0.0, 1.6635817127702947E9, 0.0, 2022-09-19 15:01:52.770
168.0, 70376.50142627972, 40279.56459278639, 12618.789090965878, 20952.43584542702, 20127.924695959653, 187500.0, 43267.948122972026, 40094.24627950743, 0.542, -0.716, 0.458, 192.0, 0.0, 0.0, 0.0, 0.0, 0.0, 0.0, 0.0, 0.0, 0.0, 1.6635817127742507E9, 0.0, 2022-09-19 15:01:52.774
