%OpenBCI Raw EEG Data
%Number of channels = 8
%Sample Rate = 250 Hz
%Board = OpenBCI_GUI$BoardCytonSerial
Sample Index, EXG Channel 0, EXG Channel 1, EXG Channel 2, EXG Channel 3, EXG Channel 4, EXG Channel 5, EXG Channel 6, EXG Channel 7, Accel Channel 0, Accel Channel 1, Accel Channel 2, Other, Other, Other, Other, Other, Other, Other, Analog Channel 0, Analog Channel 1, Analog Channel 2, Timestamp, Other, Timestamp (Formatted)
73.0, -24019.005777717328, -36151.666778524734, -84049.42113750233, -46485.05705416883, -40075.761386842896, -22928.57592446517, -2742.2684719882577, -31242.66490252792, 0.0, 0.0, 0.0, 192.0, 0.0, 0.0, 0.0, 0.0, 0.0, 0.0, 0.0, 0.0, 0.0, 1.6635009663268392E9, 0.0, 2022-09-18 16:36:06.326
74.0, -23975.755152196307, -35829.7569548794, -83916.98705160464, -46420.28169873735, -39982.10757757516, -22712.188686393343, -2432.3391833709697, -31492.959736938446, 0.0, 0.0, 0.0, 192.0, 0.0, 0.0, 0.0, 0.0, 0.0, 0.0, 0.0, 0.0, 0.0, 1.6635009663268626E9, 0.0, 2022-09-18 16:36:06.326
75.0, -25214.555885142792, -37734.81848654967, -83675.56585974287, -47437.59899587619, -39704.454207951334, -22394.905673850262, -799.544250910789, -31424.40693669402, 0.0, 0.0, 0.0, 192.0, 0.0, 0.0, 0.0, 0.0, 0.0, 0.0, 0.0, 0.0, 0.0, 1.6635009663268764E9, 0.0, 2022-09-18 16:36:06.326
1.0, -23922.468593414855, -37028.88334141771, -85185.96263956578, -52287.32404557754, -40168.67758854361, -22689.009927393192, -1949.742668836435, -31977.56790847396, 0.764, -0.49, 0.506, 192.0, 23.0, 224.0, 240.0, 176.0, 15.0, 208.0, 0.0, 0.0, 0.0, 1.6635009664186292E9, 0.0, 2022-09-18 16:36:06.418
2.0, -23331.175545594164, -35853.449804002026, -85280.130538956, -51781.079385409284, -40219.77367636844, -22779.065105803624, -3451.7575444886143, -31995.024620893553, 0.764, -0.49, 0.506, 192.0, 0.0, 0.0, 0.0, 0.0, 0.0, 0.0, 0.0, 0.0, 0.0, 1.66350096642166E9, 0.0, 2022-09-18 16:36:06.421
3.0, -23917.64061661251, -36718.97640454488, -85101.24952808018, -52335.73792406773, -40018.496217548396, -22493.320404686976, -2796.7843767147515, -32176.56548935956, 0.764, -0.49, 0.506, 192.0, 0.0, 0.0, 0.0, 0.0, 0.0, 0.0, 0.0, 0.0, 0.0, 1.663500966424633E9, 0.0, 2022-09-18 16:36:06.424
4.0, -24069.52072018632, -37581.463167841815, -85207.28620377615, -52492.80363235517, -39995.76449343735, -22527.429166725775, -534.0055267817411, -32080.944726579753, 0.764, -0.49, 0.506, 192.0, 0.0, 0.0, 0.0, 0.0, 0.0, 0.0, 0.0, 0.0, 0.0, 1.663500966429626E9, 0.0, 2022-09-18 16:36:06.429
5.0, -23659.366209431435, -37262.41436748676, -85321.43656270941, -52120.82590112995, -40187.92244051963, -22684.338412802033, 310.1751578062961, -32095.205139542242, 0.764, -0.49, 0.506, 192.0, 0.0, 0.0, 0.0, 0.0, 0.0, 0.0, 0.0, 0.0, 0.0, 1.6635009664326231E9, 0.0, 2022-09-18 16:36:06.432
6.0, -23598.122429623894, -36787.506853044855, -85283.12567271301, -52072.54613310649, -40224.91457759316, -22729.39952962393, -1499.958515162291, -32045.696025573736, 0.764, -0.49, 0.506, 192.0, 0.0, 0.0, 0.0, 0.0, 0.0, 0.0, 0.0, 0.0, 0.0, 1.6635009664366632E9, 0.0, 2022-09-18 16:36:06.436
7.0, -23129.942790263034, -35684.26945021981, -85349.66681595646, -51648.48883730041, -40243.1983045576, -22799.33813802459, -3216.2819166519544, -32024.23835089664, 0.764, -0.49, 0.506, 192.0, 0.0, 0.0, 0.0, 0.0, 0.0, 0.0, 0.0, 0.0, 0.0, 1.663500966440655E9, 0.0, 2022-09-18 16:36:06.440
8.0, -23703.667366941856, -36448.430889657844, -85125.25530162518, -52164.65767200681, -40038.277511391345, -22522.712948645705, -2704.3152099031463, -32167.870660766443, 0.762, -0.49, 0.504, 192.0, 23.0, 208.0, 240.0, 176.0, 15.0, 192.0, 0.0, 0.0, 0.0, 1.6635009664446707E9, 0.0, 2022-09-18 16:36:06.444
9.0, -23959.684247932943, -37384.00785732363, -85188.13075877796, -52389.40446250492, -39999.273717316835, -22529.865506871403, -476.69565399833374, -32073.658057887325, 0.762, -0.49, 0.504, 192.0, 0.0, 0.0, 0.0, 0.0, 0.0, 0.0, 0.0, 0.0, 0.0, 1.6635009664486623E9, 0.0, 2022-09-18 16:36:06.448
10.0, -23575.6142229574, -37109.640194134736, -85311.82531259362, -52024.66869648322, -40189.79998705387, -22682.192645334322, 465.05039513711876, -32082.59875566945, 0.762, -0.49, 0.504, 192.0, 0.0, 0.0, 0.0, 0.0, 0.0, 0.0, 0.0, 0.0, 0.0, 1.663500966452705E9, 0.0, 2022-09-18 16:36:06.452
11.0, -23667.16696824634, -36817.94992899298, -85238.0645558911, -52087.36533968036, -40217.82907460083, -22698.621177508972, -1397.0734354345127, -32052.021569254586, 0.762, -0.49, 0.504, 192.0, 0.0, 0.0, 0.0, 0.0, 0.0, 0.0, 0.0, 0.0, 0.0, 1.6635009664577136E9, 0.0, 2022-09-18 16:36:06.457
12.0, -23509.386004136326, -36088.053713804926, -85248.74868974075, -51894.51448851997, -40187.05072248587, -22712.278093371166, -3501.221954968209, -31987.55913824548, 0.762, -0.49, 0.504, 192.0, 0.0, 0.0, 0.0, 0.0, 0.0, 0.0, 0.0, 0.0, 0.0, 1.6635009664606943E9, 0.0, 2022-09-18 16:36:06.460
13.0, -23953.112835063082, -36780.35429481915, -85149.84222052601, -52341.974060770764, -40021.156075138584, -22510.419489195287, -3105.976057765014, -32130.342081825984, 0.762, -0.49, 0.504, 192.0, 0.0, 0.0, 0.0, 0.0, 0.0, 0.0, 0.0, 0.0, 0.0, 1.663500966463657E9, 0.0, 2022-09-18 16:36:06.463
14.0, -23892.15962793346, -37419.614186240935, -85296.89434729748, -52376.17222978738, -40056.27066567787, -22601.502847850665, -576.3620825245479, -32116.863979919435, 0.762, -0.49, 0.504, 192.0, 0.0, 0.0, 0.0, 0.0, 0.0, 0.0, 0.0, 0.0, 0.0, 1.6635009664687235E9, 0.0, 2022-09-18 16:36:06.468
15.0, -23376.124903693784, -36974.70271285805, -85401.03112471475, -51899.722444978055, -40251.02141511696, -22754.098207247043, 652.7379933283321, -32148.067015179044, 0.762, -0.49, 0.504, 192.0, 0.0, 0.0, 0.0, 0.0, 0.0, 0.0, 0.0, 0.0, 0.0, 1.6635009664726915E9, 0.0, 2022-09-18 16:36:06.472
16.0, -23540.99137079613, -36721.502151668334, -85283.7291698133, -51995.41026299122, -40259.15745009869, -22722.761061520705, -1138.2849381309675, -32102.558863468035, 0.762, -0.49, 0.504, 192.0, 0.0, 0.0, 0.0, 0.0, 0.0, 0.0, 0.0, 0.0, 0.0, 1.6635009664767556E9, 0.0, 2022-09-18 16:36:06.476
17.0, -23471.27627984003, -36057.23065820106, -85234.39886980044, -51852.85083685528, -40189.93409752061, -22706.86897121298, -3383.76353785557, -31996.119856371864, 0.762, -0.49, 0.504, 192.0, 0.0, 0.0, 0.0, 0.0, 0.0, 0.0, 0.0, 0.0, 0.0, 1.6635009664807124E9, 0.0, 2022-09-18 16:36:06.480
18.0, -23891.19850292188, -36668.3049998647, -85137.1464296754, -52262.826533654516, -40026.92282520805, -22512.341739218446, -3135.659174401662, -32116.05931711904, 0.762, -0.496, 0.506, 192.0, 23.0, 208.0, 240.0, 128.0, 15.0, 208.0, 0.0, 0.0, 0.0, 1.6635009664847636E9, 0.0, 2022-09-18 16:36:06.484
19.0, -23825.66318817892, -37298.22186210416, -85282.879803524, -52284.28420833161, -40039.059822447285, -22584.47081857572, -541.068678029618, -32062.281019959573, 0.762, -0.496, 0.506, 192.0, 0.0, 0.0, 0.0, 0.0, 0.0, 0.0, 0.0, 0.0, 0.0, 1.6635009664887428E9, 0.0, 2022-09-18 16:36:06.488
20.0, -23302.94529234711, -36866.54262143882, -85397.79012176873, -51799.51957458491, -40232.76003989697, -22745.40337865393, 814.4305127180235, -32091.517101707115, 0.762, -0.496, 0.506, 192.0, 0.0, 0.0, 0.0, 0.0, 0.0, 0.0, 0.0, 0.0, 0.0, 1.663500966491756E9, 0.0, 2022-09-18 16:36:06.491
21.0, -23466.69417222669, -36627.825990656136, -85263.18791665888, -51892.97221815255, -40246.01462435897, -22718.40247135192, -853.5460655148108, -32090.22070052871, 0.762, -0.496, 0.506, 192.0, 0.0, 0.0, 0.0, 0.0, 0.0, 0.0, 0.0, 0.0, 0.0, 1.6635009664968305E9, 0.0, 2022-09-18 16:36:06.496
22.0, -23523.311140931983, -36068.04890251743, -85231.00140464323, -51861.09863055928, -40200.19354822559, -22721.084680686556, -3333.3380023643977, -32033.268455656584, 0.762, -0.496, 0.506, 192.0, 0.0, 0.0, 0.0, 0.0, 0.0, 0.0, 0.0, 0.0, 0.0, 1.6635009665007746E9, 0.0, 2022-09-18 16:36:06.500
23.0, -23901.793229793697, -36602.166188021445, -85123.64597602439, -52241.8829490999, -40029.046240931304, -22527.451518470232, -3265.3886992202642, -32139.46159356375, 0.762, -0.496, 0.506, 192.0, 0.0, 0.0, 0.0, 0.0, 0.0, 0.0, 0.0, 0.0, 0.0, 1.6635009665047708E9, 0.0, 2022-09-18 16:36:06.504
24.0, -23879.508540571755, -37296.165501614276, -85258.82932649009, -52329.0547524756, -40031.706098521485, -22577.787646983583, -752.4044218545464, -32110.650194960857, 0.762, -0.496, 0.506, 192.0, 0.0, 0.0, 0.0, 0.0, 0.0, 0.0, 0.0, 0.0, 0.0, 1.663500966508818E9, 0.0, 2022-09-18 16:36:06.508
25.0, -23323.754766435002, -36864.3521504822, -85394.54911882272, -51820.32904867281, -40224.020507814945, -22743.145852463946, 750.3480613646581, -32101.217758800718, 0.762, -0.496, 0.506, 192.0, 0.0, 0.0, 0.0, 0.0, 0.0, 0.0, 0.0, 0.0, 0.0, 1.663500966512868E9, 0.0, 2022-09-18 16:36:06.512
26.0, -23514.79512629451, -36672.708293522395, -85248.5251722962, -51932.06541920488, -40231.217769529554, -22694.754325718204, -860.0057196623945, -32078.664848645312, 0.762, -0.496, 0.506, 192.0, 0.0, 0.0, 0.0, 0.0, 0.0, 0.0, 0.0, 0.0, 0.0, 1.6635009665168316E9, 0.0, 2022-09-18 16:36:06.516
27.0, -23520.56187636398, -36090.288888250456, -85242.62431176, -51859.31049100286, -40184.68143757361, -22690.306328571598, -3308.192289852177, -31982.574699231947, 0.762, -0.496, 0.506, 192.0, 0.0, 0.0, 0.0, 0.0, 0.0, 0.0, 0.0, 0.0, 0.0, 1.6635009665198135E9, 0.0, 2022-09-18 16:36:06.519
28.0, -23848.01493263423, -36534.12747789949, -85155.51956361766, -52200.956905002226, -40040.4009271146, -22527.518573703597, -3379.0473197755005, -32103.274119290607, 0.762, -0.492, 0.504, 192.0, 23.0, 208.0, 240.0, 160.0, 15.0, 192.0, 0.0, 0.0, 0.0, 1.6635009665239134E9, 0.0, 2022-09-18 16:36:06.523
29.0, -23873.47356956882, -37261.85557387538, -85270.13930918448, -52332.89925252191, -40052.22499993146, -22590.259920389646, -906.2738306848802, -32118.87563692041, 0.762, -0.492, 0.504, 192.0, 0.0, 0.0, 0.0, 0.0, 0.0, 0.0, 0.0, 0.0, 0.0, 1.6635009665288534E9, 0.0, 2022-09-18 16:36:06.528
30.0, -23315.305807030894, -36847.02954852933, -85396.89605199052, -51817.26685968243, -40241.54427546791, -22755.79693982565, 725.3364593191695, -32129.87269519242, 0.762, -0.492, 0.504, 192.0, 0.0, 0.0, 0.0, 0.0, 0.0, 0.0, 0.0, 0.0, 0.0, 1.6635009665328188E9, 0.0, 2022-09-18 16:36:06.532
31.0, -23495.639681296314, -36663.23115387335, -85249.79922173015, -51916.486253319534, -40243.958263869084, -22691.40156404991, -758.998186468862, -32097.797941899058, 0.762, -0.492, 0.504, 192.0, 0.0, 0.0, 0.0, 0.0, 0.0, 0.0, 0.0, 0.0, 0.0, 1.6635009665369215E9, 0.0, 2022-09-18 16:36:06.536
32.0, -23549.105054033407, -36123.1236008553, -85228.5650644976, -51877.46010750057, -40201.869929059736, -22709.282959614153, -3273.0553475684346, -31994.95756566019, 0.762, -0.492, 0.504, 192.0, 0.0, 0.0, 0.0, 0.0, 0.0, 0.0, 0.0, 0.0, 0.0, 1.6635009665409229E9, 0.0, 2022-09-18 16:36:06.540
33.0, -23848.126691356505, -36482.22672727427, -85140.38743262141, -52174.55949480051, -40043.73133703844, -22539.99084710966, -3500.9760857792007, -32112.41598277283, 0.762, -0.492, 0.504, 192.0, 0.0, 0.0, 0.0, 0.0, 0.0, 0.0, 0.0, 0.0, 0.0, 1.6635009665448158E9, 0.0, 2022-09-18 16:36:06.544
34.0, -23876.133427159006, -37219.09668673237, -85243.00429141574, -52318.92941223734, -40028.66626127556, -22565.158911366336, -1066.2676174959681, -32111.276043805607, 0.762, -0.492, 0.504, 192.0, 0.0, 0.0, 0.0, 0.0, 0.0, 0.0, 0.0, 0.0, 0.0, 1.663500966547866E9, 0.0, 2022-09-18 16:36:06.547
35.0, -23290.31655672986, -36807.44460909899, -85395.37613336756, -51786.30969361183, -40217.91848157865, -22739.70368381783, 697.6202961945887, -32084.40924697033, 0.762, -0.492, 0.504, 192.0, 0.0, 0.0, 0.0, 0.0, 0.0, 0.0, 0.0, 0.0, 0.0, 1.6635009665518844E9, 0.0, 2022-09-18 16:36:06.551
36.0, -23472.572681018435, -36634.41975527046, -85267.68061729439, -51885.30556980438, -40236.269263776456, -22694.977843162756, -679.1801070189604, -32075.513252677116, 0.762, -0.492, 0.504, 192.0, 0.0, 0.0, 0.0, 0.0, 0.0, 0.0, 0.0, 0.0, 0.0, 1.663500966556942E9, 0.0, 2022-09-18 16:36:06.556
37.0, -23555.34119073644, -36123.41417353322, -85235.33764306756, -51870.17343880814, -40186.223707941026, -22695.000194907214, -3252.8940740697476, -31970.08007408143, 0.762, -0.492, 0.504, 192.0, 0.0, 0.0, 0.0, 0.0, 0.0, 0.0, 0.0, 0.0, 0.0, 1.66350096656098E9, 0.0, 2022-09-18 16:36:06.560
38.0, -23833.978037116296, -36417.63018579843, -85155.87719152894, -52147.53623575404, -40049.83336327474, -22547.478681502187, -3649.8387038515457, -32106.381011769896, 0.758, -0.494, 0.502, 192.0, 23.0, 176.0, 240.0, 144.0, 15.0, 176.0, 0.0, 0.0, 0.0, 1.663500966564914E9, 0.0, 2022-09-18 16:36:06.564
39.0, -23890.192674421392, -37179.467043813114, -85245.9770734283, -52323.42211287285, -40018.429162315035, -22561.202652597745, -1249.5072185405754, -32135.371224328428, 0.758, -0.494, 0.502, 192.0, 0.0, 0.0, 0.0, 0.0, 0.0, 0.0, 0.0, 0.0, 0.0, 1.6635009665679092E9, 0.0, 2022-09-18 16:36:06.567
40.0, -23287.07555378384, -36786.74689373337, -85411.69290681994, -51786.57791454529, -40205.33444945031, -22737.915544261403, 645.6077868470892, -32100.949537867255, 0.758, -0.494, 0.502, 192.0, 0.0, 0.0, 0.0, 0.0, 0.0, 0.0, 0.0, 0.0, 0.0, 1.6635009665719256E9, 0.0, 2022-09-18 16:36:06.571
41.0, -23447.136395828296, -36618.14768530699, -85272.10626269654, -51879.248247056996, -40244.69587143611, -22699.738764731737, -594.7575682112656, -32116.595758985968, 0.758, -0.494, 0.502, 192.0, 0.0, 0.0, 0.0, 0.0, 0.0, 0.0, 0.0, 0.0, 0.0, 1.6635009665760024E9, 0.0, 2022-09-18 16:36:06.576
42.0, -23575.636574701857, -36148.20225813416, -85208.38143925446, -51897.53197402143, -40187.49775737498, -22694.35199431801, -3198.0205414319685, -31986.218033578163, 0.758, -0.494, 0.502, 192.0, 0.0, 0.0, 0.0, 0.0, 0.0, 0.0, 0.0, 0.0, 0.0, 1.663500966579916E9, 0.0, 2022-09-18 16:36:06.579
43.0, -23822.91392361092, -36357.45928972474, -85145.93066524633, -52130.772427412565, -40044.04426146082, -22548.12688209139, -3738.5751293391145, -32061.319894947996, 0.758, -0.494, 0.502, 192.0, 0.0, 0.0, 0.0, 0.0, 0.0, 0.0, 0.0, 0.0, 0.0, 1.663500966584944E9, 0.0, 2022-09-18 16:36:06.584
44.0, -23901.88263677152, -37134.450630480125, -85244.79243097216, -52331.71461006578, -40017.69155474801, -22551.904326904336, -1397.676932534806, -32098.133218065886, 0.758, -0.494, 0.502, 192.0, 0.0, 0.0, 0.0, 0.0, 0.0, 0.0, 0.0, 0.0, 0.0, 1.6635009665889432E9, 0.0, 2022-09-18 16:36:06.588
45.0, -23297.93850158912, -36764.84218416717, -85404.69681080543, -51791.24942913645, -40207.07788551782, -22738.295523917142, 626.4970453378016, -32079.357752723427, 0.758, -0.494, 0.502, 192.0, 0.0, 0.0, 0.0, 0.0, 0.0, 0.0, 0.0, 0.0, 0.0, 1.6635009665929556E9, 0.0, 2022-09-18 16:36:06.592
46.0, -23443.291895781982, -36594.09720827308, -85270.76515802923, -51859.82458112533, -40250.5520284834, -22703.560913033594, -469.6101510060014, -32112.25952056164, 0.758, -0.494, 0.502, 192.0, 0.0, 0.0, 0.0, 0.0, 0.0, 0.0, 0.0, 0.0, 0.0, 1.6635009665959036E9, 0.0, 2022-09-18 16:36:06.595
47.0, -23607.465458806215, -36166.37422637633, -85221.07723010507, -51909.06547416037, -40201.0876180038, -22704.54438978963, -3114.402665424665, -32003.652394253302, 0.758, -0.494, 0.502, 192.0, 0.0, 0.0, 0.0, 0.0, 0.0, 0.0, 0.0, 0.0, 0.0, 1.6635009666000805E9, 0.0, 2022-09-18 16:36:06.600
48.0, -23821.46106022132, -36309.91712926831, -85176.5525551501, -52119.104816806896, -40068.11709023918, -22569.629260257396, -3823.355296058094, -32081.59292716896, 0.754, -0.494, 0.512, 192.0, 23.0, 144.0, 240.0, 144.0, 16.0, 0.0, 0.0, 0.0, 0.0, 1.6635009666039815E9, 0.0, 2022-09-18 16:36:06.603
49.0, -23889.92445348793, -37081.94638275461, -85234.2647593337, -52329.14415945341, -40002.67118247404, -22538.381521508876, -1541.3315941490644, -32112.34892753946, 0.754, -0.494, 0.512, 192.0, 0.0, 0.0, 0.0, 0.0, 0.0, 0.0, 0.0, 0.0, 0.0, 1.6635009666080296E9, 0.0, 2022-09-18 16:36:06.608
50.0, -23282.404039192683, -36740.54583794425, -85399.91353749199, -51797.88789723968, -40196.79608306838, -22740.575401851584, 595.4281205449248, -32109.197331571264, 0.754, -0.494, 0.512, 192.0, 0.0, 0.0, 0.0, 0.0, 0.0, 0.0, 0.0, 0.0, 0.0, 1.6635009666120732E9, 0.0, 2022-09-18 16:36:06.612
51.0, -23408.020843031507, -36556.76979503272, -85279.05765522215, -51843.999546050974, -40256.743461697515, -22711.29461661513, -346.4743908017148, -32144.513087810647, 0.754, -0.494, 0.512, 192.0, 0.0, 0.0, 0.0, 0.0, 0.0, 0.0, 0.0, 0.0, 0.0, 1.6635009666170607E9, 0.0, 2022-09-18 16:36:06.617
52.0, -23615.042700176564, -36169.97285723363, -85218.75264868172, -51920.777788254956, -40189.978801009514, -22694.754325718204, -3014.9597543430036, -31975.220975306154, 0.754, -0.494, 0.512, 192.0, 0.0, 0.0, 0.0, 0.0, 0.0, 0.0, 0.0, 0.0, 0.0, 1.6635009666209936E9, 0.0, 2022-09-18 16:36:06.620
53.0, -23829.66415043642, -36263.179631612256, -85208.13557006545, -52115.01444757157, -40076.87897406566, -22584.85079823146, -3906.8837650875766, -32057.29658094604, 0.754, -0.494, 0.512, 192.0, 0.0, 0.0, 0.0, 0.0, 0.0, 0.0, 0.0, 0.0, 0.0, 1.6635009666240845E9, 0.0, 2022-09-18 16:36:06.624
54.0, -23909.526933375233, -37038.38283281122, -85250.69329150836, -52340.9011770369, -39993.2387463139, -22523.763480635105, -1699.984276292834, -32101.68714543428, 0.754, -0.494, 0.512, 192.0, 0.0, 0.0, 0.0, 0.0, 0.0, 0.0, 0.0, 0.0, 0.0, 1.6635009666280859E9, 0.0, 2022-09-18 16:36:06.628
55.0, -23269.730600086525, -36715.44482892094, -85424.76867732628, -51801.59828681926, -40174.95842873555, -22726.672616800384, 552.2892537461822, -32078.128406778385, 0.754, -0.494, 0.512, 192.0, 0.0, 0.0, 0.0, 0.0, 0.0, 0.0, 0.0, 0.0, 0.0, 1.6635009666320784E9, 0.0, 2022-09-18 16:36:06.632
56.0, -23360.210461641607, -36518.52596026969, -85260.55041081314, -51813.668228825125, -40241.231351045535, -22711.093450915036, -231.25114813460686, -32113.108886850943, 0.754, -0.494, 0.512, 192.0, 0.0, 0.0, 0.0, 0.0, 0.0, 0.0, 0.0, 0.0, 0.0, 1.6635009666380005E9, 0.0, 2022-09-18 16:36:06.638
57.0, -23630.845383506465, -36184.76971206304, -85190.12006403448, -51931.3054598934, -40192.95158302207, -22695.000194907214, -2903.5139564888427, -32001.37251631886, 0.754, -0.494, 0.512, 192.0, 0.0, 0.0, 0.0, 0.0, 0.0, 0.0, 0.0, 0.0, 0.0, 1.663500966641056E9, 0.0, 2022-09-18 16:36:06.641
58.0, -23830.781737659185, -36206.2944419735, -85158.60410435249, -52093.154441494284, -40067.82651756126, -22582.83914123048, -3924.6310501850908, -32072.138139264363, 0.75, -0.492, 0.5, 192.0, 23.0, 112.0, 240.0, 160.0, 15.0, 160.0, 0.0, 0.0, 0.0, 1.663500966645045E9, 0.0, 2022-09-18 16:36:06.645
59.0, -23951.302343762203, -36993.74639913397, -85210.6166137, -52346.13148523945, -39991.58471722421, -22533.486489473165, -1809.619582846115, -32098.379087254896, 0.75, -0.492, 0.5, 192.0, 0.0, 0.0, 0.0, 0.0, 0.0, 0.0, 0.0, 0.0, 0.0, 1.663500966649053E9, 0.0, 2022-09-18 16:36:06.649
60.0, -23338.28340033095, -36717.07650626618, -85408.8542352741, -51817.848005038264, -40162.508507073944, -22727.45492785632, 535.748962849255, -32034.38604287935, 0.75, -0.492, 0.5, 192.0, 0.0, 0.0, 0.0, 0.0, 0.0, 0.0, 0.0, 0.0, 0.0, 1.6635009666520967E9, 0.0, 2022-09-18 16:36:06.652
61.0, -23379.254147917527, -36498.074114093084, -85312.1829405049, -51795.16098441613, -40246.819287159364, -22714.937950961346, -91.70920750012488, -32093.64051743037, 0.75, -0.492, 0.5, 192.0, 0.0, 0.0, 0.0, 0.0, 0.0, 0.0, 0.0, 0.0, 0.0, 1.663500966656045E9, 0.0, 2022-09-18 16:36:06.656
62.0, -23638.243810921173, -36190.35764817687, -85211.39892475592, -51932.24423316053, -40196.95254527957, -22687.512360514684, -2765.290768777224, -31991.09071386942, 0.75, -0.492, 0.5, 192.0, 0.0, 0.0, 0.0, 0.0, 0.0, 0.0, 0.0, 0.0, 0.0, 1.6635009666601024E9, 0.0, 2022-09-18 16:36:06.660
63.0, -23811.983920572275, -36155.041891937486, -85161.82275555405, -52071.80852553946, -40075.58257288725, -22578.52525455061, -3950.5367220087915, -32038.58817083695, 0.75, -0.492, 0.5, 192.0, 0.0, 0.0, 0.0, 0.0, 0.0, 0.0, 0.0, 0.0, 0.0, 1.6635009666640108E9, 0.0, 2022-09-18 16:36:06.664
64.0, -23934.06914878716, -36934.581331560774, -85226.57575924108, -52341.16939797037, -39991.718827690944, -22520.768346878096, -1939.684383831547, -32111.074878105508, 0.75, -0.492, 0.5, 192.0, 0.0, 0.0, 0.0, 0.0, 0.0, 0.0, 0.0, 0.0, 0.0, 1.6635009666681993E9, 0.0, 2022-09-18 16:36:06.668
65.0, -23334.684769473646, -36706.57118637219, -85445.89107583655, -51850.66036589866, -40187.14012946369, -22742.58705885256, 481.83655522305435, -32119.725003209714, 0.75, -0.492, 0.5, 192.0, 0.0, 0.0, 0.0, 0.0, 0.0, 0.0, 0.0, 0.0, 0.0, 1.6635009666730912E9, 0.0, 2022-09-18 16:36:06.673
66.0, -23346.732359735055, -36465.284104977145, -85315.51335042875, -51791.0259116919, -40259.269208820966, -22719.251837641223, 22.709372366591975, -32152.02327394763, 0.75, -0.492, 0.5, 192.0, 0.0, 0.0, 0.0, 0.0, 0.0, 0.0, 0.0, 0.0, 0.0, 1.6635009666771357E9, 0.0, 2022-09-18 16:36:06.677
67.0, -23632.477060851703, -36190.73762783261, -85186.74495062172, -51941.05082047592, -40175.718388047026, -22660.62321193495, -2630.263880522714, -31967.576678702437, 0.75, -0.492, 0.5, 192.0, 0.0, 0.0, 0.0, 0.0, 0.0, 0.0, 0.0, 0.0, 0.0, 1.663500966680214E9, 0.0, 2022-09-18 16:36:06.680
68.0, -23802.79735360114, -36116.77570543, -85156.79361305162, -52068.85809527137, -40079.20355548901, -22581.98977494118, -3981.315074123749, -32001.014888407575, 0.754, -0.49, 0.508, 192.0, 23.0, 144.0, 240.0, 176.0, 15.0, 224.0, 0.0, 0.0, 0.0, 1.6635009666841261E9, 0.0, 2022-09-18 16:36:06.684
69.0, -23966.657992203, -36907.178092858565, -85219.02086961518, -52367.70091863882, -40007.186234854016, -22526.78096613657, -2093.8220135953443, -32098.937880866277, 0.754, -0.49, 0.508, 192.0, 0.0, 0.0, 0.0, 0.0, 0.0, 0.0, 0.0, 0.0, 0.0, 1.6635009666881752E9, 0.0, 2022-09-18 16:36:06.688
70.0, -23369.084104190362, -36713.50022715333, -85441.7112996234, -51880.3434825353, -40164.16253616363, -22708.724166002772, 413.2837549786276, -32060.15760423632, 0.754, -0.49, 0.508, 192.0, 0.0, 0.0, 0.0, 0.0, 0.0, 0.0, 0.0, 0.0, 0.0, 1.6635009666921785E9, 0.0, 2022-09-18 16:36:06.692
71.0, -23311.90834187369, -36446.57569486806, -85374.0525691572, -51783.78394648838, -40260.453851277096, -22712.993349193734, 107.86951874131188, -32125.424698045816, 0.754, -0.49, 0.508, 192.0, 0.0, 0.0, 0.0, 0.0, 0.0, 0.0, 0.0, 0.0, 0.0, 1.6635009666961792E9, 0.0, 2022-09-18 16:36:06.696
72.0, -23617.38963334437, -36207.85906408537, -85223.89354990644, -51963.402564931224, -40193.420969655635, -22674.97303187526, -2521.5449954921005, -32013.71067925819, 0.754, -0.49, 0.508, 192.0, 0.0, 0.0, 0.0, 0.0, 0.0, 0.0, 0.0, 0.0, 0.0, 1.663500966701134E9, 0.0, 2022-09-18 16:36:06.701
73.0, -23787.262891204704, -36075.9167165657, -85152.68089207183, -52066.533513848015, -40086.17729975907, -22600.452315861265, -4001.074016222241, -32031.323853888975, 0.754, -0.49, 0.508, 192.0, 0.0, 0.0, 0.0, 0.0, 0.0, 0.0, 0.0, 0.0, 0.0, 1.6635009667051294E9, 0.0, 2022-09-18 16:36:06.705
74.0, -23976.738628952342, -36852.46102243198, -85187.79548261112, -52369.42200296188, -39994.98218238141, -22528.256181270623, -2222.769227358011, -32115.58993048548, 0.754, -0.49, 0.508, 192.0, 0.0, 0.0, 0.0, 0.0, 0.0, 0.0, 0.0, 0.0, 0.0, 1.6635009667082753E9, 0.0, 2022-09-18 16:36:06.708
75.0, -23406.769145342012, -36716.85298882163, -85408.96599399639, -51911.77003523947, -40152.092594157766, -22724.146869676933, 350.4082978258488, -32074.01568579861, 0.754, -0.49, 0.508, 192.0, 0.0, 0.0, 0.0, 0.0, 0.0, 0.0, 0.0, 0.0, 0.0, 1.6635009667121592E9, 0.0, 2022-09-18 16:36:06.712
76.0, -23321.206667567098, -36435.82450578505, -85365.35774056408, -51780.520591797904, -40267.807575202896, -22741.223602440787, 211.4251508027495, -32138.813392974545, 0.754, -0.49, 0.508, 192.0, 0.0, 0.0, 0.0, 0.0, 0.0, 0.0, 0.0, 0.0, 0.0, 1.6635009667161736E9, 0.0, 2022-09-18 16:36:06.716
77.0, -23651.74426457218, -36238.48095398914, -85235.38234655648, -51982.53565818497, -40208.374286696235, -22687.981747148246, -2393.491851507646, -32027.032318953556, 0.754, -0.49, 0.508, 192.0, 0.0, 0.0, 0.0, 0.0, 0.0, 0.0, 0.0, 0.0, 0.0, 1.6635009667201097E9, 0.0, 2022-09-18 16:36:06.720
78.0, -23787.08407724906, -36059.64464660223, -85181.13466276345, -52061.16909517874, -40096.2132330195, -22602.17340018432, -4015.5355948848246, -32012.503685057603, 0.754, -0.49, 0.508, 192.0, 0.0, 0.0, 0.0, 0.0, 0.0, 0.0, 0.0, 0.0, 0.0, 1.6635009667242427E9, 0.0, 2022-09-18 16:36:06.724
79.0, -23959.97482061086, -36816.76528653685, -85182.11813951947, -52367.16447677189, -39984.34275202069, -22506.77615484907, -2368.1896767842386, -32104.12348557991, 0.758, -0.486, 0.5, 192.0, 23.0, 176.0, 240.0, 208.0, 15.0, 160.0, 0.0, 0.0, 0.0, 1.663500966728198E9, 0.0, 2022-09-18 16:36:06.728
80.0, -23400.845933061355, -36726.687756381965, -85398.05834270219, -51929.94200348163, -40138.458030040034, -22705.885494456947, 271.73015734316795, -32056.804842568024, 0.758, -0.486, 0.5, 192.0, 0.0, 0.0, 0.0, 0.0, 0.0, 0.0, 0.0, 0.0, 0.0, 1.6635009667331736E9, 0.0, 2022-09-18 16:36:06.733
81.0, -23269.194158219598, -36408.75654324968, -85359.23336258333, -51745.27189079188, -40263.02430188946, -22734.54043084865, 317.372419520905, -32108.906758893343, 0.758, -0.486, 0.5, 192.0, 0.0, 0.0, 0.0, 0.0, 0.0, 0.0, 0.0, 0.0, 0.0, 1.6635009667362373E9, 0.0, 2022-09-18 16:36:06.736
82.0, -23634.15344168585, -36241.230218557146, -85221.52426499418, -51962.17321898619, -40193.86800454474, -22671.374401017954, -2239.801256632955, -32005.887568698832, 0.758, -0.486, 0.5, 192.0, 0.0, 0.0, 0.0, 0.0, 0.0, 0.0, 0.0, 0.0, 0.0, 1.6635009667401648E9, 0.0, 2022-09-18 16:36:06.740
83.0, -23780.110332979006, -36037.53877133594, -85180.35235170751, -52047.15455140526, -40094.559203929806, -22610.17532469932, -4015.9155745405646, -32003.562987275483, 0.758, -0.486, 0.5, 192.0, 0.0, 0.0, 0.0, 0.0, 0.0, 0.0, 0.0, 0.0, 0.0, 1.6635009667442188E9, 0.0, 2022-09-18 16:36:06.744
84.0, -23982.08069587716, -36778.6332104961, -85163.96852302177, -52369.22083726178, -39984.92389737653, -22504.83155308146, -2507.128120318427, -32090.332459250985, 0.758, -0.486, 0.5, 192.0, 0.0, 0.0, 0.0, 0.0, 0.0, 0.0, 0.0, 0.0, 0.0, 1.6635009667481997E9, 0.0, 2022-09-18 16:36:06.748
85.0, -23446.7340644281, -36737.95303558744, -85385.74253150732, -51958.015794517494, -40122.07420135429, -22681.745610445218, 192.62733371583627, -32047.081833729964, 0.758, -0.486, 0.5, 192.0, 0.0, 0.0, 0.0, 0.0, 0.0, 0.0, 0.0, 0.0, 0.0, 1.663500966752286E9, 0.0, 2022-09-18 16:36:06.752
86.0, -23252.18448068911, -36404.10738040297, -85379.3499325931, -51738.38755349965, -40262.621970489265, -22723.945703976835, 404.4101124298707, -32123.435392789295, 0.758, -0.486, 0.5, 192.0, 0.0, 0.0, 0.0, 0.0, 0.0, 0.0, 0.0, 0.0, 0.0, 1.6635009667562256E9, 0.0, 2022-09-18 16:36:06.756
87.0, -23591.394554542847, -36266.44298630273, -85267.88178299449, -51975.67367263719, -40219.416048457155, -22676.984688876237, -2103.7908916224114, -32047.05948198551, 0.758, -0.486, 0.5, 192.0, 0.0, 0.0, 0.0, 0.0, 0.0, 0.0, 0.0, 0.0, 0.0, 1.6635009667612195E9, 0.0, 2022-09-18 16:36:06.761
88.0, -23756.104559434007, -36040.39979462622, -85200.82654962857, -52061.01263296755, -40137.72042247301, -22641.735987870215, -4014.820339062255, -32041.42684238277, 0.758, -0.486, 0.5, 192.0, 0.0, 0.0, 0.0, 0.0, 0.0, 0.0, 0.0, 0.0, 0.0, 1.663500966764282E9, 0.0, 2022-09-18 16:36:06.764
89.0, -23993.54714078273, -36764.81983242271, -85196.26679375969, -52393.24896255124, -40026.43108683003, -22541.37665526589, -2652.615624978021, -32138.053433663066, 0.76, -0.488, 0.502, 192.0, 23.0, 192.0, 240.0, 192.0, 15.0, 176.0, 0.0, 0.0, 0.0, 1.6635009667682827E9, 0.0, 2022-09-18 16:36:06.768
90.0, -23478.87587295483, -36771.99474239287, -85380.5569267937, -52005.423844507204, -40125.51637000041, -22687.981747148246, 92.55857378942655, -32051.596886109935, 0.76, -0.488, 0.502, 192.0, 0.0, 0.0, 0.0, 0.0, 0.0, 0.0, 0.0, 0.0, 0.0, 1.663500966772312E9, 0.0, 2022-09-18 16:36:06.772
91.0, -23230.257419378453, -36400.59815652349, -85354.47244101435, -51724.99885857092, -40244.807630158386, -22722.761061520705, 491.35839836101513, -32080.520043435103, 0.76, -0.488, 0.502, 192.0, 0.0, 0.0, 0.0, 0.0, 0.0, 0.0, 0.0, 0.0, 0.0, 1.6635009667763364E9, 0.0, 2022-09-18 16:36:06.776
92.0, -23625.033929948084, -36299.65767856332, -85222.82066617259, -51980.27813199498, -40210.117722763745, -22669.161578316878, -1946.81459031279, -32023.0090049516, 0.76, -0.488, 0.502, 192.0, 0.0, 0.0, 0.0, 0.0, 0.0, 0.0, 0.0, 0.0, 0.0, 1.663500966780456E9, 0.0, 2022-09-18 16:36:06.780
93.0, -23783.016059758196, -36037.42701261366, -85186.856709344, -52046.23812988259, -40117.84972165224, -22624.48044115072, -3977.582332799713, -32001.19370236322, 0.76, -0.488, 0.502, 192.0, 0.0, 0.0, 0.0, 0.0, 0.0, 0.0, 0.0, 0.0, 0.0, 1.6635009667853384E9, 0.0, 2022-09-18 16:36:06.785
94.0, -23987.42276280198, -36719.53519815626, -85201.63121242895, -52376.48515420975, -40003.677010974534, -22525.37280623589, -2771.8845333915397, -32142.523782554126, 0.76, -0.488, 0.502, 192.0, 0.0, 0.0, 0.0, 0.0, 0.0, 0.0, 0.0, 0.0, 0.0, 1.6635009667882695E9, 0.0, 2022-09-18 16:36:06.788
95.0, -23498.36659411986, -36793.96650719244, -85407.20020618441, -52044.82996998191, -40115.12280882869, -22684.092543613024, -6.504357636494356, -32097.797941899058, 0.76, -0.488, 0.502, 192.0, 0.0, 0.0, 0.0, 0.0, 0.0, 0.0, 0.0, 0.0, 0.0, 1.6635009667913947E9, 0.0, 2022-09-18 16:36:06.791
96.0, -23199.814343430324, -36400.39699082339, -85387.41891234147, -51728.7092481505, -40246.52871448144, -22736.730901805273, 559.5088672052464, -32102.380049512394, 0.76, -0.488, 0.502, 192.0, 0.0, 0.0, 0.0, 0.0, 0.0, 0.0, 0.0, 0.0, 0.0, 1.6635009667963204E9, 0.0, 2022-09-18 16:36:06.796
97.0, -23608.851266962443, -36331.01717603412, -85266.13834692698, -52004.641533451264, -40231.62010092975, -22699.62700600946, -1817.5768038722044, -32049.138194219853, 0.76, -0.488, 0.502, 192.0, 0.0, 0.0, 0.0, 0.0, 0.0, 0.0, 0.0, 0.0, 0.0, 1.6635009668003464E9, 0.0, 2022-09-18 16:36:06.800
98.0, -23749.153166908403, -36041.919713249175, -85227.35807029702, -52060.96792947864, -40130.29964331385, -22634.181098244324, -3968.619283273135, -31985.99451613361, 0.76, -0.488, 0.502, 192.0, 0.0, 0.0, 0.0, 0.0, 0.0, 0.0, 0.0, 0.0, 0.0, 1.6635009668043263E9, 0.0, 2022-09-18 16:36:06.804
99.0, -23957.98551535434, -36688.46627336339, -85193.00343906922, -52379.48028796677, -40005.979240653425, -22512.45349794072, -2919.763674707851, -32099.943709366766, 0.754, -0.49, 0.504, 192.0, 23.0, 144.0, 240.0, 176.0, 15.0, 192.0, 0.0, 0.0, 0.0, 1.6635009668093812E9, 0.0, 2022-09-18 16:36:06.809
100.0, -23518.572571107456, -36816.1394376921, -85370.52099353325, -52076.92707501973, -40104.88570986816, -22658.209223533777, -114.2621176555297, -32071.802863097535, 0.754, -0.49, 0.504, 192.0, 0.0, 0.0, 0.0, 0.0, 0.0, 0.0, 0.0, 0.0, 0.0, 1.66350096681234E9, 0.0, 2022-09-18 16:36:06.812
101.0, -23184.458694989527, -36407.86247347146, -85396.53842407923, -51727.99399232793, -40260.386796043735, -22740.865974529504, 622.1608069134721, -32134.16423012784, 0.754, -0.49, 0.504, 192.0, 0.0, 0.0, 0.0, 0.0, 0.0, 0.0, 0.0, 0.0, 0.0, 1.6635009668163304E9, 0.0, 2022-09-18 16:36:06.816
102.0, -23581.269214304593, -36338.43795519328, -85241.97611117079, -51990.314065255414, -40220.77950486893, -22672.469636496262, -1649.044650679189, -32094.892215119868, 0.754, -0.49, 0.504, 192.0, 0.0, 0.0, 0.0, 0.0, 0.0, 0.0, 0.0, 0.0, 0.0, 1.6635009668203418E9, 0.0, 2022-09-18 16:36:06.820
103.0, -23752.28241113215, -36034.87891374575, -85210.95188986682, -52049.59089155089, -40136.37931780569, -22635.075168022537, -3900.5358696622698, -32019.90211247231, 0.754, -0.49, 0.504, 192.0, 0.0, 0.0, 0.0, 0.0, 0.0, 0.0, 0.0, 0.0, 0.0, 1.663500966824364E9, 0.0, 2022-09-18 16:36:06.824
104.0, -23978.16914059748, -36653.686958990926, -85176.9548865503, -52369.13143028396, -39995.38451378161, -22499.82476232347, -3025.0180393478918, -32086.24209001566, 0.754, -0.49, 0.504, 192.0, 0.0, 0.0, 0.0, 0.0, 0.0, 0.0, 0.0, 0.0, 0.0, 1.6635009668283808E9, 0.0, 2022-09-18 16:36:06.828
105.0, -23568.394609498337, -36861.804051614294, -85383.77557799526, -52122.055247075, -40098.60486967622, -22652.1966042753, -240.30360463900624, -32057.229525712675, 0.754, -0.49, 0.504, 192.0, 0.0, 0.0, 0.0, 0.0, 0.0, 0.0, 0.0, 0.0, 0.0, 1.663500966832487E9, 0.0, 2022-09-18 16:36:06.832
106.0, -23187.051497346343, -36434.393994139915, -85424.65691860401, -51735.48182672046, -40262.06317687788, -22751.46070140132, 661.7680980882762, -32107.07391584801, 0.754, -0.49, 0.504, 192.0, 0.0, 0.0, 0.0, 0.0, 0.0, 0.0, 0.0, 0.0, 0.0, 1.6635009668354244E9, 0.0, 2022-09-18 16:36:06.835
107.0, -23571.121522321882, -36370.60211546446, -85241.99846291525, -51987.162469287214, -40213.02344954294, -22669.608613205983, -1508.0051431662016, -32046.59009535195, 0.754, -0.49, 0.504, 192.0, 0.0, 0.0, 0.0, 0.0, 0.0, 0.0, 0.0, 0.0, 0.0, 1.6635009668404837E9, 0.0, 2022-09-18 16:36:06.840
108.0, -23750.248402386715, -36058.28119019046, -85170.11525274698, -52045.612281037844, -40125.96340488952, -22633.957580799768, -3861.5097238433036, -31980.518338742062, 0.754, -0.49, 0.504, 192.0, 0.0, 0.0, 0.0, 0.0, 0.0, 0.0, 0.0, 0.0, 0.0, 1.6635009668444073E9, 0.0, 2022-09-18 16:36:06.844
109.0, -23987.154541868513, -36635.58204598213, -85169.33294169104, -52364.325805226064, -40002.2912028183, -22511.492372929144, -3159.5531892243853, -32117.48982876418, 0.758, -0.492, 0.51, 192.0, 23.0, 176.0, 240.0, 160.0, 15.0, 240.0, 0.0, 0.0, 0.0, 1.6635009668484101E9, 0.0, 2022-09-18 16:36:06.848
110.0, -23605.923188438795, -36890.07900835026, -85387.82124374167, -52151.64895673382, -40091.67582889507, -22645.044046049603, -362.6570537873571, -32090.757142395636, 0.758, -0.492, 0.51, 192.0, 0.0, 0.0, 0.0, 0.0, 0.0, 0.0, 0.0, 0.0, 0.0, 1.663500966852456E9, 0.0, 2022-09-18 16:36:06.852
111.0, -23165.72793313598, -36442.217104699266, -85415.09037197714, -51718.82977710126, -40242.1477725682, -22734.518079104197, 707.6785811994769, -32088.96900283921, 0.758, -0.492, 0.51, 192.0, 0.0, 0.0, 0.0, 0.0, 0.0, 0.0, 0.0, 0.0, 0.0, 1.663500966856383E9, 0.0, 2022-09-18 16:36:06.856
112.0, -23549.261516244595, -36387.83531043951, -85227.31336680811, -51968.52111441149, -40205.11093200576, -22654.297668254098, -1361.802382684038, -32034.274284157073, 0.758, -0.492, 0.51, 192.0, 0.0, 0.0, 0.0, 0.0, 0.0, 0.0, 0.0, 0.0, 0.0, 1.6635009668604236E9, 0.0, 2022-09-18 16:36:06.860
113.0, -23727.963713164772, -36056.29188493394, -85175.94905804981, -52025.763931961534, -40118.87790189718, -22622.804060316572, -3790.8335078756227, -31949.9411523272, 0.758, -0.492, 0.51, 192.0, 0.0, 0.0, 0.0, 0.0, 0.0, 0.0, 0.0, 0.0, 0.0, 1.663500966863423E9, 0.0, 2022-09-18 16:36:06.863
114.0, -23971.5083207498, -36592.64434488348, -85171.098729503, -52341.102342737, -40009.98020291093, -22522.4670794567, -3265.83573410937, -32090.19834878425, 0.758, -0.492, 0.51, 192.0, 0.0, 0.0, 0.0, 0.0, 0.0, 0.0, 0.0, 0.0, 0.0, 1.6635009668684213E9, 0.0, 2022-09-18 16:36:06.868
115.0, -23638.35556964345, -36910.821427204784, -85364.37426380804, -52178.158125657814, -40080.723474111976, -22645.267563494155, -488.69854077083363, -32086.26444176012, 0.758, -0.492, 0.51, 192.0, 0.0, 0.0, 0.0, 0.0, 0.0, 0.0, 0.0, 0.0, 0.0, 1.663500966872538E9, 0.0, 2022-09-18 16:36:06.872
116.0, -23160.899956333633, -36458.39976768491, -85445.64520664755, -51727.05521906081, -40254.28476980743, -22759.708495105326, 724.8223691966974, -32128.576294014016, 0.758, -0.492, 0.51, 192.0, 0.0, 0.0, 0.0, 0.0, 0.0, 0.0, 0.0, 0.0, 0.0, 1.6635009668764129E9, 0.0, 2022-09-18 16:36:06.876
117.0, -23522.84175429842, -36400.06171465656, -85250.91680895291, -51967.76115510001, -40226.903882849685, -22684.53957850213, -1223.5791949724191, -32100.167226811318, 0.758, -0.492, 0.51, 192.0, 0.0, 0.0, 0.0, 0.0, 0.0, 0.0, 0.0, 0.0, 0.0, 1.66350096688044E9, 0.0, 2022-09-18 16:36:06.880
118.0, -23710.439945511815, -36057.4094721567, -85182.58752615303, -52025.04867613896, -40139.55326551834, -22642.563002415063, -3712.4682918153158, -31970.50475722608, 0.758, -0.492, 0.51, 192.0, 0.0, 0.0, 0.0, 0.0, 0.0, 0.0, 0.0, 0.0, 0.0, 1.6635009668844688E9, 0.0, 2022-09-18 16:36:06.884
119.0, -23860.509557784746, -36446.73215707924, -85172.52924114815, -52235.15507401885, -40010.27077558885, -22527.451518470232, -3178.7086342225834, -32057.654208857326, 0.758, -0.49, 0.518, 192.0, 23.0, 176.0, 240.0, 176.0, 16.0, 48.0, 0.0, 0.0, 0.0, 1.6635009668884773E9, 0.0, 2022-09-18 16:36:06.888
120.0, -23572.39557175584, -36785.80812046625, -85343.56478972016, -52103.88327883283, -40075.24729672042, -22621.66412134935, -357.71731826273424, -32070.64057238586, 0.758, -0.49, 0.518, 192.0, 0.0, 0.0, 0.0, 0.0, 0.0, 0.0, 0.0, 0.0, 0.0, 1.66350096689146E9, 0.0, 2022-09-18 16:36:06.891
121.0, -23194.226407316495, -36435.6009883405, -85431.18362798497, -51734.27483251987, -40239.73378416703, -22740.709512318317, 780.9252477795181, -32095.92039536481, 0.758, -0.49, 0.518, 192.0, 0.0, 0.0, 0.0, 0.0, 0.0, 0.0, 0.0, 0.0, 0.0, 1.6635009668964653E9, 0.0, 2022-09-18 16:36:06.896
122.0, -23515.46567862817, -36355.96172284624, -85284.75735005825, -51936.9604512406, -40233.00590908598, -22675.44241850882, -1004.5768027993206, -32068.986543296167, 0.758, -0.49, 0.518, 192.0, 0.0, 0.0, 0.0, 0.0, 0.0, 0.0, 0.0, 0.0, 0.0, 1.663500966900462E9, 0.0, 2022-09-18 16:36:06.900
123.0, -23767.883928761952, -36065.120823993784, -85181.51464241918, -52052.49661833008, -40137.496905028456, -22627.207353974267, -3677.3089977871177, -31952.489251195104, 0.758, -0.49, 0.518, 192.0, 0.0, 0.0, 0.0, 0.0, 0.0, 0.0, 0.0, 0.0, 0.0, 1.6635009669046285E9, 0.0, 2022-09-18 16:36:06.904
124.0, -23927.028349283737, -36439.981930253736, -85167.58950562353, -52276.48344951671, -39998.58081323872, -22511.1123932734, -3407.411683489285, -32047.752386063625, 0.758, -0.49, 0.518, 192.0, 0.0, 0.0, 0.0, 0.0, 0.0, 0.0, 0.0, 0.0, 0.0, 1.6635009669084544E9, 0.0, 2022-09-18 16:36:06.908
125.0, -23627.738491027176, -36831.18216171052, -85367.1458801205, -52181.91321872631, -40065.39017741563, -22616.210295702254, -626.9887837158184, -32100.167226811318, 0.758, -0.49, 0.518, 192.0, 0.0, 0.0, 0.0, 0.0, 0.0, 0.0, 0.0, 0.0, 0.0, 1.663500966912496E9, 0.0, 2022-09-18 16:36:06.912
126.0, -23179.876587376188, -36451.53778213713, -85419.40425865701, -51764.56144625681, -40251.781374428436, -22756.400436925942, 729.6950494879544, -32141.473250564726, 0.758, -0.49, 0.518, 192.0, 0.0, 0.0, 0.0, 0.0, 0.0, 0.0, 0.0, 0.0, 0.0, 1.6635009669165635E9, 0.0, 2022-09-18 16:36:06.916
127.0, -23533.347074192414, -36405.0461536701, -85233.0130616442, -51981.798050617945, -40226.52390319394, -22672.73785742973, -1006.8119772448513, -32104.190540813273, 0.758, -0.49, 0.518, 192.0, 0.0, 0.0, 0.0, 0.0, 0.0, 0.0, 0.0, 0.0, 0.0, 1.6635009669195533E9, 0.0, 2022-09-18 16:36:06.919
128.0, -23745.01809418417, -36066.864260061295, -85211.60009045602, -52055.35764162036, -40154.48423081449, -22650.877851352438, -3628.604546619004, -31976.606783462383, 0.758, -0.49, 0.518, 192.0, 0.0, 0.0, 0.0, 0.0, 0.0, 0.0, 0.0, 0.0, 0.0, 1.6635009669235756E9, 0.0, 2022-09-18 16:36:06.923
129.0, -23966.725047436365, -36447.64857860191, -85192.84697685803, -52329.21121468678, -40032.17548515505, -22533.218268539702, -3641.1215235139757, -32075.82617709949, 0.756, -0.49, 0.516, 192.0, 23.0, 160.0, 240.0, 176.0, 16.0, 32.0, 0.0, 0.0, 0.0, 1.6635009669285424E9, 0.0, 2022-09-18 16:36:06.928
130.0, -23756.12691117846, -36917.6163575192, -85335.00407159378, -52287.525211277636, -40053.05201447631, -22599.871170505427, -940.3155374903129, -32080.832967857477, 0.756, -0.49, 0.516, 192.0, 0.0, 0.0, 0.0, 0.0, 0.0, 0.0, 0.0, 0.0, 0.0, 1.6635009669325497E9, 0.0, 2022-09-18 16:36:06.932
131.0, -23178.311965264318, -36452.767128082174, -85436.6151018876, -51749.965757127495, -40229.16140903967, -22744.554012364628, 747.1964653964598, -32061.610467625913, 0.756, -0.49, 0.516, 192.0, 0.0, 0.0, 0.0, 0.0, 0.0, 0.0, 0.0, 0.0, 0.0, 1.6635009669365537E9, 0.0, 2022-09-18 16:36:06.936
132.0, -23482.630966023324, -36378.78285393511, -85224.78761968466, -51930.72431453757, -40213.761057109965, -22662.567813702564, -809.4907771934006, -32047.908848274812, 0.756, -0.49, 0.516, 192.0, 0.0, 0.0, 0.0, 0.0, 0.0, 0.0, 0.0, 0.0, 0.0, 1.6635009669395716E9, 0.0, 2022-09-18 16:36:06.939
133.0, -23720.02884388314, -36058.23648670155, -85177.1113487615, -52025.09337962787, -40139.46385854052, -22630.96244704276, -3489.934324018279, -31935.65838762026, 0.756, -0.49, 0.516, 192.0, 0.0, 0.0, 0.0, 0.0, 0.0, 0.0, 0.0, 0.0, 0.0, 1.6635009669435692E9, 0.0, 2022-09-18 16:36:06.943
134.0, -23929.084709773626, -36377.77702543462, -85153.66436882787, -52277.42222278383, -40018.697383248495, -22512.83347759646, -3679.499468743738, -32053.653246599824, 0.756, -0.49, 0.516, 192.0, 0.0, 0.0, 0.0, 0.0, 0.0, 0.0, 0.0, 0.0, 0.0, 1.663500966947582E9, 0.0, 2022-09-18 16:36:06.947
135.0, -23760.23963215824, -36900.27140382188, -85310.66302188195, -52290.810917712566, -40044.75951728338, -22581.2298156297, -1049.4367539211219, -32103.29647103506, 0.756, -0.49, 0.516, 192.0, 0.0, 0.0, 0.0, 0.0, 0.0, 0.0, 0.0, 0.0, 0.0, 1.6635009669515786E9, 0.0, 2022-09-18 16:36:06.951
136.0, -23162.084598789766, -36457.57275314006, -85489.72284671341, -51759.53230375437, -40245.72405168105, -22758.143872993456, 748.5599218082335, -32119.79205844308, 0.756, -0.49, 0.516, 192.0, 0.0, 0.0, 0.0, 0.0, 0.0, 0.0, 0.0, 0.0, 0.0, 1.6635009669566047E9, 0.0, 2022-09-18 16:36:06.956
137.0, -23436.96635210113, -36385.13074936042, -85316.45212369587, -51940.42497163117, -40266.3547118133, -22699.06821239808, -694.3569415041139, -32146.636503533904, 0.756, -0.49, 0.516, 192.0, 0.0, 0.0, 0.0, 0.0, 0.0, 0.0, 0.0, 0.0, 0.0, 1.6635009669606147E9, 0.0, 2022-09-18 16:36:06.960
138.0, -23707.891846643906, -36077.25782123301, -85183.4592441868, -52045.85815022685, -40174.82431826882, -22664.1994910478, -3400.4602909636847, -31986.95564114519, 0.756, -0.49, 0.516, 192.0, 0.0, 0.0, 0.0, 0.0, 0.0, 0.0, 0.0, 0.0, 0.0, 1.6635009669646137E9, 0.0, 2022-09-18 16:36:06.964
139.0, -23938.897125589505, -36342.86360059543, -85154.02199673916, -52273.667129715344, -40039.84213350322, -22535.18522205177, -3766.760679097257, -32045.561915107002, 0.754, -0.492, 0.508, 192.0, 23.0, 144.0, 240.0, 160.0, 15.0, 224.0, 0.0, 0.0, 0.0, 1.6635009669675949E9, 0.0, 2022-09-18 16:36:06.967
140.0, -23804.47373443529, -36911.42492430507, -85290.25587919426, -52318.325915137044, -40031.30376712129, -22565.18126311079, -1207.9329738537042, -32059.040017013554, 0.754, -0.492, 0.508, 192.0, 0.0, 0.0, 0.0, 0.0, 0.0, 0.0, 0.0, 0.0, 0.0, 1.66350096697162E9, 0.0, 2022-09-18 16:36:06.971
141.0, -23190.426610759096, -36486.78648314315, -85446.62868340359, -51768.00361490293, -40218.87960659023, -22742.140023963457, 732.1090378891275, -32062.906868804323, 0.754, -0.492, 0.508, 192.0, 0.0, 0.0, 0.0, 0.0, 0.0, 0.0, 0.0, 0.0, 0.0, 1.663500966975639E9, 0.0, 2022-09-18 16:36:06.975
142.0, -23430.529049698, -36391.92567967483, -85290.14412047197, -51903.45518630209, -40232.67063291915, -22672.31317428508, -551.8645706015313, -32081.39176146886, 0.754, -0.492, 0.508, 192.0, 0.0, 0.0, 0.0, 0.0, 0.0, 0.0, 0.0, 0.0, 0.0, 1.6635009669796271E9, 0.0, 2022-09-18 16:36:06.979
143.0, -23706.573093721046, -36103.14114131226, -85200.357162995, -52029.8319494524, -40163.357873363246, -22654.699999654295, -3300.458586270641, -31967.621382191348, 0.754, -0.492, 0.508, 192.0, 0.0, 0.0, 0.0, 0.0, 0.0, 0.0, 0.0, 0.0, 0.0, 1.663500966983641E9, 0.0, 2022-09-18 16:36:06.983
144.0, -23925.68724461642, -36316.37678341589, -85143.87430475645, -52248.25319626966, -40037.651662546596, -22540.527288976587, -3840.364973588583, -32058.68238910227, 0.754, -0.492, 0.508, 192.0, 0.0, 0.0, 0.0, 0.0, 0.0, 0.0, 0.0, 0.0, 0.0, 1.6635009669886572E9, 0.0, 2022-09-18 16:36:06.988
145.0, -23831.496993481756, -36918.30926159731, -85272.50859409674, -52332.92160426636, -40025.02292692935, -22560.241527586168, -1345.3067952760214, -32088.58902318347, 0.754, -0.492, 0.508, 192.0, 0.0, 0.0, 0.0, 0.0, 0.0, 0.0, 0.0, 0.0, 0.0, 1.663500966992647E9, 0.0, 2022-09-18 16:36:06.992
146.0, -23205.49168652197, -36520.64937599294, -85480.33511404219, -51789.30482736884, -40233.56470269736, -22754.053503758136, 707.1197875880943, -32080.050656801544, 0.754, -0.492, 0.508, 192.0, 0.0, 0.0, 0.0, 0.0, 0.0, 0.0, 0.0, 0.0, 0.0, 1.6635009669956596E9, 0.0, 2022-09-18 16:36:06.995
147.0, -23395.459162647625, -36402.25218561318, -85311.2888707267, -51891.184078596125, -40255.134136096734, -22684.4054680354, -424.12435103945154, -32100.278985533594, 0.754, -0.492, 0.508, 192.0, 0.0, 0.0, 0.0, 0.0, 0.0, 0.0, 0.0, 0.0, 0.0, 1.6635009669996693E9, 0.0, 2022-09-18 16:36:06.999
148.0, -23691.15039004688, -36131.7290224706, -85187.39315121093, -52029.20610060765, -40175.42781536911, -22647.18981351731, -3180.4744220345524, -31958.546573942494, 0.754, -0.492, 0.508, 192.0, 0.0, 0.0, 0.0, 0.0, 0.0, 0.0, 0.0, 0.0, 0.0, 1.6635009670036693E9, 0.0, 2022-09-18 16:36:07.003
149.0, -23904.274273428236, -36295.29908839454, -85150.04338622611, -52228.851882082454, -40052.87320052066, -22533.88882087336, -3904.2462592418506, -32028.66399629879, 0.756, -0.494, 0.51, 192.0, 23.0, 160.0, 240.0, 144.0, 15.0, 240.0, 0.0, 0.0, 0.0, 1.6635009670078027E9, 0.0, 2022-09-18 16:36:07.007
150.0, -23855.703932726854, -36942.136221186665, -85278.4765098663, -52359.74369761273, -40035.32708112324, -22555.57001299501, -1509.2344891112434, -32089.751313895147, 0.756, -0.494, 0.51, 192.0, 0.0, 0.0, 0.0, 0.0, 0.0, 0.0, 0.0, 0.0, 0.0, 1.6635009670116975E9, 0.0, 2022-09-18 16:36:07.011
151.0, -23211.526657524904, -36561.57542009061, -85442.69477637945, -51801.10654844124, -40214.00692629897, -22737.624971583486, 679.448327952424, -32062.973924037688, 0.756, -0.494, 0.51, 192.0, 0.0, 0.0, 0.0, 0.0, 0.0, 0.0, 0.0, 0.0, 0.0, 1.6635009670166967E9, 0.0, 2022-09-18 16:36:07.016
152.0, -23377.644822316746, -36426.123848691444, -85298.6824868539, -51879.42706101263, -40267.24878159151, -22694.48610478474, -293.6572186538242, -32116.908683408343, 0.756, -0.494, 0.51, 192.0, 0.0, 0.0, 0.0, 0.0, 0.0, 0.0, 0.0, 0.0, 0.0, 1.66350096702075E9, 0.0, 2022-09-18 16:36:07.020
153.0, -23693.229102281228, -36176.67838057022, -85220.74195393824, -52044.718211259635, -40204.239213972, -22670.368572517466, -3072.202571893045, -32010.134400145344, 0.756, -0.494, 0.51, 192.0, 0.0, 0.0, 0.0, 0.0, 0.0, 0.0, 0.0, 0.0, 0.0, 1.6635009670237105E9, 0.0, 2022-09-18 16:36:07.023
154.0, -23874.702915513866, -36274.10963465091, -85201.96648859579, -52224.2250709802, -40079.71764561148, -22556.955821151238, -3970.0497949182745, -32070.19353749675, 0.756, -0.494, 0.51, 192.0, 0.0, 0.0, 0.0, 0.0, 0.0, 0.0, 0.0, 0.0, 0.0, 1.6635009670277736E9, 0.0, 2022-09-18 16:36:07.027
155.0, -23862.364752574536, -36945.131354943675, -85294.39095191848, -52391.17025031689, -40050.90624700859, -22556.017047884114, -1677.0960899705995, -32124.55298001206, 0.756, -0.494, 0.51, 192.0, 0.0, 0.0, 0.0, 0.0, 0.0, 0.0, 0.0, 0.0, 0.0, 1.663500967031752E9, 0.0, 2022-09-18 16:36:07.031
156.0, -23237.633495048703, -36597.29350773019, -85445.48874443636, -51838.29985121487, -40212.10702802027, -22730.24889591323, 619.5680045566564, -32063.555069393526, 0.756, -0.494, 0.51, 192.0, 0.0, 0.0, 0.0, 0.0, 0.0, 0.0, 0.0, 0.0, 0.0, 1.6635009670357745E9, 0.0, 2022-09-18 16:36:07.035
157.0, -23358.042342429442, -36429.54366559311, -85293.65334435146, -51863.8925986162, -40251.222580817055, -22685.478351769252, -180.13270856531963, -32088.58902318347, 0.756, -0.494, 0.51, 192.0, 0.0, 0.0, 0.0, 0.0, 0.0, 0.0, 0.0, 0.0, 0.0, 1.6635009670397737E9, 0.0, 2022-09-18 16:36:07.039
158.0, -23682.50026494268, -36194.42566566773, -85199.57485193908, -52040.046696668476, -40187.07307423033, -22662.00902009118, -2948.06098318827, -31962.547536199992, 0.756, -0.494, 0.51, 192.0, 0.0, 0.0, 0.0, 0.0, 0.0, 0.0, 0.0, 0.0, 0.0, 1.6635009670447092E9, 0.0, 2022-09-18 16:36:07.044
159.0, -23869.29379335568, -36237.877456888855, -85165.48844164473, -52204.91316377082, -40076.588401387744, -22567.192920111767, -4014.3062489397826, -32018.359842104896, 0.76, -0.488, 0.51, 192.0, 23.0, 192.0, 240.0, 192.0, 15.0, 240.0, 0.0, 0.0, 0.0, 1.6635009670488117E9, 0.0, 2022-09-18 16:36:07.048
160.0, -23899.423944881433, -36935.3189391278, -85245.30652109462, -52403.57546848959, -40031.88491247713, -22549.2221175697, -1822.8294638192015, -32108.59383447097, 0.76, -0.488, 0.51, 192.0, 0.0, 0.0, 0.0, 0.0, 0.0, 0.0, 0.0, 0.0, 0.0, 1.6635009670517192E9, 0.0, 2022-09-18 16:36:07.051
161.0, -23257.593602847293, -36620.62872894153, -85409.0106974853, -51861.29979625938, -40193.689190589095, -22727.521983089686, 576.87617264702, -32080.050656801544, 0.76, -0.488, 0.51, 192.0, 0.0, 0.0, 0.0, 0.0, 0.0, 0.0, 0.0, 0.0, 0.0, 1.663500967055748E9, 0.0, 2022-09-18 16:36:07.055
162.0, -23334.14832760672, -36426.280310902635, -85284.91381226943, -51857.567054935345, -40262.30904606689, -22702.823305466572, -53.688890181647565, -32139.8862767084, 0.76, -0.488, 0.51, 192.0, 0.0, 0.0, 0.0, 0.0, 0.0, 0.0, 0.0, 0.0, 0.0, 1.663500967059748E9, 0.0, 2022-09-18 16:36:07.059
163.0, -23686.724744644733, -36207.72495361864, -85176.37374119446, -52039.82317922392, -40189.911745776146, -22651.503700197187, -2796.3373418256456, -32004.43470530924, 0.76, -0.488, 0.51, 192.0, 0.0, 0.0, 0.0, 0.0, 0.0, 0.0, 0.0, 0.0, 0.0, 1.6635009670637743E9, 0.0, 2022-09-18 16:36:07.063
164.0, -23872.959479446352, -36197.35374419138, -85147.62939782493, -52184.103689682925, -40076.4095874321, -22562.968440409713, -4026.4432461790143, -32034.140173690343, 0.76, -0.488, 0.51, 192.0, 0.0, 0.0, 0.0, 0.0, 0.0, 0.0, 0.0, 0.0, 0.0, 1.663500967067731E9, 0.0, 2022-09-18 16:36:07.067
165.0, -23921.082785258626, -36901.54545325583, -85244.45715480532, -52405.69888421284, -40023.05597341728, -22528.74791964864, -1957.4987241624267, -32095.92039536481, 0.76, -0.488, 0.51, 192.0, 0.0, 0.0, 0.0, 0.0, 0.0, 0.0, 0.0, 0.0, 0.0, 1.6635009670727804E9, 0.0, 2022-09-18 16:36:07.072
166.0, -23278.67129786865, -36634.30799654818, -85456.32934049718, -51885.64084597121, -40199.075961002825, -22722.738709776248, 510.40208463693676, -32062.21396472621, 0.76, -0.488, 0.51, 192.0, 0.0, 0.0, 0.0, 0.0, 0.0, 0.0, 0.0, 0.0, 0.0, 1.6635009670768168E9, 0.0, 2022-09-18 16:36:07.076
167.0, -23313.405908752193, -36419.23951139922, -85324.25288251077, -51846.525293174425, -40285.97954344506, -22721.911695231403, 42.11068655379851, -32131.906703937853, 0.76, -0.488, 0.51, 192.0, 0.0, 0.0, 0.0, 0.0, 0.0, 0.0, 0.0, 0.0, 0.0, 1.6635009670798347E9, 0.0, 2022-09-18 16:36:07.079
168.0, -23674.67715438332, -36217.69383164571, -85169.06472075758, -52036.5821762779, -40191.655181843664, -22658.2986305116, -2662.8527239385517, -31986.66506846727, 0.76, -0.488, 0.51, 192.0, 0.0, 0.0, 0.0, 0.0, 0.0, 0.0, 0.0, 0.0, 0.0, 1.6635009670837328E9, 0.0, 2022-09-18 16:36:07.083
169.0, -23854.027551892705, -36158.01467395004, -85145.41657512386, -52162.42249756128, -40077.95185779952, -22573.496112048164, -4044.8834353546426, -32004.457057053693, 0.762, -0.484, 0.512, 192.0, 23.0, 208.0, 240.0, 224.0, 16.0, 0.0, 0.0, 0.0, 0.0, 1.6635009670878594E9, 0.0, 2022-09-18 16:36:07.087
170.0, -23931.4986981748, -36872.62229593066, -85210.63896544445, -52409.65514298143, -40010.36018256667, -22522.377672478877, -2093.598496150791, -32108.25855830414, 0.762, -0.484, 0.512, 192.0, 0.0, 0.0, 0.0, 0.0, 0.0, 0.0, 0.0, 0.0, 0.0, 1.663500967091817E9, 0.0, 2022-09-18 16:36:07.091
171.0, -23305.80631563739, -36654.82689795815, -85434.55874139772, -51911.747683495014, -40184.50262361796, -22716.748442262226, 466.36914805998185, -32105.26342454713, 0.762, -0.484, 0.512, 192.0, 0.0, 0.0, 0.0, 0.0, 0.0, 0.0, 0.0, 0.0, 0.0, 1.66350096709579E9, 0.0, 2022-09-18 16:36:07.095
172.0, -23266.579004118325, -36399.502921045176, -85347.2975310442, -51816.529252115404, -40274.02136016147, -22707.427764824362, 181.51851672154865, -32148.245829134685, 0.762, -0.484, 0.512, 192.0, 0.0, 0.0, 0.0, 0.0, 0.0, 0.0, 0.0, 0.0, 0.0, 1.6635009670998664E9, 0.0, 2022-09-18 16:36:07.099
173.0, -23647.6315435924, -36224.377003237845, -85189.60597391201, -52027.663830240235, -40193.71154233355, -22645.71459838326, -2498.5897539365, -31979.579565474938, 0.762, -0.484, 0.512, 192.0, 0.0, 0.0, 0.0, 0.0, 0.0, 0.0, 0.0, 0.0, 0.0, 1.6635009671048224E9, 0.0, 2022-09-18 16:36:07.104
174.0, -23841.689388953375, -36124.71057471163, -85172.9539242928, -52145.97161364217, -40104.72924765697, -22589.924644222814, -4045.9116155995866, -31997.259795339087, 0.762, -0.484, 0.512, 192.0, 0.0, 0.0, 0.0, 0.0, 0.0, 0.0, 0.0, 0.0, 0.0, 1.6635009671078598E9, 0.0, 2022-09-18 16:36:07.107
175.0, -23955.817396142174, -36838.33471993622, -85187.30374423311, -52404.827166179086, -40007.70032497649, -22512.54290491854, -2225.339677970371, -32096.814465143023, 0.762, -0.484, 0.512, 192.0, 0.0, 0.0, 0.0, 0.0, 0.0, 0.0, 0.0, 0.0, 0.0, 1.6635009671118803E9, 0.0, 2022-09-18 16:36:07.111
176.0, -23348.118167891287, -36666.78508124174, -85395.53259557874, -51924.15290166771, -40157.971102949516, -22694.06142164009, 406.0641415195634, -32050.747519820634, 0.762, -0.484, 0.512, 192.0, 0.0, 0.0, 0.0, 0.0, 0.0, 0.0, 0.0, 0.0, 0.0, 1.663500967115884E9, 0.0, 2022-09-18 16:36:07.115
177.0, -23263.293297683394, -36381.755635947666, -85313.25582423876, -51785.840306978265, -40253.79303142941, -22698.01768040868, 295.6241721658912, -32103.385878012883, 0.762, -0.484, 0.512, 192.0, 0.0, 0.0, 0.0, 0.0, 0.0, 0.0, 0.0, 0.0, 0.0, 1.663500967119867E9, 0.0, 2022-09-18 16:36:07.119
178.0, -23650.581973860502, -36227.19332303922, -85180.82173834107, -52019.37133304731, -40190.22467019852, -22650.363761229964, -2344.0721445169625, -32006.96045243269, 0.762, -0.484, 0.512, 192.0, 0.0, 0.0, 0.0, 0.0, 0.0, 0.0, 0.0, 0.0, 0.0, 1.6635009671238544E9, 0.0, 2022-09-18 16:36:07.123
179.0, -23810.128725782484, -36068.38417868426, -85164.88494454444, -52113.06984580396, -40093.732189384966, -22583.75556275315, -4024.1410165001175, -31996.544539516515, 0.762, -0.484, 0.512, 192.0, 0.0, 0.0, 0.0, 0.0, 0.0, 0.0, 0.0, 0.0, 0.0, 1.6635009671278725E9, 0.0, 2022-09-18 16:36:07.127
180.0, -23952.241117029324, -36784.89169894358, -85221.72543069428, -52403.39665453394, -40023.68182226203, -22530.178431293778, -2358.667833646278, -32118.607415986946, 0.754, -0.484, 0.516, 192.0, 23.0, 144.0, 240.0, 224.0, 16.0, 32.0, 0.0, 0.0, 0.0, 1.6635009671338992E9, 0.0, 2022-09-18 16:36:07.133
181.0, -23383.120999708295, -36679.771444770275, -85428.32260469468, -51965.68244286567, -40168.14114667668, -22717.888381229448, 313.75143691914525, -32084.275136503595, 0.754, -0.484, 0.516, 192.0, 0.0, 0.0, 0.0, 0.0, 0.0, 0.0, 0.0, 0.0, 0.0, 1.663500967136918E9, 0.0, 2022-09-18 16:36:07.136
182.0, -23239.578096816316, -36362.667246182835, -85360.03802538372, -51780.744109242456, -40274.378988072756, -22734.115747704, 380.56080109605807, -32118.45095377576, 0.754, -0.484, 0.516, 192.0, 0.0, 0.0, 0.0, 0.0, 0.0, 0.0, 0.0, 0.0, 0.0, 1.6635009671409633E9, 0.0, 2022-09-18 16:36:07.140
183.0, -23627.827898004998, -36228.35561375089, -85178.22893598425, -52019.751312703054, -40200.93115579261, -22667.95458411629, -2191.923820009687, -32019.23156013865, 0.754, -0.484, 0.516, 192.0, 0.0, 0.0, 0.0, 0.0, 0.0, 0.0, 0.0, 0.0, 0.0, 1.6635009671439524E9, 0.0, 2022-09-18 16:36:07.143
184.0, -23792.247330218237, -36033.78367826744, -85151.56330484907, -52100.35170320889, -40102.181148789066, -22599.424135616322, -4001.2975336667937, -32005.351126831905, 0.754, -0.484, 0.516, 192.0, 0.0, 0.0, 0.0, 0.0, 0.0, 0.0, 0.0, 0.0, 0.0, 1.6635009671479228E9, 0.0, 2022-09-18 16:36:07.147
185.0, -23955.571526953165, -36744.94913160195, -85189.18129076736, -52400.84855566604, -40009.86844418865, -22516.230942753667, -2474.53927690259, -32099.65313668885, 0.754, -0.484, 0.516, 192.0, 0.0, 0.0, 0.0, 0.0, 0.0, 0.0, 0.0, 0.0, 0.0, 1.663500967152037E9, 0.0, 2022-09-18 16:36:07.152
186.0, -23415.73219486859, -36708.18051197297, -85400.78525552574, -51999.411225248725, -40156.45118432656, -22706.913674701893, 253.535837356548, -32070.86408983041, 0.754, -0.484, 0.516, 192.0, 0.0, 0.0, 0.0, 0.0, 0.0, 0.0, 0.0, 0.0, 0.0, 1.6635009671560457E9, 0.0, 2022-09-18 16:36:07.156
187.0, -23231.64322753468, -36365.14828981737, -85347.40928976647, -51765.58962650176, -40267.74051996953, -22731.21002092481, 496.05226469662966, -32113.01947987312, 0.754, -0.484, 0.516, 192.0, 0.0, 0.0, 0.0, 0.0, 0.0, 0.0, 0.0, 0.0, 0.0, 1.6635009671600275E9, 0.0, 2022-09-18 16:36:07.160
188.0, -23630.19718291726, -36255.28946581954, -85203.3075932631, -52017.2255655796, -40207.167292495644, -22665.205319548288, -2025.291565095373, -32016.102315914908, 0.754, -0.484, 0.516, 192.0, 0.0, 0.0, 0.0, 0.0, 0.0, 0.0, 0.0, 0.0, 0.0, 1.6635009671630244E9, 0.0, 2022-09-18 16:36:07.163
189.0, -23786.257062704215, -36019.74678274951, -85170.4058254249, -52087.700615847185, -40094.60390741872, -22593.52327508012, -3966.5405710387913, -31966.347332757396, 0.754, -0.484, 0.516, 192.0, 0.0, 0.0, 0.0, 0.0, 0.0, 0.0, 0.0, 0.0, 0.0, 1.6635009671669807E9, 0.0, 2022-09-18 16:36:07.166
190.0, -23956.286782775736, -36704.89480553804, -85198.4572647163, -52394.79123291865, -39990.15420557907, -22504.11629725889, -2593.4952608937338, -32095.74158140917, 0.754, -0.484, 0.512, 192.0, 23.0, 144.0, 240.0, 224.0, 16.0, 0.0, 0.0, 0.0, 0.0, 1.6635009671720514E9, 0.0, 2022-09-18 16:36:07.172
191.0, -23416.670968135713, -36706.70529683892, -85397.32073513517, -52010.58709747638, -40112.50765472742, -22671.888491140428, 187.82170865794524, -32063.555069393526, 0.754, -0.484, 0.512, 192.0, 0.0, 0.0, 0.0, 0.0, 0.0, 0.0, 0.0, 0.0, 0.0, 1.6635009671760173E9, 0.0, 2022-09-18 16:36:07.176
192.0, -23191.11951483721, -36351.24550476617, -85353.37720553603, -51756.00072813043, -40271.24974384901, -22741.201250696333, 598.8926409354974, -32127.682224235803, 0.754, -0.484, 0.512, 192.0, 0.0, 0.0, 0.0, 0.0, 0.0, 0.0, 0.0, 0.0, 0.0, 1.6635009671800249E9, 0.0, 2022-09-18 16:36:07.180
193.0, -23613.142801897862, -36261.2573815891, -85206.6603549314, -52020.935955159184, -40213.38107745422, -22659.97501134575, -1848.3775077316175, -32028.127554431863, 0.754, -0.484, 0.512, 192.0, 0.0, 0.0, 0.0, 0.0, 0.0, 0.0, 0.0, 0.0, 0.0, 1.6635009671840515E9, 0.0, 2022-09-18 16:36:07.184
194.0, -23767.23572817275, -35997.93148016113, -85163.65559859939, -52086.85124955788, -40115.949823373536, -22612.343443911486, -3911.8011488677444, -31987.067399867465, 0.754, -0.484, 0.512, 192.0, 0.0, 0.0, 0.0, 0.0, 0.0, 0.0, 0.0, 0.0, 0.0, 1.66350096718704E9, 0.0, 2022-09-18 16:36:07.187
195.0, -23984.44998078942, -36672.88710747804, -85143.62843556744, -52408.85048018104, -40010.85192094468, -22521.193030022747, -2700.738930790297, -32104.503465235648, 0.754, -0.484, 0.512, 192.0, 0.0, 0.0, 0.0, 0.0, 0.0, 0.0, 0.0, 0.0, 0.0, 1.6635009671910484E9, 0.0, 2022-09-18 16:36:07.191
196.0, -23511.397661137304, -36757.175535819, -85366.47532778684, -52073.88723777381, -40128.46680026851, -22686.148904102913, 100.6499052822477, -32064.829118827478, 0.754, -0.484, 0.512, 192.0, 0.0, 0.0, 0.0, 0.0, 0.0, 0.0, 0.0, 0.0, 0.0, 1.6635009671949933E9, 0.0, 2022-09-18 16:36:07.194
197.0, -23202.83182893179, -36356.855792624454, -85362.45201378489, -51745.070725091784, -40253.189534329125, -22730.584172080064, 705.0410753537507, -32093.461703474728, 0.754, -0.484, 0.512, 192.0, 0.0, 0.0, 0.0, 0.0, 0.0, 0.0, 0.0, 0.0, 0.0, 1.6635009672000756E9, 0.0, 2022-09-18 16:36:07.200
198.0, -23611.533476297078, -36290.82873950347, -85204.1122560635, -52017.29262081297, -40211.77175185344, -22672.223767307256, -1668.9600549888678, -32028.23931315414, 0.754, -0.484, 0.512, 192.0, 0.0, 0.0, 0.0, 0.0, 0.0, 0.0, 0.0, 0.0, 0.0, 1.6635009672040503E9, 0.0, 2022-09-18 16:36:07.204
199.0, -23767.928632250863, -36004.77111396445, -85193.24930825822, -52082.78323206702, -40129.36087004672, -22630.358949942467, -3860.392136620538, -31993.459998781684, 0.754, -0.484, 0.512, 192.0, 0.0, 0.0, 0.0, 0.0, 0.0, 0.0, 0.0, 0.0, 0.0, 1.6635009672080555E9, 0.0, 2022-09-18 16:36:07.208
200.0, -23951.12352980656, -36642.04170012972, -85163.52148813265, -52394.254791051724, -39999.18431033901, -22509.2124949947, -2818.0185339472932, -32113.913549651334, 0.754, -0.488, 0.51, 192.0, 23.0, 144.0, 240.0, 192.0, 15.0, 240.0, 0.0, 0.0, 0.0, 1.663500967212083E9, 0.0, 2022-09-18 16:36:07.212
201.0, -23495.55027431849, -36785.249326854864, -85365.76007196428, -52092.193316482706, -40097.464930709, -22657.71748515576, 10.751189083002696, -32048.400586652828, 0.754, -0.488, 0.51, 192.0, 0.0, 0.0, 0.0, 0.0, 0.0, 0.0, 0.0, 0.0, 0.0, 1.663500967216086E9, 0.0, 2022-09-18 16:36:07.216
202.0, -23153.412121941106, -36379.40870277986, -85354.47244101435, -51735.88415812066, -40243.62298770225, -22732.461718614308, 765.2790266608032, -32071.288772975062, 0.754, -0.488, 0.51, 192.0, 0.0, 0.0, 0.0, 0.0, 0.0, 0.0, 0.0, 0.0, 0.0, 1.6635009672190883E9, 0.0, 2022-09-18 16:36:07.219
203.0, -23585.873673662387, -36330.05605102254, -85171.63517136994, -52012.24112656607, -40206.273222717435, -22671.24029055122, -1518.3987043379193, -32024.9089032303, 0.754, -0.488, 0.51, 192.0, 0.0, 0.0, 0.0, 0.0, 0.0, 0.0, 0.0, 0.0, 0.0, 1.6635009672230444E9, 0.0, 2022-09-18 16:36:07.223
204.0, -23775.41646664339, -36029.29097763193, -85157.44181364082, -52071.83087728392, -40122.856512410224, -22635.164575000355, -3810.9053743964882, -31956.870193108345, 0.754, -0.488, 0.51, 192.0, 0.0, 0.0, 0.0, 0.0, 0.0, 0.0, 0.0, 0.0, 0.0, 1.6635009672282E9, 0.0, 2022-09-18 16:36:07.228
205.0, -23984.964070911894, -36633.548037236695, -85166.42721491185, -52376.55220944312, -39993.17169108053, -22507.64787288283, -2935.5216545488424, -32076.40732245533, 0.754, -0.488, 0.51, 192.0, 0.0, 0.0, 0.0, 0.0, 0.0, 0.0, 0.0, 0.0, 0.0, 1.663500967232118E9, 0.0, 2022-09-18 16:36:07.232
206.0, -23539.51615566208, -36828.16467620905, -85363.39078705202, -52107.37015096786, -40092.07816029527, -22659.371514245453, -47.966843601088954, -32087.940822594264, 0.754, -0.488, 0.51, 192.0, 0.0, 0.0, 0.0, 0.0, 0.0, 0.0, 0.0, 0.0, 0.0, 1.663500967236033E9, 0.0, 2022-09-18 16:36:07.236
207.0, -23149.94760155053, -36421.67585154484, -85393.31977287767, -51725.04356205983, -40242.79597315741, -22743.21290769731, 868.1194028996711, -32110.49373274967, 0.754, -0.488, 0.51, 192.0, 0.0, 0.0, 0.0, 0.0, 0.0, 0.0, 0.0, 0.0, 0.0, 1.6635009672400813E9, 0.0, 2022-09-18 16:36:07.240
208.0, -23522.528829876046, -36366.24352529568, -85230.24144533175, -51973.86318133631, -40214.27514723243, -22685.187779091335, -1276.195201420212, -32057.743615835145, 0.754, -0.488, 0.51, 192.0, 0.0, 0.0, 0.0, 0.0, 0.0, 0.0, 0.0, 0.0, 0.0, 1.6635009672431407E9, 0.0, 2022-09-18 16:36:07.243
209.0, -23770.49908286322, -36116.082801351884, -85138.75575527619, -52086.35951117987, -40113.49113148345, -22629.15195574188, -3787.1231182960414, -31972.359952015875, 0.754, -0.488, 0.51, 192.0, 0.0, 0.0, 0.0, 0.0, 0.0, 0.0, 0.0, 0.0, 0.0, 1.6635009672472036E9, 0.0, 2022-09-18 16:36:07.247
210.0, -23988.02625990227, -36698.725724068376, -85136.7440982752, -52392.868982895496, -39976.139661805595, -22504.205704236712, -3111.072255500824, -32070.88644157487, 0.756, -0.49, 0.51, 192.0, 23.0, 160.0, 240.0, 176.0, 15.0, 240.0, 0.0, 0.0, 0.0, 1.6635009672510767E9, 0.0, 2022-09-18 16:36:07.251
211.0, -23596.356641811926, -36981.27412572791, -85357.15465034898, -52186.09299493945, -40067.67005535008, -22642.965333815257, -283.10719527091925, -32067.980714795678, 0.756, -0.49, 0.51, 192.0, 0.0, 0.0, 0.0, 0.0, 0.0, 0.0, 0.0, 0.0, 0.0, 1.663500967256161E9, 0.0, 2022-09-18 16:36:07.256
212.0, -23171.49468320545, -36565.263457925736, -85420.25362494632, -51773.99388241695, -40249.72501393855, -22761.31782070611, 800.5947829001884, -32126.430526546304, 0.756, -0.49, 0.51, 192.0, 0.0, 0.0, 0.0, 0.0, 0.0, 0.0, 0.0, 0.0, 0.0, 1.6635009672601776E9, 0.0, 2022-09-18 16:36:07.260
213.0, -23568.014629842597, -36539.8271727356, -85239.65152974744, -52038.0350396675, -40220.08660079081, -22685.500703513706, -1276.038739209025, -32084.9233370928, 0.756, -0.49, 0.51, 192.0, 0.0, 0.0, 0.0, 0.0, 0.0, 0.0, 0.0, 0.0, 0.0, 1.663500967264158E9, 0.0, 2022-09-18 16:36:07.264
214.0, -23756.685704789845, -36217.313851989966, -85153.48555487223, -52088.17000248075, -40121.51540774291, -22635.991589545203, -3734.8647397595337, -31966.101463568386, 0.756, -0.49, 0.51, 192.0, 0.0, 0.0, 0.0, 0.0, 0.0, 0.0, 0.0, 0.0, 0.0, 1.66350096726819E9, 0.0, 2022-09-18 16:36:07.268
215.0, -23971.93300389445, -36748.74892815935, -85148.70228155878, -52382.520125212686, -39991.785882924305, -22508.11725951639, -3220.6628585651947, -32086.979697582687, 0.756, -0.49, 0.51, 192.0, 0.0, 0.0, 0.0, 0.0, 0.0, 0.0, 0.0, 0.0, 0.0, 1.6635009672712429E9, 0.0, 2022-09-18 16:36:07.271
216.0, -23617.34492985546, -37104.29812720992, -85344.7941356652, -52229.00834429364, -40061.61273260268, -22631.789461587607, -421.08451379352977, -32100.45779948924, 0.756, -0.49, 0.51, 192.0, 0.0, 0.0, 0.0, 0.0, 0.0, 0.0, 0.0, 0.0, 0.0, 1.6635009672751672E9, 0.0, 2022-09-18 16:36:07.275
217.0, -23141.185717724053, -36675.59166855713, -85392.60451705511, -51775.2679318509, -40235.57635969834, -22759.373218938497, 842.8842834096293, -32140.17684938632, 0.756, -0.49, 0.51, 192.0, 0.0, 0.0, 0.0, 0.0, 0.0, 0.0, 0.0, 0.0, 0.0, 1.663500967279172E9, 0.0, 2022-09-18 16:36:07.279
218.0, -23533.414129425782, -36651.96587466787, -85221.21134057181, -52020.91360341473, -40207.14494075119, -22680.002174377703, -1109.6747052281744, -32083.045790558554, 0.756, -0.49, 0.51, 192.0, 0.0, 0.0, 0.0, 0.0, 0.0, 0.0, 0.0, 0.0, 0.0, 1.6635009672831743E9, 0.0, 2022-09-18 16:36:07.283
219.0, -23736.03269291314, -36335.733394114184, -85173.13273824845, -52081.46447914416, -40109.35605875922, -22635.879830822927, -3660.3216720010846, -31960.33471349892, 0.756, -0.49, 0.51, 192.0, 0.0, 0.0, 0.0, 0.0, 0.0, 0.0, 0.0, 0.0, 0.0, 1.6635009672881927E9, 0.0, 2022-09-18 16:36:07.288
220.0, -23954.811567641686, -36823.56021685126, -85168.7517963352, -52371.65717740741, -39988.656638700566, -22518.22024801019, -3336.3778396103194, -32091.11477030692, 0.764, -0.488, 0.508, 192.0, 23.0, 224.0, 240.0, 192.0, 15.0, 224.0, 0.0, 0.0, 0.0, 1.6635009672922E9, 0.0, 2022-09-18 16:36:07.292
221.0, -23636.76859578712, -37226.42805891372, -85359.47923177233, -52255.495161473176, -40045.29595915031, -22618.84780154798, -549.5623409226348, -32093.48405521918, 0.764, -0.488, 0.508, 192.0, 0.0, 0.0, 0.0, 0.0, 0.0, 0.0, 0.0, 0.0, 0.0, 1.6635009672961988E9, 0.0, 2022-09-18 16:36:07.296
222.0, -23129.540458862837, -36794.94998394847, -85417.6608225895, -51781.52642029839, -40225.87570260474, -22758.635611371472, 865.4595453094895, -32124.843552689978, 0.764, -0.488, 0.508, 192.0, 0.0, 0.0, 0.0, 0.0, 0.0, 0.0, 0.0, 0.0, 0.0, 1.6635009672991924E9, 0.0, 2022-09-18 16:36:07.299
223.0, -23487.973032948143, -36748.88303862608, -85202.97231709628, -52001.087606082874, -40193.130396977715, -22665.026505592647, -943.0648020583155, -32081.257651002128, 0.764, -0.488, 0.508, 192.0, 0.0, 0.0, 0.0, 0.0, 0.0, 0.0, 0.0, 0.0, 0.0, 1.6635009673032928E9, 0.0, 2022-09-18 16:36:07.303
224.0, -23716.4972682592, -36420.80413351108, -85110.16787411785, -52068.81339178245, -40099.67775341008, -22627.564981885553, -3544.4502287447726, -31951.03638780551, 0.764, -0.488, 0.508, 192.0, 0.0, 0.0, 0.0, 0.0, 0.0, 0.0, 0.0, 0.0, 0.0, 1.6635009673072743E9, 0.0, 2022-09-18 16:36:07.307
225.0, -23960.51126247779, -36858.27247599036, -85092.77821693162, -52351.630014375456, -39973.8374321267, -22512.140573518347, -3402.1366717978326, -32078.597793411947, 0.764, -0.488, 0.508, 192.0, 0.0, 0.0, 0.0, 0.0, 0.0, 0.0, 0.0, 0.0, 0.0, 1.663500967311195E9, 0.0, 2022-09-18 16:36:07.311
226.0, -23720.11825086096, -37327.92733048527, -85292.96044027334, -52293.247257858195, -40029.336813609225, -22617.126717224925, -659.7117375983879, -32129.89504693688, 0.764, -0.488, 0.508, 192.0, 0.0, 0.0, 0.0, 0.0, 0.0, 0.0, 0.0, 0.0, 0.0, 1.663500967316248E9, 0.0, 2022-09-18 16:36:07.316
227.0, -23156.34020046475, -36882.47941523545, -85402.08165670415, -51779.98414993098, -40206.80966458436, -22753.338247935564, 912.1299877321707, -32126.676395735314, 0.764, -0.488, 0.508, 192.0, 0.0, 0.0, 0.0, 0.0, 0.0, 0.0, 0.0, 0.0, 0.0, 1.6635009673202264E9, 0.0, 2022-09-18 16:36:07.320
228.0, -23481.60278577838, -36839.228789714434, -85218.93146263737, -51988.5706291879, -40195.81260631235, -22675.934156886837, -784.1215472366271, -32104.34700302446, 0.764, -0.488, 0.508, 192.0, 0.0, 0.0, 0.0, 0.0, 0.0, 0.0, 0.0, 0.0, 0.0, 1.6635009673242428E9, 0.0, 2022-09-18 16:36:07.324
229.0, -23718.68773921582, -36526.90786444043, -85166.42721491185, -52079.02813899853, -40122.67769845459, -22658.656258422885, -3463.6486725388377, -31993.661164481782, 0.764, -0.488, 0.508, 192.0, 0.0, 0.0, 0.0, 0.0, 0.0, 0.0, 0.0, 0.0, 0.0, 1.6635009673272383E9, 0.0, 2022-09-18 16:36:07.327
230.0, -23929.26352372927, -36899.422037532575, -85144.25428441219, -52333.860377533485, -39988.14254857809, -22527.16094579231, -3497.019827010611, -32101.553034967546, 0.766, -0.482, 0.508, 192.0, 23.0, 240.0, 240.0, 240.0, 15.0, 224.0, 0.0, 0.0, 0.0, 1.6635009673312175E9, 0.0, 2022-09-18 16:36:07.331
231.0, -23713.12215484645, -37415.903796661354, -85276.86718426552, -52314.32495287955, -40019.50204604889, -22602.016937973134, -799.0972160216828, -32142.322616854028, 0.766, -0.482, 0.508, 192.0, 0.0, 0.0, 0.0, 0.0, 0.0, 0.0, 0.0, 0.0, 0.0, 1.6635009673352764E9, 0.0, 2022-09-18 16:36:07.335
232.0, -23140.62692411267, -36977.20610823704, -85377.4500343144, -51786.6226180342, -40208.798969840886, -22758.568556138107, 924.9375373050616, -32143.529611054615, 0.766, -0.482, 0.508, 192.0, 0.0, 0.0, 0.0, 0.0, 0.0, 0.0, 0.0, 0.0, 0.0, 1.663500967339222E9, 0.0, 2022-09-18 16:36:07.339
233.0, -23444.431834749204, -36916.05173540732, -85209.5660817106, -51973.14792551374, -40205.42385642813, -22679.28691855513, -625.357106370581, -32132.75607022716, 0.766, -0.482, 0.508, 192.0, 0.0, 0.0, 0.0, 0.0, 0.0, 0.0, 0.0, 0.0, 0.0, 1.6635009673443525E9, 0.0, 2022-09-18 16:36:07.344
234.0, -23692.893826114396, -36608.51408344675, -85122.841313224, -52073.06022322896, -40116.88859664066, -22652.554232186587, -3347.196083926688, -32003.406525064296, 0.766, -0.482, 0.508, 192.0, 0.0, 0.0, 0.0, 0.0, 0.0, 0.0, 0.0, 0.0, 0.0, 1.6635009673482673E9, 0.0, 2022-09-18 16:36:07.348
235.0, -23921.418061425455, -36931.80971524832, -85073.66747542232, -52323.33270589504, -39990.042446856794, -22533.866469128905, -3570.400604057384, -32101.955366367743, 0.766, -0.482, 0.508, 192.0, 0.0, 0.0, 0.0, 0.0, 0.0, 0.0, 0.0, 0.0, 0.0, 1.6635009673522437E9, 0.0, 2022-09-18 16:36:07.352
236.0, -23758.071512946073, -37488.14463474091, -85188.35427622251, -52337.99545025772, -39993.57402248073, -22574.948975437757, -922.3670866927013, -32116.01461363013, 0.766, -0.482, 0.508, 192.0, 0.0, 0.0, 0.0, 0.0, 0.0, 0.0, 0.0, 0.0, 0.0, 1.663500967355245E9, 0.0, 2022-09-18 16:36:07.355
237.0, -23156.317848720297, -37069.027074459445, -85324.36464123306, -51795.16098441613, -40180.255792171454, -22740.93302976287, 929.0726100292934, -32109.532607738092, 0.766, -0.482, 0.508, 192.0, 0.0, 0.0, 0.0, 0.0, 0.0, 0.0, 0.0, 0.0, 0.0, 1.6635009673593044E9, 0.0, 2022-09-18 16:36:07.359
238.0, -23427.220991518618, -37005.07873357281, -85176.59725863901, -51964.54250389845, -40198.316001691346, -22676.314136542576, -491.35839836101513, -32128.956273669755, 0.766, -0.482, 0.508, 192.0, 0.0, 0.0, 0.0, 0.0, 0.0, 0.0, 0.0, 0.0, 0.0, 1.6635009673632936E9, 0.0, 2022-09-18 16:36:07.363
239.0, -23676.39823870638, -36704.872453793585, -85088.84430990748, -52073.26138892906, -40118.676736197085, -22650.810796119073, -3249.7871815904596, -32016.57170254847, 0.766, -0.482, 0.508, 192.0, 0.0, 0.0, 0.0, 0.0, 0.0, 0.0, 0.0, 0.0, 0.0, 1.6635009673672657E9, 0.0, 2022-09-18 16:36:07.367
240.0, -23892.740773289297, -36971.84168956777, -85044.45374541923, -52307.574726054045, -40003.38643829661, -22547.411626268822, -3667.6083406935145, -32125.379994556904, 0.756, -0.47200000000000003, 0.504, 192.0, 23.0, 160.0, 241.0, 64.0, 15.0, 192.0, 0.0, 0.0, 0.0, 1.6635009673722646E9, 0.0, 2022-09-18 16:36:07.372
241.0, -23768.174501439873, -37570.846089225546, -85186.09675003252, -52370.27136925118, -40006.962717409464, -22583.308527864043, -1103.9750103920712, -32142.188506387298, 0.756, -0.47200000000000003, 0.504, 192.0, 0.0, 0.0, 0.0, 0.0, 0.0, 0.0, 0.0, 0.0, 0.0, 1.6635009673763063E9, 0.0, 2022-09-18 16:36:07.376
242.0, -23144.29261020334, -37165.296037828455, -85347.45399325539, -51823.6818103411, -40191.63283009921, -22749.247878700244, 859.8492574512074, -32132.621959760425, 0.756, -0.47200000000000003, 0.504, 192.0, 0.0, 0.0, 0.0, 0.0, 0.0, 0.0, 0.0, 0.0, 0.0, 1.6635009673803508E9, 0.0, 2022-09-18 16:36:07.380
243.0, -23375.610813571315, -37077.02899897444, -85178.54186040662, -51963.201399231126, -40219.259586245964, -22685.165427346878, -423.6102609169794, -32182.13107372893, 0.756, -0.47200000000000003, 0.504, 192.0, 0.0, 0.0, 0.0, 0.0, 0.0, 0.0, 0.0, 0.0, 0.0, 1.6635009673832865E9, 0.0, 2022-09-18 16:36:07.383
244.0, -23667.457540924257, -36799.64385028408, -85083.81516740503, -52097.69184561871, -40143.53187603139, -22654.56588918756, -3240.041821007946, -32039.906923759812, 0.756, -0.47200000000000003, 0.504, 192.0, 0.0, 0.0, 0.0, 0.0, 0.0, 0.0, 0.0, 0.0, 0.0, 1.6635009673873408E9, 0.0, 2022-09-18 16:36:07.387
245.0, -23871.77483699022, -36995.24396601247, -85005.13702692236, -52293.26960960265, -39989.841281156696, -22516.74503287614, -3851.4067353495047, -32068.517156662605, 0.756, -0.47200000000000003, 0.504, 192.0, 0.0, 0.0, 0.0, 0.0, 0.0, 0.0, 0.0, 0.0, 0.0, 1.6635009673913655E9, 0.0, 2022-09-18 16:36:07.391
246.0, -23800.56217915561, -37634.816781856636, -85139.73923203221, -52393.561886973606, -39979.5371269628, -22548.640972213863, -1387.1716126408116, -32121.893122421876, 0.756, -0.47200000000000003, 0.504, 192.0, 0.0, 0.0, 0.0, 0.0, 0.0, 0.0, 0.0, 0.0, 0.0, 1.6635009673953164E9, 0.0, 2022-09-18 16:36:07.395
247.0, -23169.86300586021, -37254.010111571566, -85325.86220811156, -51854.013127566956, -40182.37920789471, -22753.762931080215, 685.9973890778291, -32120.77553519911, 0.756, -0.47200000000000003, 0.504, 192.0, 0.0, 0.0, 0.0, 0.0, 0.0, 0.0, 0.0, 0.0, 0.0, 1.6635009674003408E9, 0.0, 2022-09-18 16:36:07.400
248.0, -23363.47381633208, -37133.04247057944, -85150.42336588186, -51952.09258223684, -40206.85436807327, -22689.367555304474, -432.5956621880129, -32140.400366830872, 0.756, -0.47200000000000003, 0.504, 192.0, 0.0, 0.0, 0.0, 0.0, 0.0, 0.0, 0.0, 0.0, 0.0, 1.6635009674043632E9, 0.0, 2022-09-18 16:36:07.404
249.0, -23664.44005542279, -36862.943990581516, -85083.2340220492, -52099.36822645286, -40143.08484114228, -22667.507549227186, -3250.301271712932, -32036.15183069132, 0.756, -0.47200000000000003, 0.504, 192.0, 0.0, 0.0, 0.0, 0.0, 0.0, 0.0, 0.0, 0.0, 0.0, 1.6635009674074333E9, 0.0, 2022-09-18 16:36:07.407
250.0, -23862.543566530177, -37007.492721973984, -85052.99211180117, -52296.51061254866, -40029.761496753876, -22565.18126311079, -4050.359612746193, -32121.60254974396, 0.754, -0.47600000000000003, 0.51, 192.0, 23.0, 144.0, 241.0, 32.0, 15.0, 240.0, 0.0, 0.0, 0.0, 1.6635009674113386E9, 0.0, 2022-09-18 16:36:07.411
251.0, -23819.494106709255, -37674.088796864606, -85131.67025228385, -52434.75615200474, -39986.91320263305, -22552.686637960272, -1668.535371844217, -32164.65200956488, 0.754, -0.47600000000000003, 0.51, 192.0, 0.0, 0.0, 0.0, 0.0, 0.0, 0.0, 0.0, 0.0, 0.0, 1.663500967415382E9, 0.0, 2022-09-18 16:36:07.415
252.0, -23180.524787965394, -37314.896263467825, -85322.84472261008, -51885.14910759319, -40177.64063807019, -22743.92816351988, 547.4612769438359, -32148.804622746065, 0.754, -0.47600000000000003, 0.51, 192.0, 0.0, 0.0, 0.0, 0.0, 0.0, 0.0, 0.0, 0.0, 0.0, 1.6635009674194274E9, 0.0, 2022-09-18 16:36:07.419
253.0, -23341.412644554694, -37181.38929383628, -85193.29401174713, -51950.90793978071, -40228.28969100591, -22701.124572887966, -397.8386995600104, -32177.50426262668, 0.754, -0.47600000000000003, 0.51, 192.0, 0.0, 0.0, 0.0, 0.0, 0.0, 0.0, 0.0, 0.0, 0.0, 1.6635009674233727E9, 0.0, 2022-09-18 16:36:07.423
254.0, -23657.890994297388, -36931.87677048168, -85061.329312483, -52099.25646773058, -40134.814695693814, -22646.04987455009, -3197.8640792207816, -32002.825379708458, 0.754, -0.47600000000000003, 0.51, 192.0, 0.0, 0.0, 0.0, 0.0, 0.0, 0.0, 0.0, 0.0, 0.0, 1.6635009674273539E9, 0.0, 2022-09-18 16:36:07.427
255.0, -23852.060598380638, -37021.93194889211, -85017.65400381733, -52270.42612676932, -40018.138589637114, -22550.138539092368, -4154.96577679703, -32066.10316826143, 0.754, -0.47600000000000003, 0.51, 192.0, 0.0, 0.0, 0.0, 0.0, 0.0, 0.0, 0.0, 0.0, 0.0, 1.663500967432407E9, 0.0, 2022-09-18 16:36:07.432
0.0, -23849.892479168473, -37717.94291948592, -85121.34374634549, -52448.860102756036, -39995.228051570426, -22557.201690340244, -1875.780746433824, -32167.334218899516, 0.754, -0.47600000000000003, 0.51, 192.0, 0.0, 0.0, 0.0, 0.0, 0.0, 0.0, 0.0, 0.0, 0.0, 1.6635009674353936E9, 0.0, 2022-09-18 16:36:07.435
1.0, -23209.35853831274, -37399.475264486704, -85321.79419062068, -51913.424064329156, -40178.91468750414, -22747.616201355006, 443.0562785930966, -32137.092308651485, 0.754, -0.47600000000000003, 0.51, 192.0, 0.0, 0.0, 0.0, 0.0, 0.0, 0.0, 0.0, 0.0, 0.0, 1.6635009674393713E9, 0.0, 2022-09-18 16:36:07.439
2.0, -23317.47392624306, -37240.509657920564, -85186.74495062172, -51945.18589320015, -40236.20220854309, -22704.186761878344, -332.16927435031823, -32167.803605533078, 0.754, -0.47600000000000003, 0.51, 192.0, 0.0, 0.0, 0.0, 0.0, 0.0, 0.0, 0.0, 0.0, 0.0, 1.6635009674433873E9, 0.0, 2022-09-18 16:36:07.443
3.0, -23625.033929948084, -36998.194396280574, -85062.44689970576, -52106.230212000635, -40143.04013765337, -22652.084845553025, -3108.010066510447, -32030.429784110762, 0.754, -0.47600000000000003, 0.51, 192.0, 0.0, 0.0, 0.0, 0.0, 0.0, 0.0, 0.0, 0.0, 0.0, 1.6635009674474108E9, 0.0, 2022-09-18 16:36:07.447
4.0, -23810.016967060204, -37029.01745188444, -85019.21862592919, -52263.608844710456, -40037.785773013326, -22569.808074213037, -4228.525367799445, -32098.78141865509, 0.756, -0.48, 0.51, 192.0, 23.0, 160.0, 241.0, 0.0, 15.0, 240.0, 0.0, 0.0, 0.0, 1.6635009674517336E9, 0.0, 2022-09-18 16:36:07.451
5.0, -23854.049903637162, -37743.446259909426, -85099.61785073494, -52470.13896347749, -39980.3864932521, -22531.228963283178, -2052.0018997194647, -32157.253582150173, 0.756, -0.48, 0.51, 192.0, 0.0, 0.0, 0.0, 0.0, 0.0, 0.0, 0.0, 0.0, 0.0, 1.663500967455413E9, 0.0, 2022-09-18 16:36:07.455
6.0, -23208.084488878787, -37461.88133500592, -85349.04096711171, -51944.269471677486, -40161.480326829, -22718.55893356311, 357.76202175164485, -32116.752221197155, 0.756, -0.48, 0.51, 192.0, 0.0, 0.0, 0.0, 0.0, 0.0, 0.0, 0.0, 0.0, 0.0, 1.6635009674604328E9, 0.0, 2022-09-18 16:36:07.460
7.0, -23271.89871929869, -37275.71365543767, -85246.40175657294, -51946.705811823114, -40258.59865648731, -22730.986503480257, -252.10532571140837, -32202.873492583454, 0.756, -0.48, 0.51, 192.0, 0.0, 0.0, 0.0, 0.0, 0.0, 0.0, 0.0, 0.0, 0.0, 1.6635009674635122E9, 0.0, 2022-09-18 16:36:07.463
8.0, -23635.24867716416, -37062.00862670048, -85087.36909477343, -52142.03770661804, -40177.19360318108, -22689.009927393192, -3008.254231006412, -32078.798959112046, 0.756, -0.48, 0.51, 192.0, 0.0, 0.0, 0.0, 0.0, 0.0, 0.0, 0.0, 0.0, 0.0, 1.6635009674675007E9, 0.0, 2022-09-18 16:36:07.467
9.0, -23816.878952607985, -37024.25653031546, -84999.59379429744, -52269.621463968935, -40034.298900878304, -22573.451408559253, -4278.392109679236, -32087.11380804942, 0.756, -0.48, 0.51, 192.0, 0.0, 0.0, 0.0, 0.0, 0.0, 0.0, 0.0, 0.0, 0.0, 1.663500967471464E9, 0.0, 2022-09-18 16:36:07.471
10.0, -23879.62029929403, -37732.18098070395, -85057.7753851146, -52490.881382332016, -39958.504135430354, -22516.45446019822, -2209.089959751363, -32142.277913365117, 0.756, -0.48, 0.51, 192.0, 0.0, 0.0, 0.0, 0.0, 0.0, 0.0, 0.0, 0.0, 0.0, 1.6635009674754777E9, 0.0, 2022-09-18 16:36:07.475
11.0, -23252.56446034485, -37483.0484370051, -85278.74473079976, -51974.444326692144, -40131.35017530325, -22708.232427624756, 306.57652694899167, -32093.86403487492, 0.756, -0.48, 0.51, 192.0, 0.0, 0.0, 0.0, 0.0, 0.0, 0.0, 0.0, 0.0, 0.0, 1.6635009674794908E9, 0.0, 2022-09-18 16:36:07.479
12.0, -23268.36714367475, -37255.328864494426, -85200.60303218401, -51917.268564375474, -40218.074943789834, -22702.93506418885, -120.16297819173077, -32146.055358178066, 0.756, -0.48, 0.51, 192.0, 0.0, 0.0, 0.0, 0.0, 0.0, 0.0, 0.0, 0.0, 0.0, 1.6635009674835815E9, 0.0, 2022-09-18 16:36:07.483
13.0, -23632.186488173782, -37059.795803999405, -85078.16017605785, -52121.63056393035, -40148.94099818957, -22658.00805783368, -2850.7861913187735, -32028.798106765524, 0.756, -0.48, 0.51, 192.0, 0.0, 0.0, 0.0, 0.0, 0.0, 0.0, 0.0, 0.0, 0.0, 1.663500967487508E9, 0.0, 2022-09-18 16:36:07.487
14.0, -23797.879969820973, -36976.75907334794, -85035.78126857059, -52240.586547921484, -40039.752726525396, -22574.971327182215, -4283.309493459403, -32054.457909400215, 0.762, -0.48, 0.512, 192.0, 23.0, 208.0, 241.0, 0.0, 16.0, 0.0, 0.0, 0.0, 0.0, 1.663500967491492E9, 0.0, 2022-09-18 16:36:07.491
15.0, -23880.380258605514, -37695.01002967478, -85124.42828708033, -52501.40905397046, -39989.86363290115, -22539.677922687286, -2351.2694062315713, -32185.640297608414, 0.762, -0.48, 0.512, 192.0, 0.0, 0.0, 0.0, 0.0, 0.0, 0.0, 0.0, 0.0, 0.0, 1.6635009674945188E9, 0.0, 2022-09-18 16:36:07.494
16.0, -23249.546974843382, -37489.105759752485, -85321.8388941096, -52013.38106553329, -40154.50658255894, -22732.774643036682, 242.0470407065202, -32157.83472750601, 0.762, -0.48, 0.512, 192.0, 0.0, 0.0, 0.0, 0.0, 0.0, 0.0, 0.0, 0.0, 0.0, 1.6635009674995391E9, 0.0, 2022-09-18 16:36:07.499
17.0, -23212.040747647377, -37222.44944840067, -85217.94798588133, -51906.94205843712, -40235.93398760963, -22719.385948107953, 5.543232624916151, -32182.488701640214, 0.762, -0.48, 0.512, 192.0, 0.0, 0.0, 0.0, 0.0, 0.0, 0.0, 0.0, 0.0, 0.0, 1.663500967503582E9, 0.0, 2022-09-18 16:36:07.503
18.0, -23601.899874436844, -37058.78997549891, -85095.25926056615, -52139.22138681667, -40179.42877762661, -22675.643584208916, -2702.102387202071, -32076.58613641097, 0.762, -0.48, 0.512, 192.0, 0.0, 0.0, 0.0, 0.0, 0.0, 0.0, 0.0, 0.0, 0.0, 1.6635009675075552E9, 0.0, 2022-09-18 16:36:07.507
19.0, -23783.194873713837, -36923.1148866552, -85023.06312597552, -52239.11133278744, -40063.84790704821, -22588.203559899757, -4278.794441079431, -32063.778586838078, 0.762, -0.48, 0.512, 192.0, 0.0, 0.0, 0.0, 0.0, 0.0, 0.0, 0.0, 0.0, 0.0, 1.6635009675115461E9, 0.0, 2022-09-18 16:36:07.511
20.0, -23918.154706734982, -37636.1802382684, -85055.92019032482, -52506.54995519519, -39970.17174603602, -22509.570122905985, -2475.902733314363, -32132.443145804784, 0.762, -0.48, 0.512, 192.0, 0.0, 0.0, 0.0, 0.0, 0.0, 0.0, 0.0, 0.0, 0.0, 1.6635009675155692E9, 0.0, 2022-09-18 16:36:07.515
21.0, -23316.199876809107, -37475.471195634746, -85250.46977406381, -52029.18374886319, -40109.736038414965, -22690.283976827144, 193.700217449691, -32074.06038928752, 0.762, -0.48, 0.512, 192.0, 0.0, 0.0, 0.0, 0.0, 0.0, 0.0, 0.0, 0.0, 0.0, 1.6635009675195796E9, 0.0, 2022-09-18 16:36:07.519
22.0, -23221.584942529793, -37176.829537967395, -85196.06562805959, -51883.2492093145, -40222.76881012545, -22711.249913126223, 127.67316432871394, -32139.394538330384, 0.762, -0.48, 0.512, 192.0, 0.0, 0.0, 0.0, 0.0, 0.0, 0.0, 0.0, 0.0, 0.0, 1.6635009675227118E9, 0.0, 2022-09-18 16:36:07.522
23.0, -23615.78030774359, -37024.23417857101, -85066.40315847435, -52123.5528139535, -40163.24611464097, -22656.48813921072, -2524.4954257602008, -32042.812650539003, 0.762, -0.48, 0.512, 192.0, 0.0, 0.0, 0.0, 0.0, 0.0, 0.0, 0.0, 0.0, 0.0, 1.663500967527614E9, 0.0, 2022-09-18 16:36:07.527
24.0, -23769.71677180729, -36840.63694961512, -85044.16317274132, -52210.07641674, -40052.470869120465, -22582.123885407913, -4262.500019371512, -32033.514324845593, 0.762, -0.48, 0.512, 192.0, 0.0, 0.0, 0.0, 0.0, 0.0, 0.0, 0.0, 0.0, 0.0, 1.66350096753158E9, 0.0, 2022-09-18 16:36:07.531
25.0, -23899.312186159157, -37546.68385346936, -85091.39240877538, -52500.604391170076, -39965.34376923368, -22511.380614206864, -2623.6030606750323, -32149.96691345774, 0.766, -0.482, 0.508, 192.0, 23.0, 240.0, 240.0, 240.0, 15.0, 224.0, 0.0, 0.0, 0.0, 1.663500967535639E9, 0.0, 2022-09-18 16:36:07.535
26.0, -23333.455423528605, -37460.853154760975, -85306.86322532455, -52077.19529595319, -40126.34338454525, -22709.908808458902, 86.83652720886793, -32138.679282507812, 0.766, -0.482, 0.508, 192.0, 0.0, 0.0, 0.0, 0.0, 0.0, 0.0, 0.0, 0.0, 0.0, 1.6635009675396075E9, 0.0, 2022-09-18 16:36:07.539
27.0, -23182.849369388747, -37127.38747923225, -85208.20262529881, -51875.87313364424, -40231.8436183743, -22723.096337687533, 219.78470322903433, -32180.052361494585, 0.766, -0.482, 0.508, 192.0, 0.0, 0.0, 0.0, 0.0, 0.0, 0.0, 0.0, 0.0, 0.0, 1.663500967543654E9, 0.0, 2022-09-18 16:36:07.543
28.0, -23596.222531345193, -36996.875643357715, -85047.51593440962, -52123.9551453537, -40168.85640249925, -22662.590165447018, -2364.5910459269344, -32069.657095629824, 0.766, -0.482, 0.508, 192.0, 0.0, 0.0, 0.0, 0.0, 0.0, 0.0, 0.0, 0.0, 0.0, 1.6635009675476186E9, 0.0, 2022-09-18 16:36:07.547
29.0, -23776.7128678218, -36790.501986801864, -85025.47711437668, -52208.10946322793, -40078.57770664427, -22605.347347896975, -4248.150199431205, -32043.572609850482, 0.766, -0.482, 0.508, 192.0, 0.0, 0.0, 0.0, 0.0, 0.0, 0.0, 0.0, 0.0, 0.0, 1.663500967550642E9, 0.0, 2022-09-18 16:36:07.550
30.0, -23929.330578962636, -37479.4945096367, -85046.33129195348, -52494.01062655576, -39961.09693778717, -22498.97539603417, -2746.8952830905064, -32129.157439369854, 0.766, -0.482, 0.508, 192.0, 0.0, 0.0, 0.0, 0.0, 0.0, 0.0, 0.0, 0.0, 0.0, 1.6635009675546548E9, 0.0, 2022-09-18 16:36:07.554
31.0, -23374.359115881816, -37447.375052854426, -85276.42014937641, -52092.394482182804, -40103.54460520084, -22680.985651133735, 15.042724018421653, -32086.666773160312, 0.766, -0.482, 0.508, 192.0, 0.0, 0.0, 0.0, 0.0, 0.0, 0.0, 0.0, 0.0, 0.0, 1.663500967559648E9, 0.0, 2022-09-18 16:36:07.559
32.0, -23164.72210463549, -37096.74323758403, -85250.58153278608, -51857.09766830179, -40236.02339458745, -22718.514230074197, 300.74272164615655, -32154.191393159796, 0.766, -0.482, 0.508, 192.0, 0.0, 0.0, 0.0, 0.0, 0.0, 0.0, 0.0, 0.0, 0.0, 1.6635009675637145E9, 0.0, 2022-09-18 16:36:07.563
33.0, -23569.53454846556, -36984.93981181858, -85099.21551933474, -52113.47217720416, -40181.52984160541, -22660.265584023666, -2222.8139308469213, -32069.858261329922, 0.766, -0.482, 0.508, 192.0, 0.0, 0.0, 0.0, 0.0, 0.0, 0.0, 0.0, 0.0, 0.0, 1.6635009675678082E9, 0.0, 2022-09-18 16:36:07.567
34.0, -23721.88403867293, -36735.963730330914, -85082.3846557599, -52178.04636693554, -40076.70016011002, -22600.98875772819, -4236.236719636527, -32025.266531141584, 0.766, -0.482, 0.508, 192.0, 0.0, 0.0, 0.0, 0.0, 0.0, 0.0, 0.0, 0.0, 0.0, 1.6635009675716822E9, 0.0, 2022-09-18 16:36:07.571
35.0, -23912.991453765804, -37422.43050604231, -85077.22140279072, -52493.40712945547, -39981.369970008134, -22516.052128798026, -2911.918212404038, -32151.8891634809, 0.764, -0.47800000000000004, 0.508, 192.0, 23.0, 224.0, 241.0, 16.0, 15.0, 224.0, 0.0, 0.0, 0.0, 1.6635009675756679E9, 0.0, 2022-09-18 16:36:07.575
36.0, -23398.409592915727, -37445.005767942166, -85229.07915462008, -52116.53436619454, -40080.52230841188, -22664.087732325523, -94.34671334585111, -32091.561805196026, 0.764, -0.47800000000000004, 0.508, 192.0, 0.0, 0.0, 0.0, 0.0, 0.0, 0.0, 0.0, 0.0, 0.0, 1.6635009675786712E9, 0.0, 2022-09-18 16:36:07.578
37.0, -23150.95343005102, -37070.85991750478, -85220.40667777142, -51834.008316279454, -40217.8961298342, -22718.000139951724, 374.25760915966146, -32134.298340594574, 0.764, -0.47800000000000004, 0.508, 192.0, 0.0, 0.0, 0.0, 0.0, 0.0, 0.0, 0.0, 0.0, 0.0, 1.6635009675827832E9, 0.0, 2022-09-18 16:36:07.582
38.0, -23559.543318694035, -36980.76003560544, -85072.59459168847, -52093.847345572394, -40170.30926588884, -22653.850633364993, -2069.033928994409, -32051.30631343202, 0.764, -0.47800000000000004, 0.508, 192.0, 0.0, 0.0, 0.0, 0.0, 0.0, 0.0, 0.0, 0.0, 0.0, 1.6635009675877604E9, 0.0, 2022-09-18 16:36:07.587
39.0, -23729.997721910207, -36708.582843373166, -85015.57529158298, -52154.73349746865, -40075.828442076265, -22596.764278026138, -4191.265009792449, -32008.972109433667, 0.764, -0.47800000000000004, 0.508, 192.0, 0.0, 0.0, 0.0, 0.0, 0.0, 0.0, 0.0, 0.0, 0.0, 1.6635009675916648E9, 0.0, 2022-09-18 16:36:07.591
40.0, -23921.418061425455, -37362.81840358, -85015.93291949427, -52466.24975994227, -39954.34671096167, -22474.54493934452, -3020.5253387123753, -32142.41202383185, 0.764, -0.47800000000000004, 0.508, 192.0, 0.0, 0.0, 0.0, 0.0, 0.0, 0.0, 0.0, 0.0, 0.0, 1.6635009675957026E9, 0.0, 2022-09-18 16:36:07.595
41.0, -23424.315264739427, -37456.29339889209, -85251.94498919786, -52146.08337236445, -40077.03543627685, -22647.905069339882, -201.47862452013786, -32099.78724715558, 0.764, -0.47800000000000004, 0.508, 192.0, 0.0, 0.0, 0.0, 0.0, 0.0, 0.0, 0.0, 0.0, 0.0, 1.6635009675996969E9, 0.0, 2022-09-18 16:36:07.599
42.0, -23128.847554784723, -37060.17578365514, -85255.34245435506, -51828.0851039988, -40231.642452674205, -22733.69106455935, 432.79682788811067, -32138.947503441275, 0.764, -0.47800000000000004, 0.508, 192.0, 0.0, 0.0, 0.0, 0.0, 0.0, 0.0, 0.0, 0.0, 0.0, 1.6635009676027272E9, 0.0, 2022-09-18 16:36:07.602
43.0, -23534.88934455983, -36976.84848032576, -85090.61009771944, -52087.20887746917, -40172.432681612096, -22651.615458919463, -1915.8350724977342, -32073.278078231586, 0.764, -0.47800000000000004, 0.508, 192.0, 0.0, 0.0, 0.0, 0.0, 0.0, 0.0, 0.0, 0.0, 0.0, 1.663500967606734E9, 0.0, 2022-09-18 16:36:07.606
44.0, -23696.514808716158, -36672.3059621222, -85039.15638198332, -52143.356459540904, -40081.50578516791, -22605.347347896975, -4145.198064470061, -32012.52603680206, 0.764, -0.47800000000000004, 0.508, 192.0, 0.0, 0.0, 0.0, 0.0, 0.0, 0.0, 0.0, 0.0, 0.0, 1.6635009676107237E9, 0.0, 2022-09-18 16:36:07.610
45.0, -23914.623131111042, -37299.47355979366, -85036.45182090424, -52461.444134884376, -39971.08816755869, -22495.399116921322, -3155.6639856891616, -32122.854247433457, 0.762, -0.47800000000000004, 0.508, 192.0, 23.0, 208.0, 241.0, 16.0, 15.0, 224.0, 0.0, 0.0, 0.0, 1.6635009676157405E9, 0.0, 2022-09-18 16:36:07.615
46.0, -23481.781599734022, -37457.858021003965, -85254.26957062121, -52186.94236122875, -40086.579631159264, -22660.95848810178, -324.6590882133351, -32105.73281118069, 0.762, -0.47800000000000004, 0.508, 192.0, 0.0, 0.0, 0.0, 0.0, 0.0, 0.0, 0.0, 0.0, 0.0, 1.6635009676197312E9, 0.0, 2022-09-18 16:36:07.619
47.0, -23125.785365794345, -37025.21765532704, -85258.31523636762, -51816.797473048864, -40231.06130731837, -22732.841698270047, 500.79083452115475, -32145.31775061104, 0.762, -0.47800000000000004, 0.508, 192.0, 0.0, 0.0, 0.0, 0.0, 0.0, 0.0, 0.0, 0.0, 0.0, 1.6635009676238227E9, 0.0, 2022-09-18 16:36:07.623
48.0, -23529.99431252412, -36953.49090736996, -85096.89093791139, -52084.05728150097, -40181.440434627584, -22653.045970564603, -1759.7751927107804, -32093.774627897103, 0.762, -0.47800000000000004, 0.508, 192.0, 0.0, 0.0, 0.0, 0.0, 0.0, 0.0, 0.0, 0.0, 0.0, 1.6635009676267793E9, 0.0, 2022-09-18 16:36:07.626
49.0, -23679.01339280765, -36613.09619106009, -85053.10387052344, -52128.09021807793, -40081.975171801474, -22606.643749075385, -4075.9747118919745, -32013.263644369086, 0.762, -0.47800000000000004, 0.508, 192.0, 0.0, 0.0, 0.0, 0.0, 0.0, 0.0, 0.0, 0.0, 0.0, 1.6635009676307733E9, 0.0, 2022-09-18 16:36:07.630
50.0, -23805.70308038033, -37107.67324062267, -85078.36134175795, -52362.582369158554, -39987.471996244436, -22528.926733604283, -3073.051938182347, -32127.54811376907, 0.762, -0.47800000000000004, 0.508, 192.0, 0.0, 0.0, 0.0, 0.0, 0.0, 0.0, 0.0, 0.0, 0.0, 1.6635009676347897E9, 0.0, 2022-09-18 16:36:07.634
51.0, -23418.97319781461, -37311.185873888244, -85224.56410224011, -52130.16893031227, -40073.41445367509, -22634.62813313343, -218.51065379508185, -32096.479188976195, 0.762, -0.47800000000000004, 0.508, 192.0, 0.0, 0.0, 0.0, 0.0, 0.0, 0.0, 0.0, 0.0, 0.0, 1.663500967638801E9, 0.0, 2022-09-18 16:36:07.638
52.0, -23122.589066337237, -36969.11477674422, -85256.63885553347, -51821.24547019547, -40216.86794958925, -22720.4141283529, 553.1162682910285, -32131.996110915676, 0.762, -0.47800000000000004, 0.508, 192.0, 0.0, 0.0, 0.0, 0.0, 0.0, 0.0, 0.0, 0.0, 0.0, 1.6635009676437979E9, 0.0, 2022-09-18 16:36:07.643
53.0, -23479.50172179958, -36877.36086575519, -85118.37096433293, -52052.51897007453, -40182.781539294905, -22645.602839660984, -1547.3218616630868, -32102.424753001305, 0.762, -0.47800000000000004, 0.508, 192.0, 0.0, 0.0, 0.0, 0.0, 0.0, 0.0, 0.0, 0.0, 0.0, 1.6635009676478205E9, 0.0, 2022-09-18 16:36:07.647
54.0, -23689.205788279272, -36590.34211520459, -85052.76859435662, -52158.33212832596, -40086.89255558164, -22606.241417675188, -4092.8055754668208, -32007.96628093318, 0.762, -0.47800000000000004, 0.508, 192.0, 0.0, 0.0, 0.0, 0.0, 0.0, 0.0, 0.0, 0.0, 0.0, 1.6635009676518133E9, 0.0, 2022-09-18 16:36:07.651
55.0, -23849.758368701743, -37068.177708170144, -85017.56459683951, -52394.32184628509, -39964.13677503309, -22510.12891651737, -3304.4595485281407, -32105.039907102575, 0.762, -0.47800000000000004, 0.506, 192.0, 23.0, 208.0, 241.0, 16.0, 15.0, 208.0, 0.0, 0.0, 0.0, 1.6635009676558235E9, 0.0, 2022-09-18 16:36:07.655
56.0, -23494.387983606815, -37327.23442640715, -85217.8138754146, -52189.848088007944, -40043.373709127154, -22620.747699826683, -426.78420862963304, -32095.987450598175, 0.762, -0.47800000000000004, 0.506, 192.0, 0.0, 0.0, 0.0, 0.0, 0.0, 0.0, 0.0, 0.0, 0.0, 1.6635009676588597E9, 0.0, 2022-09-18 16:36:07.658
57.0, -23138.72702583397, -36961.38107316269, -85247.00525367323, -51837.294022714384, -40183.76501605094, -22701.370442076975, 526.8082650671322, -32120.484962521194, 0.762, -0.47800000000000004, 0.506, 192.0, 0.0, 0.0, 0.0, 0.0, 0.0, 0.0, 0.0, 0.0, 0.0, 1.663500967662841E9, 0.0, 2022-09-18 16:36:07.662
58.0, -23528.496745645614, -36926.55705530132, -85061.39636771636, -52100.93284856473, -40149.924474945605, -22633.42113893284, -1542.9409197498464, -32091.15947379583, 0.762, -0.47800000000000004, 0.506, 192.0, 0.0, 0.0, 0.0, 0.0, 0.0, 0.0, 0.0, 0.0, 0.0, 1.6635009676668782E9, 0.0, 2022-09-18 16:36:07.666
59.0, -23706.863666398964, -36584.687123857395, -85044.76666984161, -52156.25341609161, -40082.399854946125, -22612.634016589407, -4037.976746317953, -32004.0547256535, 0.762, -0.47800000000000004, 0.506, 192.0, 0.0, 0.0, 0.0, 0.0, 0.0, 0.0, 0.0, 0.0, 0.0, 1.6635009676718748E9, 0.0, 2022-09-18 16:36:07.671
60.0, -23914.421965410944, -37085.76853105647, -85054.93671356878, -52458.44900112737, -39977.77133915083, -22509.011329294604, -3578.8719152059457, -32134.34304408348, 0.762, -0.47800000000000004, 0.506, 192.0, 0.0, 0.0, 0.0, 0.0, 0.0, 0.0, 0.0, 0.0, 0.0, 1.6635009676759417E9, 0.0, 2022-09-18 16:36:07.675
61.0, -23591.19338884275, -37430.16420962384, -85212.38240151196, -52316.69423779181, -40045.273607405856, -22619.496002137184, -754.125506177605, -32129.26919809213, 0.762, -0.47800000000000004, 0.506, 192.0, 0.0, 0.0, 0.0, 0.0, 0.0, 0.0, 0.0, 0.0, 0.0, 1.66350096767991E9, 0.0, 2022-09-18 16:36:07.679
62.0, -23098.33742360323, -36969.76297733343, -85283.12567271301, -51844.96067106255, -40207.30140296238, -22729.287770901654, 566.8178876421318, -32131.571427771025, 0.762, -0.47800000000000004, 0.506, 192.0, 0.0, 0.0, 0.0, 0.0, 0.0, 0.0, 0.0, 0.0, 0.0, 1.6635009676828983E9, 0.0, 2022-09-18 16:36:07.682
63.0, -23473.846730452387, -36910.21793010449, -85079.61303944743, -52083.587894867414, -40188.90591727566, -22658.253927022688, -1339.4059347398204, -32113.60062522896, 0.762, -0.47800000000000004, 0.506, 192.0, 0.0, 0.0, 0.0, 0.0, 0.0, 0.0, 0.0, 0.0, 0.0, 1.6635009676869223E9, 0.0, 2022-09-18 16:36:07.686
64.0, -23689.272843512637, -36561.28484741269, -85021.52085560809, -52146.08337236445, -40105.2656895239, -22628.14612724139, -3902.2569539853284, -32000.500798285106, 0.762, -0.47800000000000004, 0.506, 192.0, 0.0, 0.0, 0.0, 0.0, 0.0, 0.0, 0.0, 0.0, 0.0, 1.6635009676909356E9, 0.0, 2022-09-18 16:36:07.690
65.0, -23912.16443922096, -37007.917405118635, -85012.11077119241, -52427.76005599023, -39972.09399605918, -22496.002614021614, -3625.9670407732774, -32090.64538367336, 0.762, -0.47600000000000003, 0.512, 192.0, 23.0, 208.0, 241.0, 32.0, 16.0, 0.0, 0.0, 0.0, 0.0, 1.6635009676949265E9, 0.0, 2022-09-18 16:36:07.694
66.0, -23616.38380484388, -37404.83968315598, -85212.20358755632, -52323.869147761965, -40018.47386580394, -22583.91202496434, -845.2535683218919, -32100.413096000328, 0.762, -0.47600000000000003, 0.512, 192.0, 0.0, 0.0, 0.0, 0.0, 0.0, 0.0, 0.0, 0.0, 0.0, 1.663500967698874E9, 0.0, 2022-09-18 16:36:07.698
67.0, -23091.833065966734, -36946.24894216644, -85292.26753619523, -51836.57876689181, -40210.58710939731, -22735.21098318231, 624.5524435701899, -32136.82408771802, 0.762, -0.47600000000000003, 0.512, 192.0, 0.0, 0.0, 0.0, 0.0, 0.0, 0.0, 0.0, 0.0, 0.0, 1.6635009677039332E9, 0.0, 2022-09-18 16:36:07.703
68.0, -23460.88271866831, -36892.60475547371, -85066.04553056306, -52062.10786844586, -40184.323809662324, -22651.43664496382, -1160.3237581639003, -32100.167226811318, 0.762, -0.47600000000000003, 0.512, 192.0, 0.0, 0.0, 0.0, 0.0, 0.0, 0.0, 0.0, 0.0, 0.0, 1.6635009677079518E9, 0.0, 2022-09-18 16:36:07.707
69.0, -23682.321450987038, -36551.71830078582, -84996.4645500737, -52132.42645650226, -40091.31820098379, -22615.875019535426, -3795.03563583322, -31973.27637353854, 0.762, -0.47600000000000003, 0.512, 192.0, 0.0, 0.0, 0.0, 0.0, 0.0, 0.0, 0.0, 0.0, 0.0, 1.663500967710992E9, 0.0, 2022-09-18 16:36:07.710
70.0, -23916.165401478458, -36965.918477287116, -84979.70074173222, -52411.97972440478, -39967.400129723566, -22496.40494542181, -3717.855062229045, -32086.957345838233, 0.762, -0.47600000000000003, 0.512, 192.0, 0.0, 0.0, 0.0, 0.0, 0.0, 0.0, 0.0, 0.0, 0.0, 1.6635009677148917E9, 0.0, 2022-09-18 16:36:07.714
71.0, -23693.542026703602, -37442.345910351985, -85178.07247377306, -52372.2606745077, -40022.4971798059, -22593.836199502493, -989.4223200586224, -32123.904779422854, 0.762, -0.47600000000000003, 0.512, 192.0, 0.0, 0.0, 0.0, 0.0, 0.0, 0.0, 0.0, 0.0, 0.0, 1.6635009677190123E9, 0.0, 2022-09-18 16:36:07.719
72.0, -23122.09732795922, -36979.329523960296, -85299.50950139874, -51845.340650718295, -40194.27033594494, -22728.237238912254, 639.7069263108881, -32124.12829686741, 0.762, -0.47600000000000003, 0.512, 192.0, 0.0, 0.0, 0.0, 0.0, 0.0, 0.0, 0.0, 0.0, 0.0, 1.6635009677229943E9, 0.0, 2022-09-18 16:36:07.722
73.0, -23427.01982581852, -36907.84864519223, -85123.17658939083, -52039.97964143511, -40188.011847497444, -22646.362798972466, -1005.3144103663458, -32121.893122421876, 0.762, -0.47600000000000003, 0.512, 192.0, 0.0, 0.0, 0.0, 0.0, 0.0, 0.0, 0.0, 0.0, 0.0, 1.6635009677270043E9, 0.0, 2022-09-18 16:36:07.727
74.0, -23657.779235575108, -36572.12544347352, -85026.52764636608, -52120.08829356293, -40105.377448246174, -22614.176286956823, -3692.307018316629, -31985.39101903332, 0.762, -0.47600000000000003, 0.512, 192.0, 0.0, 0.0, 0.0, 0.0, 0.0, 0.0, 0.0, 0.0, 0.0, 1.6635009677309933E9, 0.0, 2022-09-18 16:36:07.730
75.0, -23886.39287786399, -36925.014784933905, -84980.39364581033, -52376.19458153184, -39968.00362682386, -22488.626538351364, -3794.365083499561, -32074.328610220986, 0.766, -0.47600000000000003, 0.508, 192.0, 23.0, 240.0, 241.0, 32.0, 15.0, 224.0, 0.0, 0.0, 0.0, 1.6635009677360444E9, 0.0, 2022-09-18 16:36:07.736
76.0, -23697.140657560907, -37448.291474377096, -85150.78099379313, -52374.18292453086, -39995.02688587033, -22559.168643852314, -1116.9613739206045, -32102.827084401502, 0.766, -0.47600000000000003, 0.508, 192.0, 0.0, 0.0, 0.0, 0.0, 0.0, 0.0, 0.0, 0.0, 0.0, 1.6635009677390375E9, 0.0, 2022-09-18 16:36:07.739
77.0, -23119.973912235968, -37008.56560570784, -85284.17620470241, -51848.91692983114, -40190.31407717634, -22722.78341326516, 638.4328768769357, -32113.84649441797, 0.766, -0.47600000000000003, 0.508, 192.0, 0.0, 0.0, 0.0, 0.0, 0.0, 0.0, 0.0, 0.0, 0.0, 1.6635009677429953E9, 0.0, 2022-09-18 16:36:07.742
78.0, -23411.664177377723, -36931.07210768129, -85101.584804247, -52027.19444360667, -40184.56967885133, -22640.66310413636, -866.6888912545313, -32126.877561435413, 0.766, -0.47600000000000003, 0.508, 192.0, 0.0, 0.0, 0.0, 0.0, 0.0, 0.0, 0.0, 0.0, 0.0, 1.6635009677469883E9, 0.0, 2022-09-18 16:36:07.746
79.0, -23638.91436325483, -36595.728885618315, -85017.74341079514, -52116.579069683445, -40091.51936668389, -22602.776897284617, -3587.6561507768815, -31980.250117808595, 0.766, -0.47600000000000003, 0.508, 192.0, 0.0, 0.0, 0.0, 0.0, 0.0, 0.0, 0.0, 0.0, 0.0, 1.6635009677509747E9, 0.0, 2022-09-18 16:36:07.750
80.0, -23861.090703140584, -36896.8068834313, -84969.5083462606, -52370.22666576227, -39974.35152224917, -22503.98218679216, -3883.168564220496, -32085.705648148734, 0.766, -0.47600000000000003, 0.508, 192.0, 0.0, 0.0, 0.0, 0.0, 0.0, 0.0, 0.0, 0.0, 0.0, 1.6635009677551205E9, 0.0, 2022-09-18 16:36:07.755
81.0, -23728.99189340972, -37464.58589608502, -85085.78212091711, -52411.57739300459, -39975.67027517203, -22548.596268724952, -1259.7666692455614, -32117.91451190883, 0.766, -0.47600000000000003, 0.508, 192.0, 0.0, 0.0, 0.0, 0.0, 0.0, 0.0, 0.0, 0.0, 0.0, 1.6635009677600863E9, 0.0, 2022-09-18 16:36:07.760
82.0, -23126.76884255038, -37041.33326307932, -85256.72826251129, -51879.33765403482, -40175.67368455812, -22722.358730120508, 630.0509727061955, -32126.877561435413, 0.766, -0.47600000000000003, 0.508, 192.0, 0.0, 0.0, 0.0, 0.0, 0.0, 0.0, 0.0, 0.0, 0.0, 1.66350096776408E9, 0.0, 2022-09-18 16:36:07.764
83.0, -23375.543758337946, -36947.29947415584, -85109.1396938729, -52035.3304785884, -40204.50743490546, -22662.612517191472, -728.3762965650913, -32159.93579148481, 0.766, -0.47600000000000003, 0.508, 192.0, 0.0, 0.0, 0.0, 0.0, 0.0, 0.0, 0.0, 0.0, 0.0, 1.6635009677681265E9, 0.0, 2022-09-18 16:36:07.768
84.0, -23646.625715091912, -36634.039775614714, -85020.44797187424, -52148.385602043345, -40128.109172357224, -22639.61257214696, -3471.5388383315612, -32036.218885924685, 0.766, -0.47600000000000003, 0.508, 192.0, 0.0, 0.0, 0.0, 0.0, 0.0, 0.0, 0.0, 0.0, 0.0, 1.6635009677710476E9, 0.0, 2022-09-18 16:36:07.771
85.0, -23847.63495297849, -36856.19376375601, -84968.72603520466, -52358.64846213442, -39974.798557138274, -22490.951119774716, -3903.5310034192808, -32078.709552134223, 0.758, -0.48, 0.508, 192.0, 23.0, 176.0, 241.0, 0.0, 15.0, 224.0, 0.0, 0.0, 0.0, 1.663500967775119E9, 0.0, 2022-09-18 16:36:07.775
86.0, -23747.70030351881, -37460.20495417177, -85093.47112100973, -52440.63466079649, -39977.05608332826, -22527.22800102568, -1339.8529696289265, -32112.997128128667, 0.758, -0.48, 0.508, 192.0, 0.0, 0.0, 0.0, 0.0, 0.0, 0.0, 0.0, 0.0, 0.0, 1.6635009677791116E9, 0.0, 2022-09-18 16:36:07.779
87.0, -23139.174060723075, -37040.215675856554, -85238.60099775804, -51891.206430340586, -40166.68828328708, -22708.523000302674, 710.5619562342115, -32124.64238698988, 0.758, -0.48, 0.508, 192.0, 0.0, 0.0, 0.0, 0.0, 0.0, 0.0, 0.0, 0.0, 0.0, 1.6635009677831352E9, 0.0, 2022-09-18 16:36:07.783
88.0, -23346.888821946242, -36908.720363225984, -85060.09996653795, -52002.02637935, -40172.47738510101, -22627.699092352283, -474.54988653062424, -32130.431488803806, 0.758, -0.48, 0.508, 192.0, 0.0, 0.0, 0.0, 0.0, 0.0, 0.0, 0.0, 0.0, 0.0, 1.663500967787073E9, 0.0, 2022-09-18 16:36:07.787
89.0, -23625.81624100402, -36607.82117936864, -84989.69197150374, -52130.23598554564, -40108.216119792, -22613.416327645344, -3249.496608912541, -31983.08878935442, 0.758, -0.48, 0.508, 192.0, 0.0, 0.0, 0.0, 0.0, 0.0, 0.0, 0.0, 0.0, 0.0, 1.6635009677920892E9, 0.0, 2022-09-18 16:36:07.792
90.0, -23846.20444133335, -36787.03746641129, -84951.87281988536, -52343.31516543808, -39987.807272411264, -22509.726585117172, -3892.846869569644, -32068.695970618246, 0.758, -0.48, 0.508, 192.0, 0.0, 0.0, 0.0, 0.0, 0.0, 0.0, 0.0, 0.0, 0.0, 1.663500967795062E9, 0.0, 2022-09-18 16:36:07.795
91.0, -23781.764362068698, -37429.29249159009, -85078.71896966922, -52464.99806225277, -39963.86855409963, -22514.867486341893, -1434.4008486748755, -32122.094288121974, 0.758, -0.48, 0.508, 192.0, 0.0, 0.0, 0.0, 0.0, 0.0, 0.0, 0.0, 0.0, 0.0, 1.6635009677991467E9, 0.0, 2022-09-18 16:36:07.799
92.0, -23143.085616002754, -37038.896922933694, -85234.2200558448, -51917.55913705339, -40156.11590815972, -22700.990462421236, 715.5687469922003, -32119.993224143178, 0.758, -0.48, 0.508, 192.0, 0.0, 0.0, 0.0, 0.0, 0.0, 0.0, 0.0, 0.0, 0.0, 1.6635009678031547E9, 0.0, 2022-09-18 16:36:07.803
93.0, -23322.23484781204, -36902.417171289584, -85096.19803383328, -52009.201289320146, -40193.063341744346, -22651.168424030355, -331.0963906164635, -32164.875527009433, 0.758, -0.48, 0.508, 192.0, 0.0, 0.0, 0.0, 0.0, 0.0, 0.0, 0.0, 0.0, 0.0, 1.6635009678071308E9, 0.0, 2022-09-18 16:36:07.807
94.0, -23618.686034522776, -36616.76187715076, -84989.80373022602, -52156.767506214084, -40132.80303869284, -22641.95950531477, -3113.6650578576396, -32050.881630287367, 0.758, -0.48, 0.508, 192.0, 0.0, 0.0, 0.0, 0.0, 0.0, 0.0, 0.0, 0.0, 0.0, 1.663500967811129E9, 0.0, 2022-09-18 16:36:07.811
95.0, -23831.96638011532, -36733.90736984103, -84954.57738096445, -52348.813694574084, -40005.80042669779, -22529.373768493388, -3938.645593958568, -32107.92328213731, 0.752, -0.486, 0.508, 192.0, 23.0, 128.0, 240.0, 208.0, 15.0, 224.0, 0.0, 0.0, 0.0, 1.663500967815158E9, 0.0, 2022-09-18 16:36:07.815
96.0, -23803.445554190344, -37403.051543599555, -85047.0241960316, -52504.00185632728, -39968.62947566861, -22511.872352584884, -1576.7144056218156, -32147.97760820122, 0.752, -0.486, 0.508, 192.0, 0.0, 0.0, 0.0, 0.0, 0.0, 0.0, 0.0, 0.0, 0.0, 1.6635009678201203E9, 0.0, 2022-09-18 16:36:07.820
97.0, -23161.72697087848, -37042.495553791, -85208.78377065466, -51954.70773633811, -40156.60764653774, -22695.715450729782, 684.9915605773402, -32108.660889704337, 0.752, -0.486, 0.508, 192.0, 0.0, 0.0, 0.0, 0.0, 0.0, 0.0, 0.0, 0.0, 0.0, 1.6635009678231246E9, 0.0, 2022-09-18 16:36:07.823
98.0, -23298.676109156146, -36887.28504029334, -85068.8842021089, -52008.24016430857, -40208.03901052941, -22650.00613331868, -210.4193223022607, -32160.51693684065, 0.752, -0.486, 0.508, 192.0, 0.0, 0.0, 0.0, 0.0, 0.0, 0.0, 0.0, 0.0, 0.0, 1.6635009678261707E9, 0.0, 2022-09-18 16:36:07.826
99.0, -23615.825011232497, -36630.3964412685, -84984.77458772357, -52173.978349444675, -40145.40942256563, -22626.4920981517, -3011.7187513969843, -32037.358824891908, 0.752, -0.486, 0.508, 192.0, 0.0, 0.0, 0.0, 0.0, 0.0, 0.0, 0.0, 0.0, 0.0, 1.6635009678311217E9, 0.0, 2022-09-18 16:36:07.831
100.0, -23810.79927811614, -36697.49637812333, -84952.78924140803, -52340.76706657017, -40034.27654913384, -22535.60990519642, -4021.6599728655788, -32064.44913917174, 0.752, -0.486, 0.508, 192.0, 0.0, 0.0, 0.0, 0.0, 0.0, 0.0, 0.0, 0.0, 0.0, 1.6635009678351853E9, 0.0, 2022-09-18 16:36:07.835
101.0, -23816.610731674522, -37388.16528179232, -85029.74629756765, -52513.456644231876, -39973.30099025977, -22500.763535590595, -1762.3009398342301, -32112.125410094908, 0.752, -0.486, 0.508, 192.0, 0.0, 0.0, 0.0, 0.0, 0.0, 0.0, 0.0, 0.0, 0.0, 1.66350096783917E9, 0.0, 2022-09-18 16:36:07.839
102.0, -23158.933002821566, -37070.68110354914, -85214.99755561323, -51973.43849819166, -40150.19269587907, -22686.774752947662, 590.2872193202043, -32099.40726749984, 0.752, -0.486, 0.508, 192.0, 0.0, 0.0, 0.0, 0.0, 0.0, 0.0, 0.0, 0.0, 0.0, 1.6635009678432484E9, 0.0, 2022-09-18 16:36:07.843
103.0, -23264.299126183883, -36890.97307812847, -85067.6772079083, -51984.7708326305, -40214.63277514372, -22662.411351491377, -117.32430664590677, -32157.16417517235, 0.752, -0.486, 0.508, 192.0, 0.0, 0.0, 0.0, 0.0, 0.0, 0.0, 0.0, 0.0, 0.0, 1.6635009678481684E9, 0.0, 2022-09-18 16:36:07.848
104.0, -23609.901798951843, -36654.335159580136, -84956.81255540998, -52159.159142870805, -40140.44733529656, -22628.839031319505, -2883.956180090449, -32036.7106243027, 0.752, -0.486, 0.508, 192.0, 0.0, 0.0, 0.0, 0.0, 0.0, 0.0, 0.0, 0.0, 0.0, 1.6635009678518732E9, 0.0, 2022-09-18 16:36:07.851
105.0, -23800.629234388976, -36662.985284684335, -84906.00704026307, -52309.76519701066, -40016.79748496979, -22526.80331788103, -4052.3042145138047, -32081.59292716896, 0.764, -0.486, 0.508, 192.0, 23.0, 224.0, 240.0, 208.0, 15.0, 224.0, 0.0, 0.0, 0.0, 1.663500967854195E9, 0.0, 2022-09-18 16:36:07.854
106.0, -23840.86237440853, -37381.996200322654, -85003.39359085484, -52527.80646417219, -39960.76166162034, -22493.230997709157, -1920.1936626665192, -32140.780346486612, 0.764, -0.486, 0.508, 192.0, 0.0, 0.0, 0.0, 0.0, 0.0, 0.0, 0.0, 0.0, 0.0, 1.6635009678592367E9, 0.0, 2022-09-18 16:36:07.859
107.0, -23206.49751502246, -37112.076534280364, -85212.15888406741, -52001.26642003852, -40138.86036144023, -22693.2567588397, 528.7305150902886, -32090.175997039798, 0.764, -0.486, 0.508, 192.0, 0.0, 0.0, 0.0, 0.0, 0.0, 0.0, 0.0, 0.0, 0.0, 1.663500967863177E9, 0.0, 2022-09-18 16:36:07.863
108.0, -23236.11357642574, -36897.119807853676, -85088.86666165193, -51958.06049800641, -40205.2897459614, -22659.684438667828, -4.738569824525097, -32131.32555858202, 0.764, -0.486, 0.508, 192.0, 0.0, 0.0, 0.0, 0.0, 0.0, 0.0, 0.0, 0.0, 0.0, 1.663500967867179E9, 0.0, 2022-09-18 16:36:07.867
109.0, -23583.593795727946, -36685.47113960638, -84954.26445654208, -52149.05615437701, -40137.94393991756, -22618.490173636696, -2756.797105884207, -32021.645548539826, 0.764, -0.486, 0.508, 192.0, 0.0, 0.0, 0.0, 0.0, 0.0, 0.0, 0.0, 0.0, 0.0, 1.663500967871208E9, 0.0, 2022-09-18 16:36:07.871
110.0, -23757.31155363459, -36632.87748490304, -84914.38894443381, -52268.86150465745, -40016.126932636136, -22526.289227758556, -4078.7910316933435, -32056.849546056936, 0.764, -0.486, 0.508, 192.0, 0.0, 0.0, 0.0, 0.0, 0.0, 0.0, 0.0, 0.0, 0.0, 1.6635009678752677E9, 0.0, 2022-09-18 16:36:07.875
111.0, -23850.317162313124, -37358.32570294449, -84984.86399470139, -52521.39151351351, -39962.505097687856, -22499.84711406793, -2067.156382460163, -32183.47217839625, 0.764, -0.486, 0.508, 192.0, 0.0, 0.0, 0.0, 0.0, 0.0, 0.0, 0.0, 0.0, 0.0, 1.6635009678782177E9, 0.0, 2022-09-18 16:36:07.878
112.0, -23231.30795136785, -37123.54297918594, -85192.89168034693, -52025.51806277252, -40136.356966061234, -22694.620215251474, 469.6325027504567, -32144.088404665996, 0.764, -0.486, 0.508, 192.0, 0.0, 0.0, 0.0, 0.0, 0.0, 0.0, 0.0, 0.0, 0.0, 1.6635009678822525E9, 0.0, 2022-09-18 16:36:07.882
113.0, -23207.436288289584, -36868.57663018425, -85109.83259795101, -51945.14118971124, -40211.458827431066, -22673.58722371903, 108.58477456388171, -32152.000922203177, 0.764, -0.486, 0.508, 192.0, 0.0, 0.0, 0.0, 0.0, 0.0, 0.0, 0.0, 0.0, 0.0, 1.663500967887238E9, 0.0, 2022-09-18 16:36:07.887
114.0, -23550.33439997845, -36670.24960163231, -84992.66475351629, -52152.878302678866, -40143.10719288674, -22633.91287731086, -2618.417455961401, -32024.283054385553, 0.764, -0.486, 0.508, 192.0, 0.0, 0.0, 0.0, 0.0, 0.0, 0.0, 0.0, 0.0, 0.0, 1.663500967891288E9, 0.0, 2022-09-18 16:36:07.891
115.0, -23738.871364458962, -36563.922353258415, -84899.03329599301, -52258.62440569692, -40026.85576997468, -22550.518518748107, -4085.831831196765, -32027.389946864838, 0.764, -0.47800000000000004, 0.508, 192.0, 23.0, 224.0, 241.0, 16.0, 15.0, 224.0, 0.0, 0.0, 0.0, 1.663500967895244E9, 0.0, 2022-09-18 16:36:07.895
116.0, -23864.19759561987, -37276.40655951578, -84932.22563650915, -52510.99795234179, -39935.68300434149, -22475.17078818927, -2180.569133826391, -32121.289625321584, 0.764, -0.47800000000000004, 0.508, 192.0, 0.0, 0.0, 0.0, 0.0, 0.0, 0.0, 0.0, 0.0, 0.0, 1.6635009678993473E9, 0.0, 2022-09-18 16:36:07.899
117.0, -23254.687876068103, -37076.13492919623, -85132.45256333979, -52022.835853437886, -40095.22975626347, -22665.92057537086, 447.2807582951496, -32098.73671516618, 0.764, -0.47800000000000004, 0.508, 192.0, 0.0, 0.0, 0.0, 0.0, 0.0, 0.0, 0.0, 0.0, 0.0, 1.6635009679033382E9, 0.0, 2022-09-18 16:36:07.903
118.0, -23204.552913254847, -36801.32023111823, -85090.76655993063, -51916.26273587498, -40220.66774614665, -22693.07794488406, 254.18403794575192, -32184.410951663373, 0.764, -0.47800000000000004, 0.508, 192.0, 0.0, 0.0, 0.0, 0.0, 0.0, 0.0, 0.0, 0.0, 0.0, 1.6635009679062529E9, 0.0, 2022-09-18 16:36:07.906
119.0, -23570.786246155054, -36620.2934527747, -84952.56572396347, -52134.86279664789, -40144.73887023197, -22628.66021736386, -2420.269241365104, -32056.58132512347, 0.764, -0.47800000000000004, 0.508, 192.0, 0.0, 0.0, 0.0, 0.0, 0.0, 0.0, 0.0, 0.0, 0.0, 1.6635009679102716E9, 0.0, 2022-09-18 16:36:07.910
120.0, -23731.204716110795, -36469.15095676792, -84907.30344144147, -52231.48938792818, -40038.25515964689, -22555.413550783822, -4047.051554566807, -32063.06333101551, 0.764, -0.47800000000000004, 0.508, 192.0, 0.0, 0.0, 0.0, 0.0, 0.0, 0.0, 0.0, 0.0, 0.0, 1.6635009679153323E9, 0.0, 2022-09-18 16:36:07.915
121.0, -23850.898307668962, -37179.958782191134, -84957.12547983235, -52508.136929051514, -39943.7296323454, -22472.645041065818, -2296.6417427828005, -32153.207916403764, 0.764, -0.47800000000000004, 0.508, 192.0, 0.0, 0.0, 0.0, 0.0, 0.0, 0.0, 0.0, 0.0, 0.0, 1.6635009679192543E9, 0.0, 2022-09-18 16:36:07.919
122.0, -23260.812254048855, -37046.13888813721, -85186.58848841053, -52061.4373161122, -40108.193768047546, -22669.899185883904, 372.62593181442406, -32127.078727135508, 0.764, -0.47800000000000004, 0.508, 192.0, 0.0, 0.0, 0.0, 0.0, 0.0, 0.0, 0.0, 0.0, 0.0, 1.6635009679233496E9, 0.0, 2022-09-18 16:36:07.923
123.0, -23146.147804993132, -36730.375794217085, -85085.42449300582, -51892.45812803008, -40202.27226045993, -22681.656203467395, 373.85527775946593, -32165.769596787646, 0.764, -0.47800000000000004, 0.508, 192.0, 0.0, 0.0, 0.0, 0.0, 0.0, 0.0, 0.0, 0.0, 0.0, 1.6635009679272892E9, 0.0, 2022-09-18 16:36:07.927
124.0, -23543.159490008296, -36577.86984179853, -84925.52011317255, -52122.74815115311, -40133.56299800432, -22621.619417860442, -2242.282300267494, -32044.846659284434, 0.764, -0.47800000000000004, 0.508, 192.0, 0.0, 0.0, 0.0, 0.0, 0.0, 0.0, 0.0, 0.0, 0.0, 1.66350096793032E9, 0.0, 2022-09-18 16:36:07.930
125.0, -23726.75671896419, -36398.29592684459, -84895.92640351373, -52212.26688769661, -40043.7536887829, -22568.93635617928, -4018.3742664306483, -32060.314066447507, 0.764, -0.47800000000000004, 0.508, 192.0, 0.0, 0.0, 0.0, 0.0, 0.0, 0.0, 0.0, 0.0, 0.0, 1.6635009679343371E9, 0.0, 2022-09-18 16:36:07.934
126.0, -23884.425924351923, -37109.975470301564, -84923.06142128247, -52502.95132433788, -39931.86085603963, -22469.716962542174, -2421.409180332325, -32137.74050924069, 0.764, -0.47800000000000004, 0.516, 192.0, 23.0, 224.0, 241.0, 16.0, 16.0, 32.0, 0.0, 0.0, 0.0, 1.663500967938318E9, 0.0, 2022-09-18 16:36:07.938
127.0, -23316.04341459792, -37036.438231043605, -85139.2921971431, -52081.21860995515, -40081.63989563464, -22657.449264222298, 312.9467741187542, -32097.708534921236, 0.764, -0.47800000000000004, 0.516, 192.0, 0.0, 0.0, 0.0, 0.0, 0.0, 0.0, 0.0, 0.0, 0.0, 1.6635009679423208E9, 0.0, 2022-09-18 16:36:07.942
128.0, -23151.713389362503, -36707.15233172802, -85091.45946400875, -51882.93628489212, -40221.13713278021, -22703.806782222604, 476.1592121314064, -32186.42260866435, 0.764, -0.47800000000000004, 0.516, 192.0, 0.0, 0.0, 0.0, 0.0, 0.0, 0.0, 0.0, 0.0, 0.0, 1.663500967947308E9, 0.0, 2022-09-18 16:36:07.947
129.0, -23547.540431921534, -36578.69685634338, -84934.32670048795, -52132.82878790245, -40154.84185872577, -22641.803043103584, -2091.922115316643, -32103.72115417971, 0.764, -0.47800000000000004, 0.516, 192.0, 0.0, 0.0, 0.0, 0.0, 0.0, 0.0, 0.0, 0.0, 0.0, 1.663500967951367E9, 0.0, 2022-09-18 16:36:07.951
130.0, -23684.73543938821, -36333.56527490202, -84893.80298779046, -52182.13673617086, -40029.09094442021, -22562.052018887047, -3982.924399724531, -32033.04493821203, 0.764, -0.47800000000000004, 0.516, 192.0, 0.0, 0.0, 0.0, 0.0, 0.0, 0.0, 0.0, 0.0, 0.0, 1.6635009679553497E9, 0.0, 2022-09-18 16:36:07.955
131.0, -23862.18593861889, -37041.556780523875, -84911.95260428818, -52493.85416434457, -39927.614024593124, -22465.760703773583, -2553.2174173852704, -32146.435337833806, 0.764, -0.47800000000000004, 0.516, 192.0, 0.0, 0.0, 0.0, 0.0, 0.0, 0.0, 0.0, 0.0, 0.0, 1.6635009679583511E9, 0.0, 2022-09-18 16:36:07.958
132.0, -23327.487507759037, -37043.90371369168, -85123.66832776884, -52120.26710751857, -40071.1569274851, -22646.58631641702, 208.34061006791714, -32130.07386089252, 0.764, -0.47800000000000004, 0.516, 192.0, 0.0, 0.0, 0.0, 0.0, 0.0, 0.0, 0.0, 0.0, 0.0, 1.6635009679624364E9, 0.0, 2022-09-18 16:36:07.962
133.0, -23108.775688263857, -36682.16308142699, -85070.11354805394, -51862.50679045997, -40205.46855991704, -22698.755287975706, 563.196905040372, -32167.0436462216, 0.764, -0.47800000000000004, 0.516, 192.0, 0.0, 0.0, 0.0, 0.0, 0.0, 0.0, 0.0, 0.0, 0.0, 1.6635009679663942E9, 0.0, 2022-09-18 16:36:07.966
134.0, -23531.246010213617, -36586.67642911392, -84936.11484004436, -52124.625697687356, -40155.98179769299, -22641.557173914574, -1936.8233605412677, -32079.469511445706, 0.764, -0.47800000000000004, 0.516, 192.0, 0.0, 0.0, 0.0, 0.0, 0.0, 0.0, 0.0, 0.0, 0.0, 1.6635009679703789E9, 0.0, 2022-09-18 16:36:07.970
135.0, -23695.956015104774, -36333.45351617975, -84917.16056074627, -52186.45062285074, -40063.46792739248, -22586.75069651016, -3976.6659112770453, -32038.476412114673, 0.764, -0.47800000000000004, 0.516, 192.0, 0.0, 0.0, 0.0, 0.0, 0.0, 0.0, 0.0, 0.0, 0.0, 1.663500967975383E9, 0.0, 2022-09-18 16:36:07.975
136.0, -23861.53773802969, -36989.34310547628, -84909.40450542027, -52477.69385310339, -39943.39435617857, -22481.630442336853, -2661.802191949152, -32156.56067807206, 0.756, -0.48, 0.51, 192.0, 23.0, 160.0, 241.0, 0.0, 15.0, 240.0, 0.0, 0.0, 0.0, 1.663500967979427E9, 0.0, 2022-09-18 16:36:07.979
137.0, -23321.318426289374, -36994.95339333456, -85092.95703088725, -52087.76767108055, -40059.176392457055, -22639.120833768946, 232.21227314618508, -32116.416945030327, 0.756, -0.48, 0.51, 192.0, 0.0, 0.0, 0.0, 0.0, 0.0, 0.0, 0.0, 0.0, 0.0, 1.6635009679834025E9, 0.0, 2022-09-18 16:36:07.983
138.0, -23084.680507741035, -36637.03490937172, -85060.54700142705, -51821.37958066221, -40192.8845277887, -22694.24023559573, 694.2228310373821, -32163.73558804221, 0.756, -0.48, 0.51, 192.0, 0.0, 0.0, 0.0, 0.0, 0.0, 0.0, 0.0, 0.0, 0.0, 1.663500967986392E9, 0.0, 2022-09-18 16:36:07.986
139.0, -23480.865178211356, -36529.746535986254, -84911.08088625442, -52073.104926717875, -40152.18200113559, -22632.23649647671, -1687.3778924200408, -32108.01268911513, 0.756, -0.48, 0.51, 192.0, 0.0, 0.0, 0.0, 0.0, 0.0, 0.0, 0.0, 0.0, 0.0, 1.6635009679904814E9, 0.0, 2022-09-18 16:36:07.990
140.0, -23703.667366941856, -36307.25727167812, -84891.27724066703, -52195.72659679969, -40061.143345969125, -22577.74294349467, -3982.2091439019614, -32049.49582213114, 0.756, -0.48, 0.51, 192.0, 0.0, 0.0, 0.0, 0.0, 0.0, 0.0, 0.0, 0.0, 0.0, 1.663500967994467E9, 0.0, 2022-09-18 16:36:07.994
141.0, -23886.72815403082, -36956.73191031598, -84897.44632213669, -52503.71128364936, -39934.185437462984, -22464.039619450527, -2895.6908459294855, -32131.07968939301, 0.756, -0.48, 0.51, 192.0, 0.0, 0.0, 0.0, 0.0, 0.0, 0.0, 0.0, 0.0, 0.0, 1.663500967998443E9, 0.0, 2022-09-18 16:36:07.998
142.0, -23425.00816881754, -37076.44785361861, -85120.87435971193, -52199.39228289036, -40065.59134311573, -22635.969237800746, -70.94443690114461, -32117.422773530816, 0.756, -0.48, 0.51, 192.0, 0.0, 0.0, 0.0, 0.0, 0.0, 0.0, 0.0, 0.0, 0.0, 1.6635009680034275E9, 0.0, 2022-09-18 16:36:08.003
143.0, -23086.155722875086, -36653.93282817994, -85093.53817624309, -51852.35909847726, -40210.318888463844, -22698.688232742337, 648.8040863041981, -32161.992151974697, 0.756, -0.48, 0.51, 192.0, 0.0, 0.0, 0.0, 0.0, 0.0, 0.0, 0.0, 0.0, 0.0, 1.663500968007442E9, 0.0, 2022-09-18 16:36:08.007
