%OpenBCI Raw EEG Data
%Number of channels = 8
%Sample Rate = 250 Hz
%Board = OpenBCI_GUI$BoardCytonSerial
Sample Index, EXG Channel 0, EXG Channel 1, EXG Channel 2, EXG Channel 3, EXG Channel 4, EXG Channel 5, EXG Channel 6, EXG Channel 7, Accel Channel 0, Accel Channel 1, Accel Channel 2, Other, Other, Other, Other, Other, Other, Other, Analog Channel 0, Analog Channel 1, Analog Channel 2, Timestamp, Other, Timestamp (Formatted)
241.0, -39804.992354511305, -21727.616694881523, -31267.00595223975, -49915.759255380544, -50027.45092242371, -187500.02235174447, -29547.12862338169, -24397.82314274587, 0.0, 0.0, 0.0, 192.0, 0.0, 0.0, 0.0, 0.0, 0.0, 0.0, 0.0, 0.0, 0.0, 1.6634990027999327E9, 0.0, 2022-09-18 16:03:22.799
242.0, -39709.90803359843, -21439.547412341526, -31313.229359773322, -49947.923415651734, -49716.7840262394, -187500.02235174447, -29587.026487234412, -24423.035910491457, 0.0, 0.0, 0.0, 192.0, 0.0, 0.0, 0.0, 0.0, 0.0, 0.0, 0.0, 0.0, 0.0, 1.6634990027999537E9, 0.0, 2022-09-18 16:03:22.799
243.0, -39641.668157776374, -20981.49311321892, -31414.92979704497, -50038.00094580662, -50386.330531398125, -187500.02235174447, -29684.815369226384, -24512.398184823774, 0.0, 0.0, 0.0, 192.0, 0.0, 0.0, 0.0, 0.0, 0.0, 0.0, 0.0, 0.0, 0.0, 1.6634990027999706E9, 0.0, 2022-09-18 16:03:22.799
0.0, 0.0, 0.0, 0.0, 0.0, 0.0, 0.0, 0.0, 0.0, 0.0, 0.0, 0.0, 192.0, 0.0, 0.0, 0.0, 0.0, 0.0, 0.0, 0.0, 0.0, 0.0, 1.6634990028905904E9, 0.0, 2022-09-18 16:03:22.890
1.0, -35984.11810208775, -18514.15109803094, -34236.01051998264, -49881.11405147482, -55272.69009026171, -187500.02235174447, -28999.130904570928, -24104.52355200333, 0.66, -0.7000000000000001, 0.388, 192.0, 20.0, 160.0, 234.0, 32.0, 12.0, 32.0, 0.0, 0.0, 0.0, 1.6634990029076226E9, 0.0, 2022-09-18 16:03:22.907
2.0, -35938.16291548764, -18376.196131252782, -34291.4428462318, -49921.52600545002, -54688.43784194444, -187500.02235174447, -29043.54382080362, -24122.67316850104, 0.66, -0.7000000000000001, 0.388, 192.0, 0.0, 0.0, 0.0, 0.0, 0.0, 0.0, 0.0, 0.0, 0.0, 1.6634990029107256E9, 0.0, 2022-09-18 16:03:22.910
3.0, -35909.664441307126, -18075.587520073357, -34334.514657797175, -49943.54247373849, -54835.93700360501, -187500.02235174447, -29089.543710892645, -24135.10073841819, 0.66, -0.7000000000000001, 0.388, 192.0, 0.0, 0.0, 0.0, 0.0, 0.0, 0.0, 0.0, 0.0, 0.0, 1.6634990029145968E9, 0.0, 2022-09-18 16:03:22.914
4.0, -35894.30879286633, -17662.840206961657, -34400.653469640434, -49990.65995105028, -55532.640878276936, -187500.02235174447, -29166.567822285633, -24171.10939873569, 0.66, -0.7000000000000001, 0.388, 192.0, 0.0, 0.0, 0.0, 0.0, 0.0, 0.0, 0.0, 0.0, 0.0, 1.6634990029186287E9, 0.0, 2022-09-18 16:03:22.918
5.0, -35994.802235937386, -17968.7908850659, -34346.15991665839, -49969.045814162, -55813.8258235247, -187500.02235174447, -29112.878932103984, -24173.83631155924, 0.66, -0.7000000000000001, 0.388, 192.0, 0.0, 0.0, 0.0, 0.0, 0.0, 0.0, 0.0, 0.0, 0.0, 1.6634990029216704E9, 0.0, 2022-09-18 16:03:22.921
6.0, -35994.39990453719, -18552.28317407169, -34266.05126453057, -49912.16062452324, -55346.607309175415, -187500.02235174447, -29012.206675077283, -24129.512802304365, 0.66, -0.7000000000000001, 0.388, 192.0, 0.0, 0.0, 0.0, 0.0, 0.0, 0.0, 0.0, 0.0, 0.0, 1.6634990029256718E9, 0.0, 2022-09-18 16:03:22.925
7.0, -35947.90827607016, -18411.93657063682, -34323.98698615873, -49953.310186065464, -54774.44735460846, -187500.02235174447, -29058.519489588678, -24151.931601993037, 0.66, -0.7000000000000001, 0.388, 192.0, 0.0, 0.0, 0.0, 0.0, 0.0, 0.0, 0.0, 0.0, 0.0, 1.6634990029296703E9, 0.0, 2022-09-18 16:03:22.929
8.0, -35901.79662725885, -18086.96455800111, -34356.01703596318, -49960.97683441363, -54949.930900327076, -187500.02235174447, -29098.730277863775, -24154.345590394212, 0.666, -0.6960000000000001, 0.384, 192.0, 20.0, 208.0, 234.0, 64.0, 12.0, 0.0, 0.0, 0.0, 0.0, 1.6634990029336307E9, 0.0, 2022-09-18 16:03:22.933
9.0, -35877.72379848049, -17658.34750632614, -34400.519359173704, -49992.69395979571, -55632.50847250324, -187500.02235174447, -29167.77481648622, -24173.277517947856, 0.666, -0.6960000000000001, 0.384, 192.0, 0.0, 0.0, 0.0, 0.0, 0.0, 0.0, 0.0, 0.0, 0.0, 1.6634990029387307E9, 0.0, 2022-09-18 16:03:22.938
10.0, -35970.036503080904, -17992.37197546625, -34323.09291638052, -49952.55022675398, -55873.32616726472, -187500.02235174447, -29076.959678764306, -24158.435959629533, 0.666, -0.6960000000000001, 0.384, 192.0, 0.0, 0.0, 0.0, 0.0, 0.0, 0.0, 0.0, 0.0, 0.0, 1.6634990029426136E9, 0.0, 2022-09-18 16:03:22.942
11.0, -35967.488404213, -18540.839080910573, -34244.6829968313, -49901.40943544024, -55374.502286255636, -187500.02235174447, -28980.51190143966, -24117.889895187607, 0.666, -0.6960000000000001, 0.384, 192.0, 0.0, 0.0, 0.0, 0.0, 0.0, 0.0, 0.0, 0.0, 0.0, 1.663499002946642E9, 0.0, 2022-09-18 16:03:22.946
12.0, -35940.30868295535, -18392.177628538328, -34316.901483166395, -49957.422907045235, -54834.28297451532, -187500.02235174447, -29044.61670453748, -24155.843157272717, 0.666, -0.6960000000000001, 0.384, 192.0, 0.0, 0.0, 0.0, 0.0, 0.0, 0.0, 0.0, 0.0, 0.0, 1.6634990029497948E9, 0.0, 2022-09-18 16:03:22.949
13.0, -35917.264034421925, -18090.697299325144, -34371.75266405972, -49991.24109640612, -55065.847047072304, -187500.02235174447, -29112.67776640389, -24185.950957054014, 0.666, -0.6960000000000001, 0.384, 192.0, 0.0, 0.0, 0.0, 0.0, 0.0, 0.0, 0.0, 0.0, 0.0, 1.663499002953679E9, 0.0, 2022-09-18 16:03:22.953
14.0, -35915.69941231006, -17671.266814621307, -34430.8283246551, -50036.30221322802, -55712.3489036976, -187500.02235174447, -29189.411305118956, -24219.322111525787, 0.666, -0.6960000000000001, 0.384, 192.0, 0.0, 0.0, 0.0, 0.0, 0.0, 0.0, 0.0, 0.0, 0.0, 1.6634990029576476E9, 0.0, 2022-09-18 16:03:22.957
15.0, -35974.32803801633, -18025.497260749016, -34323.36113731398, -49954.40542154377, -55891.185211084514, -187500.02235174447, -29081.38532416646, -24167.533119622844, 0.666, -0.6960000000000001, 0.384, 192.0, 0.0, 0.0, 0.0, 0.0, 0.0, 0.0, 0.0, 0.0, 0.0, 1.6634990029616995E9, 0.0, 2022-09-18 16:03:22.961
16.0, -35973.813947893854, -18569.292851602182, -34272.4885669337, -49915.71455189164, -55376.84921942344, -187500.02235174447, -29011.31260529907, -24138.43114834203, 0.666, -0.6960000000000001, 0.384, 192.0, 0.0, 0.0, 0.0, 0.0, 0.0, 0.0, 0.0, 0.0, 0.0, 1.6634990029657035E9, 0.0, 2022-09-18 16:03:22.965
17.0, -35940.24162772198, -18404.806364155575, -34319.896616923405, -49953.35488955437, -54831.33254424722, -187500.02235174447, -29052.03748369664, -24154.792625283317, 0.666, -0.6960000000000001, 0.384, 192.0, 0.0, 0.0, 0.0, 0.0, 0.0, 0.0, 0.0, 0.0, 0.0, 1.663499002970736E9, 0.0, 2022-09-18 16:03:22.970
18.0, -35895.51578706691, -18074.313470639405, -34344.5058875687, -49959.50161927958, -55083.99666357001, -187500.02235174447, -29089.499007403734, -24154.68086656104, 0.662, -0.6900000000000001, 0.382, 192.0, 20.0, 176.0, 234.0, 112.0, 11.0, 240.0, 0.0, 0.0, 0.0, 1.663499002974704E9, 0.0, 2022-09-18 16:03:22.974
19.0, -35900.5225778249, -17657.565195270206, -34409.03537381117, -50004.80860529049, -55760.31574729869, -187500.02235174447, -29175.128540412017, -24187.582634399252, 0.662, -0.6900000000000001, 0.382, 192.0, 0.0, 0.0, 0.0, 0.0, 0.0, 0.0, 0.0, 0.0, 0.0, 1.6634990029777699E9, 0.0, 2022-09-18 16:03:22.977
20.0, -36008.39209656621, -18069.016107203497, -34338.94030319933, -49967.97293042814, -55931.3512958707, -187500.02235174447, -29113.504780948733, -24179.17837848406, 0.662, -0.6900000000000001, 0.382, 192.0, 0.0, 0.0, 0.0, 0.0, 0.0, 0.0, 0.0, 0.0, 0.0, 1.6634990029817E9, 0.0, 2022-09-18 16:03:22.981
21.0, -35993.997573137, -18570.76806673623, -34269.51578492115, -49915.781607125, -55380.38079504738, -187500.02235174447, -29019.806268192086, -24135.927752963038, 0.662, -0.6900000000000001, 0.382, 192.0, 0.0, 0.0, 0.0, 0.0, 0.0, 0.0, 0.0, 0.0, 0.0, 1.6634990029856927E9, 0.0, 2022-09-18 16:03:22.985
22.0, -35956.37958721872, -18380.577073166023, -34324.16580011437, -49952.21495058715, -54848.990422366915, -187500.02235174447, -29065.247364669725, -24156.15608169509, 0.662, -0.6900000000000001, 0.382, 192.0, 0.0, 0.0, 0.0, 0.0, 0.0, 0.0, 0.0, 0.0, 0.0, 1.6634990029897685E9, 0.0, 2022-09-18 16:03:22.989
23.0, -35928.61872060522, -18069.753714770522, -34363.50487035571, -49968.15174438379, -55135.964469428596, -187500.02235174447, -29117.259874017225, -24165.677924833053, 0.662, -0.6900000000000001, 0.382, 192.0, 0.0, 0.0, 0.0, 0.0, 0.0, 0.0, 0.0, 0.0, 0.0, 1.6634990029947517E9, 0.0, 2022-09-18 16:03:22.994
24.0, -35925.19890370356, -17678.709945524926, -34407.157827276926, -49995.46557610817, -55815.479852614386, -187500.02235174447, -29177.229604390814, -24182.799361085818, 0.662, -0.6900000000000001, 0.382, 192.0, 0.0, 0.0, 0.0, 0.0, 0.0, 0.0, 0.0, 0.0, 0.0, 1.6634990029987707E9, 0.0, 2022-09-18 16:03:22.998
25.0, -36004.5475965199, -18104.734194843077, -34312.09585810851, -49937.12752307982, -55952.11606646968, -187500.02235174447, -29075.775036308176, -24153.540927593822, 0.662, -0.6900000000000001, 0.382, 192.0, 0.0, 0.0, 0.0, 0.0, 0.0, 0.0, 0.0, 0.0, 0.0, 1.6634990030017831E9, 0.0, 2022-09-18 16:03:23.001
26.0, -35977.41257875116, -18571.997412681274, -34242.447822385766, -49888.11014748933, -55378.838524679966, -187500.02235174447, -28988.558529443566, -24109.977377650426, 0.662, -0.6900000000000001, 0.382, 192.0, 0.0, 0.0, 0.0, 0.0, 0.0, 0.0, 0.0, 0.0, 0.0, 1.6634990030057893E9, 0.0, 2022-09-18 16:03:23.005
27.0, -35950.41167144915, -18382.54402667809, -34306.17264582785, -49935.9875841126, -54882.71920474997, -187500.02235174447, -29049.779957506653, -24139.459328586978, 0.662, -0.6900000000000001, 0.382, 192.0, 0.0, 0.0, 0.0, 0.0, 0.0, 0.0, 0.0, 0.0, 0.0, 1.6634990030097811E9, 0.0, 2022-09-18 16:03:23.009
28.0, -35920.125057712205, -18051.71585699509, -34349.17740215986, -49953.98073839912, -55196.89532481377, -187500.02235174447, -29104.89935933344, -24149.517613591866, 0.654, -0.6900000000000001, 0.388, 192.0, 20.0, 112.0, 234.0, 112.0, 12.0, 32.0, 0.0, 0.0, 0.0, 1.6634990030137627E9, 0.0, 2022-09-18 16:03:23.013
29.0, -35936.218313720026, -17682.152114171044, -34418.847789627056, -50002.84165177842, -55879.27173128984, -187500.02235174447, -29195.848607522086, -24187.202654743513, 0.654, -0.6900000000000001, 0.388, 192.0, 0.0, 0.0, 0.0, 0.0, 0.0, 0.0, 0.0, 0.0, 0.0, 1.66349900301775E9, 0.0, 2022-09-18 16:03:23.017
30.0, -36018.763305993474, -18146.040218596485, -34330.17841937285, -49948.59396798539, -55971.02564227887, -187500.02235174447, -29098.305594719124, -24165.92379402206, 0.654, -0.6900000000000001, 0.388, 192.0, 0.0, 0.0, 0.0, 0.0, 0.0, 0.0, 0.0, 0.0, 0.0, 1.6634990030217724E9, 0.0, 2022-09-18 16:03:23.021
31.0, -35985.05687535487, -18593.790363525197, -34265.44776743028, -49900.06833077292, -55356.08444882446, -187500.02235174447, -29004.003584862185, -24121.600284767188, 0.654, -0.6900000000000001, 0.388, 192.0, 0.0, 0.0, 0.0, 0.0, 0.0, 0.0, 0.0, 0.0, 0.0, 1.6634990030267603E9, 0.0, 2022-09-18 16:03:23.026
32.0, -35945.00254929096, -18396.02212858464, -34308.07254410655, -49927.44921773067, -54889.93881820903, -187500.02235174447, -29042.716806258777, -24131.792680238806, 0.654, -0.6900000000000001, 0.388, 192.0, 0.0, 0.0, 0.0, 0.0, 0.0, 0.0, 0.0, 0.0, 0.0, 1.663499003029773E9, 0.0, 2022-09-18 16:03:23.029
33.0, -35903.137731926174, -18048.251336604517, -34355.70411154081, -49944.88357840581, -55238.938956134196, -187500.02235174447, -29106.352222723035, -24142.812090255273, 0.654, -0.6900000000000001, 0.388, 192.0, 0.0, 0.0, 0.0, 0.0, 0.0, 0.0, 0.0, 0.0, 0.0, 1.6634990030343962E9, 0.0, 2022-09-18 16:03:23.034
34.0, -35915.29708090986, -17689.282320652284, -34406.08494354307, -49985.675512036745, -55913.559307284275, -187500.02235174447, -29175.77674100122, -24174.752733081907, 0.654, -0.6900000000000001, 0.388, 192.0, 0.0, 0.0, 0.0, 0.0, 0.0, 0.0, 0.0, 0.0, 0.0, 1.663499003037841E9, 0.0, 2022-09-18 16:03:23.037
35.0, -36003.385305808224, -18178.807875967967, -34311.380602285935, -49934.75823816755, -55980.77100286139, -187500.02235174447, -29074.523338618677, -24152.22217467096, 0.654, -0.6900000000000001, 0.388, 192.0, 0.0, 0.0, 0.0, 0.0, 0.0, 0.0, 0.0, 0.0, 0.0, 1.6634990030418057E9, 0.0, 2022-09-18 16:03:23.041
36.0, -35999.965488906564, -18618.131413237028, -34286.9948490852, -49923.26944151753, -55376.603350234436, -187500.02235174447, -29031.60798926449, -24140.196936154003, 0.654, -0.6900000000000001, 0.388, 192.0, 0.0, 0.0, 0.0, 0.0, 0.0, 0.0, 0.0, 0.0, 0.0, 1.6634990030458515E9, 0.0, 2022-09-18 16:03:23.045
37.0, -35950.03169179341, -18393.07169831654, -34323.897579180906, -49940.21206381465, -54893.69391127753, -187500.02235174447, -29067.303725159614, -24136.084215174225, 0.654, -0.6900000000000001, 0.388, 192.0, 0.0, 0.0, 0.0, 0.0, 0.0, 0.0, 0.0, 0.0, 0.0, 1.663499003049846E9, 0.0, 2022-09-18 16:03:23.049
38.0, -35895.42638008909, -18034.77323469797, -34346.338730614036, -49943.520121994035, -55251.90296791828, -187500.02235174447, -29105.927539578384, -24129.468098815454, 0.66, -0.6920000000000001, 0.382, 192.0, 20.0, 160.0, 234.0, 96.0, 11.0, 240.0, 0.0, 0.0, 0.0, 1.6634990030548592E9, 0.0, 2022-09-18 16:03:23.054
39.0, -35924.036612991884, -17705.576742360205, -34406.75549587673, -49994.88443075233, -55929.227880147446, -187500.02235174447, -29181.163511414947, -24170.64001210213, 0.66, -0.6920000000000001, 0.382, 192.0, 0.0, 0.0, 0.0, 0.0, 0.0, 0.0, 0.0, 0.0, 0.0, 1.6634990030578496E9, 0.0, 2022-09-18 16:03:23.057
40.0, -36001.23953834052, -18220.493879377114, -34306.26205280567, -49937.35104052437, -55967.91874979958, -187500.02235174447, -29065.94026874784, -24143.415587355565, 0.66, -0.6920000000000001, 0.382, 192.0, 0.0, 0.0, 0.0, 0.0, 0.0, 0.0, 0.0, 0.0, 0.0, 1.6634990030618637E9, 0.0, 2022-09-18 16:03:23.061
41.0, -35985.705075944075, -18621.662988860964, -34284.78202638412, -49928.18682529769, -55350.00477433262, -187500.02235174447, -29024.5001345277, -24131.770328494353, 0.66, -0.6920000000000001, 0.382, 192.0, 0.0, 0.0, 0.0, 0.0, 0.0, 0.0, 0.0, 0.0, 0.0, 1.6634990030658925E9, 0.0, 2022-09-18 16:03:23.065
42.0, -35948.95880805955, -18385.360346479458, -34327.02682340465, -49954.96421515515, -54898.58894331324, -187500.02235174447, -29068.354257149014, -24142.96855246646, 0.66, -0.6920000000000001, 0.382, 192.0, 0.0, 0.0, 0.0, 0.0, 0.0, 0.0, 0.0, 0.0, 0.0, 1.663499003069912E9, 0.0, 2022-09-18 16:03:23.069
43.0, -35908.77037152891, -18043.535118524447, -34356.48642259675, -49956.81940994495, -55321.03691351854, -187500.02235174447, -29113.840057115565, -24138.788776253317, 0.66, -0.6920000000000001, 0.382, 192.0, 0.0, 0.0, 0.0, 0.0, 0.0, 0.0, 0.0, 0.0, 0.0, 1.6634990030739124E9, 0.0, 2022-09-18 16:03:23.073
44.0, -35928.05992699384, -17724.687483869493, -34395.33375446007, -49984.46851783616, -56020.04301786936, -187500.02235174447, -29172.356924099557, -24161.453445131, 0.66, -0.6920000000000001, 0.382, 192.0, 0.0, 0.0, 0.0, 0.0, 0.0, 0.0, 0.0, 0.0, 0.0, 1.6634990030778933E9, 0.0, 2022-09-18 16:03:23.077
45.0, -36008.012116910475, -18254.647344904824, -34299.22125330225, -49928.79032239799, -56036.56095702183, -187500.02235174447, -29063.28041115766, -24141.761558265873, 0.66, -0.6920000000000001, 0.382, 192.0, 0.0, 0.0, 0.0, 0.0, 0.0, 0.0, 0.0, 0.0, 0.0, 1.6634990030829873E9, 0.0, 2022-09-18 16:03:23.082
46.0, -35991.158901591174, -18619.673683604444, -34273.58380241201, -49909.36665646633, -55406.86761222692, -187500.02235174447, -29013.883055911432, -24121.600284767188, 0.66, -0.6920000000000001, 0.382, 192.0, 0.0, 0.0, 0.0, 0.0, 0.0, 0.0, 0.0, 0.0, 0.0, 1.6634990030858803E9, 0.0, 2022-09-18 16:03:23.085
47.0, -35942.096822511776, -18367.367192192938, -34301.97051787025, -49916.49686294757, -54972.796734904856, -187500.02235174447, -29045.22020163777, -24114.76065096386, 0.66, -0.6920000000000001, 0.382, 192.0, 0.0, 0.0, 0.0, 0.0, 0.0, 0.0, 0.0, 0.0, 0.0, 1.6634990030889356E9, 0.0, 2022-09-18 16:03:23.088
48.0, -35922.159066457636, -18032.694522463622, -34345.24349513573, -49939.340345780896, -55414.64601929737, -187500.02235174447, -29114.75647863823, -24130.92096220505, 0.658, -0.6920000000000001, 0.388, 192.0, 20.0, 144.0, 234.0, 96.0, 12.0, 32.0, 0.0, 0.0, 0.0, 1.6634990030939577E9, 0.0, 2022-09-18 16:03:23.093
49.0, -35963.77801463342, -17772.296699559298, -34395.33375446007, -49981.473384079145, -56131.57822270134, -187500.02235174447, -29192.607604576067, -24166.437884144532, 0.658, -0.6920000000000001, 0.388, 192.0, 0.0, 0.0, 0.0, 0.0, 0.0, 0.0, 0.0, 0.0, 0.0, 1.6634990030979288E9, 0.0, 2022-09-18 16:03:23.097
50.0, -36035.57181782387, -18331.894973742365, -34300.98704111422, -49924.74465665158, -56119.508280695474, -187500.02235174447, -29084.022830012185, -24140.82278499875, 0.658, -0.6920000000000001, 0.388, 192.0, 0.0, 0.0, 0.0, 0.0, 0.0, 0.0, 0.0, 0.0, 0.0, 1.6634990031019502E9, 0.0, 2022-09-18 16:03:23.101
51.0, -36007.587433765824, -18661.203224802404, -34273.762616367654, -49904.650438386256, -55458.05310702958, -187500.02235174447, -29025.997701406206, -24117.129935876124, 0.658, -0.6920000000000001, 0.388, 192.0, 0.0, 0.0, 0.0, 0.0, 0.0, 0.0, 0.0, 0.0, 0.0, 1.6634990031059487E9, 0.0, 2022-09-18 16:03:23.105
52.0, -35962.52631694393, -18415.043463116108, -34305.52444523865, -49920.69899090517, -55088.42230897216, -187500.02235174447, -29068.197794937827, -24118.985130665915, 0.658, -0.6920000000000001, 0.388, 192.0, 0.0, 0.0, 0.0, 0.0, 0.0, 0.0, 0.0, 0.0, 0.0, 1.6634990031099925E9, 0.0, 2022-09-18 16:03:23.109
53.0, -35911.78785703038, -18027.933600894645, -34332.97238742976, -49923.515310706534, -55573.54457063015, -187500.02235174447, -29117.23752227277, -24112.033738140315, 0.658, -0.6920000000000001, 0.388, 192.0, 0.0, 0.0, 0.0, 0.0, 0.0, 0.0, 0.0, 0.0, 0.0, 1.6634990031139536E9, 0.0, 2022-09-18 16:03:23.113
54.0, -35953.04917729487, -17751.666039427048, -34374.792501305645, -49962.943787925695, -56248.83547411388, -187500.02235174447, -29178.39189510249, -24144.264953644866, 0.658, -0.6920000000000001, 0.388, 192.0, 0.0, 0.0, 0.0, 0.0, 0.0, 0.0, 0.0, 0.0, 0.0, 1.663499003116966E9, 0.0, 2022-09-18 16:03:23.116
55.0, -36028.82159099836, -18333.68311329879, -34282.41274147186, -49909.09843553286, -56191.54795307493, -187500.02235174447, -29066.767283292687, -24121.95791267847, 0.658, -0.6920000000000001, 0.388, 192.0, 0.0, 0.0, 0.0, 0.0, 0.0, 0.0, 0.0, 0.0, 0.0, 1.6634990031219852E9, 0.0, 2022-09-18 16:03:23.121
56.0, -35982.486424742514, -18619.092538248606, -34256.17179348133, -49885.38323466578, -55491.49131673471, -187500.02235174447, -29016.587616990524, -24091.894816386084, 0.658, -0.6920000000000001, 0.388, 192.0, 0.0, 0.0, 0.0, 0.0, 0.0, 0.0, 0.0, 0.0, 0.0, 1.663499003125981E9, 0.0, 2022-09-18 16:03:23.125
57.0, -35940.30868295535, -18367.97068929323, -34292.40397124338, -49899.42013018372, -55117.14430059723, -187500.02235174447, -29060.28527740065, -24093.414735009042, 0.658, -0.6920000000000001, 0.388, 192.0, 0.0, 0.0, 0.0, 0.0, 0.0, 0.0, 0.0, 0.0, 0.0, 1.663499003129995E9, 0.0, 2022-09-18 16:03:23.129
58.0, -35901.30488888084, -18002.72083314906, -34333.061794407586, -49915.93806933619, -55607.4745187133, -187500.02235174447, -29127.42991774439, -24099.852037412173, 0.65, -0.684, 0.39, 192.0, 20.0, 80.0, 234.0, 160.0, 12.0, 48.0, 0.0, 0.0, 0.0, 1.6634990031339571E9, 0.0, 2022-09-18 16:03:23.133
59.0, -35936.575941631316, -17762.70780118797, -34358.296913897626, -49945.35296503937, -56236.31849721891, -187500.02235174447, -29176.223775890325, -24126.517668547353, 0.65, -0.684, 0.39, 192.0, 0.0, 0.0, 0.0, 0.0, 0.0, 0.0, 0.0, 0.0, 0.0, 1.663499003138019E9, 0.0, 2022-09-18 16:03:23.138
60.0, -36005.37461106475, -18367.411895681846, -34263.03377902911, -49889.898287045755, -56157.7074119696, -187500.02235174447, -29065.470882114278, -24104.702365958976, 0.65, -0.684, 0.39, 192.0, 0.0, 0.0, 0.0, 0.0, 0.0, 0.0, 0.0, 0.0, 0.0, 1.663499003142029E9, 0.0, 2022-09-18 16:03:23.142
61.0, -35984.095750343295, -18636.750416368297, -34266.7888720976, -49897.90021156076, -55450.9899557817, -187500.02235174447, -29041.286294613637, -24103.49537175839, 0.65, -0.684, 0.39, 192.0, 0.0, 0.0, 0.0, 0.0, 0.0, 0.0, 0.0, 0.0, 0.0, 1.663499003145023E9, 0.0, 2022-09-18 16:03:23.145
62.0, -35938.20761897655, -18371.234043983706, -34296.71785792326, -49906.23741224258, -55097.60887594329, -187500.02235174447, -29078.591356109544, -24100.790810679297, 0.65, -0.684, 0.39, 192.0, 0.0, 0.0, 0.0, 0.0, 0.0, 0.0, 0.0, 0.0, 0.0, 1.6634990031499856E9, 0.0, 2022-09-18 16:03:23.149
63.0, -35902.042496447866, -18005.268932016963, -34339.29793111062, -49925.92929910771, -55632.50847250324, -187500.02235174447, -29145.75834819774, -24108.569217749744, 0.65, -0.684, 0.39, 192.0, 0.0, 0.0, 0.0, 0.0, 0.0, 0.0, 0.0, 0.0, 0.0, 1.6634990031540856E9, 0.0, 2022-09-18 16:03:23.154
64.0, -35947.058909780855, -17787.875865444646, -34375.619515850485, -49966.095383893895, -56238.24074724207, -187500.02235174447, -29195.334517399613, -24145.270782145355, 0.65, -0.684, 0.39, 192.0, 0.0, 0.0, 0.0, 0.0, 0.0, 0.0, 0.0, 0.0, 0.0, 1.6634990031580412E9, 0.0, 2022-09-18 16:03:23.158
65.0, -36018.360974593284, -18402.839410643508, -34280.892822848895, -49913.61348791284, -56124.87269936475, -187500.02235174447, -29075.104483974515, -24123.81310746826, 0.65, -0.684, 0.39, 192.0, 0.0, 0.0, 0.0, 0.0, 0.0, 0.0, 0.0, 0.0, 0.0, 1.663499003162043E9, 0.0, 2022-09-18 16:03:23.162
66.0, -35999.58550925082, -18634.02350354475, -34301.27761379214, -49935.272328290026, -55381.45367878124, -187500.02235174447, -29082.65937360041, -24134.229020384435, 0.65, -0.684, 0.39, 192.0, 0.0, 0.0, 0.0, 0.0, 0.0, 0.0, 0.0, 0.0, 0.0, 1.6634990031661289E9, 0.0, 2022-09-18 16:03:23.166
67.0, -35946.29895046937, -18359.67819210031, -34317.057945377586, -49930.75727591006, -55009.81122372285, -187500.02235174447, -29102.619481399, -24117.576970765233, 0.65, -0.684, 0.39, 192.0, 0.0, 0.0, 0.0, 0.0, 0.0, 0.0, 0.0, 0.0, 0.0, 1.6634990031701653E9, 0.0, 2022-09-18 16:03:23.170
68.0, -35914.335955898285, -17997.222304013052, -34369.45043438082, -49952.59493024289, -55548.95765172931, -187500.02235174447, -29173.854490978065, -24127.72466274794, 0.658, -0.6940000000000001, 0.39, 192.0, 20.0, 144.0, 234.0, 80.0, 12.0, 48.0, 0.0, 0.0, 0.0, 1.66349900317309E9, 0.0, 2022-09-18 16:03:23.173
69.0, -35978.8430903963, -17801.48807781793, -34419.875969871995, -50001.388788388824, -56124.58212668683, -187500.02235174447, -29241.69203539992, -24176.607927871697, 0.658, -0.6940000000000001, 0.39, 192.0, 0.0, 0.0, 0.0, 0.0, 0.0, 0.0, 0.0, 0.0, 0.0, 1.6634990031779985E9, 0.0, 2022-09-18 16:03:23.177
70.0, -36030.47562008806, -18419.089128862517, -34291.733418909724, -49917.77091238152, -55966.5105898989, -187500.02235174447, -29087.464998658303, -24128.57402903724, 0.658, -0.6940000000000001, 0.39, 192.0, 0.0, 0.0, 0.0, 0.0, 0.0, 0.0, 0.0, 0.0, 0.0, 1.6634990031821935E9, 0.0, 2022-09-18 16:03:23.182
71.0, -35996.21039583807, -18617.952599281383, -34294.86266313346, -49923.09062756188, -55220.54347044748, -187500.02235174447, -29075.126835718973, -24123.88016270163, 0.658, -0.6940000000000001, 0.39, 192.0, 0.0, 0.0, 0.0, 0.0, 0.0, 0.0, 0.0, 0.0, 0.0, 1.6634990031861E9, 0.0, 2022-09-18 16:03:23.186
72.0, -35960.961694832054, -18352.324468174516, -34322.46706753577, -49930.60081369887, -54903.506327093404, -187500.02235174447, -29109.61557741351, -24121.935560934016, 0.658, -0.6940000000000001, 0.39, 192.0, 0.0, 0.0, 0.0, 0.0, 0.0, 0.0, 0.0, 0.0, 0.0, 1.663499003190096E9, 0.0, 2022-09-18 16:03:23.190
73.0, -35922.58374960229, -17966.354544920272, -34362.85666976651, -49940.70380219267, -55466.12208677794, -187500.02235174447, -29168.601831031065, -24123.05314815678, 0.658, -0.6940000000000001, 0.39, 192.0, 0.0, 0.0, 0.0, 0.0, 0.0, 0.0, 0.0, 0.0, 0.0, 1.6634990031931086E9, 0.0, 2022-09-18 16:03:23.193
74.0, -35988.96843063455, -17824.66683681808, -34396.02665853818, -49976.82422123245, -56037.723247733506, -187500.02235174447, -29214.78053507573, -24167.39900915611, 0.658, -0.6940000000000001, 0.39, 192.0, 0.0, 0.0, 0.0, 0.0, 0.0, 0.0, 0.0, 0.0, 0.0, 1.6634990031970873E9, 0.0, 2022-09-18 16:03:23.197
75.0, -36048.42407088567, -18475.594338845534, -34294.14740731089, -49910.0819122889, -55851.7343821209, -187500.02235174447, -29094.014059783705, -24139.07934893124, 0.658, -0.6940000000000001, 0.39, 192.0, 0.0, 0.0, 0.0, 0.0, 0.0, 0.0, 0.0, 0.0, 0.0, 1.6634990032011137E9, 0.0, 2022-09-18 16:03:23.201
76.0, -35989.25900331247, -18638.426797202446, -34284.87143336194, -49893.76513883653, -55099.553477710906, -187500.02235174447, -29069.427140882868, -24108.792735194296, 0.658, -0.6940000000000001, 0.39, 192.0, 0.0, 0.0, 0.0, 0.0, 0.0, 0.0, 0.0, 0.0, 0.0, 1.6634990032051363E9, 0.0, 2022-09-18 16:03:23.205
77.0, -35965.90143035667, -18375.6373376414, -34331.54187578462, -49917.726208892615, -54812.55707890476, -187500.02235174447, -29129.173353811904, -24123.43312781252, 0.658, -0.6940000000000001, 0.39, 192.0, 0.0, 0.0, 0.0, 0.0, 0.0, 0.0, 0.0, 0.0, 0.0, 1.6634990032101848E9, 0.0, 2022-09-18 16:03:23.210
78.0, -35923.25430193595, -17980.100867760288, -34375.59716410603, -49941.32965103741, -55381.63249273688, -187500.02235174447, -29203.87288378154, -24136.35243610769, 0.658, -0.6940000000000001, 0.39, 192.0, 0.0, 0.0, 0.0, 0.0, 0.0, 0.0, 0.0, 0.0, 0.0, 1.6634990032141352E9, 0.0, 2022-09-18 16:03:23.214
79.0, -35970.818814136845, -17845.8115870728, -34374.792501305645, -49956.595892500394, -55897.846030932196, -187500.02235174447, -29220.860209567574, -24155.954915994993, 0.652, -0.6920000000000001, 0.388, 192.0, 20.0, 96.0, 234.0, 96.0, 12.0, 32.0, 0.0, 0.0, 0.0, 1.6634990032181687E9, 0.0, 2022-09-18 16:03:23.218
80.0, -36018.8527129713, -18490.011214019207, -34267.95116280927, -49886.94785677765, -55660.38109783901, -187500.02235174447, -29090.504835904223, -24117.085232387213, 0.652, -0.6920000000000001, 0.388, 192.0, 0.0, 0.0, 0.0, 0.0, 0.0, 0.0, 0.0, 0.0, 0.0, 1.6634990032211912E9, 0.0, 2022-09-18 16:03:23.221
81.0, -35976.138529317206, -18621.327712694136, -34291.21932878725, -49900.4259586842, -54872.884437189634, -187500.02235174447, -29099.89256857545, -24115.610017253166, 0.652, -0.6920000000000001, 0.388, 192.0, 0.0, 0.0, 0.0, 0.0, 0.0, 0.0, 0.0, 0.0, 0.0, 1.6634990032251513E9, 0.0, 2022-09-18 16:03:23.225
82.0, -35945.76250860244, -18363.05330551306, -34323.11526812497, -49916.541566436485, -54595.54399198818, -187500.02235174447, -29153.737920968288, -24121.667340000553, 0.652, -0.6920000000000001, 0.388, 192.0, 0.0, 0.0, 0.0, 0.0, 0.0, 0.0, 0.0, 0.0, 0.0, 1.6634990032291584E9, 0.0, 2022-09-18 16:03:23.229
83.0, -35890.6207550312, -17968.142684476697, -34355.68175979635, -49930.31024102095, -55166.161676187716, -187500.02235174447, -29217.619206621555, -24121.39911906709, 0.652, -0.6920000000000001, 0.388, 192.0, 0.0, 0.0, 0.0, 0.0, 0.0, 0.0, 0.0, 0.0, 0.0, 1.66349900323325E9, 0.0, 2022-09-18 16:03:23.233
84.0, -35937.045328264874, -17874.041840319853, -34363.48251861126, -49949.55509299697, -55659.934062949906, -187500.02235174447, -29236.79700336421, -24147.10362519069, 0.652, -0.6920000000000001, 0.388, 192.0, 0.0, 0.0, 0.0, 0.0, 0.0, 0.0, 0.0, 0.0, 0.0, 1.6634990032381926E9, 0.0, 2022-09-18 16:03:23.238
85.0, -35992.03061962493, -18537.70983668683, -34270.92394482183, -49898.12372900531, -55422.02209496762, -187500.02235174447, -29117.170467039403, -24127.52349704784, 0.652, -0.6920000000000001, 0.388, 192.0, 0.0, 0.0, 0.0, 0.0, 0.0, 0.0, 0.0, 0.0, 0.0, 1.6634990032421556E9, 0.0, 2022-09-18 16:03:23.242
86.0, -35937.3806044317, -18620.657160360475, -34284.960840339765, -49903.7787203525, -54664.208550954885, -187500.02235174447, -29116.701080405845, -24120.415642311054, 0.652, -0.6920000000000001, 0.388, 192.0, 0.0, 0.0, 0.0, 0.0, 0.0, 0.0, 0.0, 0.0, 0.0, 1.6634990032462444E9, 0.0, 2022-09-18 16:03:23.246
87.0, -35903.40595285963, -18350.20105245126, -34314.44279127631, -49910.99833381156, -54481.97477841077, -187500.02235174447, -29157.716531481332, -24119.409813810566, 0.652, -0.6920000000000001, 0.388, 192.0, 0.0, 0.0, 0.0, 0.0, 0.0, 0.0, 0.0, 0.0, 0.0, 1.6634990032491958E9, 0.0, 2022-09-18 16:03:23.249
88.0, -35876.85208044673, -17957.950289005075, -34370.63507683695, -49944.54830223898, -55149.64373703525, -187500.02235174447, -29255.795986151217, -24136.73241576343, 0.652, -0.6920000000000001, 0.388, 192.0, 0.0, 0.0, 0.0, 0.0, 0.0, 0.0, 0.0, 0.0, 0.0, 1.6634990032533145E9, 0.0, 2022-09-18 16:03:23.253
89.0, -35936.82181082032, -17892.48202949548, -34368.80223379162, -49961.46857279165, -55674.6415108015, -187500.02235174447, -29266.770692678776, -24160.49232011942, 0.638, -0.6900000000000001, 0.374, 192.0, 19.0, 240.0, 234.0, 112.0, 11.0, 176.0, 0.0, 0.0, 0.0, 1.6634990032573683E9, 0.0, 2022-09-18 16:03:23.257
90.0, -35978.8430903963, -18554.652458983954, -34262.586744140004, -49892.66990335821, -55439.523510876126, -187500.02235174447, -29116.857542617032, -24121.309712089267, 0.638, -0.6900000000000001, 0.374, 192.0, 0.0, 0.0, 0.0, 0.0, 0.0, 0.0, 0.0, 0.0, 0.0, 1.6634990032612245E9, 0.0, 2022-09-18 16:03:23.261
91.0, -35933.49140089648, -18619.91955279345, -34290.97345959824, -49909.0313802995, -54701.91594385099, -187500.02235174447, -29131.408528257434, -24119.566276021753, 0.638, -0.6900000000000001, 0.374, 192.0, 0.0, 0.0, 0.0, 0.0, 0.0, 0.0, 0.0, 0.0, 0.0, 1.6634990032652936E9, 0.0, 2022-09-18 16:03:23.265
92.0, -35924.01426124743, -18362.650974112865, -34341.60016078951, -49937.015764357544, -54568.20780851934, -187500.02235174447, -29195.178055188426, -24139.68284603153, 0.638, -0.6900000000000001, 0.374, 192.0, 0.0, 0.0, 0.0, 0.0, 0.0, 0.0, 0.0, 0.0, 0.0, 1.66349900327037E9, 0.0, 2022-09-18 16:03:23.270
93.0, -35909.55268258484, -17968.36620192125, -34402.821588852596, -49977.09244216591, -55224.99146759409, -187500.02235174447, -29280.13703586305, -24166.080256233246, 0.638, -0.6900000000000001, 0.374, 192.0, 0.0, 0.0, 0.0, 0.0, 0.0, 0.0, 0.0, 0.0, 0.0, 1.6634990032744093E9, 0.0, 2022-09-18 16:03:23.274
94.0, -35962.72748264402, -17945.478015599016, -34374.501928627724, -49962.65321524778, -55721.6025259021, -187500.02235174447, -29258.54525071922, -24165.36500041068, 0.638, -0.6900000000000001, 0.374, 192.0, 0.0, 0.0, 0.0, 0.0, 0.0, 0.0, 0.0, 0.0, 0.0, 1.6634990032773323E9, 0.0, 2022-09-18 16:03:23.277
95.0, -36002.35712556328, -18611.425889900434, -34270.7898343551, -49891.999351024555, -55451.57110113753, -187500.02235174447, -29124.09950782055, -24122.15907837857, 0.638, -0.6900000000000001, 0.374, 192.0, 0.0, 0.0, 0.0, 0.0, 0.0, 0.0, 0.0, 0.0, 0.0, 1.6634990032813253E9, 0.0, 2022-09-18 16:03:23.281
96.0, -35963.04040706639, -18651.726085153354, -34307.111419094974, -49914.82048211342, -54711.34838001113, -187500.02235174447, -29141.91384815143, -24125.936523191514, 0.638, -0.6900000000000001, 0.374, 192.0, 0.0, 0.0, 0.0, 0.0, 0.0, 0.0, 0.0, 0.0, 0.0, 1.6634990032852497E9, 0.0, 2022-09-18 16:03:23.285
97.0, -35930.20569446155, -18368.127151504417, -34336.79453573162, -49922.5318339505, -54598.025035622726, -187500.02235174447, -29179.978868958817, -24130.138651149115, 0.638, -0.6900000000000001, 0.374, 192.0, 0.0, 0.0, 0.0, 0.0, 0.0, 0.0, 0.0, 0.0, 0.0, 1.663499003289323E9, 0.0, 2022-09-18 16:03:23.289
98.0, -35895.381676600184, -17954.619879081238, -34383.37557117648, -49950.78443894201, -55252.41705804075, -187500.02235174447, -29251.03506458224, -24145.82957575674, 0.638, -0.6900000000000001, 0.374, 192.0, 0.0, 0.0, 0.0, 0.0, 0.0, 0.0, 0.0, 0.0, 0.0, 1.663499003293293E9, 0.0, 2022-09-18 16:03:23.293
99.0, -35961.69930239908, -17969.55084437738, -34375.351294917025, -49959.97100591314, -55710.4490054189, -187500.02235174447, -29243.614285423075, -24170.751770824405, 0.65, -0.6920000000000001, 0.382, 192.0, 20.0, 80.0, 234.0, 96.0, 11.0, 240.0, 0.0, 0.0, 0.0, 1.6634990032983065E9, 0.0, 2022-09-18 16:03:23.298
100.0, -35984.56513697686, -18612.834049801117, -34269.06875003204, -49884.176240465196, -55378.50324851314, -187500.02235174447, -29109.7720396247, -24123.29901734579, 0.65, -0.6920000000000001, 0.382, 192.0, 0.0, 0.0, 0.0, 0.0, 0.0, 0.0, 0.0, 0.0, 0.0, 1.6634990033023696E9, 0.0, 2022-09-18 16:03:23.302
101.0, -35967.6895699131, -18637.555079168687, -34316.54385525511, -49924.58819444039, -54629.38453309352, -187500.02235174447, -29145.221906330815, -24142.990904210914, 0.65, -0.6920000000000001, 0.382, 192.0, 0.0, 0.0, 0.0, 0.0, 0.0, 0.0, 0.0, 0.0, 0.0, 1.663499003305324E9, 0.0, 2022-09-18 16:03:23.305
102.0, -35925.40006940366, -18360.214633967236, -34319.22606458975, -49912.42884545671, -54566.03968930718, -187500.02235174447, -29160.666961749434, -24124.126031890635, 0.65, -0.6920000000000001, 0.382, 192.0, 0.0, 0.0, 0.0, 0.0, 0.0, 0.0, 0.0, 0.0, 0.0, 1.6634990033093143E9, 0.0, 2022-09-18 16:03:23.309
103.0, -35895.91811846711, -17938.906602729156, -34374.725446072276, -49948.37045054084, -55265.31401459146, -187500.02235174447, -29237.914590586974, -24145.58370656773, 0.65, -0.6920000000000001, 0.382, 192.0, 0.0, 0.0, 0.0, 0.0, 0.0, 0.0, 0.0, 0.0, 0.0, 1.6634990033133185E9, 0.0, 2022-09-18 16:03:23.313
104.0, -35969.701226914076, -17994.920074334153, -34356.5087743412, -49946.381145284315, -55741.584985445144, -187500.02235174447, -29223.385956691025, -24157.36307589568, 0.65, -0.6920000000000001, 0.382, 192.0, 0.0, 0.0, 0.0, 0.0, 0.0, 0.0, 0.0, 0.0, 0.0, 1.6634990033173628E9, 0.0, 2022-09-18 16:03:23.317
105.0, -35990.041314368405, -18648.64154441852, -34256.8870493039, -49875.34730140535, -55443.435066155806, -187500.02235174447, -29094.37168769499, -24113.665415485553, 0.65, -0.6920000000000001, 0.382, 192.0, 0.0, 0.0, 0.0, 0.0, 0.0, 0.0, 0.0, 0.0, 0.0, 1.6634990033213725E9, 0.0, 2022-09-18 16:03:23.321
106.0, -35950.72459587152, -18627.630904630532, -34301.97051787025, -49905.58921165338, -54721.63018246057, -187500.02235174447, -29131.14030732397, -24125.623598769143, 0.65, -0.6920000000000001, 0.382, 192.0, 0.0, 0.0, 0.0, 0.0, 0.0, 0.0, 0.0, 0.0, 0.0, 1.6634990033262856E9, 0.0, 2022-09-18 16:03:23.326
107.0, -35928.28344443839, -18357.152444976862, -34335.27461710866, -49914.21698501313, -54697.53500193775, -187500.02235174447, -29176.91667996844, -24124.841287713207, 0.65, -0.6920000000000001, 0.382, 192.0, 0.0, 0.0, 0.0, 0.0, 0.0, 0.0, 0.0, 0.0, 0.0, 1.6634990033304925E9, 0.0, 2022-09-18 16:03:23.330
108.0, -35903.11538018172, -17934.950343960565, -34386.6165741225, -49947.02934587352, -55403.26898136962, -187500.02235174447, -29254.007846594795, -24142.54386932181, 0.65, -0.6920000000000001, 0.382, 192.0, 0.0, 0.0, 0.0, 0.0, 0.0, 0.0, 0.0, 0.0, 0.0, 1.6634990033333943E9, 0.0, 2022-09-18 16:03:23.333
109.0, -35966.66138966816, -18013.62848444325, -34342.58363754555, -49934.9370521232, -55852.40493445456, -187500.02235174447, -29218.379165933035, -24141.91802047706, 0.66, -0.686, 0.39, 192.0, 20.0, 160.0, 234.0, 144.0, 12.0, 48.0, 0.0, 0.0, 0.0, 1.6634990033374157E9, 0.0, 2022-09-18 16:03:23.337
110.0, -35993.259965569974, -18653.849500876608, -34250.24858120067, -49878.990635751565, -55484.60697944248, -187500.02235174447, -29096.76332435171, -24108.949197405484, 0.66, -0.686, 0.39, 192.0, 0.0, 0.0, 0.0, 0.0, 0.0, 0.0, 0.0, 0.0, 0.0, 1.663499003341358E9, 0.0, 2022-09-18 16:03:23.341
111.0, -35958.07831979732, -18628.25675347528, -34290.28055552013, -49907.377351209805, -54800.86711655463, -187500.02235174447, -29121.46200197482, -24119.812145210763, 0.66, -0.686, 0.39, 192.0, 0.0, 0.0, 0.0, 0.0, 0.0, 0.0, 0.0, 0.0, 0.0, 1.6634990033454657E9, 0.0, 2022-09-18 16:03:23.345
112.0, -35933.133772985195, -18360.97459327872, -34325.708070481785, -49920.07314206042, -54809.87486957012, -187500.02235174447, -29176.067313679137, -24125.958874935972, 0.66, -0.686, 0.39, 192.0, 0.0, 0.0, 0.0, 0.0, 0.0, 0.0, 0.0, 0.0, 0.0, 1.6634990033494203E9, 0.0, 2022-09-18 16:03:23.349
113.0, -35910.67026980761, -17951.378876135215, -34386.14718748894, -49955.65711923327, -55517.7546164697, -187500.02235174447, -29268.69294270193, -24147.72947403544, 0.66, -0.686, 0.39, 192.0, 0.0, 0.0, 0.0, 0.0, 0.0, 0.0, 0.0, 0.0, 0.0, 1.663499003354404E9, 0.0, 2022-09-18 16:03:23.354
114.0, -35977.21141305106, -18065.43982809065, -34347.74689051472, -49938.82625565842, -55926.83624349073, -187500.02235174447, -29235.947637074907, -24149.40585486959, 0.66, -0.686, 0.39, 192.0, 0.0, 0.0, 0.0, 0.0, 0.0, 0.0, 0.0, 0.0, 0.0, 1.6634990033574443E9, 0.0, 2022-09-18 16:03:23.357
115.0, -35992.477654514034, -18686.32658557017, -34252.796680068575, -49872.46392637061, -55511.63023848894, -187500.02235174447, -29116.76813563921, -24105.842304926195, 0.66, -0.686, 0.39, 192.0, 0.0, 0.0, 0.0, 0.0, 0.0, 0.0, 0.0, 0.0, 0.0, 1.6634990033614316E9, 0.0, 2022-09-18 16:03:23.361
116.0, -35951.64101739419, -18633.285895977726, -34293.92388986634, -49898.414301683224, -54856.85823641518, -187500.02235174447, -29149.178165099405, -24112.659586985064, 0.66, -0.686, 0.39, 192.0, 0.0, 0.0, 0.0, 0.0, 0.0, 0.0, 0.0, 0.0, 0.0, 1.6634990033654213E9, 0.0, 2022-09-18 16:03:23.365
117.0, -35930.58567411729, -18361.77925607911, -34330.960730428786, -49917.12271179232, -54910.211850429994, -187500.02235174447, -29200.743639557797, -24124.707177246473, 0.66, -0.686, 0.39, 192.0, 0.0, 0.0, 0.0, 0.0, 0.0, 0.0, 0.0, 0.0, 0.0, 1.6634990033694344E9, 0.0, 2022-09-18 16:03:23.369
118.0, -35903.137731926174, -17918.25359085245, -34379.93340253036, -49945.44237201719, -55622.673704942914, -187500.02235174447, -29277.253660828315, -24138.721721019952, 0.66, -0.686, 0.39, 192.0, 0.0, 0.0, 0.0, 0.0, 0.0, 0.0, 0.0, 0.0, 0.0, 1.6634990033734827E9, 0.0, 2022-09-18 16:03:23.373
119.0, -35983.55930847637, -18070.468970593094, -34347.07633818106, -49938.35686902486, -56011.54935497634, -187500.02235174447, -29244.59776217911, -24148.86941300266, 0.646, -0.686, 0.386, 192.0, 20.0, 48.0, 234.0, 144.0, 12.0, 16.0, 0.0, 0.0, 0.0, 1.6634990033774555E9, 0.0, 2022-09-18 16:03:23.377
120.0, -36015.43289606964, -18699.536466543253, -34267.72764536472, -49890.47943240159, -55590.08486152707, -187500.02235174447, -29134.493068992266, -24122.82963071223, 0.646, -0.686, 0.386, 192.0, 0.0, 0.0, 0.0, 0.0, 0.0, 0.0, 0.0, 0.0, 0.0, 1.6634990033823953E9, 0.0, 2022-09-18 16:03:23.382
121.0, -35976.339695017305, -18625.619247629555, -34300.897634136396, -49912.764121623535, -54958.20104577554, -187500.02235174447, -29159.43761580439, -24127.054110414283, 0.646, -0.686, 0.386, 192.0, 0.0, 0.0, 0.0, 0.0, 0.0, 0.0, 0.0, 0.0, 0.0, 1.663499003385455E9, 0.0, 2022-09-18 16:03:23.385
122.0, -35936.44183116458, -18333.549002832056, -34319.11430586747, -49908.003200054554, -55035.11339844625, -187500.02235174447, -29192.093514453594, -24114.894761430594, 0.646, -0.686, 0.386, 192.0, 0.0, 0.0, 0.0, 0.0, 0.0, 0.0, 0.0, 0.0, 0.0, 1.6634990033884883E9, 0.0, 2022-09-18 16:03:23.388
123.0, -35917.95693850004, -17915.68314024009, -34377.18413796236, -49944.771819683534, -55756.94063388594, -187500.02235174447, -29272.492739259334, -24137.134747163625, 0.646, -0.686, 0.386, 192.0, 0.0, 0.0, 0.0, 0.0, 0.0, 0.0, 0.0, 0.0, 0.0, 1.6634990033934553E9, 0.0, 2022-09-18 16:03:23.393
124.0, -35997.08211387183, -18105.181229732185, -34330.69250949532, -49928.87972937581, -56106.11958576675, -187500.02235174447, -29213.864113553063, -24144.15319492259, 0.646, -0.686, 0.386, 192.0, 0.0, 0.0, 0.0, 0.0, 0.0, 0.0, 0.0, 0.0, 0.0, 1.6634990033974996E9, 0.0, 2022-09-18 16:03:23.397
125.0, -36027.88281773124, -18725.486841855865, -34261.91619180634, -49892.04405451346, -55656.44719081488, -187500.02235174447, -29119.00331008474, -24129.311636604267, 0.646, -0.686, 0.386, 192.0, 0.0, 0.0, 0.0, 0.0, 0.0, 0.0, 0.0, 0.0, 0.0, 1.6634990034014995E9, 0.0, 2022-09-18 16:03:23.401
126.0, -35973.545726960394, -18621.5959336276, -34295.868491633955, -49910.48424368909, -55019.84715698328, -187500.02235174447, -29143.4784702633, -24133.53611630632, 0.646, -0.686, 0.386, 192.0, 0.0, 0.0, 0.0, 0.0, 0.0, 0.0, 0.0, 0.0, 0.0, 1.6634990034055345E9, 0.0, 2022-09-18 16:03:23.405
127.0, -35945.89661906918, -18334.398369121358, -34340.817849733576, -49922.129502550306, -55127.58256525786, -187500.02235174447, -29195.4909796108, -24139.369921609155, 0.646, -0.686, 0.386, 192.0, 0.0, 0.0, 0.0, 0.0, 0.0, 0.0, 0.0, 0.0, 0.0, 1.6634990034094923E9, 0.0, 2022-09-18 16:03:23.409
128.0, -35937.93939804308, -17927.0825299123, -34409.258891255726, -49960.79802045799, -55858.4846089464, -187500.02235174447, -29271.08457935865, -24165.901442277605, 0.646, -0.686, 0.386, 192.0, 0.0, 0.0, 0.0, 0.0, 0.0, 0.0, 0.0, 0.0, 0.0, 1.6634990034135792E9, 0.0, 2022-09-18 16:03:23.413
129.0, -36016.08109665884, -18163.11695136034, -34355.23472490725, -49936.16639806824, -56188.441060595644, -187500.02235174447, -29212.031270507727, -24165.610869599685, 0.65, -0.6920000000000001, 0.386, 192.0, 20.0, 80.0, 234.0, 96.0, 12.0, 16.0, 0.0, 0.0, 0.0, 1.6634990034165492E9, 0.0, 2022-09-18 16:03:23.416
130.0, -36014.583529780335, -18744.70934208743, -34268.4876046762, -49874.095603715854, -55696.277999434235, -187500.02235174447, -29100.496065675747, -24122.270837100845, 0.65, -0.6920000000000001, 0.386, 192.0, 0.0, 0.0, 0.0, 0.0, 0.0, 0.0, 0.0, 0.0, 0.0, 1.663499003421498E9, 0.0, 2022-09-18 16:03:23.421
131.0, -35967.35429374627, -18626.133337752028, -34305.27857604964, -49891.30644694644, -55076.397070455205, -187500.02235174447, -29135.208324814837, -24118.15811612107, 0.65, -0.6920000000000001, 0.386, 192.0, 0.0, 0.0, 0.0, 0.0, 0.0, 0.0, 0.0, 0.0, 0.0, 1.6634990034255536E9, 0.0, 2022-09-18 16:03:23.425
132.0, -35942.00741553395, -18327.178755662295, -34341.51075381169, -49907.1314820208, -55204.472566184115, -187500.02235174447, -29189.232491163315, -24124.885991202118, 0.65, -0.6920000000000001, 0.386, 192.0, 0.0, 0.0, 0.0, 0.0, 0.0, 0.0, 0.0, 0.0, 0.0, 1.6634990034295511E9, 0.0, 2022-09-18 16:03:23.429
133.0, -35934.69839509707, -17913.8279454503, -34405.99553656525, -49950.04683137499, -55909.021903159846, -187500.02235174447, -29281.388733552547, -24154.904384005593, 0.65, -0.6920000000000001, 0.386, 192.0, 0.0, 0.0, 0.0, 0.0, 0.0, 0.0, 0.0, 0.0, 0.0, 1.6634990034335515E9, 0.0, 2022-09-18 16:03:23.433
134.0, -36009.822608211354, -18183.7923149815, -34347.90335272591, -49921.81657812793, -56197.71703454459, -187500.02235174447, -29223.140087502015, -24151.752788037396, 0.65, -0.6920000000000001, 0.386, 192.0, 0.0, 0.0, 0.0, 0.0, 0.0, 0.0, 0.0, 0.0, 0.0, 1.663499003437583E9, 0.0, 2022-09-18 16:03:23.437
135.0, -36010.537864033926, -18755.66169687053, -34274.88020359042, -49874.43087988268, -55686.420880129444, -187500.02235174447, -29115.270568760705, -24116.749956220385, 0.65, -0.6920000000000001, 0.386, 192.0, 0.0, 0.0, 0.0, 0.0, 0.0, 0.0, 0.0, 0.0, 0.0, 1.6634990034415672E9, 0.0, 2022-09-18 16:03:23.441
136.0, -35978.17253806264, -18630.670741876453, -34329.68668099483, -49913.8817088463, -55076.262959988475, -187500.02235174447, -29161.985714672293, -24134.54194480681, 0.65, -0.6920000000000001, 0.386, 192.0, 0.0, 0.0, 0.0, 0.0, 0.0, 0.0, 0.0, 0.0, 0.0, 1.663499003444692E9, 0.0, 2022-09-18 16:03:23.444
137.0, -35960.38054947621, -18350.335162917992, -34370.880946025965, -49934.847645145375, -55256.350965064885, -187500.02235174447, -29221.329596201136, -24148.44472985801, 0.65, -0.6920000000000001, 0.386, 192.0, 0.0, 0.0, 0.0, 0.0, 0.0, 0.0, 0.0, 0.0, 0.0, 1.6634990034495716E9, 0.0, 2022-09-18 16:03:23.449
138.0, -35968.00249433547, -17960.431332639615, -34435.745708435265, -49991.66577955077, -56009.73886367546, -187500.02235174447, -29320.03489971577, -24188.432000688554, 0.65, -0.6920000000000001, 0.386, 192.0, 0.0, 0.0, 0.0, 0.0, 0.0, 0.0, 0.0, 0.0, 0.0, 1.663499003453637E9, 0.0, 2022-09-18 16:03:23.453
139.0, -36023.12189616226, -18225.7018358352, -34343.03067243465, -49937.373392268826, -56247.583776424384, -187500.02235174447, -29219.31793920016, -24157.810110784783, 0.656, -0.6920000000000001, 0.384, 192.0, 20.0, 128.0, 234.0, 96.0, 12.0, 0.0, 0.0, 0.0, 0.0, 1.6634990034576116E9, 0.0, 2022-09-18 16:03:23.457
140.0, -36033.738974778535, -18781.70147916096, -34285.20670952877, -49901.297676717964, -55723.52477592525, -187500.02235174447, -29140.550391739656, -24134.184316895524, 0.656, -0.6920000000000001, 0.384, 192.0, 0.0, 0.0, 0.0, 0.0, 0.0, 0.0, 0.0, 0.0, 0.0, 1.6634990034616065E9, 0.0, 2022-09-18 16:03:23.461
141.0, -35992.87998591423, -18631.341294210113, -34332.65946300739, -49928.03036308651, -55126.95671641311, -187500.02235174447, -29189.835988263607, -24142.25329664389, 0.656, -0.6920000000000001, 0.384, 192.0, 0.0, 0.0, 0.0, 0.0, 0.0, 0.0, 0.0, 0.0, 0.0, 1.663499003465598E9, 0.0, 2022-09-18 16:03:23.465
142.0, -35965.65556116767, -18330.464462097225, -34366.879983768464, -49937.64161320229, -55329.552928156016, -187500.02235174447, -29228.92918931594, -24145.561354823276, 0.656, -0.6920000000000001, 0.384, 192.0, 0.0, 0.0, 0.0, 0.0, 0.0, 0.0, 0.0, 0.0, 0.0, 1.6634990034695604E9, 0.0, 2022-09-18 16:03:23.469
143.0, -35963.01805532194, -17919.572343775315, -34431.074193844106, -49980.10992766738, -56033.34230582027, -187500.02235174447, -29315.251626402336, -24175.78091332685, 0.656, -0.6920000000000001, 0.384, 192.0, 0.0, 0.0, 0.0, 0.0, 0.0, 0.0, 0.0, 0.0, 0.0, 1.6634990034726107E9, 0.0, 2022-09-18 16:03:23.472
144.0, -36039.93040799265, -18246.51130992309, -34352.79838476162, -49939.42975275872, -56258.75964865204, -187500.02235174447, -29232.483116684332, -24164.940317266028, 0.656, -0.6920000000000001, 0.384, 192.0, 0.0, 0.0, 0.0, 0.0, 0.0, 0.0, 0.0, 0.0, 0.0, 1.6634990034775753E9, 0.0, 2022-09-18 16:03:23.477
145.0, -36043.93137025015, -18784.942482106984, -34295.06382883356, -49901.4764906736, -55728.21864226087, -187500.02235174447, -29152.173298856414, -24139.794604753806, 0.656, -0.6920000000000001, 0.384, 192.0, 0.0, 0.0, 0.0, 0.0, 0.0, 0.0, 0.0, 0.0, 0.0, 1.6634990034816513E9, 0.0, 2022-09-18 16:03:23.481
146.0, -36014.583529780335, -18624.45695691788, -34355.502945840715, -49937.6863166912, -55152.169484158694, -187500.02235174447, -29217.149819987993, -24157.564241595777, 0.656, -0.6920000000000001, 0.384, 192.0, 0.0, 0.0, 0.0, 0.0, 0.0, 0.0, 0.0, 0.0, 0.0, 1.6634990034856596E9, 0.0, 2022-09-18 16:03:23.485
147.0, -35977.92666887363, -18321.032025937086, -34370.83624253705, -49936.4346190017, -55390.90846668583, -187500.02235174447, -29239.009826065285, -24152.82567177125, 0.656, -0.6920000000000001, 0.384, 192.0, 0.0, 0.0, 0.0, 0.0, 0.0, 0.0, 0.0, 0.0, 0.0, 1.6634990034896696E9, 0.0, 2022-09-18 16:03:23.489
148.0, -35961.54284018789, -17913.73853847248, -34407.31428948812, -49959.54632276849, -56087.366472168746, -187500.02235174447, -29290.955280179416, -24163.040418987326, 0.656, -0.6920000000000001, 0.384, 192.0, 0.0, 0.0, 0.0, 0.0, 0.0, 0.0, 0.0, 0.0, 0.0, 1.663499003493677E9, 0.0, 2022-09-18 16:03:23.493
149.0, -36040.48920160403, -18280.530664984068, -34324.523428025655, -49915.893365847274, -56275.29993954897, -187500.02235174447, -29203.202331447883, -24147.952991479993, 0.658, -0.6880000000000001, 0.384, 192.0, 20.0, 144.0, 234.0, 128.0, 12.0, 0.0, 0.0, 0.0, 0.0, 1.6634990034976788E9, 0.0, 2022-09-18 16:03:23.497
150.0, -36025.37942235225, -18787.95996760845, -34263.011427284655, -49875.81668803891, -55716.841604333116, -187500.02235174447, -29122.356071753034, -24118.828668454727, 0.658, -0.6880000000000001, 0.384, 192.0, 0.0, 0.0, 0.0, 0.0, 0.0, 0.0, 0.0, 0.0, 0.0, 1.6634990035006886E9, 0.0, 2022-09-18 16:03:23.500
151.0, -35991.583584735825, -18609.30247417718, -34318.734326211736, -49917.56974668142, -55159.09852493984, -187500.02235174447, -29179.44242709189, -24145.606058312187, 0.658, -0.6880000000000001, 0.384, 192.0, 0.0, 0.0, 0.0, 0.0, 0.0, 0.0, 0.0, 0.0, 0.0, 1.663499003504732E9, 0.0, 2022-09-18 16:03:23.504
152.0, -35956.96073257455, -18306.212819363216, -34337.353329343, -49919.760217638046, -55427.565327592536, -187500.02235174447, -29216.345157187603, -24142.074482688247, 0.658, -0.6880000000000001, 0.384, 192.0, 0.0, 0.0, 0.0, 0.0, 0.0, 0.0, 0.0, 0.0, 0.0, 1.6634990035096693E9, 0.0, 2022-09-18 16:03:23.509
153.0, -35963.42038672214, -17934.27979162691, -34389.52230090169, -49961.334462324914, -56142.530577484446, -187500.02235174447, -29295.00094592583, -24171.668192347075, 0.658, -0.6880000000000001, 0.384, 192.0, 0.0, 0.0, 0.0, 0.0, 0.0, 0.0, 0.0, 0.0, 0.0, 1.6634990035137126E9, 0.0, 2022-09-18 16:03:23.513
154.0, -36047.574704596365, -18340.410988379837, -34314.15221859839, -49921.146025794274, -56307.374692842335, -187500.02235174447, -29208.119715228047, -24160.089988719224, 0.658, -0.6880000000000001, 0.384, 192.0, 0.0, 0.0, 0.0, 0.0, 0.0, 0.0, 0.0, 0.0, 0.0, 1.6634990035177324E9, 0.0, 2022-09-18 16:03:23.517
155.0, -36034.297768389915, -18826.516726793852, -34266.297133719585, -49886.56787712192, -55731.14672078451, -187500.02235174447, -29134.20249631435, -24132.977322694936, 0.658, -0.6880000000000001, 0.384, 192.0, 0.0, 0.0, 0.0, 0.0, 0.0, 0.0, 0.0, 0.0, 0.0, 1.6634990035206964E9, 0.0, 2022-09-18 16:03:23.520
156.0, -35992.18708183611, -18629.97783779834, -34307.401991772895, -49909.81369135543, -55188.55812413194, -187500.02235174447, -29171.798130488176, -24138.542907064308, 0.658, -0.6880000000000001, 0.384, 192.0, 0.0, 0.0, 0.0, 0.0, 0.0, 0.0, 0.0, 0.0, 0.0, 1.6634990035247223E9, 0.0, 2022-09-18 16:03:23.524
157.0, -35960.7381773875, -18320.406177092336, -34341.04136717813, -49918.86614785983, -55487.51270622167, -187500.02235174447, -29221.620168879053, -24140.82278499875, 0.658, -0.6880000000000001, 0.384, 192.0, 0.0, 0.0, 0.0, 0.0, 0.0, 0.0, 0.0, 0.0, 0.0, 1.6634990035287347E9, 0.0, 2022-09-18 16:03:23.528
158.0, -35978.507814229466, -17965.68399258661, -34407.80602786613, -49968.17409612824, -56205.920124759694, -187500.02235174447, -29313.731707779374, -24180.810055829294, 0.658, -0.6880000000000001, 0.384, 192.0, 0.0, 0.0, 0.0, 0.0, 0.0, 0.0, 0.0, 0.0, 0.0, 1.6634990035326676E9, 0.0, 2022-09-18 16:03:23.532
159.0, -36065.254934460514, -18406.818021156552, -34330.73721298423, -49930.95844161016, -56337.88482402382, -187500.02235174447, -29215.898122298495, -24173.232814458945, 0.658, -0.6880000000000001, 0.386, 192.0, 20.0, 144.0, 234.0, 128.0, 12.0, 16.0, 0.0, 0.0, 0.0, 1.6634990035377913E9, 0.0, 2022-09-18 16:03:23.537
160.0, -36055.84485004483, -18859.3514393987, -34291.71106716526, -49905.45510118665, -55741.69674416742, -187500.02235174447, -29152.77679595671, -24149.182337425034, 0.658, -0.6880000000000001, 0.386, 192.0, 0.0, 0.0, 0.0, 0.0, 0.0, 0.0, 0.0, 0.0, 0.0, 1.663499003541765E9, 0.0, 2022-09-18 16:03:23.541
161.0, -36001.306593573885, -18653.335410754135, -34321.03655589063, -49912.138272778786, -55229.081836829406, -187500.02235174447, -29181.72230502633, -24137.984113452927, 0.658, -0.6880000000000001, 0.386, 192.0, 0.0, 0.0, 0.0, 0.0, 0.0, 0.0, 0.0, 0.0, 0.0, 1.663499003545745E9, 0.0, 2022-09-18 16:03:23.545
162.0, -35964.64973266718, -18337.460558111736, -34353.80421326211, -49921.034267072, -55569.70007058383, -187500.02235174447, -29232.01373005077, -24139.459328586978, 0.658, -0.6880000000000001, 0.386, 192.0, 0.0, 0.0, 0.0, 0.0, 0.0, 0.0, 0.0, 0.0, 0.0, 1.663499003548736E9, 0.0, 2022-09-18 16:03:23.548
163.0, -35976.049122339384, -17963.538225118904, -34406.95666157683, -49962.384994314314, -56262.73825916508, -187500.02235174447, -29301.058268673216, -24172.11522723618, 0.658, -0.6880000000000001, 0.386, 192.0, 0.0, 0.0, 0.0, 0.0, 0.0, 0.0, 0.0, 0.0, 0.0, 1.6634990035526855E9, 0.0, 2022-09-18 16:03:23.552
164.0, -36047.75351855201, -18402.526486221133, -34314.88982616542, -49907.01972329852, -56360.5047894126, -187500.02235174447, -29202.10709596957, -24148.131805435634, 0.658, -0.6880000000000001, 0.386, 192.0, 0.0, 0.0, 0.0, 0.0, 0.0, 0.0, 0.0, 0.0, 0.0, 1.6634990035568163E9, 0.0, 2022-09-18 16:03:23.556
165.0, -36041.87500976027, -18844.956915969484, -34290.86170087596, -49890.9264672907, -55775.291416083746, -187500.02235174447, -29161.76219722774, -24133.267895372857, 0.658, -0.6880000000000001, 0.386, 192.0, 0.0, 0.0, 0.0, 0.0, 0.0, 0.0, 0.0, 0.0, 0.0, 1.6634990035607696E9, 0.0, 2022-09-18 16:03:23.560
166.0, -36008.9508901776, -18633.017675044262, -34337.398032831916, -49917.07800830341, -55305.54715461101, -187500.02235174447, -29200.341308157604, -24141.806261754784, 0.658, -0.6880000000000001, 0.386, 192.0, 0.0, 0.0, 0.0, 0.0, 0.0, 0.0, 0.0, 0.0, 0.0, 1.6634990035647533E9, 0.0, 2022-09-18 16:03:23.564
167.0, -35983.58166022082, -18310.303188598537, -34378.4134839074, -49934.37825851182, -55672.026356700226, -187500.02235174447, -29259.081692586147, -24151.64102931512, 0.658, -0.6880000000000001, 0.386, 192.0, 0.0, 0.0, 0.0, 0.0, 0.0, 0.0, 0.0, 0.0, 0.0, 1.6634990035697632E9, 0.0, 2022-09-18 16:03:23.569
168.0, -36007.07334364335, -17982.626614883735, -34428.63785369848, -49974.834915975924, -56346.06556249447, -187500.02235174447, -29333.04361498876, -24181.39120118513, 0.658, -0.6880000000000001, 0.386, 192.0, 0.0, 0.0, 0.0, 0.0, 0.0, 0.0, 0.0, 0.0, 0.0, 1.6634990035738063E9, 0.0, 2022-09-18 16:03:23.573
169.0, -36081.43759744616, -18495.822667577588, -34327.943244927315, -49917.25682225905, -56429.32581059049, -187500.02235174447, -29211.6959943409, -24156.267840417368, 0.66, -0.686, 0.382, 192.0, 20.0, 160.0, 234.0, 144.0, 11.0, 240.0, 0.0, 0.0, 0.0, 1.6634990035767927E9, 0.0, 2022-09-18 16:03:23.576
170.0, -36058.70587333511, -18888.498114168422, -34294.92971836683, -49892.24522021356, -55831.43899815548, -187500.02235174447, -29155.324894824615, -24130.652741271584, 0.66, -0.686, 0.382, 192.0, 0.0, 0.0, 0.0, 0.0, 0.0, 0.0, 0.0, 0.0, 0.0, 1.6634990035808241E9, 0.0, 2022-09-18 16:03:23.580
171.0, -35996.79154119391, -18627.474442419345, -34311.514712752665, -49888.80305156745, -55360.68890818226, -187500.02235174447, -29174.569746800633, -24113.464249785455, 0.66, -0.686, 0.382, 192.0, 0.0, 0.0, 0.0, 0.0, 0.0, 0.0, 0.0, 0.0, 0.0, 1.6634990035848272E9, 0.0, 2022-09-18 16:03:23.584
172.0, -35955.06083429585, -18275.6132812039, -34341.53310555615, -49901.78941509598, -55734.20890977489, -187500.02235174447, -29222.670700868453, -24120.370938822143, 0.66, -0.686, 0.382, 192.0, 0.0, 0.0, 0.0, 0.0, 0.0, 0.0, 0.0, 0.0, 0.0, 1.6634990035888245E9, 0.0, 2022-09-18 16:03:23.588
173.0, -35978.507814229466, -17960.632498339713, -34386.30364970012, -49944.05656386096, -56400.626170709875, -187500.02235174447, -29293.12339939158, -24154.54675609431, 0.66, -0.686, 0.382, 192.0, 0.0, 0.0, 0.0, 0.0, 0.0, 0.0, 0.0, 0.0, 0.0, 1.6634990035927863E9, 0.0, 2022-09-18 16:03:23.592
174.0, -36072.34043745285, -18500.494182168746, -34306.32910803903, -49908.02555179901, -56460.21592142772, -187500.02235174447, -29202.800000047686, -24155.06084621678, 0.66, -0.686, 0.382, 192.0, 0.0, 0.0, 0.0, 0.0, 0.0, 0.0, 0.0, 0.0, 0.0, 1.6634990035978532E9, 0.0, 2022-09-18 16:03:23.597
175.0, -36044.33370165035, -18880.317375697778, -34275.6401629019, -49882.9245427757, -55857.94816707947, -187500.02235174447, -29147.837060432084, -24127.076462158737, 0.66, -0.686, 0.382, 192.0, 0.0, 0.0, 0.0, 0.0, 0.0, 0.0, 0.0, 0.0, 0.0, 1.6634990036017919E9, 0.0, 2022-09-18 16:03:23.601
176.0, -36000.7477999625, -18628.659084875475, -34315.6497854769, -49901.20826974014, -55405.750025004156, -187500.02235174447, -29186.952613228874, -24128.43991857051, 0.66, -0.686, 0.382, 192.0, 0.0, 0.0, 0.0, 0.0, 0.0, 0.0, 0.0, 0.0, 0.0, 1.663499003604859E9, 0.0, 2022-09-18 16:03:23.604
177.0, -35968.56128794685, -18292.064165123007, -34349.02093994867, -49915.893365847274, -55830.54492837727, -187500.02235174447, -29241.289703999726, -24136.486546574422, 0.66, -0.686, 0.382, 192.0, 0.0, 0.0, 0.0, 0.0, 0.0, 0.0, 0.0, 0.0, 0.0, 1.6634990036088943E9, 0.0, 2022-09-18 16:03:23.608
178.0, -35987.6943812006, -17988.147495764195, -34388.22589972328, -49951.209122086664, -56475.83979080198, -187500.02235174447, -29305.28274837527, -24166.236718444434, 0.66, -0.686, 0.382, 192.0, 0.0, 0.0, 0.0, 0.0, 0.0, 0.0, 0.0, 0.0, 0.0, 1.6634990036128156E9, 0.0, 2022-09-18 16:03:23.612
179.0, -36066.26076296101, -18545.264726312726, -34296.53904396761, -49897.05084527146, -56517.21286978875, -187500.02235174447, -29189.768933030242, -24144.287305389324, 0.66, -0.686, 0.382, 192.0, 0.0, 0.0, 0.0, 0.0, 0.0, 0.0, 0.0, 0.0, 0.0, 1.6634990036168451E9, 0.0, 2022-09-18 16:03:23.616
180.0, -36027.63694854223, -18875.981137273448, -34269.89576457689, -49877.046033983956, -55885.753737181876, -187500.02235174447, -29128.502801478244, -24118.851020199185, 0.656, -0.68, 0.394, 192.0, 20.0, 128.0, 234.0, 192.0, 12.0, 80.0, 0.0, 0.0, 0.0, 1.6634990036208825E9, 0.0, 2022-09-18 16:03:23.620
181.0, -35983.78282592092, -18626.245096474304, -34300.27178529165, -49890.47943240159, -55481.29892126309, -187500.02235174447, -29164.936144940395, -24117.01817715385, 0.656, -0.68, 0.394, 192.0, 0.0, 0.0, 0.0, 0.0, 0.0, 0.0, 0.0, 0.0, 0.0, 1.6634990036249485E9, 0.0, 2022-09-18 16:03:23.624
182.0, -35953.473860439524, -18277.736696927153, -34348.305684126106, -49911.221851256116, -55941.36487738668, -187500.02235174447, -29233.667759140466, -24126.830592969727, 0.656, -0.68, 0.394, 192.0, 0.0, 0.0, 0.0, 0.0, 0.0, 0.0, 0.0, 0.0, 0.0, 1.6634990036298997E9, 0.0, 2022-09-18 16:03:23.629
183.0, -35993.617593481256, -18004.95600759459, -34401.771056863196, -49955.03127038852, -56579.68599554134, -187500.02235174447, -29300.32066110619, -24166.057904488793, 0.656, -0.68, 0.394, 192.0, 0.0, 0.0, 0.0, 0.0, 0.0, 0.0, 0.0, 0.0, 0.0, 1.6634990036328628E9, 0.0, 2022-09-18 16:03:23.632
184.0, -36063.35503618181, -18589.409421611956, -34295.443808489305, -49889.2277347121, -56627.04934204213, -187500.02235174447, -29176.424941590423, -24133.178488395035, 0.656, -0.68, 0.394, 192.0, 0.0, 0.0, 0.0, 0.0, 0.0, 0.0, 0.0, 0.0, 0.0, 1.6634990036369114E9, 0.0, 2022-09-18 16:03:23.636
185.0, -36028.06163168688, -18880.6079483757, -34287.55364269658, -49881.225810197095, -55991.164564033104, -187500.02235174447, -29151.972133156316, -24120.01331091086, 0.656, -0.68, 0.394, 192.0, 0.0, 0.0, 0.0, 0.0, 0.0, 0.0, 0.0, 0.0, 0.0, 1.6634990036409516E9, 0.0, 2022-09-18 16:03:23.640
186.0, -35999.87608192874, -18625.48513716282, -34338.001529932204, -49907.39970295426, -55593.34821621755, -187500.02235174447, -29208.432639650422, -24133.893744217607, 0.656, -0.68, 0.394, 192.0, 0.0, 0.0, 0.0, 0.0, 0.0, 0.0, 0.0, 0.0, 0.0, 1.6634990036448772E9, 0.0, 2022-09-18 16:03:23.644
187.0, -35965.27558151192, -18265.823217132478, -34380.82747230858, -49925.16933979623, -56073.95542549556, -187500.02235174447, -29279.332373062658, -24143.840270500215, 0.656, -0.68, 0.394, 192.0, 0.0, 0.0, 0.0, 0.0, 0.0, 0.0, 0.0, 0.0, 0.0, 1.6634990036489387E9, 0.0, 2022-09-18 16:03:23.648
188.0, -35999.38434355072, -18011.817993142366, -34414.69036515836, -49952.50552326507, -56695.020996930725, -187500.02235174447, -29325.712242807418, -24164.850910288205, 0.656, -0.68, 0.394, 192.0, 0.0, 0.0, 0.0, 0.0, 0.0, 0.0, 0.0, 0.0, 0.0, 1.6634990036539576E9, 0.0, 2022-09-18 16:03:23.653
189.0, -36059.55523962441, -18603.178096196425, -34304.183340571326, -49884.15388872074, -56717.573907086124, -187500.02235174447, -29195.982717988816, -24130.697444760495, 0.656, -0.68, 0.394, 192.0, 0.0, 0.0, 0.0, 0.0, 0.0, 0.0, 0.0, 0.0, 0.0, 1.663499003657954E9, 0.0, 2022-09-18 16:03:23.657
190.0, -36022.049012428404, -18867.59923310271, -34296.67315443434, -49885.94202827717, -56080.57154185433, -187500.02235174447, -29169.227679875814, -24123.991921423905, 0.654, -0.6900000000000001, 0.39, 192.0, 20.0, 112.0, 234.0, 112.0, 12.0, 48.0, 0.0, 0.0, 0.0, 1.6634990036609423E9, 0.0, 2022-09-18 16:03:23.660
191.0, -36000.97131740705, -18614.666892846453, -34339.633207277446, -49913.70289489066, -55707.99031352882, -187500.02235174447, -29213.417078663955, -24136.464194829965, 0.654, -0.6900000000000001, 0.39, 192.0, 0.0, 0.0, 0.0, 0.0, 0.0, 0.0, 0.0, 0.0, 0.0, 1.663499003664976E9, 0.0, 2022-09-18 16:03:23.664
192.0, -35967.77897689092, -18256.90487109481, -34373.07141698258, -49928.902081120264, -56218.79472956595, -187500.02235174447, -29274.23617532685, -24137.2465058859, 0.654, -0.6900000000000001, 0.39, 192.0, 0.0, 0.0, 0.0, 0.0, 0.0, 0.0, 0.0, 0.0, 0.0, 1.6634990036689491E9, 0.0, 2022-09-18 16:03:23.668
193.0, -36003.4970645305, -18027.039531116432, -34392.673896869885, -49954.9418634107, -56823.09649265963, -187500.02235174447, -29303.18168439647, -24161.2522794309, 0.654, -0.6900000000000001, 0.39, 192.0, 0.0, 0.0, 0.0, 0.0, 0.0, 0.0, 0.0, 0.0, 0.0, 1.663499003672939E9, 0.0, 2022-09-18 16:03:23.672
194.0, -36067.13248099476, -18641.824262359652, -34284.37969498392, -49888.423071911704, -56810.3112948312, -187500.02235174447, -29169.76412174274, -24133.200840139492, 0.654, -0.6900000000000001, 0.39, 192.0, 0.0, 0.0, 0.0, 0.0, 0.0, 0.0, 0.0, 0.0, 0.0, 1.6634990036769164E9, 0.0, 2022-09-18 16:03:23.676
195.0, -36038.477544603054, -18878.998622774914, -34297.321355023545, -49894.90507780374, -56160.4566765376, -187500.02235174447, -29166.54547054118, -24130.473927315943, 0.654, -0.6900000000000001, 0.39, 192.0, 0.0, 0.0, 0.0, 0.0, 0.0, 0.0, 0.0, 0.0, 0.0, 1.6634990036820261E9, 0.0, 2022-09-18 16:03:23.682
196.0, -36010.35905007828, -18616.700901591885, -34347.12104166997, -49915.31222049144, -55806.49445134336, -187500.02235174447, -29221.30724445668, -24138.565258808765, 0.654, -0.6900000000000001, 0.39, 192.0, 0.0, 0.0, 0.0, 0.0, 0.0, 0.0, 0.0, 0.0, 0.0, 1.6634990036850312E9, 0.0, 2022-09-18 16:03:23.685
197.0, -35980.89945088619, -18258.402437973313, -34378.99462926324, -49931.27136603253, -56328.564146585966, -187500.02235174447, -29259.014637352782, -24144.488471089422, 0.654, -0.6900000000000001, 0.39, 192.0, 0.0, 0.0, 0.0, 0.0, 0.0, 0.0, 0.0, 0.0, 0.0, 1.6634990036880012E9, 0.0, 2022-09-18 16:03:23.688
198.0, -36022.2501781285, -18062.601156544824, -34397.90420507243, -49955.92534016673, -56932.351819557174, -187500.02235174447, -29297.86196921611, -24171.891709791627, 0.654, -0.6900000000000001, 0.39, 192.0, 0.0, 0.0, 0.0, 0.0, 0.0, 0.0, 0.0, 0.0, 0.0, 1.6634990036931343E9, 0.0, 2022-09-18 16:03:23.693
199.0, -36075.961420054606, -18675.88832090954, -34288.380657241425, -49878.722414818105, -56855.797094797745, -187500.02235174447, -29170.56878454313, -24130.07159591575, 0.654, -0.6900000000000001, 0.39, 192.0, 0.0, 0.0, 0.0, 0.0, 0.0, 0.0, 0.0, 0.0, 0.0, 1.6634990036970277E9, 0.0, 2022-09-18 16:03:23.697
200.0, -36031.146172421715, -18878.618643119175, -34295.577918956034, -49878.722414818105, -56191.100918185824, -187500.02235174447, -29156.889516936484, -24119.476869043934, 0.658, -0.6900000000000001, 0.388, 192.0, 20.0, 144.0, 234.0, 112.0, 12.0, 32.0, 0.0, 0.0, 0.0, 1.6634990037010405E9, 0.0, 2022-09-18 16:03:23.701
201.0, -36019.74678274951, -18622.668817361453, -34351.63609404994, -49912.94293557918, -55907.904315937085, -187500.02235174447, -29217.68626185492, -24142.812090255273, 0.658, -0.6900000000000001, 0.388, 192.0, 0.0, 0.0, 0.0, 0.0, 0.0, 0.0, 0.0, 0.0, 0.0, 1.6634990037050495E9, 0.0, 2022-09-18 16:03:23.705
202.0, -35968.78480539141, -18232.47441440516, -34374.54663211663, -49914.14992977976, -56444.72616252019, -187500.02235174447, -29264.043779855227, -24133.334950606222, 0.658, -0.6900000000000001, 0.388, 192.0, 0.0, 0.0, 0.0, 0.0, 0.0, 0.0, 0.0, 0.0, 0.0, 1.6634990037090452E9, 0.0, 2022-09-18 16:03:23.709
203.0, -36019.545617049414, -18081.42132537619, -34397.41246669441, -49945.28590980601, -57047.418600013094, -187500.02235174447, -29304.41103034151, -24166.460235888986, 0.658, -0.6900000000000001, 0.388, 192.0, 0.0, 0.0, 0.0, 0.0, 0.0, 0.0, 0.0, 0.0, 0.0, 1.6634990037120428E9, 0.0, 2022-09-18 16:03:23.712
204.0, -36083.85158584733, -18715.76383301781, -34299.17654981334, -49886.70198758865, -56929.04376137779, -187500.02235174447, -29186.080895195115, -24137.6488372861, 0.658, -0.6900000000000001, 0.388, 192.0, 0.0, 0.0, 0.0, 0.0, 0.0, 0.0, 0.0, 0.0, 0.0, 1.6634990037160454E9, 0.0, 2022-09-18 16:03:23.716
205.0, -36043.61844582778, -18883.290157710333, -34304.74213418271, -49889.51830739001, -56273.42239301472, -187500.02235174447, -29175.91085146795, -24132.150308150092, 0.658, -0.6900000000000001, 0.388, 192.0, 0.0, 0.0, 0.0, 0.0, 0.0, 0.0, 0.0, 0.0, 0.0, 1.6634990037211385E9, 0.0, 2022-09-18 16:03:23.721
206.0, -36018.96447169357, -18617.751433581285, -34349.98206496025, -49916.49686294757, -56002.04986358283, -187500.02235174447, -29229.935017816428, -24147.997694968904, 0.658, -0.6900000000000001, 0.388, 192.0, 0.0, 0.0, 0.0, 0.0, 0.0, 0.0, 0.0, 0.0, 0.0, 1.6634990037250075E9, 0.0, 2022-09-18 16:03:23.725
207.0, -35971.534069959416, -18233.7037603502, -34384.76137933271, -49924.990525840585, -56540.3469253, -187500.02235174447, -29289.055381900715, -24145.2484304009, 0.658, -0.6900000000000001, 0.388, 192.0, 0.0, 0.0, 0.0, 0.0, 0.0, 0.0, 0.0, 0.0, 0.0, 1.6634990037290874E9, 0.0, 2022-09-18 16:03:23.729
208.0, -36006.335736076326, -18081.57778758738, -34379.70988508581, -49928.25388053106, -57093.73141452449, -187500.02235174447, -29299.09131516115, -24154.25618341639, 0.658, -0.6900000000000001, 0.388, 192.0, 0.0, 0.0, 0.0, 0.0, 0.0, 0.0, 0.0, 0.0, 0.0, 1.6634990037330625E9, 0.0, 2022-09-18 16:03:23.733
209.0, -36060.1140332358, -18701.861047966606, -34287.71010490777, -49869.11116470232, -56917.62201996113, -187500.02235174447, -29185.231528905813, -24129.40104358209, 0.658, -0.6900000000000001, 0.388, 192.0, 0.0, 0.0, 0.0, 0.0, 0.0, 0.0, 0.0, 0.0, 0.0, 1.6634990037370985E9, 0.0, 2022-09-18 16:03:23.737
210.0, -36024.015965940474, -18852.78002652884, -34308.63133771793, -49879.72824331859, -56249.88600610328, -187500.02235174447, -29185.499749839277, -24124.997749924394, 0.65, -0.6880000000000001, 0.386, 192.0, 20.0, 80.0, 234.0, 128.0, 12.0, 16.0, 0.0, 0.0, 0.0, 1.663499003741096E9, 0.0, 2022-09-18 16:03:23.741
211.0, -35988.83432016782, -18585.900197732473, -34339.18617238834, -49890.68059810169, -56006.45315724053, -187500.02235174447, -29218.848552566596, -24121.82380221174, 0.65, -0.6880000000000001, 0.386, 192.0, 0.0, 0.0, 0.0, 0.0, 0.0, 0.0, 0.0, 0.0, 0.0, 1.663499003744099E9, 0.0, 2022-09-18 16:03:23.744
212.0, -35955.999607562975, -18205.875838503343, -34385.81191132211, -49918.419112970725, -56565.24676862321, -187500.02235174447, -29291.156445879515, -24137.447671586, 0.65, -0.6880000000000001, 0.386, 192.0, 0.0, 0.0, 0.0, 0.0, 0.0, 0.0, 0.0, 0.0, 0.0, 1.6634990037481499E9, 0.0, 2022-09-18 16:03:23.748
213.0, -36007.76624772147, -18100.800287818944, -34391.10927475802, -49936.456970746156, -57109.02000773192, -187500.02235174447, -29311.22831240038, -24162.772198053863, 0.65, -0.6880000000000001, 0.386, 192.0, 0.0, 0.0, 0.0, 0.0, 0.0, 0.0, 0.0, 0.0, 0.0, 1.6634990037531748E9, 0.0, 2022-09-18 16:03:23.753
214.0, -36070.59700138534, -18749.60437412314, -34301.00939285867, -49883.86331604282, -56926.629772976616, -187500.02235174447, -29197.10030521158, -24138.788776253317, 0.65, -0.6880000000000001, 0.386, 192.0, 0.0, 0.0, 0.0, 0.0, 0.0, 0.0, 0.0, 0.0, 0.0, 1.6634990037571278E9, 0.0, 2022-09-18 16:03:23.757
215.0, -36032.062593944385, -18870.706125581997, -34308.31841329556, -49891.61937136881, -56269.57789296841, -187500.02235174447, -29175.173243900925, -24134.765462251362, 0.65, -0.6880000000000001, 0.386, 192.0, 0.0, 0.0, 0.0, 0.0, 0.0, 0.0, 0.0, 0.0, 0.0, 1.6634990037611384E9, 0.0, 2022-09-18 16:03:23.761
216.0, -36018.80800948239, -18617.527916136733, -34357.46989935278, -49924.27527001802, -56090.11573673675, -187500.02235174447, -29234.293607985215, -24157.184261940034, 0.65, -0.6880000000000001, 0.386, 192.0, 0.0, 0.0, 0.0, 0.0, 0.0, 0.0, 0.0, 0.0, 0.0, 1.663499003765114E9, 0.0, 2022-09-18 16:03:23.765
217.0, -35968.3377705023, -18208.26747516006, -34392.38332419197, -49934.847645145375, -56666.65663321694, -187500.02235174447, -29289.59182376764, -24153.58563108273, 0.65, -0.6880000000000001, 0.386, 192.0, 0.0, 0.0, 0.0, 0.0, 0.0, 0.0, 0.0, 0.0, 0.0, 1.6634990037681642E9, 0.0, 2022-09-18 16:03:23.768
218.0, -36019.41150658268, -18128.44939571016, -34385.074303755086, -49942.894273149286, -57181.66317721167, -187500.02235174447, -29298.063134916203, -24170.751770824405, 0.65, -0.6880000000000001, 0.386, 192.0, 0.0, 0.0, 0.0, 0.0, 0.0, 0.0, 0.0, 0.0, 0.0, 1.6634990037721963E9, 0.0, 2022-09-18 16:03:23.772
219.0, -36060.158736724705, -18763.57421440771, -34279.88699434841, -49872.19570543715, -56955.12824715713, -187500.02235174447, -29173.00512468876, -24131.189183138515, 0.65, -0.6880000000000001, 0.386, 192.0, 0.0, 0.0, 0.0, 0.0, 0.0, 0.0, 0.0, 0.0, 0.0, 1.6634990037771795E9, 0.0, 2022-09-18 16:03:23.777
220.0, -36032.80020151141, -18850.500148594398, -34320.522465768154, -49902.21409824063, -56286.02877688751, -187500.02235174447, -29200.743639557797, -24150.568145581263, 0.662, -0.6900000000000001, 0.388, 192.0, 20.0, 176.0, 234.0, 112.0, 12.0, 32.0, 0.0, 0.0, 0.0, 1.6634990037811792E9, 0.0, 2022-09-18 16:03:23.781
221.0, -36011.96837567906, -18589.16355242295, -34360.57679183206, -49921.637764172294, -56112.176908514135, -187500.02235174447, -29248.375206992056, -24159.084160218736, 0.662, -0.6900000000000001, 0.388, 192.0, 0.0, 0.0, 0.0, 0.0, 0.0, 0.0, 0.0, 0.0, 0.0, 1.663499003785159E9, 0.0, 2022-09-18 16:03:23.785
222.0, -35949.83052609331, -18176.907977689265, -34377.18413796236, -49915.759255380544, -56707.29210463668, -187500.02235174447, -29292.385791824556, -24141.11335767667, 0.662, -0.6900000000000001, 0.388, 192.0, 0.0, 0.0, 0.0, 0.0, 0.0, 0.0, 0.0, 0.0, 0.0, 1.663499003789172E9, 0.0, 2022-09-18 16:03:23.789
223.0, -36019.478561816046, -18148.49891048657, -34384.94019328835, -49934.847645145375, -57215.61547703928, -187500.02235174447, -29315.363385124612, -24174.484512148443, 0.662, -0.6900000000000001, 0.388, 192.0, 0.0, 0.0, 0.0, 0.0, 0.0, 0.0, 0.0, 0.0, 0.0, 1.6634990037931917E9, 0.0, 2022-09-18 16:03:23.793
224.0, -36072.9662862976, -18804.209685827456, -34295.019125344654, -49880.97994100809, -56968.85221825269, -187500.02235174447, -29196.049773222185, -24154.12207294966, 0.662, -0.6900000000000001, 0.388, 192.0, 0.0, 0.0, 0.0, 0.0, 0.0, 0.0, 0.0, 0.0, 0.0, 1.6634990037972019E9, 0.0, 2022-09-18 16:03:23.797
225.0, -36023.18895139563, -18850.72366603895, -34314.42043953186, -49887.68546434468, -56290.49912577857, -187500.02235174447, -29207.426811149933, -24148.44472985801, 0.662, -0.6900000000000001, 0.388, 192.0, 0.0, 0.0, 0.0, 0.0, 0.0, 0.0, 0.0, 0.0, 0.0, 1.66349900380023E9, 0.0, 2022-09-18 16:03:23.800
226.0, -35986.912070144666, -18564.19665386637, -34339.4543933218, -49887.1266707333, -56140.22834780555, -187500.02235174447, -29245.625942424052, -24141.023950698847, 0.662, -0.6900000000000001, 0.388, 192.0, 0.0, 0.0, 0.0, 0.0, 0.0, 0.0, 0.0, 0.0, 0.0, 1.663499003804278E9, 0.0, 2022-09-18 16:03:23.804
227.0, -35954.233819751, -18148.722427931123, -34389.70111485733, -49912.31708673443, -56749.268680723755, -187500.02235174447, -29326.539257352266, -24153.67503806055, 0.662, -0.6900000000000001, 0.388, 192.0, 0.0, 0.0, 0.0, 0.0, 0.0, 0.0, 0.0, 0.0, 0.0, 1.6634990038092675E9, 0.0, 2022-09-18 16:03:23.809
228.0, -36030.94500672162, -18152.321058788428, -34390.66223986891, -49930.578461954414, -57222.63392479825, -187500.02235174447, -29341.202001714948, -24183.939300053036, 0.662, -0.6900000000000001, 0.388, 192.0, 0.0, 0.0, 0.0, 0.0, 0.0, 0.0, 0.0, 0.0, 0.0, 1.6634990038133056E9, 0.0, 2022-09-18 16:03:23.813
229.0, -36072.1616234972, -18797.750031679872, -34302.68577369282, -49874.76615604951, -56910.5812204577, -187500.02235174447, -29235.902933585996, -24158.078331718247, 0.662, -0.6900000000000001, 0.388, 192.0, 0.0, 0.0, 0.0, 0.0, 0.0, 0.0, 0.0, 0.0, 0.0, 1.663499003817263E9, 0.0, 2022-09-18 16:03:23.817
230.0, -36044.66897781718, -18844.465177591464, -34339.52144855517, -49903.55520290795, -56213.3185521744, -187500.02235174447, -29254.611343695087, -24167.466064389475, 0.65, -0.684, 0.388, 192.0, 20.0, 80.0, 234.0, 160.0, 12.0, 32.0, 0.0, 0.0, 0.0, 1.663499003821282E9, 0.0, 2022-09-18 16:03:23.821
231.0, -36008.12387563275, -18575.59604353858, -34359.43685286485, -49903.801072096954, -56065.79703876937, -187500.02235174447, -29284.339163820645, -24154.43499737203, 0.65, -0.684, 0.388, 192.0, 0.0, 0.0, 0.0, 0.0, 0.0, 0.0, 0.0, 0.0, 0.0, 1.6634990038242517E9, 0.0, 2022-09-18 16:03:23.824
232.0, -35965.90143035667, -18173.26464334305, -34400.54171091816, -49925.50461596306, -56666.634281472485, -187500.02235174447, -29356.468243177922, -24162.369866653666, 0.65, -0.684, 0.388, 192.0, 0.0, 0.0, 0.0, 0.0, 0.0, 0.0, 0.0, 0.0, 0.0, 1.6634990038282392E9, 0.0, 2022-09-18 16:03:23.828
233.0, -36029.693309032125, -18186.943910949696, -34375.820681550584, -49921.637764172294, -57088.56816155531, -187500.02235174447, -29343.05719650474, -24173.657497603595, 0.65, -0.684, 0.388, 192.0, 0.0, 0.0, 0.0, 0.0, 0.0, 0.0, 0.0, 0.0, 0.0, 1.663499003833243E9, 0.0, 2022-09-18 16:03:23.833
234.0, -36076.5649171549, -18823.43218605902, -34296.203767800784, -49872.79920253745, -56739.3445061856, -187500.02235174447, -29248.531669203243, -24151.21634617047, 0.65, -0.684, 0.388, 192.0, 0.0, 0.0, 0.0, 0.0, 0.0, 0.0, 0.0, 0.0, 0.0, 1.6634990038362439E9, 0.0, 2022-09-18 16:03:23.836
235.0, -36027.81576249788, -18829.131880895126, -34313.14639009791, -49885.003255010044, -56035.219852354516, -187500.02235174447, -29253.6055151946, -24145.986037967927, 0.65, -0.684, 0.388, 192.0, 0.0, 0.0, 0.0, 0.0, 0.0, 0.0, 0.0, 0.0, 0.0, 1.6634990038402667E9, 0.0, 2022-09-18 16:03:23.840
236.0, -35975.423273494634, -18533.932391873885, -34317.01324188867, -49871.74867054805, -55934.41348486108, -187500.02235174447, -29266.010733367293, -24124.327197590734, 0.65, -0.684, 0.388, 192.0, 0.0, 0.0, 0.0, 0.0, 0.0, 0.0, 0.0, 0.0, 0.0, 1.6634990038442388E9, 0.0, 2022-09-18 16:03:23.844
237.0, -35971.2882007704, -18136.697189414168, -34387.95767878982, -49925.81754038543, -56591.465364869284, -187500.02235174447, -29358.122272267614, -24164.180357954545, 0.65, -0.684, 0.388, 192.0, 0.0, 0.0, 0.0, 0.0, 0.0, 0.0, 0.0, 0.0, 0.0, 1.663499003848322E9, 0.0, 2022-09-18 16:03:23.848
238.0, -36051.73212906506, -18215.934123508232, -34373.384341404955, -49937.26163354655, -57024.39630322413, -187500.02235174447, -29348.3769116851, -24189.951919311516, 0.65, -0.684, 0.388, 192.0, 0.0, 0.0, 0.0, 0.0, 0.0, 0.0, 0.0, 0.0, 0.0, 1.6634990038533435E9, 0.0, 2022-09-18 16:03:23.853
239.0, -36080.364713712304, -18854.769331785363, -34282.52450019414, -49878.67771132919, -56662.61096747053, -187500.02235174447, -29233.086613784628, -24155.44082587252, 0.65, -0.684, 0.388, 192.0, 0.0, 0.0, 0.0, 0.0, 0.0, 0.0, 0.0, 0.0, 0.0, 1.663499003857253E9, 0.0, 2022-09-18 16:03:23.857
240.0, -36041.83030627135, -18848.35438112669, -34321.662404735376, -49900.89534531777, -55996.23841002446, -187500.02235174447, -29257.718236174376, -24159.084160218736, 0.646, -0.684, 0.39, 192.0, 20.0, 48.0, 234.0, 160.0, 12.0, 48.0, 0.0, 0.0, 0.0, 1.6634990038612611E9, 0.0, 2022-09-18 16:03:23.861
241.0, -35988.96843063455, -18556.82057819612, -34331.228951362245, -49886.09849048835, -55942.63892682063, -187500.02235174447, -29274.347934049125, -24137.6488372861, 0.646, -0.684, 0.39, 192.0, 0.0, 0.0, 0.0, 0.0, 0.0, 0.0, 0.0, 0.0, 0.0, 1.6634990038642924E9, 0.0, 2022-09-18 16:03:23.864
242.0, -35975.66914268365, -18152.186948321694, -34401.52518767419, -49932.72422942212, -56624.1659670074, -187500.02235174447, -29366.839452605185, -24173.322221436767, 0.646, -0.684, 0.39, 192.0, 0.0, 0.0, 0.0, 0.0, 0.0, 0.0, 0.0, 0.0, 0.0, 1.6634990038683035E9, 0.0, 2022-09-18 16:03:23.868
243.0, -36049.72047206408, -18243.493824421625, -34380.46984439729, -49933.372430011324, -57027.704361403514, -187500.02235174447, -29346.968751784418, -24189.862512333693, 0.646, -0.684, 0.39, 192.0, 0.0, 0.0, 0.0, 0.0, 0.0, 0.0, 0.0, 0.0, 0.0, 1.6634990038722868E9, 0.0, 2022-09-18 16:03:23.872
244.0, -36077.99542880004, -18868.62741334765, -34305.52444523865, -49885.696159088155, -56640.34862999304, -187500.02235174447, -29243.770747634262, -24166.370828911167, 0.646, -0.684, 0.39, 192.0, 0.0, 0.0, 0.0, 0.0, 0.0, 0.0, 0.0, 0.0, 0.0, 1.6634990038763466E9, 0.0, 2022-09-18 16:03:23.876
245.0, -36029.58155030984, -18818.447747045488, -34333.03944266313, -49896.179127237694, -55954.21713044848, -187500.02235174447, -29258.522898974767, -24159.799416041307, 0.646, -0.684, 0.39, 192.0, 0.0, 0.0, 0.0, 0.0, 0.0, 0.0, 0.0, 0.0, 0.0, 1.6634990038813033E9, 0.0, 2022-09-18 16:03:23.881
246.0, -35995.11516035976, -18538.58155472059, -34353.87126849547, -49892.78166208049, -55951.06553448028, -187500.02235174447, -29291.983460424362, -24151.529270592844, 0.646, -0.684, 0.39, 192.0, 0.0, 0.0, 0.0, 0.0, 0.0, 0.0, 0.0, 0.0, 0.0, 1.663499003885367E9, 0.0, 2022-09-18 16:03:23.885
247.0, -35983.827529409835, -18136.25015452506, -34421.485295472776, -49935.51819747904, -56602.19420220783, -187500.02235174447, -29380.92105161203, -24182.64289887463, 0.646, -0.684, 0.39, 192.0, 0.0, 0.0, 0.0, 0.0, 0.0, 0.0, 0.0, 0.0, 0.0, 1.663499003889378E9, 0.0, 2022-09-18 16:03:23.889
248.0, -36064.58438212686, -18290.588949988956, -34386.05778051112, -49925.750485152064, -56969.209846163976, -187500.02235174447, -29344.89003955007, -24190.64482338963, 0.646, -0.684, 0.39, 192.0, 0.0, 0.0, 0.0, 0.0, 0.0, 0.0, 0.0, 0.0, 0.0, 1.6634990038923378E9, 0.0, 2022-09-18 16:03:23.892
249.0, -36070.82051882989, -18875.802323317806, -34299.86945389145, -49864.19378092215, -56541.28569856712, -187500.02235174447, -29228.258636982282, -24153.898555505104, 0.646, -0.684, 0.39, 192.0, 0.0, 0.0, 0.0, 0.0, 0.0, 0.0, 0.0, 0.0, 0.0, 1.663499003896409E9, 0.0, 2022-09-18 16:03:23.896
250.0, -36034.83421025684, -18804.924941650028, -34351.74785277222, -49898.414301683224, -55860.496265947375, -187500.02235174447, -29269.69877120242, -24167.39900915611, 0.644, -0.7000000000000001, 0.396, 192.0, 20.0, 32.0, 234.0, 32.0, 12.0, 96.0, 0.0, 0.0, 0.0, 1.66349900390041E9, 0.0, 2022-09-18 16:03:23.900
251.0, -36000.7477999625, -18529.23852553827, -34377.20648970681, -49903.1305197633, -55858.70812639095, -187500.02235174447, -29309.149600166038, -24162.369866653666, 0.644, -0.7000000000000001, 0.396, 192.0, 0.0, 0.0, 0.0, 0.0, 0.0, 0.0, 0.0, 0.0, 0.0, 1.6634990039044075E9, 0.0, 2022-09-18 16:03:23.904
252.0, -35980.85474739728, -18127.287104998482, -34432.99644386726, -49939.85443590337, -56506.59579117248, -187500.02235174447, -29390.174673816524, -24183.3581546972, 0.644, -0.7000000000000001, 0.396, 192.0, 0.0, 0.0, 0.0, 0.0, 0.0, 0.0, 0.0, 0.0, 0.0, 1.6634990039093516E9, 0.0, 2022-09-18 16:03:23.909
253.0, -36065.34434143834, -18299.999034404642, -34403.53684467517, -49937.35104052437, -56836.28402188826, -187500.02235174447, -29359.48572867939, -24201.21719851699, 0.644, -0.7000000000000001, 0.396, 192.0, 0.0, 0.0, 0.0, 0.0, 0.0, 0.0, 0.0, 0.0, 0.0, 1.6634990039134572E9, 0.0, 2022-09-18 16:03:23.913
254.0, -36087.74078938255, -18897.50586718391, -34330.13371588394, -49890.85941205733, -56383.705900157205, -187500.02235174447, -29250.49862271531, -24173.97042202597, 0.644, -0.7000000000000001, 0.396, 192.0, 0.0, 0.0, 0.0, 0.0, 0.0, 0.0, 0.0, 0.0, 0.0, 1.6634990039183807E9, 0.0, 2022-09-18 16:03:23.918
255.0, -36031.41439335518, -18815.81024119976, -34351.61374230549, -49894.05571151444, -55746.480017480855, -187500.02235174447, -29268.424721768468, -24155.12790145015, 0.644, -0.7000000000000001, 0.396, 192.0, 0.0, 0.0, 0.0, 0.0, 0.0, 0.0, 0.0, 0.0, 0.0, 1.6634990039223664E9, 0.0, 2022-09-18 16:03:23.922
0.0, -36016.10344840329, -18543.878918156497, -34398.23948123926, -49917.21211877014, -55818.832614282685, -187500.02235174447, -29331.926027765996, -24171.824654558262, 0.644, -0.7000000000000001, 0.396, 192.0, 0.0, 0.0, 0.0, 0.0, 0.0, 0.0, 0.0, 0.0, 0.0, 1.6634990039254253E9, 0.0, 2022-09-18 16:03:23.925
1.0, -35995.94217490461, -18126.974180576108, -34440.976016637804, -49949.108058107864, -56496.00106430067, -187500.02235174447, -29387.090133081692, -24188.879035577662, 0.644, -0.7000000000000001, 0.396, 192.0, 0.0, 0.0, 0.0, 0.0, 0.0, 0.0, 0.0, 0.0, 0.0, 1.6634990039285011E9, 0.0, 2022-09-18 16:03:23.928
2.0, -36080.32001022339, -18338.53344184559, -34399.737048117764, -49936.47932249062, -56821.889498459044, -187500.02235174447, -29340.397338914558, -24198.82556186027, 0.644, -0.7000000000000001, 0.396, 192.0, 0.0, 0.0, 0.0, 0.0, 0.0, 0.0, 0.0, 0.0, 0.0, 1.663499003932393E9, 0.0, 2022-09-18 16:03:23.932
3.0, -36085.30444923692, -18913.755585402916, -34321.1483146129, -49885.24912419905, -56340.14235021381, -187500.02235174447, -29231.812564350676, -24166.571994611266, 0.644, -0.7000000000000001, 0.396, 192.0, 0.0, 0.0, 0.0, 0.0, 0.0, 0.0, 0.0, 0.0, 0.0, 1.663499003936468E9, 0.0, 2022-09-18 16:03:23.936
4.0, -36043.238466172035, -18810.91520916405, -34360.44268136533, -49910.037208799986, -55675.20030441288, -187500.02235174447, -29263.037951354738, -24171.645840602618, 0.646, -0.6880000000000001, 0.396, 192.0, 20.0, 48.0, 234.0, 128.0, 12.0, 96.0, 0.0, 0.0, 0.0, 1.6634990039414892E9, 0.0, 2022-09-18 16:03:23.941
5.0, -36010.47080880056, -18531.18312730588, -34376.692399584346, -49906.01389479803, -55764.69668921193, -187500.02235174447, -29293.592786025143, -24161.609907342186, 0.646, -0.6880000000000001, 0.396, 192.0, 0.0, 0.0, 0.0, 0.0, 0.0, 0.0, 0.0, 0.0, 0.0, 1.6634990039454896E9, 0.0, 2022-09-18 16:03:23.945
6.0, -35988.297878300895, -18105.404747176737, -34426.4250309974, -49934.89234863429, -56437.73006650568, -187500.02235174447, -29369.231089261903, -24180.675945362564, 0.646, -0.6880000000000001, 0.396, 192.0, 0.0, 0.0, 0.0, 0.0, 0.0, 0.0, 0.0, 0.0, 0.0, 1.6634990039484673E9, 0.0, 2022-09-18 16:03:23.948
7.0, -36064.80789957141, -18344.05432272605, -34374.47957688327, -49912.09356928988, -56707.02388370322, -187500.02235174447, -29316.726841536387, -24182.665250619084, 0.646, -0.6880000000000001, 0.396, 192.0, 0.0, 0.0, 0.0, 0.0, 0.0, 0.0, 0.0, 0.0, 0.0, 1.663499003952462E9, 0.0, 2022-09-18 16:03:23.952
8.0, -36076.00612354352, -18917.041291837846, -34308.229006317735, -49870.318158902905, -56179.38860409124, -187500.02235174447, -29225.107041014082, -24155.5525845948, 0.646, -0.6880000000000001, 0.396, 192.0, 0.0, 0.0, 0.0, 0.0, 0.0, 0.0, 0.0, 0.0, 0.0, 1.6634990039564538E9, 0.0, 2022-09-18 16:03:23.956
9.0, -36033.738974778535, -18796.453630501466, -34348.17157365937, -49892.71460684713, -55527.47762530776, -187500.02235174447, -29263.3061722882, -24157.608945084685, 0.646, -0.6880000000000001, 0.396, 192.0, 0.0, 0.0, 0.0, 0.0, 0.0, 0.0, 0.0, 0.0, 0.0, 1.6634990039606228E9, 0.0, 2022-09-18 16:03:23.960
10.0, -35998.847901683795, -18505.970359560295, -34373.49610012723, -49895.553278392945, -55646.32185057663, -187500.02235174447, -29308.255530387825, -24153.764445038374, 0.646, -0.6880000000000001, 0.396, 192.0, 0.0, 0.0, 0.0, 0.0, 0.0, 0.0, 0.0, 0.0, 0.0, 1.6634990039644976E9, 0.0, 2022-09-18 16:03:23.964
11.0, -35981.368837519745, -18095.793497060957, -34422.93815886237, -49928.96913635363, -56327.4465593632, -187500.02235174447, -29391.515778483845, -24171.332916180243, 0.646, -0.6880000000000001, 0.396, 192.0, 0.0, 0.0, 0.0, 0.0, 0.0, 0.0, 0.0, 0.0, 0.0, 1.6634990039695578E9, 0.0, 2022-09-18 16:03:23.969
12.0, -36070.06055951841, -18389.98715758171, -34367.01409423519, -49909.21019425514, -56582.85994325399, -187500.02235174447, -29329.601446342644, -24177.2561284609, 0.646, -0.6880000000000001, 0.396, 192.0, 0.0, 0.0, 0.0, 0.0, 0.0, 0.0, 0.0, 0.0, 0.0, 1.663499003972463E9, 0.0, 2022-09-18 16:03:23.972
13.0, -36075.98377179906, -18955.687458001074, -34301.36702076996, -49862.51740008801, -56060.67848928911, -187500.02235174447, -29231.45493643939, -24144.622581556152, 0.646, -0.6880000000000001, 0.396, 192.0, 0.0, 0.0, 0.0, 0.0, 0.0, 0.0, 0.0, 0.0, 0.0, 1.6634990039764628E9, 0.0, 2022-09-18 16:03:23.976
14.0, -36032.86725674477, -18810.803450441774, -34342.762451501185, -49885.8749730438, -55450.3864586814, -187500.02235174447, -29266.904803145506, -24148.78000602484, 0.648, -0.686, 0.392, 192.0, 20.0, 64.0, 234.0, 144.0, 12.0, 64.0, 0.0, 0.0, 0.0, 1.6634990039804688E9, 0.0, 2022-09-18 16:03:23.980
15.0, -36001.5971662518, -18511.200667762838, -34374.61368735, -49897.40847318274, -55626.942888133875, -187500.02235174447, -29312.077678689682, -24151.037532214825, 0.648, -0.686, 0.392, 192.0, 0.0, 0.0, 0.0, 0.0, 0.0, 0.0, 0.0, 0.0, 0.0, 1.6634990039845805E9, 0.0, 2022-09-18 16:03:23.984
16.0, -35997.037410382916, -18111.998511791055, -34431.78944966668, -49941.59787197088, -56317.991771458604, -187500.02235174447, -29392.968641873438, -24177.68081160555, 0.648, -0.686, 0.392, 192.0, 0.0, 0.0, 0.0, 0.0, 0.0, 0.0, 0.0, 0.0, 0.0, 1.6634990039885151E9, 0.0, 2022-09-18 16:03:23.988
17.0, -36061.209268714105, -18419.469108518257, -34351.47963183876, -49896.894383060266, -56559.07768715354, -187500.02235174447, -29308.456696087924, -24158.92769800755, 0.648, -0.686, 0.392, 192.0, 0.0, 0.0, 0.0, 0.0, 0.0, 0.0, 0.0, 0.0, 0.0, 1.6634990039924915E9, 0.0, 2022-09-18 16:03:23.992
18.0, -36056.113070978296, -18934.676818213084, -34291.01816308715, -49859.05287969743, -56029.22958484049, -187500.02235174447, -29219.228532222336, -24133.200840139492, 0.648, -0.686, 0.392, 192.0, 0.0, 0.0, 0.0, 0.0, 0.0, 0.0, 0.0, 0.0, 0.0, 1.6634990039974988E9, 0.0, 2022-09-18 16:03:23.997
19.0, -36029.91682647668, -18784.093115817683, -34352.93249522835, -49898.10137726085, -55443.03273475561, -187500.02235174447, -29275.01848638278, -24151.886898504126, 0.648, -0.686, 0.392, 192.0, 0.0, 0.0, 0.0, 0.0, 0.0, 0.0, 0.0, 0.0, 0.0, 1.6634990040006468E9, 0.0, 2022-09-18 16:03:24.000
20.0, -36001.32894531834, -18483.305690682613, -34381.766245575694, -49901.65530462925, -55643.572586008624, -187500.02235174447, -29316.682138047476, -24151.484567103933, 0.648, -0.686, 0.392, 192.0, 0.0, 0.0, 0.0, 0.0, 0.0, 0.0, 0.0, 0.0, 0.0, 1.663499004004576E9, 0.0, 2022-09-18 16:03:24.004
21.0, -35995.11516035976, -18085.623453333792, -34430.29188278817, -49938.066296346944, -56335.38142864483, -187500.02235174447, -29388.72181042693, -24177.859625561196, 0.648, -0.686, 0.392, 192.0, 0.0, 0.0, 0.0, 0.0, 0.0, 0.0, 0.0, 0.0, 0.0, 1.6634990040085661E9, 0.0, 2022-09-18 16:03:24.008
22.0, -36088.09841729384, -18451.052123433605, -34379.93340253036, -49920.87780486081, -56550.27109983815, -187500.02235174447, -29328.95324575344, -24187.672041377074, 0.648, -0.686, 0.392, 192.0, 0.0, 0.0, 0.0, 0.0, 0.0, 0.0, 0.0, 0.0, 0.0, 1.6634990040126314E9, 0.0, 2022-09-18 16:03:24.012
23.0, -36093.39578072975, -18981.257853657946, -34334.49230605272, -49891.79818532446, -56000.19466879305, -187500.02235174447, -29260.82512865366, -24169.54477662382, 0.648, -0.686, 0.392, 192.0, 0.0, 0.0, 0.0, 0.0, 0.0, 0.0, 0.0, 0.0, 0.0, 1.6634990040166123E9, 0.0, 2022-09-18 16:03:24.016
24.0, -36041.67384406017, -18806.646025973085, -34366.56705934609, -49904.8292523419, -55423.89964150186, -187500.02235174447, -29290.485893545854, -24164.605041099196, 0.648, -0.686, 0.392, 192.0, 0.0, 0.0, 0.0, 0.0, 0.0, 0.0, 0.0, 0.0, 0.0, 1.6634990040206203E9, 0.0, 2022-09-18 16:03:24.020
25.0, -35996.478616771536, -18492.7157750983, -34380.738065330755, -49893.83219406989, -55668.11480142055, -187500.02235174447, -29317.79972527024, -24148.042398457816, 0.652, -0.6880000000000001, 0.384, 192.0, 20.0, 96.0, 234.0, 128.0, 12.0, 0.0, 0.0, 0.0, 0.0, 1.6634990040256107E9, 0.0, 2022-09-18 16:03:24.025
26.0, -36006.469846543056, -18110.076261767896, -34434.04697585666, -49935.7864184125, -56379.7049378997, -187500.02235174447, -29387.268947037333, -24177.032611016348, 0.652, -0.6880000000000001, 0.384, 192.0, 0.0, 0.0, 0.0, 0.0, 0.0, 0.0, 0.0, 0.0, 0.0, 1.66349900402859E9, 0.0, 2022-09-18 16:03:24.028
27.0, -36090.55710918392, -18492.067574509096, -34361.24734416573, -49903.48814767458, -56549.75700971568, -187500.02235174447, -29299.89597796154, -24173.76925632587, 0.652, -0.6880000000000001, 0.384, 192.0, 0.0, 0.0, 0.0, 0.0, 0.0, 0.0, 0.0, 0.0, 0.0, 1.663499004031716E9, 0.0, 2022-09-18 16:03:24.031
28.0, -36080.90115557923, -18983.76124903694, -34310.30771855208, -49866.87599025679, -55963.828380564264, -187500.02235174447, -29224.43648868042, -24148.087101946727, 0.652, -0.6880000000000001, 0.384, 192.0, 0.0, 0.0, 0.0, 0.0, 0.0, 0.0, 0.0, 0.0, 0.0, 1.6634990040366726E9, 0.0, 2022-09-18 16:03:24.036
29.0, -36051.218038942585, -18807.987130640406, -34365.74004480124, -49897.90021156076, -55429.7334468047, -187500.02235174447, -29280.338201563147, -24165.052075988304, 0.652, -0.6880000000000001, 0.384, 192.0, 0.0, 0.0, 0.0, 0.0, 0.0, 0.0, 0.0, 0.0, 0.0, 1.6634990040406363E9, 0.0, 2022-09-18 16:03:24.040
30.0, -36009.71084948908, -18488.37953667397, -34383.889661298956, -49893.72043534761, -55711.03015077474, -187500.02235174447, -29319.923140993495, -24155.5525845948, 0.652, -0.6880000000000001, 0.384, 192.0, 0.0, 0.0, 0.0, 0.0, 0.0, 0.0, 0.0, 0.0, 0.0, 1.663499004044643E9, 0.0, 2022-09-18 16:03:24.044
31.0, -36005.44166629812, -18108.623398378302, -34429.308406032134, -49926.331630507906, -56435.4725403157, -187500.02235174447, -29391.225205805924, -24176.540872638332, 0.652, -0.6880000000000001, 0.384, 192.0, 0.0, 0.0, 0.0, 0.0, 0.0, 0.0, 0.0, 0.0, 0.0, 1.6634990040486276E9, 0.0, 2022-09-18 16:03:24.048
32.0, -36093.46283596311, -18517.705025399333, -34370.54566985914, -49904.91865931972, -56572.801658249104, -187500.02235174447, -29317.352690381136, -24184.87807332016, 0.652, -0.6880000000000001, 0.384, 192.0, 0.0, 0.0, 0.0, 0.0, 0.0, 0.0, 0.0, 0.0, 0.0, 1.663499004052592E9, 0.0, 2022-09-18 16:03:24.052
33.0, -36069.27824846247, -18984.543560092876, -34308.94426214031, -49856.88476048526, -55988.571761676285, -187500.02235174447, -29226.91753231496, -24143.63910480012, 0.652, -0.6880000000000001, 0.384, 192.0, 0.0, 0.0, 0.0, 0.0, 0.0, 0.0, 0.0, 0.0, 0.0, 1.6634990040566432E9, 0.0, 2022-09-18 16:03:24.056
34.0, -36031.7049660331, -18776.940557591985, -34346.204620147306, -49879.68353982968, -55465.63034839992, -187500.02235174447, -29265.966029878382, -24148.35532288019, 0.652, -0.6880000000000001, 0.384, 192.0, 0.0, 0.0, 0.0, 0.0, 0.0, 0.0, 0.0, 0.0, 0.0, 1.6634990040596683E9, 0.0, 2022-09-18 16:03:24.059
35.0, -36007.855654699284, -18459.36697237098, -34380.82747230858, -49888.51247888953, -55785.19323887745, -187500.02235174447, -29320.928969493983, -24148.087101946727, 0.658, -0.686, 0.382, 192.0, 20.0, 144.0, 234.0, 144.0, 11.0, 240.0, 0.0, 0.0, 0.0, 1.6634990040646687E9, 0.0, 2022-09-18 16:03:24.064
36.0, -36022.92073046217, -18108.086956511375, -34433.33172003409, -49928.79032239799, -56504.85235510497, -187500.02235174447, -29390.621708705632, -24178.910157550596, 0.658, -0.686, 0.382, 192.0, 0.0, 0.0, 0.0, 0.0, 0.0, 0.0, 0.0, 0.0, 0.0, 1.6634990040686364E9, 0.0, 2022-09-18 16:03:24.068
37.0, -36099.49780696604, -18549.04217112567, -34358.02869296416, -49891.239391713076, -56617.70631285982, -187500.02235174447, -29295.671498259486, -24171.578785369253, 0.658, -0.686, 0.382, 192.0, 0.0, 0.0, 0.0, 0.0, 0.0, 0.0, 0.0, 0.0, 0.0, 1.6634990040726287E9, 0.0, 2022-09-18 16:03:24.072
38.0, -36081.39289395725, -18977.61451931173, -34319.918968667866, -49865.19960942264, -55984.28022674087, -187500.02235174447, -29231.20906725038, -24151.104587448193, 0.658, -0.686, 0.382, 192.0, 0.0, 0.0, 0.0, 0.0, 0.0, 0.0, 0.0, 0.0, 0.0, 1.6634990040767107E9, 0.0, 2022-09-18 16:03:24.076
39.0, -36060.98575126955, -18785.2330547849, -34382.01211476471, -49908.852566343856, -55484.58462769802, -187500.02235174447, -29297.23612037136, -24179.40189592861, 0.658, -0.686, 0.382, 192.0, 0.0, 0.0, 0.0, 0.0, 0.0, 0.0, 0.0, 0.0, 0.0, 1.6634990040806727E9, 0.0, 2022-09-18 16:03:24.080
40.0, -36033.56016082289, -18469.93934749834, -34427.81083915363, -49926.801017141464, -55834.65764935704, -187500.02235174447, -29359.15045251256, -24191.44948619002, 0.658, -0.686, 0.382, 192.0, 0.0, 0.0, 0.0, 0.0, 0.0, 0.0, 0.0, 0.0, 0.0, 1.6634990040846608E9, 0.0, 2022-09-18 16:03:24.084
41.0, -36018.4503815711, -18110.63505537928, -34445.84869692906, -49935.71936317914, -56544.705515468784, -187500.02235174447, -29392.745124428886, -24195.137524025147, 0.658, -0.686, 0.382, 192.0, 0.0, 0.0, 0.0, 0.0, 0.0, 0.0, 0.0, 0.0, 0.0, 1.6634990040876567E9, 0.0, 2022-09-18 16:03:24.087
42.0, -36091.25001326204, -18580.24520638528, -34359.30274239811, -49889.98769402358, -56614.465309913794, -187500.02235174447, -29289.65887900101, -24182.106457007703, 0.658, -0.686, 0.382, 192.0, 0.0, 0.0, 0.0, 0.0, 0.0, 0.0, 0.0, 0.0, 0.0, 1.66349900409267E9, 0.0, 2022-09-18 16:03:24.092
43.0, -36080.72234162359, -18997.14994396567, -34336.16868688687, -49873.268589171006, -55975.160715003105, -187500.02235174447, -29242.384939478034, -24165.11913122167, 0.658, -0.686, 0.382, 192.0, 0.0, 0.0, 0.0, 0.0, 0.0, 0.0, 0.0, 0.0, 0.0, 1.6634990040966513E9, 0.0, 2022-09-18 16:03:24.096
44.0, -36046.21124818459, -18766.502292931353, -34381.989763020254, -49895.79914758196, -55482.93059860833, -187500.02235174447, -29294.620966270086, -24170.327087679754, 0.658, -0.686, 0.382, 192.0, 0.0, 0.0, 0.0, 0.0, 0.0, 0.0, 0.0, 0.0, 0.0, 1.663499004100742E9, 0.0, 2022-09-18 16:03:24.100
45.0, -36010.98489892303, -18428.83448944503, -34407.224882510294, -49903.39874069676, -55858.01522231284, -187500.02235174447, -29331.456641132434, -24172.629317358653, 0.656, -0.684, 0.388, 192.0, 20.0, 128.0, 234.0, 160.0, 12.0, 32.0, 0.0, 0.0, 0.0, 1.6634990041047661E9, 0.0, 2022-09-18 16:03:24.104
46.0, -36026.22878864155, -18091.591369103357, -34445.602827740055, -49940.70380219267, -56551.52279752765, -187500.02235174447, -29393.795656418286, -24200.30077699432, 0.656, -0.684, 0.388, 192.0, 0.0, 0.0, 0.0, 0.0, 0.0, 0.0, 0.0, 0.0, 0.0, 1.6634990041087625E9, 0.0, 2022-09-18 16:03:24.108
47.0, -36128.5774265024, -18615.963294024863, -34386.97420203379, -49924.34232525138, -56595.53338236015, -187500.02235174447, -29321.66657706101, -24212.616588189198, 0.656, -0.684, 0.388, 192.0, 0.0, 0.0, 0.0, 0.0, 0.0, 0.0, 0.0, 0.0, 0.0, 1.6634990041117492E9, 0.0, 2022-09-18 16:03:24.111
48.0, -36107.544434969954, -19003.162563224145, -34365.58358259006, -49904.78454885299, -55917.604973030684, -187500.02235174447, -29281.36638180809, -24192.947053068525, 0.656, -0.684, 0.388, 192.0, 0.0, 0.0, 0.0, 0.0, 0.0, 0.0, 0.0, 0.0, 0.0, 1.6634990041157696E9, 0.0, 2022-09-18 16:03:24.115
49.0, -36053.94495176613, -18774.794790124273, -34387.37653343398, -49910.528947178005, -55458.96952855224, -187500.02235174447, -29308.881379232575, -24181.435904674043, 0.656, -0.684, 0.388, 192.0, 0.0, 0.0, 0.0, 0.0, 0.0, 0.0, 0.0, 0.0, 0.0, 1.6634990041197796E9, 0.0, 2022-09-18 16:03:24.119
50.0, -36029.76036426549, -18438.378684327447, -34423.6757664294, -49928.11977006433, -55858.93164383551, -187500.02235174447, -29356.42353968901, -24189.88486407815, 0.656, -0.684, 0.388, 192.0, 0.0, 0.0, 0.0, 0.0, 0.0, 0.0, 0.0, 0.0, 0.0, 1.6634990041247723E9, 0.0, 2022-09-18 16:03:24.124
51.0, -36050.63689358674, -18124.58254391939, -34458.07510114612, -49957.4899622786, -56538.6481927214, -187500.02235174447, -29409.01719439235, -24213.778878900874, 0.656, -0.684, 0.388, 192.0, 0.0, 0.0, 0.0, 0.0, 0.0, 0.0, 0.0, 0.0, 0.0, 1.663499004128769E9, 0.0, 2022-09-18 16:03:24.128
52.0, -36119.01087987553, -18636.035160545725, -34366.00826573471, -49906.617391898326, -56530.936840884315, -187500.02235174447, -29291.22350111288, -24195.78572461435, 0.656, -0.684, 0.388, 192.0, 0.0, 0.0, 0.0, 0.0, 0.0, 0.0, 0.0, 0.0, 0.0, 1.6634990041328115E9, 0.0, 2022-09-18 16:03:24.132
53.0, -36088.88072834977, -18976.452228600054, -34332.145372884916, -49886.45611839964, -55838.256280214344, -187500.02235174447, -29230.940846316917, -24173.098703992215, 0.656, -0.684, 0.388, 192.0, 0.0, 0.0, 0.0, 0.0, 0.0, 0.0, 0.0, 0.0, 0.0, 1.6634990041358583E9, 0.0, 2022-09-18 16:03:24.135
54.0, -36061.65630360321, -18754.81233058123, -34378.1676147184, -49910.81951985592, -55395.93760918827, -187500.02235174447, -29280.13703586305, -24182.128808752157, 0.656, -0.684, 0.388, 192.0, 0.0, 0.0, 0.0, 0.0, 0.0, 0.0, 0.0, 0.0, 0.0, 1.663499004139794E9, 0.0, 2022-09-18 16:03:24.139
55.0, -36019.32209960486, -18420.094957363006, -34401.145208018446, -49908.696104132665, -55832.42247491151, -187500.02235174447, -29323.56647533971, -24170.774122568862, 0.654, -0.686, 0.382, 192.0, 20.0, 112.0, 234.0, 144.0, 11.0, 240.0, 0.0, 0.0, 0.0, 1.6634990041438217E9, 0.0, 2022-09-18 16:03:24.143
56.0, -36056.49305063403, -18139.11117781534, -34451.123708620515, -49952.93020640972, -56529.551032728086, -187500.02235174447, -29392.56631047324, -24209.621454432185, 0.654, -0.686, 0.382, 192.0, 0.0, 0.0, 0.0, 0.0, 0.0, 0.0, 0.0, 0.0, 0.0, 1.6634990041478307E9, 0.0, 2022-09-18 16:03:24.147
57.0, -36115.36754552931, -18663.460750992388, -34359.10157669802, -49896.71556910462, -56484.66872986183, -187500.02235174447, -29276.963088150394, -24184.25222447541, 0.654, -0.686, 0.382, 192.0, 0.0, 0.0, 0.0, 0.0, 0.0, 0.0, 0.0, 0.0, 0.0, 1.6634990041528196E9, 0.0, 2022-09-18 16:03:24.152
58.0, -36092.725228396084, -18979.51441759043, -34352.26194289469, -49890.30061844595, -55780.722889986384, -187500.02235174447, -29246.69882615791, -24171.98111676945, 0.654, -0.686, 0.382, 192.0, 0.0, 0.0, 0.0, 0.0, 0.0, 0.0, 0.0, 0.0, 0.0, 1.6634990041568382E9, 0.0, 2022-09-18 16:03:24.156
59.0, -36075.536736909955, -18761.875481829105, -34407.73897263277, -49918.82144437092, -55358.25256803663, -187500.02235174447, -29301.840579729153, -24185.392163442633, 0.654, -0.686, 0.382, 192.0, 0.0, 0.0, 0.0, 0.0, 0.0, 0.0, 0.0, 0.0, 0.0, 1.663499004160869E9, 0.0, 2022-09-18 16:03:24.160
60.0, -36033.6048643118, -18420.54199225211, -34437.31033054714, -49918.68733390419, -55812.66353281302, -187500.02235174447, -29349.2262779744, -24177.390238927634, 0.654, -0.686, 0.382, 192.0, 0.0, 0.0, 0.0, 0.0, 0.0, 0.0, 0.0, 0.0, 0.0, 1.6634990041639512E9, 0.0, 2022-09-18 16:03:24.163
61.0, -36058.52705937947, -18152.8351489109, -34463.17129888193, -49946.71642145114, -56482.478258905205, -187500.02235174447, -29397.30488029777, -24200.345480483233, 0.654, -0.686, 0.382, 192.0, 0.0, 0.0, 0.0, 0.0, 0.0, 0.0, 0.0, 0.0, 0.0, 1.6634990041678438E9, 0.0, 2022-09-18 16:03:24.167
62.0, -36123.637690977775, -18708.767737003298, -34372.982010004765, -49897.47552841611, -56403.10721434441, -187500.02235174447, -29283.445094042432, -24184.31927970878, 0.654, -0.686, 0.382, 192.0, 0.0, 0.0, 0.0, 0.0, 0.0, 0.0, 0.0, 0.0, 0.0, 1.6634990041718736E9, 0.0, 2022-09-18 16:03:24.171
63.0, -36107.1197518253, -18998.51340037744, -34381.05098975313, -49907.48910993208, -55697.127365723536, -187500.02235174447, -29267.955335134906, -24189.236663488944, 0.654, -0.686, 0.382, 192.0, 0.0, 0.0, 0.0, 0.0, 0.0, 0.0, 0.0, 0.0, 0.0, 1.6634990041758294E9, 0.0, 2022-09-18 16:03:24.175
64.0, -36081.77287361299, -18765.13883651958, -34417.75255414874, -49929.21500554264, -55299.78040454155, -187500.02235174447, -29311.317719378203, -24195.919835081084, 0.654, -0.686, 0.382, 192.0, 0.0, 0.0, 0.0, 0.0, 0.0, 0.0, 0.0, 0.0, 0.0, 1.6634990041808724E9, 0.0, 2022-09-18 16:03:24.180
65.0, -36037.98580622504, -18425.861707432476, -34437.15386833595, -49927.851549130864, -55796.257352382825, -187500.02235174447, -29354.43423443249, -24184.565148897786, 0.662, -0.6920000000000001, 0.386, 192.0, 20.0, 176.0, 234.0, 96.0, 12.0, 16.0, 0.0, 0.0, 0.0, 1.6634990041848888E9, 0.0, 2022-09-18 16:03:24.184
66.0, -36053.63202734375, -18160.59120423689, -34453.649455743966, -49942.22372081563, -56447.073095688, -187500.02235174447, -29387.358354015156, -24196.679794392563, 0.662, -0.6920000000000001, 0.386, 192.0, 0.0, 0.0, 0.0, 0.0, 0.0, 0.0, 0.0, 0.0, 0.0, 1.663499004188908E9, 0.0, 2022-09-18 16:03:24.188
67.0, -36120.66490896522, -18720.860030753618, -34366.45530062381, -49893.742787092066, -56340.67879208074, -187500.02235174447, -29270.346971791623, -24179.60306162871, 0.662, -0.6920000000000001, 0.386, 192.0, 0.0, 0.0, 0.0, 0.0, 0.0, 0.0, 0.0, 0.0, 0.0, 1.663499004191893E9, 0.0, 2022-09-18 16:03:24.191
68.0, -36098.49197846556, -18975.5805105663, -34370.90329777042, -49897.788452838475, -55634.92246090442, -187500.02235174447, -29249.17986979245, -24175.69150634903, 0.662, -0.6920000000000001, 0.386, 192.0, 0.0, 0.0, 0.0, 0.0, 0.0, 0.0, 0.0, 0.0, 0.0, 1.66349900419583E9, 0.0, 2022-09-18 16:03:24.195
69.0, -36082.041094546454, -18738.495557128856, -34420.41241173892, -49925.0352293295, -55275.282892618525, -187500.02235174447, -29305.148637908536, -24191.44948619002, 0.662, -0.6920000000000001, 0.386, 192.0, 0.0, 0.0, 0.0, 0.0, 0.0, 0.0, 0.0, 0.0, 0.0, 1.6634990041998823E9, 0.0, 2022-09-18 16:03:24.199
70.0, -36029.693309032125, -18372.86572132894, -34439.90313290395, -49920.05079031597, -55783.02511966528, -187500.02235174447, -29352.623743131608, -24178.68664010604, 0.662, -0.6920000000000001, 0.386, 192.0, 0.0, 0.0, 0.0, 0.0, 0.0, 0.0, 0.0, 0.0, 0.0, 1.6634990042038672E9, 0.0, 2022-09-18 16:03:24.203
71.0, -36055.397815155724, -18155.785579179, -34459.25974360225, -49940.994374870585, -56411.511470259604, -187500.02235174447, -29396.92490064203, -24196.724497881474, 0.662, -0.6920000000000001, 0.386, 192.0, 0.0, 0.0, 0.0, 0.0, 0.0, 0.0, 0.0, 0.0, 0.0, 1.6634990042089286E9, 0.0, 2022-09-18 16:03:24.208
72.0, -36128.28685382448, -18759.416789939023, -34371.39503614844, -49898.68252261669, -56270.09198309088, -187500.02235174447, -29286.730800477362, -24184.900425064618, 0.662, -0.6920000000000001, 0.386, 192.0, 0.0, 0.0, 0.0, 0.0, 0.0, 0.0, 0.0, 0.0, 0.0, 1.6634990042129183E9, 0.0, 2022-09-18 16:03:24.212
73.0, -36107.3209175254, -18981.481371102498, -34379.24049845225, -49908.293772732475, -55537.357096357, -187500.02235174447, -29258.83582339714, -24185.034535531348, 0.662, -0.6920000000000001, 0.386, 192.0, 0.0, 0.0, 0.0, 0.0, 0.0, 0.0, 0.0, 0.0, 0.0, 1.6634990042169516E9, 0.0, 2022-09-18 16:03:24.216
74.0, -36085.01387655901, -18740.32840017419, -34417.797257637656, -49927.96330785314, -55207.93708657469, -187500.02235174447, -29310.267187388803, -24192.74588736843, 0.662, -0.6920000000000001, 0.386, 192.0, 0.0, 0.0, 0.0, 0.0, 0.0, 0.0, 0.0, 0.0, 0.0, 1.6634990042199743E9, 0.0, 2022-09-18 16:03:24.219
75.0, -36031.74966952201, -18367.143674748382, -34434.40460376794, -49922.44242697268, -55741.13795055604, -187500.02235174447, -29353.920144310017, -24176.809093571796, 0.648, -0.684, 0.388, 192.0, 20.0, 64.0, 234.0, 160.0, 12.0, 32.0, 0.0, 0.0, 0.0, 1.6634990042240417E9, 0.0, 2022-09-18 16:03:24.224
76.0, -36052.93912326564, -18163.87691067182, -34435.119859590515, -49928.566804953436, -56344.210367704676, -187500.02235174447, -29367.778225872305, -24185.839198331738, 0.648, -0.684, 0.388, 192.0, 0.0, 0.0, 0.0, 0.0, 0.0, 0.0, 0.0, 0.0, 0.0, 1.663499004227943E9, 0.0, 2022-09-18 16:03:24.227
77.0, -36120.553150242944, -18784.450743728965, -34351.367873116484, -49883.5727433649, -56173.912426699695, -187500.02235174447, -29250.74449190432, -24174.752733081907, 0.648, -0.684, 0.388, 192.0, 0.0, 0.0, 0.0, 0.0, 0.0, 0.0, 0.0, 0.0, 0.0, 1.6634990042319832E9, 0.0, 2022-09-18 16:03:24.231
78.0, -36087.517271938, -18964.918728461114, -34362.43198662186, -49888.44542365616, -55440.574042865526, -187500.02235174447, -29238.473384198354, -24168.471892889964, 0.648, -0.684, 0.388, 192.0, 0.0, 0.0, 0.0, 0.0, 0.0, 0.0, 0.0, 0.0, 0.0, 1.6634990042359562E9, 0.0, 2022-09-18 16:03:24.235
79.0, -36064.53967863794, -18710.4664695819, -34403.179216763885, -49907.5785169099, -55147.363859100806, -187500.02235174447, -29290.441190056943, -24176.607927871697, 0.648, -0.684, 0.388, 192.0, 0.0, 0.0, 0.0, 0.0, 0.0, 0.0, 0.0, 0.0, 0.0, 1.6634990042409256E9, 0.0, 2022-09-18 16:03:24.240
80.0, -36035.638873057236, -18344.4790058707, -34446.92158066292, -49923.47060721763, -55713.93587755393, -187500.02235174447, -29359.396321701566, -24183.49226516393, 0.648, -0.684, 0.388, 192.0, 0.0, 0.0, 0.0, 0.0, 0.0, 0.0, 0.0, 0.0, 0.0, 1.6634990042450075E9, 0.0, 2022-09-18 16:03:24.245
81.0, -36083.67277189169, -18195.214056398163, -34458.29861859067, -49939.183883569705, -56315.48837607961, -187500.02235174447, -29385.659621436553, -24201.37366072818, 0.648, -0.684, 0.388, 192.0, 0.0, 0.0, 0.0, 0.0, 0.0, 0.0, 0.0, 0.0, 0.0, 1.6634990042480724E9, 0.0, 2022-09-18 16:03:24.248
82.0, -36141.54143828648, -18820.414700557554, -34354.83239350705, -49879.37061540731, -56105.20316424408, -187500.02235174447, -29258.567602463678, -24172.763427825383, 0.648, -0.684, 0.388, 192.0, 0.0, 0.0, 0.0, 0.0, 0.0, 0.0, 0.0, 0.0, 0.0, 1.663499004252018E9, 0.0, 2022-09-18 16:03:24.252
83.0, -36088.5678039274, -18973.814722754327, -34350.76437601619, -49870.25110366954, -55387.980388162185, -187500.02235174447, -29235.74647137481, -24149.696427547507, 0.648, -0.684, 0.388, 192.0, 0.0, 0.0, 0.0, 0.0, 0.0, 0.0, 0.0, 0.0, 0.0, 1.66349900425598E9, 0.0, 2022-09-18 16:03:24.255
84.0, -36057.856507045806, -18715.875591740085, -34395.60197539353, -49892.066406257916, -55130.443588548136, -187500.02235174447, -29293.413972069502, -24159.710009063485, 0.648, -0.684, 0.388, 192.0, 0.0, 0.0, 0.0, 0.0, 0.0, 0.0, 0.0, 0.0, 0.0, 1.6634990042600653E9, 0.0, 2022-09-18 16:03:24.260
85.0, -36044.445460372626, -18341.327409902504, -34451.05665338715, -49925.10228456286, -55720.26142123478, -187500.02235174447, -29373.366161986134, -24181.659422118595, 0.652, -0.686, 0.39, 192.0, 20.0, 96.0, 234.0, 144.0, 12.0, 48.0, 0.0, 0.0, 0.0, 1.6634990042640197E9, 0.0, 2022-09-18 16:03:24.264
86.0, -36085.885594592764, -18204.042995458007, -34444.418185283925, -49933.394781755786, -56307.48645156461, -187500.02235174447, -29381.166920801035, -24194.288157735846, 0.652, -0.686, 0.39, 192.0, 0.0, 0.0, 0.0, 0.0, 0.0, 0.0, 0.0, 0.0, 0.0, 1.663499004268963E9, 0.0, 2022-09-18 16:03:24.268
87.0, -36129.516199769525, -18820.01236915736, -34351.05494869411, -49875.95079850564, -56063.47245734602, -187500.02235174447, -29254.656047184, -24166.996677755917, 0.652, -0.686, 0.39, 192.0, 0.0, 0.0, 0.0, 0.0, 0.0, 0.0, 0.0, 0.0, 0.0, 1.663499004273054E9, 0.0, 2022-09-18 16:03:24.273
88.0, -36088.7689696275, -18955.66510625662, -34362.94607674433, -49884.15388872074, -55336.14669277033, -187500.02235174447, -29253.06907332767, -24160.87229977516, 0.652, -0.686, 0.39, 192.0, 0.0, 0.0, 0.0, 0.0, 0.0, 0.0, 0.0, 0.0, 0.0, 1.66349900427606E9, 0.0, 2022-09-18 16:03:24.276
89.0, -36061.09750999183, -18695.960187430406, -34395.44551318235, -49898.12372900531, -55118.708922709106, -187500.02235174447, -29299.203073883426, -24159.464139874475, 0.652, -0.686, 0.39, 192.0, 0.0, 0.0, 0.0, 0.0, 0.0, 0.0, 0.0, 0.0, 0.0, 1.6634990042800472E9, 0.0, 2022-09-18 16:03:24.280
90.0, -36037.717585291575, -18319.847383480952, -34447.145098107474, -49931.04784858797, -55740.042715077725, -187500.02235174447, -29377.61299343264, -24175.378581926656, 0.652, -0.686, 0.39, 192.0, 0.0, 0.0, 0.0, 0.0, 0.0, 0.0, 0.0, 0.0, 0.0, 1.6634990042840466E9, 0.0, 2022-09-18 16:03:24.284
91.0, -36087.80784461592, -18231.446234160216, -34448.48620277479, -49945.17415108373, -56299.57393402743, -187500.02235174447, -29399.227130320924, -24196.903311837115, 0.652, -0.686, 0.39, 192.0, 0.0, 0.0, 0.0, 0.0, 0.0, 0.0, 0.0, 0.0, 0.0, 1.6634990042880857E9, 0.0, 2022-09-18 16:03:24.288
92.0, -36142.234342364594, -18873.45539015, -34359.32509414257, -49895.575630137406, -56047.46860831602, -187500.02235174447, -29273.766788693287, -24178.396067428122, 0.652, -0.686, 0.39, 192.0, 0.0, 0.0, 0.0, 0.0, 0.0, 0.0, 0.0, 0.0, 0.0, 1.66349900429208E9, 0.0, 2022-09-18 16:03:24.292
93.0, -36091.22766151758, -18949.786597464874, -34358.25221040872, -49886.99256026657, -55319.405236173305, -187500.02235174447, -29243.92720984545, -24154.658514816587, 0.652, -0.686, 0.39, 192.0, 0.0, 0.0, 0.0, 0.0, 0.0, 0.0, 0.0, 0.0, 0.0, 1.663499004297077E9, 0.0, 2022-09-18 16:03:24.297
94.0, -36056.09071923384, -18665.941794626928, -34383.06264675411, -49892.31227544693, -55114.39503602923, -187500.02235174447, -29281.008753896804, -24147.97534322445, 0.652, -0.686, 0.39, 192.0, 0.0, 0.0, 0.0, 0.0, 0.0, 0.0, 0.0, 0.0, 0.0, 1.663499004300056E9, 0.0, 2022-09-18 16:03:24.300
95.0, -36028.06163168688, -18273.467513736192, -34433.68934794538, -49914.9322408357, -55747.97758435936, -187500.02235174447, -29354.456586176944, -24159.3523811522, 0.652, -0.686, 0.384, 192.0, 20.0, 96.0, 234.0, 144.0, 12.0, 0.0, 0.0, 0.0, 0.0, 1.6634990043041496E9, 0.0, 2022-09-18 16:03:24.304
96.0, -36109.66785069321, -18239.89519356432, -34462.92542969292, -49952.72904070962, -56318.17058541424, -187500.02235174447, -29392.298089539778, -24207.74390789794, 0.652, -0.686, 0.384, 192.0, 0.0, 0.0, 0.0, 0.0, 0.0, 0.0, 0.0, 0.0, 0.0, 1.6634990043080924E9, 0.0, 2022-09-18 16:03:24.308
97.0, -36150.88446746879, -18896.812963105796, -34371.573850104076, -49893.85454581434, -56025.966230150014, -187500.02235174447, -29275.64433522753, -24179.69246860653, 0.652, -0.686, 0.384, 192.0, 0.0, 0.0, 0.0, 0.0, 0.0, 0.0, 0.0, 0.0, 0.0, 1.6634990043120646E9, 0.0, 2022-09-18 16:03:24.312
98.0, -36101.688277922665, -18973.591205309775, -34384.224937465784, -49900.85064182885, -55315.806605316, -187500.02235174447, -29272.828015426163, -24172.15993072509, 0.652, -0.686, 0.384, 192.0, 0.0, 0.0, 0.0, 0.0, 0.0, 0.0, 0.0, 0.0, 0.0, 1.6634990043161802E9, 0.0, 2022-09-18 16:03:24.316
99.0, -36078.24129798905, -18699.044728165238, -34420.367708250014, -49918.37440948182, -55149.88960622426, -187500.02235174447, -29312.100030434136, -24181.771180840875, 0.652, -0.686, 0.384, 192.0, 0.0, 0.0, 0.0, 0.0, 0.0, 0.0, 0.0, 0.0, 0.0, 1.6634990043201773E9, 0.0, 2022-09-18 16:03:24.320
100.0, -36048.17820169666, -18286.208008075715, -34468.78158674021, -49940.100305092375, -55781.12522138658, -187500.02235174447, -29385.413752247543, -24192.432962946055, 0.652, -0.686, 0.384, 192.0, 0.0, 0.0, 0.0, 0.0, 0.0, 0.0, 0.0, 0.0, 0.0, 1.6634990043240929E9, 0.0, 2022-09-18 16:03:24.324
101.0, -36102.247071534046, -18249.461740191193, -34452.75538596576, -49939.09447659188, -56281.916055907735, -187500.02235174447, -29376.16013004305, -24201.396012472633, 0.652, -0.686, 0.384, 192.0, 0.0, 0.0, 0.0, 0.0, 0.0, 0.0, 0.0, 0.0, 0.0, 1.663499004328106E9, 0.0, 2022-09-18 16:03:24.328
102.0, -36148.604589534356, -18910.067547567793, -34363.41546337789, -49889.272438201006, -55949.567967601775, -187500.02235174447, -29256.198317551414, -24177.345535438722, 0.652, -0.686, 0.384, 192.0, 0.0, 0.0, 0.0, 0.0, 0.0, 0.0, 0.0, 0.0, 0.0, 1.6634990043312063E9, 0.0, 2022-09-18 16:03:24.331
103.0, -36110.38310651578, -18964.359934849734, -34393.54561490365, -49911.46772044513, -55225.34909550537, -187500.02235174447, -29275.778445694265, -24181.59236688523, 0.652, -0.686, 0.384, 192.0, 0.0, 0.0, 0.0, 0.0, 0.0, 0.0, 0.0, 0.0, 0.0, 1.663499004336193E9, 0.0, 2022-09-18 16:03:24.336
104.0, -36077.48133867757, -18697.32364384218, -34423.42989724039, -49921.30248800546, -55089.04815781691, -187500.02235174447, -29317.866780503606, -24182.329974452256, 0.652, -0.686, 0.384, 192.0, 0.0, 0.0, 0.0, 0.0, 0.0, 0.0, 0.0, 0.0, 0.0, 1.6634990043401484E9, 0.0, 2022-09-18 16:03:24.340
105.0, -36030.587378810334, -18259.27415600707, -34470.212098385346, -49940.27911904802, -55718.29446772271, -187500.02235174447, -29390.085266838705, -24188.700221622017, 0.648, -0.6880000000000001, 0.39, 192.0, 20.0, 64.0, 234.0, 128.0, 12.0, 48.0, 0.0, 0.0, 0.0, 1.663499004344132E9, 0.0, 2022-09-18 16:03:24.344
106.0, -36092.769931885, -18243.89615582182, -34465.36176983855, -49950.89619766429, -56170.202037120114, -187500.02235174447, -29388.833569149207, -24211.521352710886, 0.648, -0.6880000000000001, 0.39, 192.0, 0.0, 0.0, 0.0, 0.0, 0.0, 0.0, 0.0, 0.0, 0.0, 1.6634990043481245E9, 0.0, 2022-09-18 16:03:24.348
107.0, -36135.37235681681, -18903.74200388694, -34376.46888213979, -49895.93325804869, -55794.24569538185, -187500.02235174447, -29271.55396599221, -24183.49226516393, 0.648, -0.6880000000000001, 0.39, 192.0, 0.0, 0.0, 0.0, 0.0, 0.0, 0.0, 0.0, 0.0, 0.0, 1.6634990043521461E9, 0.0, 2022-09-18 16:03:24.352
108.0, -36089.8195016169, -18934.252135068433, -34403.29097548616, -49907.39970295426, -55069.87036107426, -187500.02235174447, -29285.412047554502, -24176.786741827338, 0.648, -0.6880000000000001, 0.39, 192.0, 0.0, 0.0, 0.0, 0.0, 0.0, 0.0, 0.0, 0.0, 0.0, 1.663499004356145E9, 0.0, 2022-09-18 16:03:24.356
109.0, -36054.079062232864, -18644.953506583395, -34431.32006303311, -49913.09939779036, -54948.679202637584, -187500.02235174447, -29325.13109745158, -24176.183244727046, 0.648, -0.6880000000000001, 0.39, 192.0, 0.0, 0.0, 0.0, 0.0, 0.0, 0.0, 0.0, 0.0, 0.0, 1.6634990043591688E9, 0.0, 2022-09-18 16:03:24.359
110.0, -36018.94211994912, -18209.049786215997, -34476.15766241046, -49934.914700378744, -55576.13737298696, -187500.02235174447, -29400.836455921708, -24185.012183786894, 0.648, -0.6880000000000001, 0.39, 192.0, 0.0, 0.0, 0.0, 0.0, 0.0, 0.0, 0.0, 0.0, 0.0, 1.6634990043641732E9, 0.0, 2022-09-18 16:03:24.364
111.0, -36106.24803379155, -18269.824179389976, -34476.60469729957, -49951.25382557557, -56011.95168637654, -187500.02235174447, -29411.699403726987, -24217.489268480454, 0.648, -0.6880000000000001, 0.39, 192.0, 0.0, 0.0, 0.0, 0.0, 0.0, 0.0, 0.0, 0.0, 0.0, 1.663499004368194E9, 0.0, 2022-09-18 16:03:24.368
112.0, -36141.98847317558, -18942.47757702799, -34379.821643808085, -49886.277304444, -55633.44724577037, -187500.02235174447, -29276.046666627728, -24175.847968560218, 0.648, -0.6880000000000001, 0.39, 192.0, 0.0, 0.0, 0.0, 0.0, 0.0, 0.0, 0.0, 0.0, 0.0, 1.6634990043722131E9, 0.0, 2022-09-18 16:03:24.372
113.0, -36083.918641080694, -18942.41052179462, -34396.00430679373, -49891.82053706891, -54947.87453983719, -187500.02235174447, -29283.556852764712, -24163.01806724287, 0.648, -0.6880000000000001, 0.39, 192.0, 0.0, 0.0, 0.0, 0.0, 0.0, 0.0, 0.0, 0.0, 0.0, 1.6634990043763318E9, 0.0, 2022-09-18 16:03:24.376
114.0, -36060.53871638045, -18664.466579492877, -34426.179161808395, -49909.70193263316, -54903.4616236045, -187500.02235174447, -29329.95907425393, -24174.372753426167, 0.648, -0.6880000000000001, 0.39, 192.0, 0.0, 0.0, 0.0, 0.0, 0.0, 0.0, 0.0, 0.0, 0.0, 1.6634990043803077E9, 0.0, 2022-09-18 16:03:24.380
115.0, -36038.008157969496, -18231.17801322675, -34483.19846191388, -49947.69989820718, -55579.35602418853, -187500.02235174447, -29413.800467705783, -24194.55637866931, 0.65, -0.684, 0.398, 192.0, 20.0, 80.0, 234.0, 160.0, 12.0, 112.0, 0.0, 0.0, 0.0, 1.6634990043833148E9, 0.0, 2022-09-18 16:03:24.383
116.0, -36108.19263555916, -18306.7716129746, -34450.27434233121, -49938.96036612515, -55997.84773562524, -187500.02235174447, -29381.390438245588, -24201.999509572925, 0.65, -0.684, 0.398, 192.0, 0.0, 0.0, 0.0, 0.0, 0.0, 0.0, 0.0, 0.0, 0.0, 1.6634990043872838E9, 0.0, 2022-09-18 16:03:24.387
117.0, -36159.95927571765, -18994.825362542317, -34373.94313501634, -49899.21896448362, -55619.320943274615, -187500.02235174447, -29282.126341119572, -24189.326070466766, 0.65, -0.684, 0.398, 192.0, 0.0, 0.0, 0.0, 0.0, 0.0, 0.0, 0.0, 0.0, 0.0, 1.6634990043913915E9, 0.0, 2022-09-18 16:03:24.391
118.0, -36105.77864715799, -18984.722374048517, -34402.03927779666, -49912.16062452324, -54953.68599339557, -187500.02235174447, -29303.494608818844, -24185.2580529759, 0.65, -0.684, 0.398, 192.0, 0.0, 0.0, 0.0, 0.0, 0.0, 0.0, 0.0, 0.0, 0.0, 1.663499004396302E9, 0.0, 2022-09-18 16:03:24.396
119.0, -36066.461928661105, -18676.782390687753, -34430.716565932824, -49921.19072928318, -54936.028115275876, -187500.02235174447, -29347.035807017783, -24188.633166388652, 0.65, -0.684, 0.398, 192.0, 0.0, 0.0, 0.0, 0.0, 0.0, 0.0, 0.0, 0.0, 0.0, 1.6634990044002967E9, 0.0, 2022-09-18 16:03:24.400
120.0, -36045.02660572846, -18232.51911789407, -34494.01670623025, -49961.781497214026, -55599.182021520384, -187500.02235174447, -29429.334930102224, -24215.589370201753, 0.65, -0.684, 0.398, 192.0, 0.0, 0.0, 0.0, 0.0, 0.0, 0.0, 0.0, 0.0, 0.0, 1.66349900440434E9, 0.0, 2022-09-18 16:03:24.404
121.0, -36121.91660665472, -18342.959087247742, -34458.76800522423, -49948.59396798539, -55989.68934889905, -187500.02235174447, -29397.371935531133, -24222.45135574953, 0.65, -0.684, 0.398, 192.0, 0.0, 0.0, 0.0, 0.0, 0.0, 0.0, 0.0, 0.0, 0.0, 1.6634990044083128E9, 0.0, 2022-09-18 16:03:24.408
122.0, -36148.939865701184, -19008.079947004313, -34359.682722053854, -49883.41628115372, -55592.38709120597, -187500.02235174447, -29275.353762549614, -24181.83823607424, 0.65, -0.684, 0.398, 192.0, 0.0, 0.0, 0.0, 0.0, 0.0, 0.0, 0.0, 0.0, 0.0, 1.6634990044112985E9, 0.0, 2022-09-18 16:03:24.411
123.0, -36074.82148108738, -18938.007228136925, -34375.57481236158, -49884.086833487374, -54923.42173140308, -187500.02235174447, -29287.17783536647, -24163.465102131977, 0.65, -0.684, 0.398, 192.0, 0.0, 0.0, 0.0, 0.0, 0.0, 0.0, 0.0, 0.0, 0.0, 1.6634990044152703E9, 0.0, 2022-09-18 16:03:24.415
124.0, -36047.35118715181, -18631.564811654665, -34429.19664730986, -49906.68444713169, -54930.06019950631, -187500.02235174447, -29353.58486814319, -24180.720648851475, 0.65, -0.684, 0.398, 192.0, 0.0, 0.0, 0.0, 0.0, 0.0, 0.0, 0.0, 0.0, 0.0, 1.6634990044192915E9, 0.0, 2022-09-18 16:03:24.419
125.0, -36030.47562008806, -18192.88947497481, -34491.669773062444, -49949.398630785785, -55586.50858241422, -187500.02235174447, -29431.145421403104, -24210.202599788023, 0.65, -0.684, 0.398, 192.0, 0.0, 0.0, 0.0, 0.0, 0.0, 0.0, 0.0, 0.0, 0.0, 1.6634990044243393E9, 0.0, 2022-09-18 16:03:24.424
126.0, -36120.977833387595, -18369.15533174936, -34455.10231913356, -49941.66492720425, -55928.803197002795, -187500.02235174447, -29397.28252855331, -24223.725405183486, 0.648, -0.67, 0.394, 192.0, 20.0, 64.0, 235.0, 16.0, 12.0, 80.0, 0.0, 0.0, 0.0, 1.663499004428321E9, 0.0, 2022-09-18 16:03:24.428
127.0, -36139.57448477441, -19028.241220503, -34361.292047654635, -49879.19180145166, -55476.38153748293, -187500.02235174447, -29281.58989925264, -24183.335802952744, 0.648, -0.67, 0.394, 192.0, 0.0, 0.0, 0.0, 0.0, 0.0, 0.0, 0.0, 0.0, 0.0, 1.6634990044323187E9, 0.0, 2022-09-18 16:03:24.432
128.0, -36088.72426613859, -18955.888623701172, -34393.5679666481, -49902.415263940726, -54809.204317236465, -187500.02235174447, -29308.233178643368, -24188.36494545519, 0.648, -0.67, 0.394, 192.0, 0.0, 0.0, 0.0, 0.0, 0.0, 0.0, 0.0, 0.0, 0.0, 1.6634990044363744E9, 0.0, 2022-09-18 16:03:24.436
129.0, -36064.11499549329, -18648.7533031408, -34436.48331600229, -49926.55514795246, -54854.53365499183, -187500.02235174447, -29370.907470096052, -24205.195809030036, 0.648, -0.67, 0.394, 192.0, 0.0, 0.0, 0.0, 0.0, 0.0, 0.0, 0.0, 0.0, 0.0, 1.6634990044393756E9, 0.0, 2022-09-18 16:03:24.439
130.0, -36044.020777227975, -18191.03428018502, -34499.00114524378, -49970.990415929606, -55503.538906996124, -187500.02235174447, -29459.77800605035, -24233.671931466095, 0.648, -0.67, 0.394, 192.0, 0.0, 0.0, 0.0, 0.0, 0.0, 0.0, 0.0, 0.0, 0.0, 1.663499004443359E9, 0.0, 2022-09-18 16:03:24.443
131.0, -36138.278083596, -18400.961864109264, -34464.892383204984, -49957.154686111775, -55812.66353281302, -187500.02235174447, -29413.77811596133, -24241.89737342565, 0.648, -0.67, 0.394, 192.0, 0.0, 0.0, 0.0, 0.0, 0.0, 0.0, 0.0, 0.0, 0.0, 1.663499004447367E9, 0.0, 2022-09-18 16:03:24.447
132.0, -36137.45106905116, -19044.96032535557, -34362.38728313295, -49873.62621708229, -55357.06792558049, -187500.02235174447, -29289.144788878537, -24180.430076173554, 0.648, -0.67, 0.394, 192.0, 0.0, 0.0, 0.0, 0.0, 0.0, 0.0, 0.0, 0.0, 0.0, 1.663499004452306E9, 0.0, 2022-09-18 16:03:24.452
133.0, -36082.28696373546, -18938.677780470585, -34406.39786796545, -49900.58242089539, -54723.61948771709, -187500.02235174447, -29324.907580007028, -24184.967480297983, 0.648, -0.67, 0.394, 192.0, 0.0, 0.0, 0.0, 0.0, 0.0, 0.0, 0.0, 0.0, 0.0, 1.6634990044563715E9, 0.0, 2022-09-18 16:03:24.456
134.0, -36060.20344021362, -18627.809718586173, -34448.86618243053, -49924.230566529106, -54807.684398613506, -187500.02235174447, -29379.937574855994, -24198.155009526614, 0.648, -0.67, 0.394, 192.0, 0.0, 0.0, 0.0, 0.0, 0.0, 0.0, 0.0, 0.0, 0.0, 1.663499004460338E9, 0.0, 2022-09-18 16:03:24.460
135.0, -36072.608658386314, -18201.114916934363, -34538.92136084096, -49992.805718517986, -55483.93642710882, -187500.02235174447, -29491.83040759926, -24251.776844474894, 0.648, -0.67, 0.394, 192.0, 0.0, 0.0, 0.0, 0.0, 0.0, 0.0, 0.0, 0.0, 0.0, 1.6634990044644167E9, 0.0, 2022-09-18 16:03:24.464
