%OpenBCI Raw EEG Data
%Number of channels = 8
%Sample Rate = 250 Hz
%Board = OpenBCI_GUI$BoardCytonSerial
Sample Index, EXG Channel 0, EXG Channel 1, EXG Channel 2, EXG Channel 3, EXG Channel 4, EXG Channel 5, EXG Channel 6, EXG Channel 7, Accel Channel 0, Accel Channel 1, Accel Channel 2, Other, Other, Other, Other, Other, Other, Other, Analog Channel 0, Analog Channel 1, Analog Channel 2, Timestamp, Other, Timestamp (Formatted)
210.0, -43857.005996347194, -29763.024123075502, -45716.00058269508, -61573.5350934905, -59517.71104546917, -77494.03446841652, -65393.73879358039, -69807.00132930295, 0.0, 0.0, 0.0, 192.0, 0.0, 0.0, 0.0, 0.0, 0.0, 0.0, 0.0, 0.0, 0.0, 1.6635023500096E9, 0.0, 2022-09-18 16:59:10.009
211.0, -42305.05732358186, -28369.974001642946, -45790.767167898084, -61648.1005129934, -59578.19486596523, -77639.23140039819, -65464.66087873708, -69879.91271971616, 0.0, 0.0, 0.0, 192.0, 0.0, 0.0, 0.0, 0.0, 0.0, 0.0, 0.0, 0.0, 0.0, 1.6635023500096395E9, 0.0, 2022-09-18 16:59:10.009
212.0, -41637.96951031322, -27893.94889997827, -45765.174420496754, -61622.15013768079, -59554.97140347617, -77451.4320434847, -65436.85530863468, -69848.6873327121, 0.0, 0.0, 0.0, 192.0, 0.0, 0.0, 0.0, 0.0, 0.0, 0.0, 0.0, 0.0, 0.0, 1.6635023500096524E9, 0.0, 2022-09-18 16:59:10.009
0.0, 0.0, 0.0, 0.0, 0.0, 0.0, 0.0, 0.0, 0.0, 0.41400000000000003, -0.888, 0.23600000000000002, 192.0, 12.0, 240.0, 228.0, 64.0, 7.0, 96.0, 0.0, 0.0, 0.0, 1.663502350079628E9, 0.0, 2022-09-18 16:59:10.079
1.0, -41787.055645830114, -39033.67835684757, -44367.408080984125, -61023.07868278965, -59459.26123371855, -75936.74372872636, -64298.279797825795, -69198.36332778494, 0.41400000000000003, -0.888, 0.23600000000000002, 192.0, 0.0, 0.0, 0.0, 0.0, 0.0, 0.0, 0.0, 0.0, 0.0, 1.6635023500957575E9, 0.0, 2022-09-18 16:59:10.095
2.0, -39981.14645256358, -37717.09355319662, -44449.193113946094, -61112.172736188506, -59527.76933047406, -76043.58506722272, -64375.88505457462, -69286.74212536123, 0.41400000000000003, -0.888, 0.23600000000000002, 192.0, 0.0, 0.0, 0.0, 0.0, 0.0, 0.0, 0.0, 0.0, 0.0, 1.663502350099673E9, 0.0, 2022-09-18 16:59:10.099
3.0, -38710.47213202383, -37370.35094146144, -44438.50898009646, -61091.922055712, -59539.1016649129, -76012.56084591876, -64361.758752078866, -69264.85976753948, 0.41400000000000003, -0.888, 0.23600000000000002, 192.0, 0.0, 0.0, 0.0, 0.0, 0.0, 0.0, 0.0, 0.0, 0.0, 1.6635023501026535E9, 0.0, 2022-09-18 16:59:10.102
4.0, -40798.01330542723, -39190.27467850145, -44307.68421979955, -60952.7377429888, -59440.709285820645, -75851.33771316263, -64232.74448308283, -69129.78817579606, 0.41400000000000003, -0.888, 0.23600000000000002, 192.0, 0.0, 0.0, 0.0, 0.0, 0.0, 0.0, 0.0, 0.0, 0.0, 1.66350235010772E9, 0.0, 2022-09-18 16:59:10.107
5.0, -42213.504578292916, -39702.800178861646, -44309.941745989534, -60962.52780706022, -59406.734634248576, -75867.98976278183, -64243.7638930993, -69141.25462070163, 0.41400000000000003, -0.888, 0.23600000000000002, 192.0, 0.0, 0.0, 0.0, 0.0, 0.0, 0.0, 0.0, 0.0, 0.0, 1.6635023501107173E9, 0.0, 2022-09-18 16:59:10.110
6.0, -41815.2188438438, -38986.627934769145, -44368.99505484045, -61025.87265084656, -59467.35256521137, -75946.73495849788, -64303.644216495064, -69206.32054881103, 0.41400000000000003, -0.888, 0.23600000000000002, 192.0, 0.0, 0.0, 0.0, 0.0, 0.0, 0.0, 0.0, 0.0, 0.0, 1.6635023501146653E9, 0.0, 2022-09-18 16:59:10.114
7.0, -39996.94913589348, -37690.874956950545, -44451.83061979182, -61115.301980412245, -59528.26106885208, -76045.3508550347, -64388.93847333652, -69294.58758766504, 0.41400000000000003, -0.888, 0.23600000000000002, 192.0, 0.0, 0.0, 0.0, 0.0, 0.0, 0.0, 0.0, 0.0, 0.0, 1.6635023501187525E9, 0.0, 2022-09-18 16:59:10.118
8.0, -38859.93824719647, -37448.760861010654, -44439.15718068567, -61095.27481738029, -59537.58174628994, -76010.28096798432, -64374.78981909631, -69273.50989264368, 0.41000000000000003, -0.898, 0.214, 192.0, 12.0, 208.0, 227.0, 240.0, 6.0, 176.0, 0.0, 0.0, 0.0, 1.663502350122804E9, 0.0, 2022-09-18 16:59:10.122
9.0, -40962.45508938493, -39247.00340592902, -44313.76389429139, -60965.47823732832, -59451.751047581565, -75862.84886155711, -64248.569518157194, -69146.93196379328, 0.41000000000000003, -0.898, 0.214, 192.0, 0.0, 0.0, 0.0, 0.0, 0.0, 0.0, 0.0, 0.0, 0.0, 1.6635023501267269E9, 0.0, 2022-09-18 16:59:10.126
10.0, -42261.65023584965, -39670.23368719026, -44309.941745989534, -60972.96607172085, -59422.53731757848, -75881.40080945502, -64248.90479432402, -69153.7715975966, 0.41000000000000003, -0.898, 0.214, 192.0, 0.0, 0.0, 0.0, 0.0, 0.0, 0.0, 0.0, 0.0, 0.0, 1.663502350130668E9, 0.0, 2022-09-18 16:59:10.130
11.0, -41830.08275390658, -38944.65135868208, -44362.44599371505, -61033.13696779454, -59486.284492765015, -75963.99050521739, -64294.94938790195, -69216.24472334918, 0.41000000000000003, -0.898, 0.214, 192.0, 0.0, 0.0, 0.0, 0.0, 0.0, 0.0, 0.0, 0.0, 0.0, 1.663502350135764E9, 0.0, 2022-09-18 16:59:10.135
12.0, -39999.00549638337, -37649.4348227304, -44439.67127080814, -61114.34085540067, -59544.7566562601, -76063.20989885449, -64368.15135099308, -69295.34754697651, 0.41000000000000003, -0.898, 0.214, 192.0, 0.0, 0.0, 0.0, 0.0, 0.0, 0.0, 0.0, 0.0, 0.0, 1.6635023501388307E9, 0.0, 2022-09-18 16:59:10.138
13.0, -38981.41997831106, -37493.41964643236, -44418.07948566431, -61085.35064284214, -59544.46608358218, -76016.65121515408, -64342.536251847305, -69265.12798847294, 0.41000000000000003, -0.898, 0.214, 192.0, 0.0, 0.0, 0.0, 0.0, 0.0, 0.0, 0.0, 0.0, 0.0, 1.6635023501427891E9, 0.0, 2022-09-18 16:59:10.142
14.0, -41093.32455317075, -39275.1219004538, -44297.357713861194, -60956.761056990756, -59449.06883824692, -75869.44262617143, -64221.68036957746, -69143.31098119152, 0.41000000000000003, -0.898, 0.214, 192.0, 0.0, 0.0, 0.0, 0.0, 0.0, 0.0, 0.0, 0.0, 0.0, 1.663502350146783E9, 0.0, 2022-09-18 16:59:10.146
15.0, -42298.41885547863, -39641.91402696539, -44308.48888259994, -60969.92623447493, -59422.76083502303, -75894.00719332781, -64237.63951511854, -69157.54904240955, 0.41000000000000003, -0.898, 0.214, 192.0, 0.0, 0.0, 0.0, 0.0, 0.0, 0.0, 0.0, 0.0, 0.0, 1.663502350150918E9, 0.0, 2022-09-18 16:59:10.150
16.0, -41834.7766202422, -38921.405544448564, -44366.40225248364, -61032.84639511662, -59482.998786330085, -75972.14889194357, -64293.72004195691, -69218.79282221709, 0.41000000000000003, -0.898, 0.214, 192.0, 0.0, 0.0, 0.0, 0.0, 0.0, 0.0, 0.0, 0.0, 0.0, 1.6635023501548135E9, 0.0, 2022-09-18 16:59:10.154
17.0, -40000.10073186168, -37645.52326745073, -44446.488552867006, -61115.90547751254, -59539.21342363518, -76065.3556663222, -64374.14161850711, -69299.08028830055, 0.41000000000000003, -0.898, 0.214, 192.0, 0.0, 0.0, 0.0, 0.0, 0.0, 0.0, 0.0, 0.0, 0.0, 1.663502350158792E9, 0.0, 2022-09-18 16:59:10.158
18.0, -39105.11453212673, -37579.227993396285, -44421.74517175498, -61073.66068049201, -59533.11139739888, -76005.47534292642, -64350.225251939926, -69254.06387496757, 0.41400000000000003, -0.89, 0.20800000000000002, 192.0, 12.0, 240.0, 228.0, 48.0, 6.0, 128.0, 0.0, 0.0, 0.0, 1.663502350163919E9, 0.0, 2022-09-18 16:59:10.163
19.0, -41221.51180762194, -39333.12467731532, -44307.59481282173, -60951.10606564356, -59439.81521604243, -75858.51262313279, -64240.18761398645, -69131.95629500822, 0.41400000000000003, -0.89, 0.20800000000000002, 192.0, 0.0, 0.0, 0.0, 0.0, 0.0, 0.0, 0.0, 0.0, 0.0, 1.6635023501668007E9, 0.0, 2022-09-18 16:59:10.166
20.0, -42324.6374517247, -39626.91600643587, -44322.592833351235, -60975.38006012202, -59422.246744900556, -75886.47465544638, -64259.276003751285, -69155.35857145293, 0.41400000000000003, -0.89, 0.20800000000000002, 192.0, 0.0, 0.0, 0.0, 0.0, 0.0, 0.0, 0.0, 0.0, 0.0, 1.6635023501698267E9, 0.0, 2022-09-18 16:59:10.169
21.0, -41822.55021602514, -38899.63494534909, -44383.277819547395, -61039.17193879747, -59489.32433001093, -75966.31508664074, -64314.7306817449, -69220.37979607342, 0.41400000000000003, -0.89, 0.20800000000000002, 192.0, 0.0, 0.0, 0.0, 0.0, 0.0, 0.0, 0.0, 0.0, 0.0, 1.6635023501748056E9, 0.0, 2022-09-18 16:59:10.174
22.0, -39981.39232175259, -37640.00238657026, -44464.74992808699, -61124.399140405556, -59552.11038018589, -76062.89697443211, -64395.12990655064, -69301.33781449054, 0.41400000000000003, -0.89, 0.20800000000000002, 192.0, 0.0, 0.0, 0.0, 0.0, 0.0, 0.0, 0.0, 0.0, 0.0, 1.6635023501788037E9, 0.0, 2022-09-18 16:59:10.178
23.0, -39210.413600255684, -37668.12088109504, -44436.67613705112, -61087.04937542074, -59551.283365641044, -76005.92237781553, -64365.692659103, -69262.37872390494, 0.41400000000000003, -0.89, 0.20800000000000002, 192.0, 0.0, 0.0, 0.0, 0.0, 0.0, 0.0, 0.0, 0.0, 0.0, 1.663502350182819E9, 0.0, 2022-09-18 16:59:10.182
24.0, -41331.48239034205, -39396.80479726849, -44326.99612700893, -60972.18376066491, -59462.368126197834, -75869.73319884935, -64257.309050239215, -69148.87656556089, 0.41400000000000003, -0.89, 0.20800000000000002, 192.0, 0.0, 0.0, 0.0, 0.0, 0.0, 0.0, 0.0, 0.0, 0.0, 1.6635023501867993E9, 0.0, 2022-09-18 16:59:10.186
25.0, -42345.96101593507, -39621.23866334423, -44339.669566115095, -60993.529676619735, -59445.604317856356, -75901.0703445757, -64272.619995191104, -69168.85902510393, 0.41400000000000003, -0.89, 0.20800000000000002, 192.0, 0.0, 0.0, 0.0, 0.0, 0.0, 0.0, 0.0, 0.0, 0.0, 1.6635023501918595E9, 0.0, 2022-09-18 16:59:10.191
26.0, -41802.232480315266, -38875.74093052637, -44388.597534727756, -61050.12429358057, -59502.26599005056, -75971.2324704209, -64317.18937363498, -69223.71020599725, 0.41400000000000003, -0.89, 0.20800000000000002, 192.0, 0.0, 0.0, 0.0, 0.0, 0.0, 0.0, 0.0, 0.0, 0.0, 1.6635023501948469E9, 0.0, 2022-09-18 16:59:10.194
27.0, -39941.38269917759, -37608.240557699275, -44461.53127688543, -61128.55656487424, -59555.66430755429, -76060.1030063752, -64388.960825080976, -69299.68378540085, 0.41400000000000003, -0.89, 0.20800000000000002, 192.0, 0.0, 0.0, 0.0, 0.0, 0.0, 0.0, 0.0, 0.0, 0.0, 1.6635023501978495E9, 0.0, 2022-09-18 16:59:10.197
28.0, -39286.78951105947, -37712.958480472385, -44430.79762825938, -61089.08338416617, -59553.116208686384, -75994.85826431015, -64354.606193853164, -69257.55074710259, 0.41600000000000004, -0.896, 0.20600000000000002, 192.0, 13.0, 0.0, 228.0, 0.0, 6.0, 112.0, 0.0, 0.0, 0.0, 1.6635023502028985E9, 0.0, 2022-09-18 16:59:10.202
29.0, -41412.127484336794, -39420.207073713194, -44325.09622873023, -60976.38588862251, -59465.47501867712, -75859.89843128901, -64248.94949781293, -69147.73662659367, 0.41600000000000004, -0.896, 0.20600000000000002, 192.0, 0.0, 0.0, 0.0, 0.0, 0.0, 0.0, 0.0, 0.0, 0.0, 1.6635023502068932E9, 0.0, 2022-09-18 16:59:10.206
30.0, -42337.892036186706, -39585.609982682465, -44342.26236847191, -61002.470374401855, -59454.52266389402, -75899.662184675, -64268.75314340033, -69175.05045831806, 0.41600000000000004, -0.896, 0.20600000000000002, 192.0, 0.0, 0.0, 0.0, 0.0, 0.0, 0.0, 0.0, 0.0, 0.0, 1.6635023502108757E9, 0.0, 2022-09-18 16:59:10.210
31.0, -41760.79234609513, -38844.89552317805, -44398.40995054364, -61061.63544197506, -59517.97926640264, -75977.96034550195, -64322.24086788188, -69235.93661021431, 0.41600000000000004, -0.896, 0.20600000000000002, 192.0, 0.0, 0.0, 0.0, 0.0, 0.0, 0.0, 0.0, 0.0, 0.0, 1.66350235021489E9, 0.0, 2022-09-18 16:59:10.214
32.0, -39878.887221680554, -37585.6205923105, -44467.722710099544, -61130.16589047503, -59564.02385998057, -76055.81147143978, -64390.99483382641, -69301.33781449054, 0.41600000000000004, -0.896, 0.20600000000000002, 192.0, 0.0, 0.0, 0.0, 0.0, 0.0, 0.0, 0.0, 0.0, 0.0, 1.6635023502189367E9, 0.0, 2022-09-18 16:59:10.218
33.0, -39334.19756104917, -37774.60459168012, -44428.026011946924, -61077.23695960486, -59553.49618834212, -75986.00697350585, -64347.185414694, -69247.96184873127, 0.41600000000000004, -0.896, 0.20600000000000002, 192.0, 0.0, 0.0, 0.0, 0.0, 0.0, 0.0, 0.0, 0.0, 0.0, 1.663502350222898E9, 0.0, 2022-09-18 16:59:10.222
34.0, -41465.99518847409, -39460.35080675493, -44327.979603764965, -60969.83682749711, -59470.884140835304, -75865.7098848474, -64248.03307629027, -69144.45092015874, 0.41600000000000004, -0.896, 0.20600000000000002, 192.0, 0.0, 0.0, 0.0, 0.0, 0.0, 0.0, 0.0, 0.0, 0.0, 1.6635023502259004E9, 0.0, 2022-09-18 16:59:10.225
35.0, -42316.14378883169, -39570.54490691959, -44349.996072053444, -60999.2964266892, -59467.30786172246, -75908.62523420158, -64273.29054752476, -69173.30702225053, 0.41600000000000004, -0.896, 0.20600000000000002, 192.0, 0.0, 0.0, 0.0, 0.0, 0.0, 0.0, 0.0, 0.0, 0.0, 1.6635023502299411E9, 0.0, 2022-09-18 16:59:10.229
36.0, -41704.555357045574, -38807.791627382234, -44406.94831692557, -61060.5625582412, -59533.15610088779, -75991.9301857865, -64327.96291446244, -69234.21552589125, 0.41600000000000004, -0.896, 0.20600000000000002, 192.0, 0.0, 0.0, 0.0, 0.0, 0.0, 0.0, 0.0, 0.0, 0.0, 1.663502350234934E9, 0.0, 2022-09-18 16:59:10.234
37.0, -39808.36746792406, -37548.85197268152, -44476.43989043712, -61134.457425410445, -59579.29010144355, -76076.97857343896, -64396.53806645132, -69304.19883778082, 0.41600000000000004, -0.896, 0.20600000000000002, 192.0, 0.0, 0.0, 0.0, 0.0, 0.0, 0.0, 0.0, 0.0, 0.0, 1.6635023502389262E9, 0.0, 2022-09-18 16:59:10.238
38.0, -39377.157613892276, -37823.890188204074, -44423.44390433358, -61071.42550604648, -59552.11038018589, -75990.61143286365, -64341.50807160236, -69240.54106957211, 0.42, -0.896, 0.2, 192.0, 13.0, 32.0, 228.0, 0.0, 6.0, 64.0, 0.0, 0.0, 0.0, 1.6635023502429464E9, 0.0, 2022-09-18 16:59:10.242
39.0, -41514.09614254191, -39494.90660368283, -44322.034039739854, -60966.10408617307, -59459.350640696364, -75866.1122162476, -64244.8144250887, -69139.19826021174, 0.42, -0.896, 0.2, 192.0, 0.0, 0.0, 0.0, 0.0, 0.0, 0.0, 0.0, 0.0, 0.0, 1.6635023502469752E9, 0.0, 2022-09-18 16:59:10.246
40.0, -42291.176890275114, -39551.68003459931, -44342.28472021636, -60993.864952786564, -59451.84045455939, -75905.00425159982, -64270.29541376775, -69164.54513842406, 0.42, -0.896, 0.2, 192.0, 0.0, 0.0, 0.0, 0.0, 0.0, 0.0, 0.0, 0.0, 0.0, 1.663502350250952E9, 0.0, 2022-09-18 16:59:10.250
41.0, -41639.75764986964, -38771.09006298662, -44393.492566763474, -61052.71709593738, -59511.2960948105, -75978.47443562442, -64318.84340272468, -69222.16793562984, 0.42, -0.896, 0.2, 192.0, 0.0, 0.0, 0.0, 0.0, 0.0, 0.0, 0.0, 0.0, 0.0, 1.6635023502539568E9, 0.0, 2022-09-18 16:59:10.253
42.0, -39731.49981874225, -37510.362268729485, -44459.92195128465, -61120.5769921037, -59557.78772327754, -76057.97959065194, -64383.75286862289, -69289.13376201794, 0.42, -0.896, 0.2, 192.0, 0.0, 0.0, 0.0, 0.0, 0.0, 0.0, 0.0, 0.0, 0.0, 1.6635023502590017E9, 0.0, 2022-09-18 16:59:10.259
43.0, -39419.82709405745, -37871.097072493685, -44407.46240704804, -61059.06499136269, -59540.26395562458, -75971.92537449901, -64327.359417362146, -69226.16889788734, 0.42, -0.896, 0.2, 192.0, 0.0, 0.0, 0.0, 0.0, 0.0, 0.0, 0.0, 0.0, 0.0, 1.6635023502629805E9, 0.0, 2022-09-18 16:59:10.262
44.0, -41561.86182044289, -39526.80254302055, -44316.49080711494, -60967.33343211812, -59459.30593720746, -75862.06655050119, -64239.49470990834, -69137.36541716641, 0.42, -0.896, 0.2, 192.0, 0.0, 0.0, 0.0, 0.0, 0.0, 0.0, 0.0, 0.0, 0.0, 1.6635023502669706E9, 0.0, 2022-09-18 16:59:10.266
45.0, -42276.3800354457, -39550.87537179892, -44341.50240916043, -60999.22937145584, -59457.9871842846, -75906.21124580041, -64268.93195735598, -69170.96008908273, 0.42, -0.896, 0.2, 192.0, 0.0, 0.0, 0.0, 0.0, 0.0, 0.0, 0.0, 0.0, 0.0, 1.6635023502710032E9, 0.0, 2022-09-18 16:59:10.271
46.0, -41592.6178208134, -38761.23294368183, -44391.59266848477, -61055.265194805295, -59516.07936812394, -75978.11680771313, -64317.41289107953, -69225.9900839317, 0.42, -0.896, 0.2, 192.0, 0.0, 0.0, 0.0, 0.0, 0.0, 0.0, 0.0, 0.0, 0.0, 1.6635023502740717E9, 0.0, 2022-09-18 16:59:10.274
47.0, -39686.706922853824, -37511.837483863535, -44455.71982332705, -61126.23198345089, -59559.73232504515, -76053.97862839444, -64382.45646744448, -69292.73239287524, 0.42, -0.896, 0.2, 192.0, 0.0, 0.0, 0.0, 0.0, 0.0, 0.0, 0.0, 0.0, 0.0, 1.6635023502780044E9, 0.0, 2022-09-18 16:59:10.278
48.0, -39494.884251938376, -37944.74607047392, -44396.46534877603, -61060.54020649674, -59533.625487521356, -75960.70479878245, -64321.8832399706, -69225.45364206478, 0.42, -0.9, 0.198, 192.0, 13.0, 32.0, 227.0, 224.0, 6.0, 48.0, 0.0, 0.0, 0.0, 1.663502350282E9, 0.0, 2022-09-18 16:59:10.282
49.0, -41633.83443758899, -39560.39721493688, -44307.77362677737, -60973.23429265431, -59451.97456502612, -75854.73517831984, -64236.99131452934, -69138.12537647788, 0.42, -0.9, 0.198, 192.0, 0.0, 0.0, 0.0, 0.0, 0.0, 0.0, 0.0, 0.0, 0.0, 1.6635023502860377E9, 0.0, 2022-09-18 16:59:10.286
50.0, -42280.22453549201, -39517.99595570516, -44339.60251088173, -61010.248781472306, -59459.12712325181, -75905.22776904437, -64270.25071027884, -69172.54706293906, 0.42, -0.9, 0.198, 192.0, 0.0, 0.0, 0.0, 0.0, 0.0, 0.0, 0.0, 0.0, 0.0, 1.6635023502910275E9, 0.0, 2022-09-18 16:59:10.291
51.0, -41568.455585057214, -38709.511007012254, -44399.10285462176, -61067.692764722444, -59527.67992349624, -75988.19744446248, -64324.18546964949, -69230.05810142256, 0.42, -0.9, 0.198, 192.0, 0.0, 0.0, 0.0, 0.0, 0.0, 0.0, 0.0, 0.0, 0.0, 1.66350235029502E9, 0.0, 2022-09-18 16:59:10.295
52.0, -39663.41640513139, -37473.50424212268, -44470.20375373409, -61137.85489056765, -59581.212351466704, -76067.54613727881, -64391.75479313789, -69296.57689292156, 0.42, -0.9, 0.198, 192.0, 0.0, 0.0, 0.0, 0.0, 0.0, 0.0, 0.0, 0.0, 0.0, 1.663502350299052E9, 0.0, 2022-09-18 16:59:10.299
53.0, -39577.00456106717, -37980.12888194667, -44407.79768321487, -61061.59073848614, -59550.34459237392, -75966.00216221836, -64325.683036528, -69219.39631931738, 0.42, -0.9, 0.198, 192.0, 0.0, 0.0, 0.0, 0.0, 0.0, 0.0, 0.0, 0.0, 0.0, 1.6635023503020515E9, 0.0, 2022-09-18 16:59:10.302
54.0, -41686.673961481334, -39544.57217986252, -44321.92228101758, -60973.56956882114, -59469.923015823726, -75864.12291099106, -64242.24397447634, -69133.61032409791, 0.42, -0.9, 0.198, 192.0, 0.0, 0.0, 0.0, 0.0, 0.0, 0.0, 0.0, 0.0, 0.0, 1.6635023503060434E9, 0.0, 2022-09-18 16:59:10.306
55.0, -42295.1331490437, -39492.93965017077, -44349.70549937552, -61007.164240737475, -59477.63436766081, -75910.99451911384, -64271.25653877933, -69167.16029252532, 0.42, -0.9, 0.198, 192.0, 0.0, 0.0, 0.0, 0.0, 0.0, 0.0, 0.0, 0.0, 0.0, 1.6635023503101425E9, 0.0, 2022-09-18 16:59:10.310
56.0, -41533.07277358446, -38662.684102378385, -44398.655819732645, -61057.05333436171, -59529.132786885835, -75981.87190078163, -64317.703463757454, -69216.57999951602, 0.42, -0.9, 0.198, 192.0, 0.0, 0.0, 0.0, 0.0, 0.0, 0.0, 0.0, 0.0, 0.0, 1.6635023503141384E9, 0.0, 2022-09-18 16:59:10.314
57.0, -39632.883922205445, -37440.04368067309, -44468.080338010834, -61126.8801840401, -59578.32897643197, -76059.16423310808, -64385.00456631238, -69281.66827936987, 0.42, -0.9, 0.198, 192.0, 0.0, 0.0, 0.0, 0.0, 0.0, 0.0, 0.0, 0.0, 0.0, 1.6635023503180988E9, 0.0, 2022-09-18 16:59:10.318
58.0, -39672.20064070233, -38025.77114412441, -44406.25541284745, -61057.23214831736, -59549.58463306244, -75959.14017667058, -64320.430376581004, -69207.97457790072, 0.41600000000000004, -0.906, 0.202, 192.0, 13.0, 0.0, 227.0, 176.0, 6.0, 80.0, 0.0, 0.0, 0.0, 1.663502350323088E9, 0.0, 2022-09-18 16:59:10.323
59.0, -41776.88560210295, -39567.102738273476, -44326.39262990864, -60972.65314729848, -59472.58287341391, -75868.16857673747, -64244.85912857761, -69126.63657982786, 0.41600000000000004, -0.906, 0.202, 192.0, 0.0, 0.0, 0.0, 0.0, 0.0, 0.0, 0.0, 0.0, 0.0, 1.6635023503271773E9, 0.0, 2022-09-18 16:59:10.327
60.0, -42323.94454764659, -39472.10782433842, -44360.09906054724, -61010.517002405766, -59484.876332864325, -75924.04793787574, -64281.18071331748, -69164.45573144624, 0.41600000000000004, -0.906, 0.202, 192.0, 0.0, 0.0, 0.0, 0.0, 0.0, 0.0, 0.0, 0.0, 0.0, 1.663502350330102E9, 0.0, 2022-09-18 16:59:10.330
61.0, -41537.6548811978, -38639.527695122684, -44418.370058342225, -61071.76078221331, -59542.208557392194, -76002.52491265832, -64338.15530993406, -69222.41380481885, 0.41600000000000004, -0.906, 0.202, 192.0, 0.0, 0.0, 0.0, 0.0, 0.0, 0.0, 0.0, 0.0, 0.0, 1.6635023503340993E9, 0.0, 2022-09-18 16:59:10.334
62.0, -39619.718744721264, -37422.49756127567, -44485.8499748528, -61139.5312714018, -59587.82846782547, -76073.1564251371, -64406.015206100376, -69285.51277941618, 0.41600000000000004, -0.906, 0.202, 192.0, 0.0, 0.0, 0.0, 0.0, 0.0, 0.0, 0.0, 0.0, 0.0, 1.6635023503381407E9, 0.0, 2022-09-18 16:59:10.338
63.0, -39781.54537457769, -38100.314211882855, -44412.290383850384, -61053.70057269342, -59552.51271158609, -75960.59304006018, -64330.46630984144, -69198.89976965186, 0.41600000000000004, -0.906, 0.202, 192.0, 0.0, 0.0, 0.0, 0.0, 0.0, 0.0, 0.0, 0.0, 0.0, 1.6635023503421412E9, 0.0, 2022-09-18 16:59:10.342
64.0, -41887.41497843444, -39609.79457018311, -44335.310975946304, -60977.45877235637, -59475.24273100409, -75869.21910872687, -64258.04665780624, -69125.74251004965, 0.41600000000000004, -0.906, 0.202, 192.0, 0.0, 0.0, 0.0, 0.0, 0.0, 0.0, 0.0, 0.0, 0.0, 1.6635023503471208E9, 0.0, 2022-09-18 16:59:10.347
65.0, -42353.91823696116, -39453.846449118435, -44367.54219145086, -61022.810461856185, -59490.73248991162, -75918.97409188439, -64293.09419311216, -69169.79779837106, 0.41600000000000004, -0.906, 0.202, 192.0, 0.0, 0.0, 0.0, 0.0, 0.0, 0.0, 0.0, 0.0, 0.0, 1.6635023503511736E9, 0.0, 2022-09-18 16:59:10.351
66.0, -41523.997965335606, -38598.66870625838, -44418.12418915322, -61084.61303527511, -59549.606984806895, -75992.42192416453, -64340.859871013155, -69232.36033110146, 0.41600000000000004, -0.906, 0.202, 192.0, 0.0, 0.0, 0.0, 0.0, 0.0, 0.0, 0.0, 0.0, 0.0, 1.6635023503552544E9, 0.0, 2022-09-18 16:59:10.355
67.0, -39607.53704399312, -37397.50831097464, -44474.2494194805, -61144.89569007108, -59590.13069750437, -76054.02333188335, -64395.28636876182, -69288.53026491764, 0.41600000000000004, -0.906, 0.202, 192.0, 0.0, 0.0, 0.0, 0.0, 0.0, 0.0, 0.0, 0.0, 0.0, 1.6635023503581617E9, 0.0, 2022-09-18 16:59:10.358
68.0, -39885.99507641734, -38167.48120397105, -44391.14563359566, -61049.96783136939, -59547.304755128, -75932.31808332421, -64309.52272528681, -69192.90950213785, 0.42, -0.9, 0.20400000000000001, 192.0, 13.0, 32.0, 227.0, 224.0, 6.0, 96.0, 0.0, 0.0, 0.0, 1.6635023503621457E9, 0.0, 2022-09-18 16:59:10.362
69.0, -41974.51972657678, -39635.99081468473, -44312.758065790906, -60975.491818844304, -59467.21845474464, -75847.53791660523, -64233.258573205305, -69119.39461462434, 0.42, -0.9, 0.20400000000000001, 192.0, 0.0, 0.0, 0.0, 0.0, 0.0, 0.0, 0.0, 0.0, 0.0, 1.663502350366198E9, 0.0, 2022-09-18 16:59:10.366
70.0, -42381.232068685546, -39422.37519292536, -44347.000938296434, -61019.524755421255, -59482.41764097424, -75903.10435332112, -64267.5685009442, -69159.85127208845, 0.42, -0.9, 0.20400000000000001, 192.0, 0.0, 0.0, 0.0, 0.0, 0.0, 0.0, 0.0, 0.0, 0.0, 1.6635023503701675E9, 0.0, 2022-09-18 16:59:10.370
71.0, -41502.40618019178, -38537.35787121748, -44402.76854071242, -61085.68591900897, -59540.84510098042, -75984.86703453863, -64320.47508006991, -69222.70437749678, 0.42, -0.9, 0.20400000000000001, 192.0, 0.0, 0.0, 0.0, 0.0, 0.0, 0.0, 0.0, 0.0, 0.0, 1.663502350374179E9, 0.0, 2022-09-18 16:59:10.374
72.0, -39590.21444204026, -37358.32570294449, -44464.459355409075, -61151.71297212994, -59582.77697357858, -76052.54811674931, -64381.204769754986, -69281.93650030333, 0.42, -0.9, 0.20400000000000001, 192.0, 0.0, 0.0, 0.0, 0.0, 0.0, 0.0, 0.0, 0.0, 0.0, 1.6635023503792453E9, 0.0, 2022-09-18 16:59:10.379
73.0, -39981.72759791942, -38196.33730606286, -44382.07082534681, -61054.72875293836, -59538.229946879146, -75931.58047575719, -64296.33519605818, -69186.24868229017, 0.42, -0.9, 0.20400000000000001, 192.0, 0.0, 0.0, 0.0, 0.0, 0.0, 0.0, 0.0, 0.0, 0.0, 1.6635023503832088E9, 0.0, 2022-09-18 16:59:10.383
74.0, -42037.01520407382, -39604.631317213934, -44314.79207453634, -60983.940778248405, -59460.982318041606, -75853.57288760816, -64232.632724360556, -69116.19831516723, 0.42, -0.9, 0.20400000000000001, 192.0, 0.0, 0.0, 0.0, 0.0, 0.0, 0.0, 0.0, 0.0, 0.0, 1.6635023503862424E9, 0.0, 2022-09-18 16:59:10.386
75.0, -42376.873478516754, -39345.64165421029, -44358.534438435374, -61031.17001428247, -59481.657681662764, -75917.72239419489, -64277.71619292691, -69163.2710889901, 0.42, -0.9, 0.20400000000000001, 192.0, 0.0, 0.0, 0.0, 0.0, 0.0, 0.0, 0.0, 0.0, 0.0, 1.6635023503901703E9, 0.0, 2022-09-18 16:59:10.390
76.0, -41439.329557338904, -38437.75849792463, -44422.10279966627, -61094.78307900228, -59544.30962137099, -76005.7882673488, -64340.03285646831, -69228.02409267714, 0.42, -0.9, 0.20400000000000001, 192.0, 0.0, 0.0, 0.0, 0.0, 0.0, 0.0, 0.0, 0.0, 0.0, 1.663502350394244E9, 0.0, 2022-09-18 16:59:10.394
77.0, -39518.91237722783, -37282.039199118524, -44477.378663704236, -61147.93552731699, -59583.98396777916, -76065.89210818913, -64395.42047922856, -69277.77907583465, 0.42, -0.9, 0.20400000000000001, 192.0, 0.0, 0.0, 0.0, 0.0, 0.0, 0.0, 0.0, 0.0, 0.0, 1.6635023503982248E9, 0.0, 2022-09-18 16:59:10.398
78.0, -40016.37280182514, -38203.33340207737, -44390.09510160627, -61045.72099992287, -59536.486510811636, -75942.48812705137, -64306.10290838515, -69176.88330136338, 0.42, -0.9, 0.20400000000000001, 192.0, 0.0, 0.0, 0.0, 0.0, 0.0, 0.0, 0.0, 0.0, 0.0, 1.663502350402268E9, 0.0, 2022-09-18 16:59:10.402
79.0, -42030.04145980376, -39569.00263655218, -44322.50342637342, -60979.51513284626, -59460.22235873013, -75869.64379187152, -64242.64630587654, -69110.83389649796, 0.41200000000000003, -0.898, 0.202, 192.0, 12.0, 224.0, 227.0, 240.0, 6.0, 80.0, 0.0, 0.0, 0.0, 1.6635023504062698E9, 0.0, 2022-09-18 16:59:10.406
80.0, -42301.74926540247, -39279.61460108931, -44366.82693562829, -61027.88430784754, -59486.46330672065, -75934.86618219211, -64288.66854771001, -69158.28664997658, 0.41200000000000003, -0.898, 0.202, 192.0, 0.0, 0.0, 0.0, 0.0, 0.0, 0.0, 0.0, 0.0, 0.0, 1.6635023504112616E9, 0.0, 2022-09-18 16:59:10.411
81.0, -41309.13064588674, -38355.34761611791, -44427.802494502364, -61089.2174946329, -59545.18133940475, -76017.88056109913, -64347.49833911638, -69218.36813907244, 0.41200000000000003, -0.898, 0.202, 192.0, 0.0, 0.0, 0.0, 0.0, 0.0, 0.0, 0.0, 0.0, 0.0, 1.6635023504142585E9, 0.0, 2022-09-18 16:59:10.414
82.0, -39401.9009950043, -37235.27934971802, -44474.40588169168, -61135.68677135549, -59576.92081653128, -76070.04953265781, -64395.42047922856, -69261.3952471489, 0.41200000000000003, -0.898, 0.202, 192.0, 0.0, 0.0, 0.0, 0.0, 0.0, 0.0, 0.0, 0.0, 0.0, 1.663502350418264E9, 0.0, 2022-09-18 16:59:10.418
83.0, -40004.28050807482, -38235.586969326374, -44378.740415422966, -61029.672447403966, -59521.06380713747, -75937.41428106002, -64299.956178659944, -69155.98442029768, 0.41200000000000003, -0.898, 0.202, 192.0, 0.0, 0.0, 0.0, 0.0, 0.0, 0.0, 0.0, 0.0, 0.0, 1.6635023504222767E9, 0.0, 2022-09-18 16:59:10.422
84.0, -41981.627581313565, -39554.786927078596, -44317.13900770414, -60971.51320833126, -59444.37497191131, -75869.0626465157, -64244.300334966225, -69096.4617248132, 0.41200000000000003, -0.898, 0.202, 192.0, 0.0, 0.0, 0.0, 0.0, 0.0, 0.0, 0.0, 0.0, 0.0, 1.663502350426276E9, 0.0, 2022-09-18 16:59:10.426
85.0, -42203.26747933239, -39235.224036601074, -44357.1709820236, -61017.021360042265, -59469.81125710145, -75930.3734815566, -64286.00869011983, -69140.69582709025, 0.41200000000000003, -0.898, 0.202, 192.0, 0.0, 0.0, 0.0, 0.0, 0.0, 0.0, 0.0, 0.0, 0.0, 1.6635023504302237E9, 0.0, 2022-09-18 16:59:10.430
86.0, -41172.60619075372, -38294.81909213294, -44415.53138679641, -61079.24861660584, -59529.31160084148, -76011.59972090718, -64342.71506580294, -69202.4313452758, 0.41200000000000003, -0.898, 0.202, 192.0, 0.0, 0.0, 0.0, 0.0, 0.0, 0.0, 0.0, 0.0, 0.0, 1.6635023504352448E9, 0.0, 2022-09-18 16:59:10.435
87.0, -39296.73603734208, -37218.493189632085, -44464.50405889798, -61134.63623936609, -59567.577787348964, -76062.87462268765, -64391.84420011571, -69252.02986622213, 0.41200000000000003, -0.898, 0.202, 192.0, 0.0, 0.0, 0.0, 0.0, 0.0, 0.0, 0.0, 0.0, 0.0, 1.6635023504392653E9, 0.0, 2022-09-18 16:59:10.439
88.0, -40014.33879307971, -38295.71316191115, -44361.753089636935, -61026.878479347055, -59507.25042906409, -75921.74570819685, -64287.305091298236, -69144.69678934774, 0.41200000000000003, -0.898, 0.202, 192.0, 0.0, 0.0, 0.0, 0.0, 0.0, 0.0, 0.0, 0.0, 0.0, 1.6635023504422905E9, 0.0, 2022-09-18 16:59:10.442
89.0, -41956.39246182352, -39570.12022377494, -44304.37616162016, -60971.6920222869, -59433.53437585049, -75858.53497487724, -64232.632724360556, -69089.84560845443, 0.41400000000000003, -0.904, 0.20600000000000002, 192.0, 12.0, 240.0, 227.0, 192.0, 6.0, 112.0, 0.0, 0.0, 0.0, 1.6635023504463053E9, 0.0, 2022-09-18 16:59:10.446
90.0, -42131.27251044184, -39228.63027198676, -44345.50337141793, -61022.43048220045, -59463.32925120941, -75921.38808028557, -64274.27402428079, -69138.90768753382, 0.41400000000000003, -0.904, 0.20600000000000002, 192.0, 0.0, 0.0, 0.0, 0.0, 0.0, 0.0, 0.0, 0.0, 0.0, 1.6635023504503262E9, 0.0, 2022-09-18 16:59:10.450
91.0, -41063.8426022342, -38271.84149883288, -44402.94735466807, -61086.31176785372, -59521.868469937865, -76004.60362489267, -64329.326370874216, -69200.10676385245, 0.41400000000000003, -0.904, 0.20600000000000002, 192.0, 0.0, 0.0, 0.0, 0.0, 0.0, 0.0, 0.0, 0.0, 0.0, 1.663502350454285E9, 0.0, 2022-09-18 16:59:10.454
92.0, -39218.39317302623, -37227.433887414205, -44445.81800053335, -61125.85200379515, -59552.87033949737, -76046.200221324, -64372.48758941741, -69235.35546485847, 0.41400000000000003, -0.904, 0.20600000000000002, 192.0, 0.0, 0.0, 0.0, 0.0, 0.0, 0.0, 0.0, 0.0, 0.0, 1.663502350458291E9, 0.0, 2022-09-18 16:59:10.458
93.0, -40051.50974410889, -38375.39713089432, -44345.90570281812, -61014.60737164109, -59496.65570219228, -75911.26274004731, -64271.010669590316, -69127.55300135053, 0.41400000000000003, -0.904, 0.20600000000000002, 192.0, 0.0, 0.0, 0.0, 0.0, 0.0, 0.0, 0.0, 0.0, 0.0, 1.6635023504624126E9, 0.0, 2022-09-18 16:59:10.462
94.0, -41947.652929741496, -39586.07936931603, -44290.093396913224, -60964.69592627239, -59428.61699207032, -75860.39016966704, -64218.46171837589, -69077.41803853727, 0.41400000000000003, -0.904, 0.20600000000000002, 192.0, 0.0, 0.0, 0.0, 0.0, 0.0, 0.0, 0.0, 0.0, 0.0, 1.6635023504673011E9, 0.0, 2022-09-18 16:59:10.467
95.0, -42066.0277683768, -39201.62936468475, -44329.70068808802, -61012.50630766229, -59460.423524430225, -75921.09750760764, -64255.54326242724, -69121.29451290304, 0.41400000000000003, -0.904, 0.20600000000000002, 192.0, 0.0, 0.0, 0.0, 0.0, 0.0, 0.0, 0.0, 0.0, 0.0, 1.6635023504702864E9, 0.0, 2022-09-18 16:59:10.470
96.0, -40951.01099622381, -38222.667661031206, -44398.029970887896, -61086.08825040916, -59524.90830718378, -76011.17503776253, -64319.62571378061, -69190.51786548113, 0.41400000000000003, -0.904, 0.20600000000000002, 192.0, 0.0, 0.0, 0.0, 0.0, 0.0, 0.0, 0.0, 0.0, 0.0, 1.6635023504743528E9, 0.0, 2022-09-18 16:59:10.474
97.0, -39137.16693367564, -37219.387259410294, -44442.621701076234, -61125.33791367268, -59558.03359246655, -76050.78232893733, -64362.809284068266, -69225.67715950933, 0.41400000000000003, -0.904, 0.20600000000000002, 192.0, 0.0, 0.0, 0.0, 0.0, 0.0, 0.0, 0.0, 0.0, 0.0, 1.6635023504783766E9, 0.0, 2022-09-18 16:59:10.478
98.0, -40074.97907578696, -38425.24152102965, -44344.98928129546, -61012.30514196219, -59497.79564115949, -75910.86040864712, -64262.44995146394, -69114.94661747773, 0.41400000000000003, -0.904, 0.20600000000000002, 192.0, 0.0, 0.0, 0.0, 0.0, 0.0, 0.0, 0.0, 0.0, 0.0, 1.663502350482368E9, 0.0, 2022-09-18 16:59:10.482
99.0, -41919.55678696118, -39564.33112196101, -44298.408245850595, -60967.10991467356, -59427.90173624775, -75861.53010863425, -64220.18280269895, -69069.55022448901, 0.41000000000000003, -0.904, 0.20600000000000002, 192.0, 12.0, 208.0, 227.0, 192.0, 6.0, 112.0, 0.0, 0.0, 0.0, 1.6635023504864025E9, 0.0, 2022-09-18 16:59:10.486
100.0, -41996.33502916516, -39144.140677945696, -44343.715231861504, -61014.83088908564, -59461.54111165299, -75925.90313266554, -64264.46160846492, -69115.37130062238, 0.41000000000000003, -0.904, 0.20600000000000002, 192.0, 0.0, 0.0, 0.0, 0.0, 0.0, 0.0, 0.0, 0.0, 0.0, 1.6635023504904351E9, 0.0, 2022-09-18 16:59:10.490
101.0, -40835.452477389874, -38128.142133729714, -44409.27289834892, -61078.77922997227, -59517.71104546917, -76011.77853486282, -64327.560583062244, -69176.79389438557, 0.41000000000000003, -0.904, 0.20600000000000002, 192.0, 0.0, 0.0, 0.0, 0.0, 0.0, 0.0, 0.0, 0.0, 0.0, 1.6635023504933708E9, 0.0, 2022-09-18 16:59:10.493
102.0, -39067.40713923063, -37167.46415704062, -44450.57892210232, -61111.949218743954, -59545.762484760584, -76044.61324746767, -64367.346688192694, -69205.7841069441, 0.41000000000000003, -0.904, 0.20600000000000002, 192.0, 0.0, 0.0, 0.0, 0.0, 0.0, 0.0, 0.0, 0.0, 0.0, 1.6635023504973912E9, 0.0, 2022-09-18 16:59:10.497
103.0, -40108.55139595883, -38433.53401822258, -44346.10686851822, -60991.47331612984, -59479.04252756149, -75901.29386202025, -64262.986393330866, -69088.5045037871, 0.41000000000000003, -0.904, 0.20600000000000002, 192.0, 0.0, 0.0, 0.0, 0.0, 0.0, 0.0, 0.0, 0.0, 0.0, 1.6635023505023642E9, 0.0, 2022-09-18 16:59:10.502
104.0, -41910.034943823215, -39511.53630155758, -44311.08168495676, -60958.996231436286, -59421.46443384462, -75868.32503894866, -64233.37033192758, -69055.08864582643, 0.41000000000000003, -0.904, 0.20600000000000002, 192.0, 0.0, 0.0, 0.0, 0.0, 0.0, 0.0, 0.0, 0.0, 0.0, 1.6635023505064096E9, 0.0, 2022-09-18 16:59:10.506
105.0, -41944.52368551775, -39068.368264242206, -44360.79196462536, -61015.56849665267, -59463.59747214288, -75934.28503683627, -64281.694803439954, -69107.19056215174, 0.41000000000000003, -0.904, 0.20600000000000002, 192.0, 0.0, 0.0, 0.0, 0.0, 0.0, 0.0, 0.0, 0.0, 0.0, 1.6635023505103793E9, 0.0, 2022-09-18 16:59:10.510
106.0, -40741.10576404402, -38037.90814136364, -44427.333107868806, -61085.864732964605, -59525.355342072886, -76021.16626753405, -64348.2359466834, -69177.95618509724, 0.41000000000000003, -0.904, 0.20600000000000002, 192.0, 0.0, 0.0, 0.0, 0.0, 0.0, 0.0, 0.0, 0.0, 0.0, 1.663502350514423E9, 0.0, 2022-09-18 16:59:10.514
107.0, -39027.710441078, -37130.337909500355, -44459.98900651801, -61116.93365775749, -59553.384429619844, -76048.16717483607, -64382.389412211116, -69205.42647903282, 0.41000000000000003, -0.904, 0.20600000000000002, 192.0, 0.0, 0.0, 0.0, 0.0, 0.0, 0.0, 0.0, 0.0, 0.0, 1.663502350518436E9, 0.0, 2022-09-18 16:59:10.518
108.0, -40183.988533495496, -38470.39204482938, -44356.83570585677, -61002.11274649057, -59488.87729512183, -75906.70298417842, -64280.443105750455, -69092.37135557787, 0.41000000000000003, -0.904, 0.20600000000000002, 192.0, 0.0, 0.0, 0.0, 0.0, 0.0, 0.0, 0.0, 0.0, 0.0, 1.663502350522408E9, 0.0, 2022-09-18 16:59:10.522
109.0, -41933.63838596802, -39496.53828102807, -44323.2633856849, -60971.33439437561, -59429.175785681706, -75874.5611756517, -64251.51994842529, -69060.54247147351, 0.406, -0.9, 0.21, 192.0, 12.0, 176.0, 227.0, 224.0, 6.0, 144.0, 0.0, 0.0, 0.0, 1.6635023505254543E9, 0.0, 2022-09-18 16:59:10.525
110.0, -41933.70544120138, -39038.26046446091, -44368.27979901789, -61021.067025788674, -59467.44197218919, -75942.19755437346, -64294.59175999067, -69110.27510288658, 0.406, -0.9, 0.21, 192.0, 0.0, 0.0, 0.0, 0.0, 0.0, 0.0, 0.0, 0.0, 0.0, 1.6635023505304444E9, 0.0, 2022-09-18 16:59:10.530
111.0, -40697.43045537835, -37987.43790238356, -44430.64116604819, -61092.99493944585, -59521.62260074885, -76030.50929671638, -64351.49930137388, -69180.83956013198, 0.406, -0.9, 0.21, 192.0, 0.0, 0.0, 0.0, 0.0, 0.0, 0.0, 0.0, 0.0, 0.0, 1.6635023505344493E9, 0.0, 2022-09-18 16:59:10.534
112.0, -39043.49077266345, -37141.379671261275, -44455.13867797121, -61117.91713451352, -59541.716819014175, -76047.87660215814, -64372.42053418405, -69200.75496444166, 0.406, -0.9, 0.21, 192.0, 0.0, 0.0, 0.0, 0.0, 0.0, 0.0, 0.0, 0.0, 0.0, 1.6635023505384772E9, 0.0, 2022-09-18 16:59:10.538
113.0, -40303.793883775936, -38535.88265608343, -44342.48588591646, -61002.2468569573, -59466.65966113325, -75898.32108000769, -64257.48786419486, -69085.48701828564, 0.406, -0.9, 0.21, 192.0, 0.0, 0.0, 0.0, 0.0, 0.0, 0.0, 0.0, 0.0, 0.0, 1.663502350542464E9, 0.0, 2022-09-18 16:59:10.542
114.0, -42000.80537805622, -39486.74821695664, -44298.899984228614, -60971.51320833126, -59401.549029534945, -75864.7040563469, -64215.7571572968, -69055.73684641563, 0.406, -0.9, 0.21, 192.0, 0.0, 0.0, 0.0, 0.0, 0.0, 0.0, 0.0, 0.0, 0.0, 1.663502350546519E9, 0.0, 2022-09-18 16:59:10.546
115.0, -41963.20974388239, -38993.624030783656, -44339.9154353041, -61021.290543233226, -59442.162149210235, -75930.35112981214, -64252.95046007043, -69102.00495743811, 0.406, -0.9, 0.21, 192.0, 0.0, 0.0, 0.0, 0.0, 0.0, 0.0, 0.0, 0.0, 0.0, 1.6635023505504427E9, 0.0, 2022-09-18 16:59:10.550
116.0, -40682.03010344865, -37917.700459683, -44397.29236332088, -61080.03092766177, -59493.548809712986, -76011.48796218491, -64303.82303045071, -69161.48294943369, 0.406, -0.9, 0.21, 192.0, 0.0, 0.0, 0.0, 0.0, 0.0, 0.0, 0.0, 0.0, 0.0, 1.6635023505535057E9, 0.0, 2022-09-18 16:59:10.553
117.0, -39098.006677389945, -37138.80922064892, -44418.83944497579, -61100.72864302739, -59517.82280419145, -76025.61426468065, -64320.13980390308, -69180.30311826504, 0.406, -0.9, 0.21, 192.0, 0.0, 0.0, 0.0, 0.0, 0.0, 0.0, 0.0, 0.0, 0.0, 1.6635023505585158E9, 0.0, 2022-09-18 16:59:10.558
118.0, -40472.19192650222, -38591.20322361031, -44314.23328092495, -60988.32172016165, -59451.594585370374, -75884.44064670094, -64211.5550293392, -69070.33253554493, 0.406, -0.9, 0.21, 192.0, 0.0, 0.0, 0.0, 0.0, 0.0, 0.0, 0.0, 0.0, 0.0, 1.6635023505625255E9, 0.0, 2022-09-18 16:59:10.562
119.0, -42116.92269050154, -39472.48780399416, -44286.33830384473, -60963.62304253854, -59396.00579691003, -75859.18317546645, -64186.901055205, -69044.29275325451, 0.394, -0.904, 0.216, 192.0, 12.0, 80.0, 227.0, 192.0, 6.0, 192.0, 0.0, 0.0, 0.0, 1.6635023505664828E9, 0.0, 2022-09-18 16:59:10.566
120.0, -42036.5234656958, -38952.22860005243, -44334.282795701365, -61009.73469134983, -59437.73650380808, -75924.15969659803, -64234.04088426124, -69089.84560845443, 0.394, -0.904, 0.216, 192.0, 0.0, 0.0, 0.0, 0.0, 0.0, 0.0, 0.0, 0.0, 0.0, 1.663502350570495E9, 0.0, 2022-09-18 16:59:10.570
121.0, -40711.33324042955, -37856.411976386546, -44406.635392503194, -61077.12520088258, -59494.174658557735, -76014.46074419747, -64305.0300246513, -69156.83378658698, 0.394, -0.904, 0.216, 192.0, 0.0, 0.0, 0.0, 0.0, 0.0, 0.0, 0.0, 0.0, 0.0, 1.663502350574587E9, 0.0, 2022-09-18 16:59:10.574
122.0, -39183.12212027575, -37138.87627588228, -44436.25145390647, -61098.29230288176, -59519.834461192426, -76027.15653504808, -64333.103815687165, -69173.41878097282, 0.394, -0.904, 0.216, 192.0, 0.0, 0.0, 0.0, 0.0, 0.0, 0.0, 0.0, 0.0, 0.0, 1.6635023505775557E9, 0.0, 2022-09-18 16:59:10.577
123.0, -40625.27902427662, -38627.03306997217, -44320.7599903059, -60973.68132754342, -59440.37400965381, -75875.54465240773, -64217.09826196412, -69050.21596553517, 0.394, -0.904, 0.216, 192.0, 0.0, 0.0, 0.0, 0.0, 0.0, 0.0, 0.0, 0.0, 0.0, 1.6635023505815532E9, 0.0, 2022-09-18 16:59:10.581
124.0, -42210.643555002636, -39445.21867575868, -44298.36354236169, -60959.95735644786, -59387.914465417205, -75859.02671325525, -64197.76400301028, -69034.05565429397, 0.394, -0.904, 0.216, 192.0, 0.0, 0.0, 0.0, 0.0, 0.0, 0.0, 0.0, 0.0, 0.0, 1.663502350585621E9, 0.0, 2022-09-18 16:59:10.585
125.0, -42095.934402458006, -38910.96727978793, -44353.30413023283, -61016.50726991979, -59439.41288464223, -75932.25102809085, -64249.57534665768, -69085.53172177455, 0.394, -0.904, 0.216, 192.0, 0.0, 0.0, 0.0, 0.0, 0.0, 0.0, 0.0, 0.0, 0.0, 1.6635023505905328E9, 0.0, 2022-09-18 16:59:10.590
126.0, -40716.76471433219, -37798.56566173621, -44423.9356427116, -61090.13391615557, -59499.65083594929, -76026.0389478253, -64318.97751319141, -69158.89014707686, 0.394, -0.904, 0.216, 192.0, 0.0, 0.0, 0.0, 0.0, 0.0, 0.0, 0.0, 0.0, 0.0, 1.663502350594578E9, 0.0, 2022-09-18 16:59:10.594
127.0, -39243.896513449734, -37154.5672004899, -44438.82190451884, -61102.0697476947, -59519.58859200342, -76025.52485770284, -64334.51197558785, -69167.96495532572, 0.394, -0.904, 0.216, 192.0, 0.0, 0.0, 0.0, 0.0, 0.0, 0.0, 0.0, 0.0, 0.0, 1.6635023505986216E9, 0.0, 2022-09-18 16:59:10.598
128.0, -40770.0736248581, -38703.31957379813, -44327.57727236477, -60976.810571767164, -59442.07274223241, -75876.14814950802, -64223.15558471151, -69046.9973143336, 0.394, -0.904, 0.216, 192.0, 0.0, 0.0, 0.0, 0.0, 0.0, 0.0, 0.0, 0.0, 0.0, 1.6635023506026354E9, 0.0, 2022-09-18 16:59:10.602
129.0, -42308.32067827233, -39465.514059724104, -44311.32755414576, -60960.739667503796, -59393.301235830935, -75866.64865811451, -64213.56668634018, -69031.3957967038, 0.392, -0.904, 0.216, 192.0, 12.0, 64.0, 227.0, 192.0, 6.0, 192.0, 0.0, 0.0, 0.0, 1.6635023506056063E9, 0.0, 2022-09-18 16:59:10.605
130.0, -42161.067385800765, -38909.313250698244, -44359.361452980214, -61013.26626697377, -59439.4799398756, -75932.5192490243, -64262.3158409972, -69080.39082054983, 0.392, -0.904, 0.216, 192.0, 0.0, 0.0, 0.0, 0.0, 0.0, 0.0, 0.0, 0.0, 0.0, 1.6635023506096003E9, 0.0, 2022-09-18 16:59:10.609
131.0, -40729.57226390508, -37774.09050155765, -44425.65672703466, -61086.356471342624, -59490.21839978915, -76018.10407854368, -64329.594591807676, -69149.43535917228, 0.392, -0.904, 0.216, 192.0, 0.0, 0.0, 0.0, 0.0, 0.0, 0.0, 0.0, 0.0, 0.0, 1.6635023506136432E9, 0.0, 2022-09-18 16:59:10.613
132.0, -39310.191787504176, -37198.04134345548, -44433.52454108293, -61091.83264873418, -59499.47202199364, -76007.82227609423, -64336.657743055555, -69149.63652487237, 0.392, -0.904, 0.216, 192.0, 0.0, 0.0, 0.0, 0.0, 0.0, 0.0, 0.0, 0.0, 0.0, 1.66350235061864E9, 0.0, 2022-09-18 16:59:10.618
133.0, -40900.2054810769, -38773.481699643344, -44313.83094952476, -60965.65705128397, -59410.646189528255, -75853.86346028608, -64216.98650324184, -69024.06442452245, 0.392, -0.904, 0.216, 192.0, 0.0, 0.0, 0.0, 0.0, 0.0, 0.0, 0.0, 0.0, 0.0, 1.6635023506226256E9, 0.0, 2022-09-18 16:59:10.622
134.0, -42373.56542033737, -39467.682178936266, -44300.53166157385, -60958.504493058266, -59366.79206690694, -75851.49417537382, -64208.04580545972, -69017.62712211933, 0.392, -0.904, 0.216, 192.0, 0.0, 0.0, 0.0, 0.0, 0.0, 0.0, 0.0, 0.0, 0.0, 1.663502350626674E9, 0.0, 2022-09-18 16:59:10.626
135.0, -42192.672752460574, -38894.20347144645, -44350.554865664824, -61014.0485780297, -59420.74917802205, -75924.85260067614, -64255.02917230478, -69073.61824197987, 0.392, -0.904, 0.216, 192.0, 0.0, 0.0, 0.0, 0.0, 0.0, 0.0, 0.0, 0.0, 0.0, 1.6635023506306477E9, 0.0, 2022-09-18 16:59:10.630
136.0, -40719.37986843346, -37738.819448807175, -44424.00269794497, -61089.35160509963, -59477.03087056051, -76018.8416861107, -64323.60432429366, -69148.94362079425, 0.392, -0.904, 0.216, 192.0, 0.0, 0.0, 0.0, 0.0, 0.0, 0.0, 0.0, 0.0, 0.0, 1.6635023506336613E9, 0.0, 2022-09-18 16:59:10.633
137.0, -39376.77763423653, -37236.97808229662, -44421.27578512142, -61080.52266603979, -59482.12706829632, -75999.6862411125, -64317.34583584617, -69136.60545785492, 0.392, -0.904, 0.216, 192.0, 0.0, 0.0, 0.0, 0.0, 0.0, 0.0, 0.0, 0.0, 0.0, 1.6635023506376803E9, 0.0, 2022-09-18 16:59:10.637
138.0, -41051.70560499497, -38850.70697673642, -44305.31493488728, -60961.74549600429, -59399.9173521897, -75852.2988381742, -64200.87089548956, -69018.85646806438, 0.392, -0.904, 0.216, 192.0, 0.0, 0.0, 0.0, 0.0, 0.0, 0.0, 0.0, 0.0, 0.0, 1.6635023506416895E9, 0.0, 2022-09-18 16:59:10.641
139.0, -42458.39029054526, -39469.69383593724, -44295.16724290458, -60965.16531290595, -59361.71822091559, -75856.12098647606, -64194.18772389743, -69019.70583435368, 0.39, -0.9, 0.216, 192.0, 12.0, 48.0, 227.0, 224.0, 6.0, 192.0, 0.0, 0.0, 0.0, 1.6635023506457324E9, 0.0, 2022-09-18 16:59:10.645
140.0, -42234.068183191805, -38865.68264552148, -44340.94361554905, -61014.83088908564, -59412.54608780696, -75924.98671114286, -64237.93008779646, -69068.2538233106, 0.39, -0.9, 0.216, 192.0, 0.0, 0.0, 0.0, 0.0, 0.0, 0.0, 0.0, 0.0, 0.0, 1.6635023506506624E9, 0.0, 2022-09-18 16:59:10.650
141.0, -40717.88230155496, -37689.77972147223, -44406.92596518111, -61083.428392818976, -59463.99980354307, -76009.76687786185, -64301.409042049534, -69135.24200144316, 0.39, -0.9, 0.216, 192.0, 0.0, 0.0, 0.0, 0.0, 0.0, 0.0, 0.0, 0.0, 0.0, 1.6635023506547022E9, 0.0, 2022-09-18 16:59:10.654
142.0, -39468.19626905874, -37266.08005357743, -44398.45465403255, -61069.57031125669, -59465.69853612167, -75979.81554029173, -64288.690899454465, -69118.52289659058, 0.39, -0.9, 0.216, 192.0, 0.0, 0.0, 0.0, 0.0, 0.0, 0.0, 0.0, 0.0, 0.0, 1.6635023506587765E9, 0.0, 2022-09-18 16:59:10.658
143.0, -41186.44192057156, -38885.128663197596, -44284.14783288811, -60952.04483891068, -59381.85714266982, -75833.99275946531, -64173.914691676466, -69002.539694612, 0.39, -0.9, 0.216, 192.0, 0.0, 0.0, 0.0, 0.0, 0.0, 0.0, 0.0, 0.0, 0.0, 1.6635023506616652E9, 0.0, 2022-09-18 16:59:10.661
144.0, -42525.378468677816, -39445.28573099205, -44277.84464095171, -60951.642507510485, -59343.79212186243, -75839.13366069003, -64171.36659280856, -69002.42793588972, 0.39, -0.9, 0.216, 192.0, 0.0, 0.0, 0.0, 0.0, 0.0, 0.0, 0.0, 0.0, 0.0, 1.6635023506657166E9, 0.0, 2022-09-18 16:59:10.665
145.0, -42282.996151804466, -38836.69243296295, -44326.504388630914, -60999.83286855613, -59393.07771838638, -75908.84875164613, -64217.47824161986, -69053.3452097589, 0.39, -0.9, 0.216, 192.0, 0.0, 0.0, 0.0, 0.0, 0.0, 0.0, 0.0, 0.0, 0.0, 1.6635023506697156E9, 0.0, 2022-09-18 16:59:10.669
146.0, -40721.25741496771, -37632.87218008902, -44402.90265117915, -61079.94152068395, -59447.50421613506, -76004.40245919257, -64292.49069601187, -69129.9669897517, 0.39, -0.9, 0.216, 192.0, 0.0, 0.0, 0.0, 0.0, 0.0, 0.0, 0.0, 0.0, 0.0, 1.663502350673811E9, 0.0, 2022-09-18 16:59:10.673
147.0, -39538.80542979306, -37269.097539078895, -44397.38177029869, -61066.9104536665, -59451.90750979275, -75974.89815651157, -64284.86875115261, -69112.42087035428, 0.39, -0.9, 0.216, 192.0, 0.0, 0.0, 0.0, 0.0, 0.0, 0.0, 0.0, 0.0, 0.0, 1.6635023506787283E9, 0.0, 2022-09-18 16:59:10.678
148.0, -41325.6038815503, -38913.80595133376, -44288.953457946, -60948.222690608825, -59369.9660146196, -75833.18809666492, -64175.52401727725, -68997.19762768717, 0.39, -0.9, 0.216, 192.0, 0.0, 0.0, 0.0, 0.0, 0.0, 0.0, 0.0, 0.0, 0.0, 1.6635023506827652E9, 0.0, 2022-09-18 16:59:10.682
149.0, -42577.50273674759, -39397.98943972462, -44293.647324281614, -60956.71635350184, -59342.65218289521, -75848.67785557244, -64183.79416272571, -69003.90315102377, 0.396, -0.904, 0.214, 192.0, 12.0, 96.0, 227.0, 192.0, 6.0, 176.0, 0.0, 0.0, 0.0, 1.6635023506868465E9, 0.0, 2022-09-18 16:59:10.686
150.0, -42265.13710798468, -38764.09396697211, -44346.59860689624, -61009.13119424954, -59397.95039867764, -75918.77292618429, -64234.68908485045, -69055.803901649, 0.396, -0.904, 0.214, 192.0, 0.0, 0.0, 0.0, 0.0, 0.0, 0.0, 0.0, 0.0, 0.0, 1.6635023506897335E9, 0.0, 2022-09-18 16:59:10.689
151.0, -40641.864018662454, -37551.28831282715, -44416.626622274714, -61080.54501778424, -59445.51491087853, -76004.62597663712, -64304.493582784366, -69125.83191702746, 0.396, -0.904, 0.214, 192.0, 0.0, 0.0, 0.0, 0.0, 0.0, 0.0, 0.0, 0.0, 0.0, 1.6635023506937516E9, 0.0, 2022-09-18 16:59:10.693
152.0, -39536.6820140698, -37281.7486264406, -44399.41577904413, -61057.45566576191, -59442.76564631053, -75964.19167091748, -64286.455725008935, -69101.15559114881, 0.396, -0.904, 0.214, 192.0, 0.0, 0.0, 0.0, 0.0, 0.0, 0.0, 0.0, 0.0, 0.0, 1.6635023506977856E9, 0.0, 2022-09-18 16:59:10.697
153.0, -41368.38512043776, -38956.5424867323, -44286.33830384473, -60942.74651321727, -59356.68907841314, -75822.21339013736, -64175.52401727725, -68989.57568282791, 0.396, -0.904, 0.214, 192.0, 0.0, 0.0, 0.0, 0.0, 0.0, 0.0, 0.0, 0.0, 0.0, 1.663502350701831E9, 0.0, 2022-09-18 16:59:10.701
154.0, -42545.025652054035, -39384.82426224044, -44292.19446089202, -60952.894205199984, -59329.44230192212, -75838.84308801212, -64187.43749707193, -68998.56108409895, 0.396, -0.904, 0.214, 192.0, 0.0, 0.0, 0.0, 0.0, 0.0, 0.0, 0.0, 0.0, 0.0, 1.6635023507057707E9, 0.0, 2022-09-18 16:59:10.705
155.0, -42188.44827275852, -38733.53913230171, -44341.07772601578, -60996.88243828803, -59381.29834905844, -75903.88666437706, -64236.87955580706, -69042.34815148689, 0.396, -0.904, 0.214, 192.0, 0.0, 0.0, 0.0, 0.0, 0.0, 0.0, 0.0, 0.0, 0.0, 1.6635023507107964E9, 0.0, 2022-09-18 16:59:10.710
156.0, -40525.903168428325, -37507.61300416148, -44411.664535005635, -61071.693726979945, -59429.89104150427, -75990.3879154191, -64308.94157993097, -69115.32659713348, 0.396, -0.904, 0.214, 192.0, 0.0, 0.0, 0.0, 0.0, 0.0, 0.0, 0.0, 0.0, 0.0, 1.6635023507138727E9, 0.0, 2022-09-18 16:59:10.713
157.0, -39525.59554881997, -37322.89818798282, -44386.921153893614, -61044.64811618902, -59425.398340868756, -75942.33166484018, -64283.01355636282, -69087.09634388643, 0.396, -0.904, 0.214, 192.0, 0.0, 0.0, 0.0, 0.0, 0.0, 0.0, 0.0, 0.0, 0.0, 1.663502350717772E9, 0.0, 2022-09-18 16:59:10.717
158.0, -41415.90492914974, -39012.86888275968, -44278.44813805201, -60935.25867882475, -59344.52972942946, -75806.88009344102, -64175.12168587705, -68979.07036293393, 0.396, -0.904, 0.214, 192.0, 0.0, 0.0, 0.0, 0.0, 0.0, 0.0, 0.0, 0.0, 0.0, 1.6635023507218018E9, 0.0, 2022-09-18 16:59:10.721
159.0, -42536.28611997201, -39388.22172739765, -44289.57930679075, -60955.64346976799, -59327.251830965506, -75832.56224782017, -64190.45498257339, -68998.35991839886, 0.402, -0.9, 0.216, 192.0, 12.0, 144.0, 227.0, 224.0, 6.0, 192.0, 0.0, 0.0, 0.0, 1.6635023507258873E9, 0.0, 2022-09-18 16:59:10.725
160.0, -42149.04214728381, -38728.01825142124, -44334.68512710156, -61002.760947079776, -59377.163276334206, -75899.50572246381, -64233.750311583324, -69041.76700613106, 0.402, -0.9, 0.216, 192.0, 0.0, 0.0, 0.0, 0.0, 0.0, 0.0, 0.0, 0.0, 0.0, 1.663502350729802E9, 0.0, 2022-09-18 16:59:10.729
161.0, -40449.907237280284, -37497.845291834514, -44405.4283983026, -61075.78409621526, -59422.89494548976, -75986.40930490605, -64303.42069905051, -69111.41504185379, 0.402, -0.9, 0.216, 192.0, 0.0, 0.0, 0.0, 0.0, 0.0, 0.0, 0.0, 0.0, 0.0, 1.663502350734966E9, 0.0, 2022-09-18 16:59:10.734
162.0, -39550.54009563209, -37403.677392444304, -44376.281723532884, -61041.85414813211, -59411.85318372884, -75928.80885944473, -64269.44604747845, -69074.53466350253, 0.402, -0.9, 0.216, 192.0, 0.0, 0.0, 0.0, 0.0, 0.0, 0.0, 0.0, 0.0, 0.0, 1.6635023507389264E9, 0.0, 2022-09-18 16:59:10.738
163.0, -41471.292551909995, -39086.51788073991, -44262.75721344438, -60927.748492687766, -59319.49577563951, -75788.52931124321, -64155.29568854519, -68962.39596157026, 0.402, -0.9, 0.216, 192.0, 0.0, 0.0, 0.0, 0.0, 0.0, 0.0, 0.0, 0.0, 0.0, 1.6635023507418585E9, 0.0, 2022-09-18 16:59:10.741
164.0, -42511.252166182065, -39389.6969425317, -44276.54823977331, -60951.73191448831, -59300.608551574776, -75818.27948311323, -64172.77475270924, -68985.01592695904, 0.402, -0.9, 0.216, 192.0, 0.0, 0.0, 0.0, 0.0, 0.0, 0.0, 0.0, 0.0, 0.0, 1.6635023507458508E9, 0.0, 2022-09-18 16:59:10.745
165.0, -42085.8314139642, -38706.314707555146, -44327.0631822423, -61005.37610118105, -59355.16915979018, -75889.06745780319, -64220.22750618786, -69038.48129969613, 0.402, -0.9, 0.216, 192.0, 0.0, 0.0, 0.0, 0.0, 0.0, 0.0, 0.0, 0.0, 0.0, 1.6635023507498646E9, 0.0, 2022-09-18 16:59:10.749
166.0, -40347.98328256408, -37461.09902394999, -44398.18643309909, -61079.20391311692, -59403.359520835824, -75977.64742107957, -64290.85901866663, -69110.02923369757, 0.402, -0.9, 0.216, 192.0, 0.0, 0.0, 0.0, 0.0, 0.0, 0.0, 0.0, 0.0, 0.0, 1.6635023507539177E9, 0.0, 2022-09-18 16:59:10.753
167.0, -39547.34379617498, -37451.10779417846, -44360.970778581, -61035.21568002888, -59392.85420094183, -75914.59314997114, -64250.916451325, -69065.43750350922, 0.402, -0.9, 0.216, 192.0, 0.0, 0.0, 0.0, 0.0, 0.0, 0.0, 0.0, 0.0, 0.0, 1.663502350757854E9, 0.0, 2022-09-18 16:59:10.757
168.0, -41514.99021232012, -39142.35253838927, -44251.0448993498, -60918.91955362792, -59305.03419697693, -75781.19793906188, -64142.4881389723, -68955.8245487004, 0.402, -0.9, 0.216, 192.0, 0.0, 0.0, 0.0, 0.0, 0.0, 0.0, 0.0, 0.0, 0.0, 1.6635023507618773E9, 0.0, 2022-09-18 16:59:10.761
169.0, -42498.75754103155, -39388.55700356448, -44269.46273678097, -60944.087617884594, -59293.612455560266, -75816.71486100137, -64164.28108981623, -68980.54557806798, 0.406, -0.892, 0.218, 192.0, 12.0, 176.0, 228.0, 32.0, 6.0, 208.0, 0.0, 0.0, 0.0, 1.6635023507668707E9, 0.0, 2022-09-18 16:59:10.766
170.0, -42044.883018122084, -38688.94740211337, -44325.78913280835, -60999.56464762267, -59353.22455802257, -75889.73801013685, -64217.321779408674, -69035.10618628337, 0.406, -0.892, 0.218, 192.0, 0.0, 0.0, 0.0, 0.0, 0.0, 0.0, 0.0, 0.0, 0.0, 1.6635023507699935E9, 0.0, 2022-09-18 16:59:10.769
171.0, -40286.046598678426, -37443.28468361911, -44403.79672095737, -61078.399250316535, -59400.52084929, -75975.6357640786, -64292.825972178696, -69109.17986740827, 0.406, -0.892, 0.218, 192.0, 0.0, 0.0, 0.0, 0.0, 0.0, 0.0, 0.0, 0.0, 0.0, 1.6635023507738943E9, 0.0, 2022-09-18 16:59:10.773
172.0, -39606.82178817056, -37526.41082124839, -44370.04558682985, -61035.3050870067, -59387.17685785018, -75905.09365857765, -64255.565614171705, -69063.24703255261, 0.406, -0.892, 0.218, 192.0, 0.0, 0.0, 0.0, 0.0, 0.0, 0.0, 0.0, 0.0, 0.0, 1.6635023507779324E9, 0.0, 2022-09-18 16:59:10.777
173.0, -41610.320402422, -39206.32323102036, -44274.60363800569, -60932.88939391248, -59306.5988190888, -75779.63331695, -64162.93998514891, -68960.6301737583, 0.406, -0.892, 0.218, 192.0, 0.0, 0.0, 0.0, 0.0, 0.0, 0.0, 0.0, 0.0, 0.0, 1.6635023507819295E9, 0.0, 2022-09-18 16:59:10.781
174.0, -42517.197730207175, -39383.237288384116, -44290.451024824506, -60953.475350555826, -59292.83014450433, -75811.59631152109, -64183.7494592368, -68979.51739782303, 0.406, -0.892, 0.218, 192.0, 0.0, 0.0, 0.0, 0.0, 0.0, 0.0, 0.0, 0.0, 0.0, 1.663502350785931E9, 0.0, 2022-09-18 16:59:10.785
175.0, -42018.84323583165, -38661.18653549988, -44337.05441201382, -60998.71528133337, -59345.53555792994, -75881.13258852156, -64229.50348013682, -69027.23837223511, 0.406, -0.892, 0.218, 192.0, 0.0, 0.0, 0.0, 0.0, 0.0, 0.0, 0.0, 0.0, 0.0, 1.663502350789927E9, 0.0, 2022-09-18 16:59:10.789
176.0, -40230.30134800689, -37407.29837504606, -44408.42353205962, -61070.79965720173, -59396.05050039894, -75970.09253145367, -64301.25257983835, -69099.27804461456, 0.406, -0.892, 0.218, 192.0, 0.0, 0.0, 0.0, 0.0, 0.0, 0.0, 0.0, 0.0, 0.0, 1.6635023507949536E9, 0.0, 2022-09-18 16:59:10.794
177.0, -39662.54468709764, -37581.932554475374, -44366.82693562829, -61018.92125832096, -59384.38288979327, -75896.17531253998, -64255.90089033853, -69046.52792770004, 0.406, -0.892, 0.218, 192.0, 0.0, 0.0, 0.0, 0.0, 0.0, 0.0, 0.0, 0.0, 0.0, 1.6635023507979574E9, 0.0, 2022-09-18 16:59:10.797
178.0, -41697.15692963087, -39251.27258911998, -44257.929236642034, -60907.743681400265, -59291.15376367018, -75764.56824118712, -64147.5396332192, -68940.0218653705, 0.406, -0.892, 0.218, 192.0, 0.0, 0.0, 0.0, 0.0, 0.0, 0.0, 0.0, 0.0, 0.0, 1.663502350801966E9, 0.0, 2022-09-18 16:59:10.801
179.0, -42556.87207661535, -39374.85538421338, -44276.86116419568, -60934.63282998, -59281.76603099895, -75800.06281138216, -64168.237348584815, -68967.02277267251, 0.406, -0.892, 0.218, 192.0, 0.0, 0.0, 0.0, 0.0, 0.0, 0.0, 0.0, 0.0, 0.0, 1.6635023508059907E9, 0.0, 2022-09-18 16:59:10.805
180.0, -42040.30091050875, -38641.74051782376, -44328.71721133199, -60987.82998178363, -59342.13809277274, -75873.26477447328, -64217.16531719748, -69020.4881454096, 0.40800000000000003, -0.896, 0.222, 192.0, 12.0, 192.0, 228.0, 0.0, 6.0, 240.0, 0.0, 0.0, 0.0, 1.6635023508099618E9, 0.0, 2022-09-18 16:59:10.809
181.0, -40237.54331321041, -37394.28965977307, -44396.64416273167, -61061.45662801941, -59390.06023288491, -75955.29567662427, -64285.069916852706, -69091.2537683551, 0.40800000000000003, -0.896, 0.222, 192.0, 0.0, 0.0, 0.0, 0.0, 0.0, 0.0, 0.0, 0.0, 0.0, 1.6635023508139744E9, 0.0, 2022-09-18 16:59:10.813
182.0, -39788.0944357031, -37665.6398374605, -44344.274025472885, -61006.091357003614, -59370.6142152088, -75870.3590476941, -64230.5093086373, -69034.01095080507, 0.40800000000000003, -0.896, 0.222, 192.0, 0.0, 0.0, 0.0, 0.0, 0.0, 0.0, 0.0, 0.0, 0.0, 1.6635023508179228E9, 0.0, 2022-09-18 16:59:10.817
183.0, -41851.40631811695, -39334.868113382836, -44248.18387605952, -60906.51433545522, -59284.33648161131, -75751.7830433587, -64137.10136855857, -68939.59718222584, 0.40800000000000003, -0.896, 0.222, 192.0, 0.0, 0.0, 0.0, 0.0, 0.0, 0.0, 0.0, 0.0, 0.0, 1.6635023508230217E9, 0.0, 2022-09-18 16:59:10.823
184.0, -42655.599731874434, -39421.682288847245, -44274.71539672797, -60939.25964108225, -59279.620263531244, -75793.62550897904, -64168.19264509591, -68971.26960411902, 0.40800000000000003, -0.896, 0.222, 192.0, 0.0, 0.0, 0.0, 0.0, 0.0, 0.0, 0.0, 0.0, 0.0, 1.6635023508260286E9, 0.0, 2022-09-18 16:59:10.826
185.0, -42104.316306628745, -38680.632553175994, -44320.648231583626, -60991.294502174205, -59329.37524668876, -75858.1549952215, -64211.21975317237, -69020.75636634306, 0.40800000000000003, -0.896, 0.222, 192.0, 0.0, 0.0, 0.0, 0.0, 0.0, 0.0, 0.0, 0.0, 0.0, 1.6635023508299725E9, 0.0, 2022-09-18 16:59:10.829
186.0, -40284.705494011105, -37444.33521560851, -44390.36332253973, -61063.580043742666, -59377.09622110084, -75940.58822877267, -64281.6724516955, -69091.4102305663, 0.40800000000000003, -0.896, 0.222, 192.0, 0.0, 0.0, 0.0, 0.0, 0.0, 0.0, 0.0, 0.0, 0.0, 1.6635023508340244E9, 0.0, 2022-09-18 16:59:10.834
187.0, -39957.94534181897, -37807.99809789635, -44338.4178684256, -61002.626836613046, -59355.92911910166, -75852.27648642975, -64226.485994635346, -69030.27820948102, 0.40800000000000003, -0.896, 0.222, 192.0, 0.0, 0.0, 0.0, 0.0, 0.0, 0.0, 0.0, 0.0, 0.0, 1.6635023508380692E9, 0.0, 2022-09-18 16:59:10.838
188.0, -42034.78002962828, -39442.06707979048, -44249.43557374902, -60911.99051284677, -59275.12756289573, -75742.55177289865, -64139.76122614876, -68941.67589446019, 0.40800000000000003, -0.896, 0.222, 192.0, 0.0, 0.0, 0.0, 0.0, 0.0, 0.0, 0.0, 0.0, 0.0, 1.6635023508421197E9, 0.0, 2022-09-18 16:59:10.842
189.0, -42773.9969222542, -39460.35080675493, -44280.61625726417, -60951.62015576603, -59278.5920832863, -75789.0881048546, -64173.355898065085, -68978.73508676709, 0.40800000000000003, -0.896, 0.222, 192.0, 0.0, 0.0, 0.0, 0.0, 0.0, 0.0, 0.0, 0.0, 0.0, 1.663502350846064E9, 0.0, 2022-09-18 16:59:10.846
190.0, -42182.256839544396, -38690.95905911435, -44335.534493390864, -61004.772604080754, -59332.79506359042, -75857.5514981212, -64224.451985889915, -69032.22281124865, 0.41600000000000004, -0.89, 0.22, 192.0, 13.0, 0.0, 228.0, 48.0, 6.0, 224.0, 0.0, 0.0, 0.0, 1.663502350849995E9, 0.0, 2022-09-18 16:59:10.849
191.0, -40333.83462832387, -37434.45574455926, -44403.39438955717, -61068.251558333825, -59372.73763093205, -75932.96628391341, -64291.998957633856, -69091.29847184401, 0.41600000000000004, -0.89, 0.22, 192.0, 0.0, 0.0, 0.0, 0.0, 0.0, 0.0, 0.0, 0.0, 0.0, 1.6635023508540368E9, 0.0, 2022-09-18 16:59:10.854
192.0, -40109.82544539278, -37859.764738054844, -44343.20114173903, -60998.894095289004, -59347.03312480845, -75839.62539906806, -64229.23525920335, -69022.85743032186, 0.41600000000000004, -0.89, 0.22, 192.0, 0.0, 0.0, 0.0, 0.0, 0.0, 0.0, 0.0, 0.0, 0.0, 1.6635023508571663E9, 0.0, 2022-09-18 16:59:10.857
193.0, -42183.664999445085, -39451.49951595062, -44260.20911457648, -60913.35396925855, -59270.76897272694, -75738.93079029689, -64150.780636165226, -68939.97716188159, 0.41600000000000004, -0.89, 0.22, 192.0, 0.0, 0.0, 0.0, 0.0, 0.0, 0.0, 0.0, 0.0, 0.0, 1.6635023508610966E9, 0.0, 2022-09-18 16:59:10.861
194.0, -42848.58469350156, -39410.46171313068, -44292.3062196143, -60946.881585941504, -59276.625129774235, -75790.83154092211, -64179.05559290118, -68974.89058672078, 0.41600000000000004, -0.89, 0.22, 192.0, 0.0, 0.0, 0.0, 0.0, 0.0, 0.0, 0.0, 0.0, 0.0, 1.663502350866262E9, 0.0, 2022-09-18 16:59:10.866
195.0, -42209.74948522443, -38627.34599439454, -44348.36439470821, -61003.029168013236, -59336.036066536435, -75869.66614361598, -64228.296485936226, -69031.68636938171, 0.41600000000000004, -0.89, 0.22, 192.0, 0.0, 0.0, 0.0, 0.0, 0.0, 0.0, 0.0, 0.0, 0.0, 1.6635023508701568E9, 0.0, 2022-09-18 16:59:10.870
196.0, -40328.11258174331, -37388.88053761489, -44410.81516871633, -61071.693726979945, -59375.30808154441, -75943.40454857404, -64289.92024539951, -69096.17115213527, 0.41600000000000004, -0.89, 0.22, 192.0, 0.0, 0.0, 0.0, 0.0, 0.0, 0.0, 0.0, 0.0, 0.0, 1.663502350874124E9, 0.0, 2022-09-18 16:59:10.874
197.0, -40209.80479834137, -37921.52260798486, -44344.02815628388, -60997.7988598107, -59344.75324687401, -75841.07826245764, -64221.590962599636, -69024.17618324474, 0.41600000000000004, -0.89, 0.22, 192.0, 0.0, 0.0, 0.0, 0.0, 0.0, 0.0, 0.0, 0.0, 0.0, 1.6635023508781037E9, 0.0, 2022-09-18 16:59:10.878
198.0, -42269.18277373109, -39480.73559769816, -44245.03228009132, -60907.96719884482, -59255.27921381941, -75734.88512455048, -64119.75641486126, -68938.41253976972, 0.41600000000000004, -0.89, 0.22, 192.0, 0.0, 0.0, 0.0, 0.0, 0.0, 0.0, 0.0, 0.0, 0.0, 1.6635023508821347E9, 0.0, 2022-09-18 16:59:10.882
199.0, -42855.11140288251, -39378.23049762613, -44278.202268862995, -60947.038048152695, -59264.57753951282, -75786.7411716868, -64156.83795891261, -68977.75161001107, 0.41600000000000004, -0.89, 0.22, 192.0, 0.0, 0.0, 0.0, 0.0, 0.0, 0.0, 0.0, 0.0, 0.0, 1.6635023508851397E9, 0.0, 2022-09-18 16:59:10.885
200.0, -42152.95370256349, -38550.746566146205, -44328.53839737635, -60998.93879877792, -59320.63571460673, -75860.3007626892, -64206.414128114484, -69030.43467169222, 0.40800000000000003, -0.896, 0.218, 192.0, 12.0, 192.0, 228.0, 0.0, 6.0, 208.0, 0.0, 0.0, 0.0, 1.6635023508901596E9, 0.0, 2022-09-18 16:59:10.890
201.0, -40255.53646749693, -37313.17517914476, -44388.30696204984, -61063.33417455366, -59359.97478484807, -75930.03820538976, -64266.048582321244, -69091.99137592214, 0.40800000000000003, -0.896, 0.218, 192.0, 0.0, 0.0, 0.0, 0.0, 0.0, 0.0, 0.0, 0.0, 0.0, 1.6635023508941133E9, 0.0, 2022-09-18 16:59:10.894
202.0, -40254.32947329634, -37930.709174955984, -44314.59090883624, -60979.626891568536, -59327.47534841006, -75820.6934715144, -64190.00794768429, -69010.60867436037, 0.40800000000000003, -0.896, 0.218, 192.0, 0.0, 0.0, 0.0, 0.0, 0.0, 0.0, 0.0, 0.0, 0.0, 1.6635023508981533E9, 0.0, 2022-09-18 16:59:10.898
203.0, -42321.64231796769, -39470.74436792664, -44227.664974649546, -60894.44439344936, -59240.59411771228, -75718.1660196979, -64107.0829757551, -68928.39895825375, 0.40800000000000003, -0.896, 0.218, 192.0, 0.0, 0.0, 0.0, 0.0, 0.0, 0.0, 0.0, 0.0, 0.0, 1.663502350902222E9, 0.0, 2022-09-18 16:59:10.902
204.0, -42866.93547569936, -39339.5843314629, -44261.639626221615, -60938.700847470864, -59252.82052192933, -75771.49728196827, -64144.70096167338, -68969.79438898497, 0.40800000000000003, -0.896, 0.218, 192.0, 0.0, 0.0, 0.0, 0.0, 0.0, 0.0, 0.0, 0.0, 0.0, 1.6635023509062068E9, 0.0, 2022-09-18 16:59:10.906
205.0, -42147.07519377174, -38511.29573718259, -44325.118580474686, -61000.436365656424, -59316.76886281597, -75855.0033992533, -64207.397604870515, -69033.0498257935, 0.40800000000000003, -0.896, 0.218, 192.0, 0.0, 0.0, 0.0, 0.0, 0.0, 0.0, 0.0, 0.0, 0.0, 1.6635023509091527E9, 0.0, 2022-09-18 16:59:10.909
206.0, -40252.8542581623, -37293.66210623528, -44391.36915104022, -61064.65292747652, -59358.09723831383, -75927.78067919979, -64274.654003936535, -69095.76882073509, 0.40800000000000003, -0.896, 0.218, 192.0, 0.0, 0.0, 0.0, 0.0, 0.0, 0.0, 0.0, 0.0, 0.0, 1.6635023509131467E9, 0.0, 2022-09-18 16:59:10.913
207.0, -40366.3787682508, -37992.75761756392, -44308.66769655558, -60973.033126954215, -59312.902011025195, -75808.40001206398, -64190.65614827349, -69007.47943013662, 0.40800000000000003, -0.896, 0.218, 192.0, 0.0, 0.0, 0.0, 0.0, 0.0, 0.0, 0.0, 0.0, 0.0, 1.6635023509171464E9, 0.0, 2022-09-18 16:59:10.917
208.0, -42418.268909247985, -39490.9726966587, -44227.06147754926, -60895.13729752747, -59226.17724253861, -75710.72288879429, -64113.65438862496, -68929.74006292106, 0.40800000000000003, -0.896, 0.218, 192.0, 0.0, 0.0, 0.0, 0.0, 0.0, 0.0, 0.0, 0.0, 0.0, 1.6635023509222324E9, 0.0, 2022-09-18 16:59:10.922
209.0, -42892.68468531188, -39314.52802592851, -44267.13815535762, -60940.958373660855, -59241.86816714623, -75765.59642143207, -64155.22863331183, -68971.91780470822, 0.40800000000000003, -0.896, 0.218, 192.0, 0.0, 0.0, 0.0, 0.0, 0.0, 0.0, 0.0, 0.0, 0.0, 1.663502350926203E9, 0.0, 2022-09-18 16:59:10.926
210.0, -42097.20845189196, -38456.19868710026, -44326.32557467528, -61000.659883100976, -59301.12264169725, -75843.13462294753, -64211.84560201712, -69030.83700309241, 0.41200000000000003, -0.898, 0.224, 192.0, 12.0, 224.0, 227.0, 240.0, 7.0, 0.0, 0.0, 0.0, 0.0, 1.663502350930118E9, 0.0, 2022-09-18 16:59:10.930
211.0, -40169.72812053301, -37262.83905063141, -44389.98334288399, -61062.93184315346, -59340.95345031661, -75908.35701326812, -64274.74341091436, -69090.27029159908, 0.41200000000000003, -0.898, 0.224, 192.0, 0.0, 0.0, 0.0, 0.0, 0.0, 0.0, 0.0, 0.0, 0.0, 1.6635023509332316E9, 0.0, 2022-09-18 16:59:10.933
212.0, -40379.298076545965, -38066.406615544154, -44311.0593332123, -60972.42962985393, -59301.1449934417, -75789.06575311015, -64193.29365411922, -68999.72337481062, 0.41200000000000003, -0.898, 0.224, 192.0, 0.0, 0.0, 0.0, 0.0, 0.0, 0.0, 0.0, 0.0, 0.0, 1.6635023509372404E9, 0.0, 2022-09-18 16:59:10.937
213.0, -42401.79567358443, -39547.54496187508, -44236.31509975375, -60897.126602783996, -59218.64470465716, -75701.53632182317, -64120.851650339566, -68924.44269948515, 0.41200000000000003, -0.898, 0.224, 192.0, 0.0, 0.0, 0.0, 0.0, 0.0, 0.0, 0.0, 0.0, 0.0, 1.663502350941172E9, 0.0, 2022-09-18 16:59:10.941
214.0, -42811.10081805001, -39349.17322983423, -44280.39273981962, -60947.97682141982, -59243.09751309127, -75766.35638074356, -64166.80683693968, -68973.37066809782, 0.41200000000000003, -0.898, 0.224, 192.0, 0.0, 0.0, 0.0, 0.0, 0.0, 0.0, 0.0, 0.0, 0.0, 1.6635023509452298E9, 0.0, 2022-09-18 16:59:10.945
215.0, -41954.716080989376, -38483.11018742445, -44331.9135107891, -61002.78329882423, -59298.55219108489, -75843.87223051456, -64217.590000342134, -69027.97597980214, 0.41200000000000003, -0.898, 0.224, 192.0, 0.0, 0.0, 0.0, 0.0, 0.0, 0.0, 0.0, 0.0, 0.0, 1.6635023509502065E9, 0.0, 2022-09-18 16:59:10.950
216.0, -40007.49915927639, -37319.43366759225, -44388.50812774994, -61059.08734310715, -59334.56085140239, -75905.58539695566, -64274.27402428079, -69081.5531112615, 0.41200000000000003, -0.898, 0.224, 192.0, 0.0, 0.0, 0.0, 0.0, 0.0, 0.0, 0.0, 0.0, 0.0, 1.6635023509542296E9, 0.0, 2022-09-18 16:59:10.954
217.0, -40335.332195202376, -38204.920375933696, -44304.59967906472, -60964.47240882784, -59289.29856888039, -75779.32039252763, -64187.90688370549, -68989.26275840554, 0.41200000000000003, -0.898, 0.224, 192.0, 0.0, 0.0, 0.0, 0.0, 0.0, 0.0, 0.0, 0.0, 0.0, 1.663502350958215E9, 0.0, 2022-09-18 16:59:10.958
218.0, -42359.617931797264, -39621.52923602214, -44234.57166368624, -60893.10328878204, -59207.35707370724, -75694.49552231975, -64122.32686547362, -68920.73230990556, 0.41200000000000003, -0.898, 0.224, 192.0, 0.0, 0.0, 0.0, 0.0, 0.0, 0.0, 0.0, 0.0, 0.0, 1.6635023509612331E9, 0.0, 2022-09-18 16:59:10.961
219.0, -42726.58887226449, -39358.762128205555, -44278.89517294111, -60942.768864961734, -59231.4299024856, -75754.91228758244, -64168.90790091848, -68968.18506338418, 0.41200000000000003, -0.898, 0.224, 192.0, 0.0, 0.0, 0.0, 0.0, 0.0, 0.0, 0.0, 0.0, 0.0, 1.6635023509652786E9, 0.0, 2022-09-18 16:59:10.965
220.0, -41828.316966094615, -38453.96351265473, -44332.49465614494, -61001.68806334592, -59284.11296416676, -75835.49032634382, -64221.63566608854, -69027.7971658465, 0.41600000000000004, -0.896, 0.224, 192.0, 13.0, 0.0, 228.0, 0.0, 7.0, 0.0, 0.0, 0.0, 0.0, 1.663502350969362E9, 0.0, 2022-09-18 16:59:10.969
221.0, -39892.41002707601, -37316.52794081306, -44389.6257149727, -61059.53437799626, -59319.8534035508, -75900.19862654194, -64280.08547783917, -69084.12356187387, 0.41600000000000004, -0.896, 0.224, 192.0, 0.0, 0.0, 0.0, 0.0, 0.0, 0.0, 0.0, 0.0, 0.0, 1.6635023509733036E9, 0.0, 2022-09-18 16:59:10.973
222.0, -40343.13295401728, -38276.04362679048, -44290.54043180233, -60953.385943578, -59261.71651622254, -75763.00361907526, -64180.061421401675, -68979.91972922323, 0.41600000000000004, -0.896, 0.224, 192.0, 0.0, 0.0, 0.0, 0.0, 0.0, 0.0, 0.0, 0.0, 0.0, 1.6635023509773157E9, 0.0, 2022-09-18 16:59:10.977
223.0, -42344.68696650112, -39632.459239060794, -44222.61348040265, -60890.46578293631, -59182.54663736185, -75688.862882717, -64118.34825496057, -68918.67594941569, 0.41600000000000004, -0.896, 0.224, 192.0, 0.0, 0.0, 0.0, 0.0, 0.0, 0.0, 0.0, 0.0, 0.0, 1.6635023509823337E9, 0.0, 2022-09-18 16:59:10.982
224.0, -42646.8154963035, -39338.287930284496, -44261.639626221615, -60936.84565268108, -59206.842983584764, -75750.64310439148, -64158.51433974676, -68964.16174938223, 0.41600000000000004, -0.896, 0.224, 192.0, 0.0, 0.0, 0.0, 0.0, 0.0, 0.0, 0.0, 0.0, 0.0, 1.6635023509862783E9, 0.0, 2022-09-18 16:59:10.986
225.0, -41683.43295853531, -38425.04035532956, -44320.022382738876, -60998.290598188716, -59265.56101626885, -75833.41161410947, -64215.086604963144, -69027.48424142411, 0.41600000000000004, -0.896, 0.224, 192.0, 0.0, 0.0, 0.0, 0.0, 0.0, 0.0, 0.0, 0.0, 0.0, 1.6635023509893155E9, 0.0, 2022-09-18 16:59:10.989
226.0, -39726.94006287337, -37317.46671408018, -44375.0747293323, -61049.90077613602, -59305.25771442148, -75889.73801013685, -64270.0718963232, -69080.5025792721, 0.41600000000000004, -0.896, 0.224, 192.0, 0.0, 0.0, 0.0, 0.0, 0.0, 0.0, 0.0, 0.0, 0.0, 1.6635023509933224E9, 0.0, 2022-09-18 16:59:10.993
227.0, -40272.00970316049, -38374.32424716047, -44274.53658277233, -60941.718332972334, -59248.57369048282, -75752.16302301444, -64168.48321777383, -68974.17533089822, 0.41600000000000004, -0.896, 0.224, 192.0, 0.0, 0.0, 0.0, 0.0, 0.0, 0.0, 0.0, 0.0, 0.0, 1.6635023509973044E9, 0.0, 2022-09-18 16:59:10.997
228.0, -42237.08566869327, -39685.43287341987, -44206.631983117106, -60879.155800241926, -59166.00634646492, -75678.24580410073, -64106.0324437657, -68914.83144936938, 0.41600000000000004, -0.896, 0.224, 192.0, 0.0, 0.0, 0.0, 0.0, 0.0, 0.0, 0.0, 0.0, 0.0, 1.6635023510013087E9, 0.0, 2022-09-18 16:59:11.001
229.0, -42493.571936317916, -39342.13243033081, -44250.01671910485, -60928.15082408796, -59192.314349688815, -75739.73545309728, -64149.77480766473, -68964.94406043817, 0.41600000000000004, -0.896, 0.224, 192.0, 0.0, 0.0, 0.0, 0.0, 0.0, 0.0, 0.0, 0.0, 0.0, 1.6635023510063024E9, 0.0, 2022-09-18 16:59:11.006
230.0, -41491.7443980866, -38396.40777068231, -44316.91549025959, -60998.0447289997, -59254.96628939704, -75825.0967651721, -64214.23723867384, -69035.30735198347, 0.41000000000000003, -0.89, 0.23, 192.0, 12.0, 208.0, 228.0, 48.0, 7.0, 48.0, 0.0, 0.0, 0.0, 1.6635023510103748E9, 0.0, 2022-09-18 16:59:11.010
231.0, -39570.14257551939, -37326.921501984776, -44365.91051410562, -61046.83858714564, -59290.72908052553, -75873.91297506249, -64262.65111716404, -69080.30141357202, 0.41000000000000003, -0.89, 0.23, 192.0, 0.0, 0.0, 0.0, 0.0, 0.0, 0.0, 0.0, 0.0, 0.0, 1.6635023510142996E9, 0.0, 2022-09-18 16:59:11.014
232.0, -40268.142851369725, -38471.57668728551, -44267.27226582435, -60937.471501525826, -59233.9332978646, -75736.89678155146, -64161.4424182704, -68973.81770298693, 0.41000000000000003, -0.89, 0.23, 192.0, 0.0, 0.0, 0.0, 0.0, 0.0, 0.0, 0.0, 0.0, 0.0, 1.66350235101739E9, 0.0, 2022-09-18 16:59:11.017
233.0, -42233.55409306933, -39740.038185124184, -44206.69903835047, -60881.21216073182, -59159.05495393932, -75673.86486218749, -64103.55140013116, -68919.07828081588, 0.41000000000000003, -0.89, 0.23, 192.0, 0.0, 0.0, 0.0, 0.0, 0.0, 0.0, 0.0, 0.0, 0.0, 1.6635023510212896E9, 0.0, 2022-09-18 16:59:11.021
234.0, -42463.3747295588, -39360.79613695099, -44251.55898947227, -60930.69892295587, -59193.02960551139, -75738.97549378581, -64146.422045996434, -68966.77690348351, 0.41000000000000003, -0.89, 0.23, 192.0, 0.0, 0.0, 0.0, 0.0, 0.0, 0.0, 0.0, 0.0, 0.0, 1.6635023510253825E9, 0.0, 2022-09-18 16:59:11.025
235.0, -41421.11288560783, -38361.89667724332, -44313.652135569115, -60990.89217077401, -59250.20536782806, -75823.10745991558, -64206.078851947655, -69027.97597980214, 0.41000000000000003, -0.89, 0.23, 192.0, 0.0, 0.0, 0.0, 0.0, 0.0, 0.0, 0.0, 0.0, 0.0, 1.663502351029394E9, 0.0, 2022-09-18 16:59:11.029
236.0, -39526.623729064915, -37294.980859158146, -44361.21664777001, -61031.92997359395, -59283.73298451102, -75867.0062860258, -64252.078742036676, -69069.14789308881, 0.41000000000000003, -0.89, 0.23, 192.0, 0.0, 0.0, 0.0, 0.0, 0.0, 0.0, 0.0, 0.0, 0.0, 1.6635023510333273E9, 0.0, 2022-09-18 16:59:11.033
237.0, -40351.961893077125, -38475.48824256519, -44260.946722143504, -60922.76405367423, -59224.59026868228, -75724.78213605669, -64149.014848353254, -68959.1326068798, 0.41000000000000003, -0.89, 0.23, 192.0, 0.0, 0.0, 0.0, 0.0, 0.0, 0.0, 0.0, 0.0, 0.0, 1.663502351038316E9, 0.0, 2022-09-18 16:59:11.038
238.0, -42309.907652128655, -39666.56800109959, -44217.04789603328, -60880.832181076075, -59162.18419816306, -75677.66465874489, -64107.842935066576, -68918.5194872045, 0.41000000000000003, -0.89, 0.23, 192.0, 0.0, 0.0, 0.0, 0.0, 0.0, 0.0, 0.0, 0.0, 0.0, 1.6635023510423815E9, 0.0, 2022-09-18 16:59:11.042
239.0, -42507.07238996892, -39232.497123777524, -44258.44332676451, -60927.189699076385, -59193.47664040049, -75740.38365368648, -64148.3442960196, -68964.85465346035, 0.41000000000000003, -0.89, 0.23, 192.0, 0.0, 0.0, 0.0, 0.0, 0.0, 0.0, 0.0, 0.0, 0.0, 1.6635023510453713E9, 0.0, 2022-09-18 16:59:11.045
240.0, -41422.766914697524, -38208.206082368626, -44317.67544957107, -60990.95922600738, -59250.07125736133, -75824.26975062725, -64203.53075307974, -69031.03816879251, 0.406, -0.89, 0.232, 192.0, 12.0, 176.0, 228.0, 48.0, 7.0, 64.0, 0.0, 0.0, 0.0, 1.6635023510493324E9, 0.0, 2022-09-18 16:59:11.049
241.0, -39577.9433343343, -37202.57874757991, -44361.52957219238, -61038.16611029698, -59286.70576652358, -75869.15205349351, -64244.50150066632, -69076.59102399243, 0.406, -0.89, 0.232, 192.0, 0.0, 0.0, 0.0, 0.0, 0.0, 0.0, 0.0, 0.0, 0.0, 1.663502351053342E9, 0.0, 2022-09-18 16:59:11.053
242.0, -40527.98188066267, -38470.906134951845, -44256.47637325244, -60924.86511765303, -59222.511556447935, -75722.83753428906, -64136.69903715838, -68965.05581916045, 0.406, -0.89, 0.232, 192.0, 0.0, 0.0, 0.0, 0.0, 0.0, 0.0, 0.0, 0.0, 0.0, 1.663502351057371E9, 0.0, 2022-09-18 16:59:11.057
243.0, -42450.94715964165, -39615.27074757466, -44214.92448031002, -60885.302529967135, -59156.931538216064, -75676.48001628877, -64099.57278961811, -68926.54376346395, 0.406, -0.89, 0.232, 192.0, 0.0, 0.0, 0.0, 0.0, 0.0, 0.0, 0.0, 0.0, 0.0, 1.6635023510614853E9, 0.0, 2022-09-18 16:59:11.061
244.0, -42614.40546684331, -39168.682893357625, -44265.88645766812, -60936.97976314781, -59197.05291951334, -75743.78111884369, -64152.21114781036, -68979.3832873563, 0.406, -0.89, 0.232, 192.0, 0.0, 0.0, 0.0, 0.0, 0.0, 0.0, 0.0, 0.0, 0.0, 1.6635023510663784E9, 0.0, 2022-09-18 16:59:11.066
245.0, -41480.68028458122, -38117.5474068579, -44328.69485958754, -61002.73859533532, -59253.625184729724, -75828.71774777386, -64215.53363985225, -69045.0974160549, 0.406, -0.89, 0.232, 192.0, 0.0, 0.0, 0.0, 0.0, 0.0, 0.0, 0.0, 0.0, 0.0, 1.6635023510703807E9, 0.0, 2022-09-18 16:59:11.070
246.0, -39665.62922783247, -37168.35822681883, -44371.78902289737, -61045.51983422278, -59290.5949700588, -75865.82164356967, -64255.72207638289, -69086.76106771959, 0.406, -0.89, 0.232, 192.0, 0.0, 0.0, 0.0, 0.0, 0.0, 0.0, 0.0, 0.0, 0.0, 1.6635023510734465E9, 0.0, 2022-09-18 16:59:11.073
247.0, -40724.14079000244, -38542.61053116447, -44264.634759978624, -60931.14595784497, -59225.171414038115, -75718.74716505375, -64146.913784374454, -68976.32109836592, 0.406, -0.89, 0.232, 192.0, 0.0, 0.0, 0.0, 0.0, 0.0, 0.0, 0.0, 0.0, 0.0, 1.663502351077398E9, 0.0, 2022-09-18 16:59:11.077
248.0, -42585.839937429424, -39657.40378587291, -44219.95362281247, -60890.53283816968, -59156.03746843785, -75672.97079240928, -64108.26761821123, -68936.89262114676, 0.406, -0.89, 0.232, 192.0, 0.0, 0.0, 0.0, 0.0, 0.0, 0.0, 0.0, 0.0, 0.0, 1.663502351081391E9, 0.0, 2022-09-18 16:59:11.081
249.0, -42682.31006649853, -39213.92282413517, -44272.5025740269, -60947.172158619425, -59200.51743990391, -75744.85400257754, -64162.53765374872, -68991.81085727345, 0.406, -0.89, 0.232, 192.0, 0.0, 0.0, 0.0, 0.0, 0.0, 0.0, 0.0, 0.0, 0.0, 1.6635023510854084E9, 0.0, 2022-09-18 16:59:11.085
250.0, -41480.05443573647, -38176.60071570882, -44340.988319037955, -61012.12632800655, -59261.91768192264, -75836.16087867747, -64230.79988131522, -69059.22371855065, 0.402, -0.882, 0.232, 192.0, 12.0, 144.0, 228.0, 112.0, 7.0, 64.0, 0.0, 0.0, 0.0, 1.6635023510894902E9, 0.0, 2022-09-18 16:59:11.089
251.0, -39699.290954982156, -37311.252929121605, -44369.46444147402, -61030.924145093464, -59281.05077517638, -75855.91982077598, -64258.650154906536, -69076.09928561441, 0.402, -0.882, 0.232, 192.0, 0.0, 0.0, 0.0, 0.0, 0.0, 0.0, 0.0, 0.0, 0.0, 1.663502351094454E9, 0.0, 2022-09-18 16:59:11.094
252.0, -40823.20372142836, -38702.51491099774, -44254.71058544047, -60907.43075697789, -59201.36680619321, -75701.60337705653, -64142.734008161315, -68957.29976383445, 0.402, -0.882, 0.232, 192.0, 0.0, 0.0, 0.0, 0.0, 0.0, 0.0, 0.0, 0.0, 0.0, 1.663502351097448E9, 0.0, 2022-09-18 16:59:11.097
253.0, -42640.13232471136, -39712.992574333264, -44214.41039018755, -60876.38418392947, -59141.93351768655, -75662.68898995985, -64106.166554232426, -68923.90625761822, 0.402, -0.882, 0.232, 192.0, 0.0, 0.0, 0.0, 0.0, 0.0, 0.0, 0.0, 0.0, 0.0, 1.6635023511004448E9, 0.0, 2022-09-18 16:59:11.100
254.0, -42731.99799442268, -39232.83239994435, -44263.40541403359, -60934.36460904653, -59185.78764030786, -75733.58872337207, -64152.83699665511, -68982.8254560024, 0.402, -0.882, 0.232, 192.0, 0.0, 0.0, 0.0, 0.0, 0.0, 0.0, 0.0, 0.0, 0.0, 1.663502351105445E9, 0.0, 2022-09-18 16:59:11.105
255.0, -41479.182717702715, -38137.70868035658, -44331.421772411086, -61003.722072091354, -59240.39295201218, -75822.45925932638, -64217.813517786686, -69054.41809349276, 0.402, -0.882, 0.232, 192.0, 0.0, 0.0, 0.0, 0.0, 0.0, 0.0, 0.0, 0.0, 0.0, 1.6635023511094687E9, 0.0, 2022-09-18 16:59:11.109
0.0, -39738.31710080113, -37308.391905831326, -44362.222476270494, -61034.2545550173, -59268.44439130359, -75840.36300663507, -64246.78137860077, -69080.56963450547, 0.402, -0.882, 0.232, 192.0, 0.0, 0.0, 0.0, 0.0, 0.0, 0.0, 0.0, 0.0, 0.0, 1.663502351113486E9, 0.0, 2022-09-18 16:59:11.113
1.0, -41013.19354929848, -38784.72462710436, -44252.7436319284, -60915.45503323735, -59197.99169278046, -75690.0698769176, -64135.179118535416, -68965.32404009391, 0.402, -0.882, 0.232, 192.0, 0.0, 0.0, 0.0, 0.0, 0.0, 0.0, 0.0, 0.0, 0.0, 1.6635023511174874E9, 0.0, 2022-09-18 16:59:11.117
2.0, -42798.293268477115, -39720.90509187044, -44219.640698390096, -60887.35889045703, -59138.53605252934, -75659.69385620282, -64107.01592052173, -68938.74781593654, 0.402, -0.882, 0.232, 192.0, 0.0, 0.0, 0.0, 0.0, 0.0, 0.0, 0.0, 0.0, 0.0, 1.6635023511215005E9, 0.0, 2022-09-18 16:59:11.121
3.0, -42826.32235602407, -39188.91122208968, -44262.93602740002, -60932.79998693467, -59180.4679251275, -75722.54696161115, -64150.490063487305, -68985.59707231488, 0.402, -0.882, 0.232, 192.0, 0.0, 0.0, 0.0, 0.0, 0.0, 0.0, 0.0, 0.0, 0.0, 1.6635023511255136E9, 0.0, 2022-09-18 16:59:11.125
4.0, -41539.53242773205, -38084.84680471978, -44332.1146764892, -61002.69389184641, -59242.06933284633, -75816.0443086677, -64218.41701488698, -69057.36852376086, 0.396, -0.884, 0.234, 192.0, 12.0, 96.0, 228.0, 96.0, 7.0, 80.0, 0.0, 0.0, 0.0, 1.66350235112855E9, 0.0, 2022-09-18 16:59:11.128
5.0, -39875.57916350116, -37333.314100899, -44357.43920295706, -61020.21765949937, -59268.17617037013, -75832.15991641997, -64242.10986400961, -69074.19938733571, 0.396, -0.884, 0.234, 192.0, 0.0, 0.0, 0.0, 0.0, 0.0, 0.0, 0.0, 0.0, 0.0, 1.6635023511334891E9, 0.0, 2022-09-18 16:59:11.133
6.0, -41263.77895638692, -38860.251171618846, -44245.25579753587, -60900.65817840793, -59193.566047378314, -75683.02907741418, -64127.80304286517, -68957.54563302346, 0.396, -0.884, 0.234, 192.0, 0.0, 0.0, 0.0, 0.0, 0.0, 0.0, 0.0, 0.0, 0.0, 1.6635023511374903E9, 0.0, 2022-09-18 16:59:11.137
7.0, -43002.007067442784, -39725.12957157249, -44217.83020708922, -60881.43567817637, -59141.08415139725, -75661.16907133687, -64103.81962106462, -68938.85957465883, 0.396, -0.884, 0.234, 192.0, 0.0, 0.0, 0.0, 0.0, 0.0, 0.0, 0.0, 0.0, 0.0, 1.6635023511415083E9, 0.0, 2022-09-18 16:59:11.141
8.0, -42999.36956159706, -39171.49921315899, -44269.41803329206, -60935.6833619694, -59190.92854153259, -75730.66064484842, -64153.59695596659, -68993.71075555215, 0.396, -0.884, 0.234, 192.0, 0.0, 0.0, 0.0, 0.0, 0.0, 0.0, 0.0, 0.0, 0.0, 1.6635023511455305E9, 0.0, 2022-09-18 16:59:11.145
9.0, -41667.227943805214, -38059.25405731846, -44340.25071147093, -61006.56074363718, -59251.524120750924, -75821.27461687024, -64222.59679110012, -69062.17414881875, 0.396, -0.884, 0.234, 192.0, 0.0, 0.0, 0.0, 0.0, 0.0, 0.0, 0.0, 0.0, 0.0, 1.6635023511505253E9, 0.0, 2022-09-18 16:59:11.150
10.0, -40072.43097691906, -37395.720171418216, -44356.567484923304, -61020.17295601046, -59269.87490294873, -75823.01805293775, -64237.885384307556, -69074.40055303581, 0.396, -0.884, 0.234, 192.0, 0.0, 0.0, 0.0, 0.0, 0.0, 0.0, 0.0, 0.0, 0.0, 1.6635023511535516E9, 0.0, 2022-09-18 16:59:11.153
11.0, -41556.67621572927, -38971.540507261816, -44242.28301552332, -60901.55224818615, -59192.49316364446, -75671.09324587503, -64123.69032188539, -68959.80315921345, 0.396, -0.884, 0.234, 192.0, 0.0, 0.0, 0.0, 0.0, 0.0, 0.0, 0.0, 0.0, 0.0, 1.663502351156547E9, 0.0, 2022-09-18 16:59:11.156
12.0, -43232.81118068829, -39752.80103120816, -44216.66791637754, -60882.6203206325, -59142.246442108924, -75654.59765846701, -64105.89833329897, -68944.4251590282, 0.396, -0.884, 0.234, 192.0, 0.0, 0.0, 0.0, 0.0, 0.0, 0.0, 0.0, 0.0, 0.0, 1.6635023511616435E9, 0.0, 2022-09-18 16:59:11.161
13.0, -43199.372970983146, -39177.10950101727, -44269.03805363632, -60936.689190469886, -59197.09762300225, -75727.75491806924, -64156.41327576796, -69000.86331377785, 0.396, -0.884, 0.234, 192.0, 0.0, 0.0, 0.0, 0.0, 0.0, 0.0, 0.0, 0.0, 0.0, 1.6635023511656058E9, 0.0, 2022-09-18 16:59:11.165
14.0, -41826.66293700492, -38043.4290222441, -44339.33428994826, -61005.10788024758, -59255.34626905278, -75818.43594532443, -64222.350921911115, -69071.78539893453, 0.396, -0.888, 0.23800000000000002, 192.0, 12.0, 96.0, 228.0, 64.0, 7.0, 112.0, 0.0, 0.0, 0.0, 1.6635023511695733E9, 0.0, 2022-09-18 16:59:11.169
15.0, -40328.00082302104, -37459.6908640493, -44353.6170546552, -61014.51796466327, -59273.20531287257, -75816.40193657899, -64234.174994727975, -69080.68139322774, 0.396, -0.888, 0.23800000000000002, 192.0, 0.0, 0.0, 0.0, 0.0, 0.0, 0.0, 0.0, 0.0, 0.0, 1.663502351173584E9, 0.0, 2022-09-18 16:59:11.173
16.0, -41919.53443521672, -39065.708406652026, -44236.963300342955, -60894.399689960446, -59192.04612875535, -75665.81823418358, -64118.66117938294, -68964.31821159342, 0.396, -0.888, 0.23800000000000002, 192.0, 0.0, 0.0, 0.0, 0.0, 0.0, 0.0, 0.0, 0.0, 0.0, 1.6635023511785977E9, 0.0, 2022-09-18 16:59:11.178
17.0, -43534.71619304612, -39769.45308082737, -44224.40161995908, -60890.48813468077, -59151.45536082451, -75663.09132136003, -64110.8827723125, -68960.51841503601, 0.396, -0.888, 0.23800000000000002, 192.0, 0.0, 0.0, 0.0, 0.0, 0.0, 0.0, 0.0, 0.0, 0.0, 1.6635023511815944E9, 0.0, 2022-09-18 16:59:11.181
18.0, -43434.73684009753, -39159.63043685322, -44273.597809505205, -60941.360705061044, -59203.065538771814, -75735.55567688413, -64158.737857191314, -69013.91673253974, 0.396, -0.888, 0.23800000000000002, 192.0, 0.0, 0.0, 0.0, 0.0, 0.0, 0.0, 0.0, 0.0, 0.0, 1.6635023511846209E9, 0.0, 2022-09-18 16:59:11.184
19.0, -41987.2602209163, -37995.462178643014, -44348.85613308622, -61018.56363040968, -59263.59406275679, -75831.62347455305, -64233.14681448303, -69089.5103322876, 0.396, -0.888, 0.23800000000000002, 192.0, 0.0, 0.0, 0.0, 0.0, 0.0, 0.0, 0.0, 0.0, 0.0, 1.6635023511896615E9, 0.0, 2022-09-18 16:59:11.189
20.0, -40525.70200272823, -37473.50424212268, -44351.31482497631, -61010.092319261115, -59271.05954540486, -75817.31835810165, -64233.43738716095, -69080.94961416122, 0.396, -0.888, 0.23800000000000002, 192.0, 0.0, 0.0, 0.0, 0.0, 0.0, 0.0, 0.0, 0.0, 0.0, 1.6635023511936305E9, 0.0, 2022-09-18 16:59:11.193
21.0, -42148.93038856154, -39097.716104712024, -44233.92346309703, -60884.274349722196, -59186.7711170639, -75666.84641442852, -64115.464879925836, -68959.5796417689, 0.396, -0.888, 0.23800000000000002, 192.0, 0.0, 0.0, 0.0, 0.0, 0.0, 0.0, 0.0, 0.0, 0.0, 1.6635023511976275E9, 0.0, 2022-09-18 16:59:11.197
22.0, -43675.88981102584, -39732.215074564825, -44222.30055598028, -60882.083878765574, -59146.51562529989, -75665.0582748721, -64106.83710656609, -68958.3279440794, 0.396, -0.888, 0.23800000000000002, 192.0, 0.0, 0.0, 0.0, 0.0, 0.0, 0.0, 0.0, 0.0, 0.0, 1.6635023512017035E9, 0.0, 2022-09-18 16:59:11.201
23.0, -43553.20108571066, -39127.86860798224, -44270.89324842611, -60936.66683872543, -59199.578666636786, -75734.41573791692, -64153.03816235521, -69011.6368546053, 0.396, -0.888, 0.23800000000000002, 192.0, 0.0, 0.0, 0.0, 0.0, 0.0, 0.0, 0.0, 0.0, 0.0, 1.663502351205687E9, 0.0, 2022-09-18 16:59:11.205
24.0, -42082.74687322937, -37973.42335861008, -44347.22445574099, -61018.60833389859, -59260.755391210965, -75827.53310531774, -64229.50348013682, -69088.92918693175, 0.396, -0.888, 0.23800000000000002, 192.0, 0.0, 0.0, 0.0, 0.0, 0.0, 0.0, 0.0, 0.0, 0.0, 1.6635023512096784E9, 0.0, 2022-09-18 16:59:11.209
25.0, -40721.12330450098, -37542.99581563423, -44348.36439470821, -61014.60737164109, -59270.25488260447, -75804.68962248441, -64231.023398759775, -69081.19548335022, 0.404, -0.892, 0.234, 192.0, 12.0, 160.0, 228.0, 32.0, 7.0, 80.0, 0.0, 0.0, 0.0, 1.6635023512126331E9, 0.0, 2022-09-18 16:59:11.212
26.0, -42434.004537344525, -39196.75668439349, -44232.47059970744, -60894.600855660545, -59182.747803061946, -75651.17784156535, -64116.247190981776, -68964.18410112668, 0.404, -0.892, 0.234, 192.0, 0.0, 0.0, 0.0, 0.0, 0.0, 0.0, 0.0, 0.0, 0.0, 1.6635023512177284E9, 0.0, 2022-09-18 16:59:11.217
27.0, -43889.17015661838, -39755.61735100953, -44220.266547234845, -60890.24226549176, -59139.743046729935, -75649.88144038695, -64109.1840397339, -68963.31238309293, 0.404, -0.892, 0.234, 192.0, 0.0, 0.0, 0.0, 0.0, 0.0, 0.0, 0.0, 0.0, 0.0, 1.6635023512227025E9, 0.0, 2022-09-18 16:59:11.222
28.0, -43716.25706151212, -39128.3826981047, -44269.06040538078, -60941.40540854996, -59196.225904968494, -75721.60818834403, -64155.00511586727, -69018.94587504219, 0.404, -0.892, 0.234, 192.0, 0.0, 0.0, 0.0, 0.0, 0.0, 0.0, 0.0, 0.0, 0.0, 1.6635023512266989E9, 0.0, 2022-09-18 16:59:11.226
29.0, -42192.51629024938, -37957.151288646615, -44342.44118242755, -61019.77062461026, -59258.34140280979, -75818.43594532443, -64226.977733013366, -69095.79117247954, 0.404, -0.892, 0.234, 192.0, 0.0, 0.0, 0.0, 0.0, 0.0, 0.0, 0.0, 0.0, 0.0, 1.6635023512296867E9, 0.0, 2022-09-18 16:59:11.229
30.0, -40916.410495806995, -37606.4747698873, -44339.468400415, -61011.567534395166, -59265.56101626885, -75793.11141885656, -64221.166279454985, -69084.4588380407, 0.404, -0.892, 0.234, 192.0, 0.0, 0.0, 0.0, 0.0, 0.0, 0.0, 0.0, 0.0, 0.0, 1.663502351233702E9, 0.0, 2022-09-18 16:59:11.233
31.0, -42696.14579631636, -39278.47466212209, -44226.14505602659, -60893.416213204415, -59178.63508208217, -75645.9028298739, -64108.24526646677, -68968.81091222893, 0.404, -0.892, 0.234, 192.0, 0.0, 0.0, 0.0, 0.0, 0.0, 0.0, 0.0, 0.0, 0.0, 1.6635023512376952E9, 0.0, 2022-09-18 16:59:11.237
32.0, -44075.71781584237, -39765.29565635868, -44222.05468679126, -60897.90891383993, -59145.398038077125, -75655.73759743424, -64108.5805426336, -68973.05774367544, 0.404, -0.892, 0.234, 192.0, 0.0, 0.0, 0.0, 0.0, 0.0, 0.0, 0.0, 0.0, 0.0, 1.6635023512406948E9, 0.0, 2022-09-18 16:59:11.240
33.0, -43852.49094396722, -39122.97357594652, -44274.24601009441, -60950.659030754454, -59203.780794594386, -75726.34675816855, -64156.7932554237, -69026.18784024571, 0.404, -0.892, 0.234, 192.0, 0.0, 0.0, 0.0, 0.0, 0.0, 0.0, 0.0, 0.0, 0.0, 1.6635023512447188E9, 0.0, 2022-09-18 16:59:11.244
34.0, -42277.11764301272, -37935.85007618071, -44348.09617377474, -61025.73854037983, -59259.570748754835, -75817.69833775739, -64229.50348013682, -69102.40728883831, 0.404, -0.892, 0.234, 192.0, 0.0, 0.0, 0.0, 0.0, 0.0, 0.0, 0.0, 0.0, 0.0, 1.6635023512497227E9, 0.0, 2022-09-18 16:59:11.249
35.0, -41083.08745421022, -37659.336645524105, -44338.79784808133, -61011.299313461706, -59263.057620889864, -75786.02591586423, -64219.691064320934, -69084.48118978515, 0.418, -0.886, 0.24, 192.0, 13.0, 16.0, 228.0, 80.0, 7.0, 128.0, 0.0, 0.0, 0.0, 1.6635023512536917E9, 0.0, 2022-09-18 16:59:11.253
36.0, -42892.05883646713, -39321.39001147628, -44228.715506638946, -60894.33263472708, -59176.39990763664, -75643.91352461738, -64110.74866184577, -68972.16367389723, 0.418, -0.886, 0.24, 192.0, 0.0, 0.0, 0.0, 0.0, 0.0, 0.0, 0.0, 0.0, 0.0, 1.663502351257703E9, 0.0, 2022-09-18 16:59:11.257
37.0, -44166.80117449775, -39732.17037107592, -44239.533750955314, -60907.96719884482, -59154.47284632598, -75662.62193472647, -64126.75251087577, -68985.88764499279, 0.418, -0.886, 0.24, 192.0, 0.0, 0.0, 0.0, 0.0, 0.0, 0.0, 0.0, 0.0, 0.0, 1.66350235126171E9, 0.0, 2022-09-18 16:59:11.261
38.0, -43873.926266899856, -39069.21763053151, -44288.77464399036, -60957.61042328006, -59212.40856795414, -75732.38172917148, -64172.81945619816, -69038.10132004038, 0.418, -0.886, 0.24, 192.0, 0.0, 0.0, 0.0, 0.0, 0.0, 0.0, 0.0, 0.0, 0.0, 1.6635023512658346E9, 0.0, 2022-09-18 16:59:11.265
39.0, -42231.050697690334, -37869.487746892904, -44358.51208669091, -61030.2535927598, -59269.3384610818, -75821.81105873718, -64240.52289015328, -69110.23039939767, 0.418, -0.886, 0.24, 192.0, 0.0, 0.0, 0.0, 0.0, 0.0, 0.0, 0.0, 0.0, 0.0, 1.663502351268738E9, 0.0, 2022-09-18 16:59:11.268
40.0, -41114.08932376973, -37685.197613858894, -44348.40909819712, -61014.428557685445, -59276.06633616285, -75783.52252048523, -64228.58705861415, -69092.63957651134, 0.418, -0.886, 0.24, 192.0, 0.0, 0.0, 0.0, 0.0, 0.0, 0.0, 0.0, 0.0, 0.0, 1.6635023512727475E9, 0.0, 2022-09-18 16:59:11.272
41.0, -42963.495011746294, -39365.42294805324, -44232.939986341, -60893.215047504316, -59182.54663736185, -75637.72209140327, -64114.59316189208, -68976.72342976612, 0.418, -0.886, 0.24, 192.0, 0.0, 0.0, 0.0, 0.0, 0.0, 0.0, 0.0, 0.0, 0.0, 1.6635023512778308E9, 0.0, 2022-09-18 16:59:11.277
42.0, -44158.106345904635, -39710.623289421, -44241.500704467384, -60910.15766980144, -59162.92180573008, -75660.25264981421, -64126.32782773112, -68991.85556076236, 0.418, -0.886, 0.24, 192.0, 0.0, 0.0, 0.0, 0.0, 0.0, 0.0, 0.0, 0.0, 0.0, 1.6635023512817855E9, 0.0, 2022-09-18 16:59:11.281
43.0, -43817.2422429612, -39032.27019694688, -44295.21194639349, -60967.62400479603, -59227.04896057236, -75735.08629025058, -64176.41808705546, -69045.85737536638, 0.418, -0.886, 0.24, 192.0, 0.0, 0.0, 0.0, 0.0, 0.0, 0.0, 0.0, 0.0, 0.0, 1.6635023512858405E9, 0.0, 2022-09-18 16:59:11.285
44.0, -42124.723449316436, -37823.48785680388, -44367.02810132839, -61038.344924252626, -59281.229589132025, -75827.01901519526, -64248.077779779174, -69118.32173089049, 0.418, -0.886, 0.24, 192.0, 0.0, 0.0, 0.0, 0.0, 0.0, 0.0, 0.0, 0.0, 0.0, 1.6635023512898273E9, 0.0, 2022-09-18 16:59:11.289
45.0, -41102.62287886416, -37720.401611376, -44345.63748188466, -61011.142851250515, -59277.027461174424, -75780.01329660574, -64225.32370392367, -69091.38787882184, 0.426, -0.882, 0.23, 192.0, 13.0, 80.0, 228.0, 112.0, 7.0, 48.0, 0.0, 0.0, 0.0, 1.6635023512928367E9, 0.0, 2022-09-18 16:59:11.292
46.0, -43007.7514657678, -39404.09146596092, -44233.051745063276, -60898.57946617359, -59185.67588158559, -75639.13025130394, -64114.280237469706, -68981.88668273529, 0.426, -0.882, 0.23, 192.0, 0.0, 0.0, 0.0, 0.0, 0.0, 0.0, 0.0, 0.0, 0.0, 1.6635023512968514E9, 0.0, 2022-09-18 16:59:11.296
47.0, -44123.997583865836, -39682.437739662855, -44238.3938119881, -60914.29274252567, -59161.42423885158, -75661.57140273707, -64123.779728863214, -68995.94592999767, 0.426, -0.882, 0.23, 192.0, 0.0, 0.0, 0.0, 0.0, 0.0, 0.0, 0.0, 0.0, 0.0, 1.6635023513008332E9, 0.0, 2022-09-18 16:59:11.300
48.0, -43733.17733206479, -38986.225603368955, -44283.76785323237, -60961.67844077092, -59215.98484706698, -75728.8278018031, -64167.36563055106, -69044.09158755442, 0.426, -0.882, 0.23, 192.0, 0.0, 0.0, 0.0, 0.0, 0.0, 0.0, 0.0, 0.0, 0.0, 1.6635023513048408E9, 0.0, 2022-09-18 16:59:11.304
49.0, -41990.79179654024, -37767.22851600987, -44358.4226797131, -61040.848319631616, -59270.54545528239, -75821.07345117014, -64243.09334076564, -69122.4121001258, 0.426, -0.882, 0.23, 192.0, 0.0, 0.0, 0.0, 0.0, 0.0, 0.0, 0.0, 0.0, 0.0, 1.6635023513089085E9, 0.0, 2022-09-18 16:59:11.308
50.0, -41066.725977268936, -37755.873829826574, -44330.03596425486, -61007.79008958222, -59261.26948133344, -75765.19409003187, -64212.51615435078, -69085.19644560773, 0.426, -0.882, 0.23, 192.0, 0.0, 0.0, 0.0, 0.0, 0.0, 0.0, 0.0, 0.0, 0.0, 1.6635023513129234E9, 0.0, 2022-09-18 16:59:11.312
51.0, -43006.36565761157, -39437.350861710416, -44216.86908207763, -60894.37733821599, -59168.196817421536, -75622.56760866256, -64101.51739138573, -68974.71177276513, 0.426, -0.882, 0.23, 192.0, 0.0, 0.0, 0.0, 0.0, 0.0, 0.0, 0.0, 0.0, 0.0, 1.663502351316922E9, 0.0, 2022-09-18 16:59:11.316
52.0, -44047.86754225106, -39662.54468709764, -44233.92346309703, -60914.11392857003, -59159.32317487278, -75651.87074564348, -64122.21510675134, -68996.99646198707, 0.426, -0.882, 0.23, 192.0, 0.0, 0.0, 0.0, 0.0, 0.0, 0.0, 0.0, 0.0, 0.0, 1.6635023513218648E9, 0.0, 2022-09-18 16:59:11.321
53.0, -43612.36615328385, -38961.23635306792, -44291.00981843589, -60971.33439437561, -59227.51834720592, -75726.9279035244, -64175.859293444075, -69055.55803245999, 0.426, -0.882, 0.23, 192.0, 0.0, 0.0, 0.0, 0.0, 0.0, 0.0, 0.0, 0.0, 0.0, 1.6635023513259032E9, 0.0, 2022-09-18 16:59:11.325
54.0, -41818.303384578634, -37736.76308831729, -44365.12820304969, -61044.82693014466, -59279.08382166432, -75815.6419772675, -64249.24007049085, -69127.88827751736, 0.426, -0.882, 0.23, 192.0, 0.0, 0.0, 0.0, 0.0, 0.0, 0.0, 0.0, 0.0, 0.0, 1.663502351329917E9, 0.0, 2022-09-18 16:59:11.329
55.0, -40990.3277147207, -37807.126379862595, -44328.761914820905, -60996.30129293219, -59263.10232437877, -75748.25146773475, -64209.699834549414, -69081.28489032804, 0.428, -0.884, 0.228, 192.0, 13.0, 96.0, 228.0, 96.0, 7.0, 32.0, 0.0, 0.0, 0.0, 1.6635023513329103E9, 0.0, 2022-09-18 16:59:11.332
56.0, -42960.52222973374, -39478.47807150818, -44216.86908207763, -60882.26269272122, -59167.056878454314, -75610.78823933462, -64098.186981461884, -68968.56504303993, 0.428, -0.884, 0.228, 192.0, 0.0, 0.0, 0.0, 0.0, 0.0, 0.0, 0.0, 0.0, 0.0, 1.6635023513368924E9, 0.0, 2022-09-18 16:59:11.336
57.0, -43928.55393034863, -39645.602064800514, -44236.896245109594, -60908.39188198947, -59158.18323590556, -75645.38873975143, -64120.96340906184, -68991.81085727345, 0.428, -0.884, 0.228, 192.0, 0.0, 0.0, 0.0, 0.0, 0.0, 0.0, 0.0, 0.0, 0.0, 1.6635023513409216E9, 0.0, 2022-09-18 16:59:11.340
58.0, -43448.036128048436, -38929.18395151901, -44291.47920506945, -60964.785333250205, -59223.33857099278, -75721.38467089948, -64171.43364804193, -69049.00897133458, 0.428, -0.884, 0.228, 192.0, 0.0, 0.0, 0.0, 0.0, 0.0, 0.0, 0.0, 0.0, 0.0, 1.6635023513449392E9, 0.0, 2022-09-18 16:59:11.344
59.0, -41616.91416703632, -37705.627108291046, -44361.37310998119, -61039.0601800752, -59278.77089724194, -75810.21050336487, -64239.71822735289, -69123.88731525985, 0.428, -0.884, 0.228, 192.0, 0.0, 0.0, 0.0, 0.0, 0.0, 0.0, 0.0, 0.0, 0.0, 1.663502351349955E9, 0.0, 2022-09-18 16:59:11.349
60.0, -40900.92073689947, -37872.88521205011, -44318.122484460175, -60986.86885677205, -59262.54353076739, -75737.81320307413, -64193.0030814413, -69073.17120709077, 0.428, -0.884, 0.228, 192.0, 0.0, 0.0, 0.0, 0.0, 0.0, 0.0, 0.0, 0.0, 0.0, 1.6635023513539472E9, 0.0, 2022-09-18 16:59:11.353
61.0, -42913.382400677496, -39538.47015362622, -44211.61642213064, -60879.021689775196, -59167.88389299916, -75605.15559973188, -64088.82160053511, -68967.80508372845, 0.428, -0.884, 0.228, 192.0, 0.0, 0.0, 0.0, 0.0, 0.0, 0.0, 0.0, 0.0, 0.0, 1.6635023513579717E9, 0.0, 2022-09-18 16:59:11.357
62.0, -43826.40645818788, -39648.820716002076, -44231.8894543516, -60907.09548081106, -59159.6137475507, -75642.14773680542, -64113.430871180404, -68996.46002012015, 0.428, -0.884, 0.228, 192.0, 0.0, 0.0, 0.0, 0.0, 0.0, 0.0, 0.0, 0.0, 0.0, 1.6635023513609595E9, 0.0, 2022-09-18 16:59:11.360
63.0, -43316.83138809579, -38915.08000076771, -44287.74646374541, -60965.210016394856, -59224.746730893465, -75720.4235458879, -64166.51626426176, -69056.0944743269, 0.428, -0.884, 0.228, 192.0, 0.0, 0.0, 0.0, 0.0, 0.0, 0.0, 0.0, 0.0, 0.0, 1.663502351364951E9, 0.0, 2022-09-18 16:59:11.364
64.0, -41466.039891962995, -37686.806939459675, -44367.67630191759, -61048.17969181296, -59281.49781006549, -75813.71972724434, -64246.826082089676, -69137.45482414422, 0.428, -0.884, 0.228, 192.0, 0.0, 0.0, 0.0, 0.0, 0.0, 0.0, 0.0, 0.0, 0.0, 1.6635023513689547E9, 0.0, 2022-09-18 16:59:11.368
65.0, -40876.423224976454, -37936.095945369714, -44323.509254873905, -60994.69196733141, -59263.01291740095, -75737.32146469611, -64201.67555828996, -69082.62599499535, 0.424, -0.89, 0.228, 192.0, 13.0, 64.0, 228.0, 48.0, 7.0, 32.0, 0.0, 0.0, 0.0, 1.6635023513730433E9, 0.0, 2022-09-18 16:59:11.373
66.0, -42933.47661894281, -39584.6935611598, -44224.84865484818, -60892.075108537094, -59177.04810822584, -75616.91261731538, -64105.20542922085, -68982.31136587994, 0.424, -0.89, 0.228, 192.0, 0.0, 0.0, 0.0, 0.0, 0.0, 0.0, 0.0, 0.0, 0.0, 1.6635023513770528E9, 0.0, 2022-09-18 16:59:11.377
67.0, -43787.179146668816, -39631.69927974931, -44252.16248657257, -60926.139167086985, -59179.305634415825, -75661.79492018162, -64135.00030457978, -69017.51536339705, 0.424, -0.89, 0.228, 192.0, 0.0, 0.0, 0.0, 0.0, 0.0, 0.0, 0.0, 0.0, 0.0, 1.6635023513820384E9, 0.0, 2022-09-18 16:59:11.382
68.0, -43238.13089586865, -38871.60585780214, -44304.3091063868, -60978.93398749042, -59241.42113225712, -75734.41573791692, -64184.44236331491, -69070.31018380048, 0.424, -0.89, 0.228, 192.0, 0.0, 0.0, 0.0, 0.0, 0.0, 0.0, 0.0, 0.0, 0.0, 1.6635023513860798E9, 0.0, 2022-09-18 16:59:11.386
69.0, -41355.175239464676, -37638.21424701384, -44373.8230316428, -61051.331287781155, -59291.220818903545, -75814.65850051148, -64253.755122870825, -69140.13703347887, 0.424, -0.89, 0.228, 192.0, 0.0, 0.0, 0.0, 0.0, 0.0, 0.0, 0.0, 0.0, 0.0, 1.6635023513890617E9, 0.0, 2022-09-18 16:59:11.389
70.0, -40885.85566113659, -37977.424320867576, -44319.597699594226, -60988.433478883926, -59267.68443199211, -75726.9726070133, -64197.58518905463, -69077.97683214866, 0.424, -0.89, 0.228, 192.0, 0.0, 0.0, 0.0, 0.0, 0.0, 0.0, 0.0, 0.0, 0.0, 1.6635023513930476E9, 0.0, 2022-09-18 16:59:11.393
71.0, -42971.385177539014, -39606.97825038174, -44222.836997847204, -60886.46482067881, -59176.2657971699, -75604.84267530951, -64104.02078676472, -68980.12089492333, 0.424, -0.89, 0.228, 192.0, 0.0, 0.0, 0.0, 0.0, 0.0, 0.0, 0.0, 0.0, 0.0, 1.6635023513970184E9, 0.0, 2022-09-18 16:59:11.397
72.0, -43761.74286147867, -39603.089046846515, -44252.2965970393, -60920.7300449288, -59176.779887292374, -75646.5510304631, -64137.03431332521, -69013.38029067282, 0.424, -0.89, 0.228, 192.0, 0.0, 0.0, 0.0, 0.0, 0.0, 0.0, 0.0, 0.0, 0.0, 1.6635023514010715E9, 0.0, 2022-09-18 16:59:11.401
73.0, -43177.33415095021, -38832.758525938814, -44311.416961123585, -60982.55497009218, -59242.89634739117, -75726.95025526885, -64193.2489506303, -69075.07110536947, 0.424, -0.89, 0.228, 192.0, 0.0, 0.0, 0.0, 0.0, 0.0, 0.0, 0.0, 0.0, 0.0, 1.6635023514050748E9, 0.0, 2022-09-18 16:59:11.405
74.0, -41275.08893908131, -37604.038429741675, -44383.03195035839, -61056.718058194885, -59289.18681015811, -75809.22702660883, -64263.85811136462, -69144.58503062547, 0.424, -0.89, 0.228, 192.0, 0.0, 0.0, 0.0, 0.0, 0.0, 0.0, 0.0, 0.0, 0.0, 1.6635023514101083E9, 0.0, 2022-09-18 16:59:11.410
75.0, -40931.56497854769, -38035.20358028455, -44325.94559501953, -60989.84163878461, -59257.87201617623, -75715.12618245199, -64204.111898435585, -69077.30627981499, 0.418, -0.89, 0.228, 192.0, 13.0, 16.0, 228.0, 48.0, 7.0, 32.0, 0.0, 0.0, 0.0, 1.6635023514141245E9, 0.0, 2022-09-18 16:59:11.414
76.0, -43035.62409110357, -39640.08118392005, -44232.11297179615, -60895.450221949846, -59169.00148022193, -75602.11576248596, -64111.9333043019, -68984.70300253665, 0.418, -0.89, 0.228, 192.0, 0.0, 0.0, 0.0, 0.0, 0.0, 0.0, 0.0, 0.0, 0.0, 1.6635023514171245E9, 0.0, 2022-09-18 16:59:11.417
77.0, -43765.47560280271, -39585.83350012702, -44262.51134425537, -60933.31407705713, -59178.120991959695, -75653.7035886888, -64143.96335410635, -69024.73497685611, 0.418, -0.89, 0.228, 192.0, 0.0, 0.0, 0.0, 0.0, 0.0, 0.0, 0.0, 0.0, 0.0, 1.663502351421131E9, 0.0, 2022-09-18 16:59:11.421
78.0, -43135.603444052154, -38794.84996734261, -44314.993240236436, -60988.72405156184, -59240.63882120119, -75729.4312989034, -64193.11484016357, -69079.40734379379, 0.418, -0.89, 0.228, 192.0, 0.0, 0.0, 0.0, 0.0, 0.0, 0.0, 0.0, 0.0, 0.0, 1.6635023514251344E9, 0.0, 2022-09-18 16:59:11.425
79.0, -41215.29802266336, -37574.77999624968, -44382.27199104691, -61058.327383795666, -59289.58914155831, -75810.61283476507, -64260.728867140875, -69147.11077774892, 0.418, -0.89, 0.228, 192.0, 0.0, 0.0, 0.0, 0.0, 0.0, 0.0, 0.0, 0.0, 0.0, 1.6635023514291315E9, 0.0, 2022-09-18 16:59:11.429
80.0, -41002.9788020824, -38103.130531684226, -44321.51994961738, -60987.40529863898, -59262.074144133825, -75715.99790048575, -64197.33931986563, -69078.44621878222, 0.418, -0.89, 0.228, 192.0, 0.0, 0.0, 0.0, 0.0, 0.0, 0.0, 0.0, 0.0, 0.0, 1.663502351433097E9, 0.0, 2022-09-18 16:59:11.433
81.0, -43121.79006597878, -39682.460091407316, -44230.16837002854, -60897.08189929508, -59173.76240179091, -75608.843637567, -64107.842935066576, -68992.92844449621, 0.418, -0.89, 0.228, 192.0, 0.0, 0.0, 0.0, 0.0, 0.0, 0.0, 0.0, 0.0, 0.0, 1.6635023514381287E9, 0.0, 2022-09-18 16:59:11.438
82.0, -43786.2850768906, -39577.47394770074, -44260.61144597667, -60935.30338231366, -59182.9713205065, -75658.39745502442, -64139.448301726385, -69031.28403798152, 0.418, -0.89, 0.228, 192.0, 0.0, 0.0, 0.0, 0.0, 0.0, 0.0, 0.0, 0.0, 0.0, 1.6635023514410985E9, 0.0, 2022-09-18 16:59:11.441
83.0, -43116.55975777623, -38775.13572873303, -44313.160397191095, -60992.79206905271, -59246.405571270654, -75731.26414194872, -64187.28103486074, -69089.7114979877, 0.418, -0.89, 0.228, 192.0, 0.0, 0.0, 0.0, 0.0, 0.0, 0.0, 0.0, 0.0, 0.0, 1.66350235144515E9, 0.0, 2022-09-18 16:59:11.445
84.0, -41188.855908972735, -37577.43985383986, -44384.50716549244, -61067.53630251125, -59297.948693984596, -75809.49524754229, -64256.817311861196, -69160.79004535556, 0.418, -0.89, 0.228, 192.0, 0.0, 0.0, 0.0, 0.0, 0.0, 0.0, 0.0, 0.0, 0.0, 1.6635023514491217E9, 0.0, 2022-09-18 16:59:11.449
85.0, -41100.23124220744, -38198.14779736374, -44320.87174902818, -60993.820249297656, -59266.902120936174, -75707.59364457054, -64190.9020174625, -69086.58225376395, 0.418, -0.892, 0.228, 192.0, 13.0, 16.0, 228.0, 32.0, 7.0, 32.0, 0.0, 0.0, 0.0, 1.6635023514531767E9, 0.0, 2022-09-18 16:59:11.453
86.0, -43212.33698276723, -39734.36084203253, -44232.5376549408, -60902.513373197726, -59176.779887292374, -75600.37232641844, -64105.16072573194, -68997.51055210955, 0.418, -0.892, 0.228, 192.0, 0.0, 0.0, 0.0, 0.0, 0.0, 0.0, 0.0, 0.0, 0.0, 1.663502351457138E9, 0.0, 2022-09-18 16:59:11.457
87.0, -43814.38121967092, -39579.48560470172, -44275.18478336153, -60950.390809820994, -59196.11414624622, -75658.62097246897, -64146.73497041881, -69043.06340730947, 0.418, -0.892, 0.228, 192.0, 0.0, 0.0, 0.0, 0.0, 0.0, 0.0, 0.0, 0.0, 0.0, 1.663502351461213E9, 0.0, 2022-09-18 16:59:11.461
88.0, -43103.64044948107, -38754.326254645144, -44336.29445270234, -61012.193383239915, -59257.20146384257, -75741.90357230944, -64205.07302344716, -69103.77074525008, 0.418, -0.892, 0.228, 192.0, 0.0, 0.0, 0.0, 0.0, 0.0, 0.0, 0.0, 0.0, 0.0, 1.6635023514661255E9, 0.0, 2022-09-18 16:59:11.466
89.0, -41164.47015577199, -37559.69256874234, -44405.07077039132, -61078.242788105345, -59274.74758323999, -75816.91602670145, -64274.162265558516, -69167.04853380306, 0.418, -0.892, 0.228, 192.0, 0.0, 0.0, 0.0, 0.0, 0.0, 0.0, 0.0, 0.0, 0.0, 1.663502351469195E9, 0.0, 2022-09-18 16:59:11.469
90.0, -41193.50507181943, -38250.830859044894, -44331.265310199895, -60987.27118817225, -59215.515460433424, -75705.04554570264, -64199.79801175571, -69079.94378566073, 0.418, -0.892, 0.228, 192.0, 0.0, 0.0, 0.0, 0.0, 0.0, 0.0, 0.0, 0.0, 0.0, 1.6635023514731743E9, 0.0, 2022-09-18 16:59:11.473
91.0, -43299.37467567619, -39745.559066004644, -44248.34033827071, -60904.43562322088, -59125.75085470091, -75612.01758527965, -64121.544554417684, -69000.66214807775, 0.418, -0.892, 0.228, 192.0, 0.0, 0.0, 0.0, 0.0, 0.0, 0.0, 0.0, 0.0, 0.0, 1.6635023514771404E9, 0.0, 2022-09-18 16:59:11.477
92.0, -43831.212083245766, -39539.766554804635, -44281.845603209214, -60944.087617884594, -59140.570061274775, -75667.06993187308, -64156.72620019034, -69039.64359040781, 0.418, -0.892, 0.228, 192.0, 0.0, 0.0, 0.0, 0.0, 0.0, 0.0, 0.0, 0.0, 0.0, 1.6635023514811628E9, 0.0, 2022-09-18 16:59:11.481
93.0, -43071.83391712116, -38696.41288476144, -44340.25071147093, -61001.95628427938, -59209.301675474846, -75750.88897358048, -64213.03024447325, -69098.808657981, 0.418, -0.892, 0.228, 192.0, 0.0, 0.0, 0.0, 0.0, 0.0, 0.0, 0.0, 0.0, 0.0, 1.663502351485216E9, 0.0, 2022-09-18 16:59:11.485
94.0, -41128.88617859915, -37530.30002478362, -44398.47700577701, -61062.41775303099, -59249.66892596113, -75820.2911401142, -64272.57529170219, -69157.59374589846, 0.418, -0.892, 0.228, 192.0, 0.0, 0.0, 0.0, 0.0, 0.0, 0.0, 0.0, 0.0, 0.0, 1.6635023514892008E9, 0.0, 2022-09-18 16:59:11.489
95.0, -41286.95771538708, -38322.0435168795, -44319.0612577273, -60979.67159505744, -59206.46300392902, -75707.23601665927, -64192.645453530014, -69076.18869259223, 0.41200000000000003, -0.89, 0.226, 192.0, 12.0, 224.0, 228.0, 48.0, 7.0, 16.0, 0.0, 0.0, 0.0, 1.6635023514941883E9, 0.0, 2022-09-18 16:59:11.494
96.0, -43366.96635090904, -39768.223734882326, -44239.42199223304, -60904.63678892098, -59119.84999416471, -75618.61134989398, -64118.482365427306, -69002.56204635646, 0.41200000000000003, -0.89, 0.226, 192.0, 0.0, 0.0, 0.0, 0.0, 0.0, 0.0, 0.0, 0.0, 0.0, 1.663502351497198E9, 0.0, 2022-09-18 16:59:11.497
97.0, -43841.91856883986, -39533.038679723584, -44276.257667095386, -60952.46952205533, -59142.537014786845, -75676.79294071114, -64159.140188591504, -69048.31606725647, 0.41200000000000003, -0.89, 0.226, 192.0, 0.0, 0.0, 0.0, 0.0, 0.0, 0.0, 0.0, 0.0, 0.0, 1.6635023515002043E9, 0.0, 2022-09-18 16:59:11.500
98.0, -43027.84568403312, -38668.71907338132, -44327.64432759814, -61010.33818845012, -59199.4222044256, -75754.55465967115, -64210.21392467189, -69107.97287320768, 0.41200000000000003, -0.89, 0.226, 192.0, 0.0, 0.0, 0.0, 0.0, 0.0, 0.0, 0.0, 0.0, 0.0, 1.6635023515052094E9, 0.0, 2022-09-18 16:59:11.505
99.0, -41097.90666078409, -37534.278635296665, -44383.18841256957, -61068.117447867095, -59242.02462935742, -75819.55353254719, -64265.75800964332, -69161.55000466705, 0.41200000000000003, -0.89, 0.226, 192.0, 0.0, 0.0, 0.0, 0.0, 0.0, 0.0, 0.0, 0.0, 0.0, 1.66350235150922E9, 0.0, 2022-09-18 16:59:11.509
100.0, -41367.28988495945, -38397.14537824933, -44302.36450461918, -60983.180818936926, -59198.48343115848, -75703.79384801316, -64182.40835456948, -69075.02640188056, 0.41200000000000003, -0.89, 0.226, 192.0, 0.0, 0.0, 0.0, 0.0, 0.0, 0.0, 0.0, 0.0, 0.0, 1.6635023515132108E9, 0.0, 2022-09-18 16:59:11.513
101.0, -43427.42781966065, -39803.96417426636, -44229.87779735062, -60914.91859137042, -59120.74406394292, -75623.52873367415, -64111.82154557962, -69009.33462492641, 0.41200000000000003, -0.89, 0.226, 192.0, 0.0, 0.0, 0.0, 0.0, 0.0, 0.0, 0.0, 0.0, 0.0, 1.6635023515172455E9, 0.0, 2022-09-18 16:59:11.517
102.0, -43858.883542881435, -39542.02408099462, -44274.67069323906, -60965.411182094955, -59150.158959646105, -75691.29922286264, -64157.41910426845, -69059.42488425075, 0.41200000000000003, -0.89, 0.226, 192.0, 0.0, 0.0, 0.0, 0.0, 0.0, 0.0, 0.0, 0.0, 0.0, 1.6635023515222569E9, 0.0, 2022-09-18 16:59:11.522
103.0, -43011.50655883629, -38663.242895989766, -44336.58502538026, -61028.5548601812, -59211.24627724246, -75778.49337798278, -64216.762985797286, -69123.8649635154, 0.41200000000000003, -0.89, 0.226, 192.0, 0.0, 0.0, 0.0, 0.0, 0.0, 0.0, 0.0, 0.0, 0.0, 1.663502351525248E9, 0.0, 2022-09-18 16:59:11.525
104.0, -41077.79009077431, -37545.85683892451, -44398.99109589948, -61085.84238122015, -59254.29573706338, -75849.7507393063, -64279.07964933869, -69180.37017349842, 0.41200000000000003, -0.89, 0.226, 192.0, 0.0, 0.0, 0.0, 0.0, 0.0, 0.0, 0.0, 0.0, 0.0, 1.6635023515282617E9, 0.0, 2022-09-18 16:59:11.528
105.0, -41483.42954914922, -38497.6388213204, -44318.457760627, -60991.78624055222, -59207.759405107434, -75731.1747349709, -64197.607540799094, -69092.68428000025, 0.41600000000000004, -0.892, 0.224, 192.0, 13.0, 0.0, 228.0, 32.0, 7.0, 0.0, 0.0, 0.0, 0.0, 1.6635023515332763E9, 0.0, 2022-09-18 16:59:11.533
106.0, -43520.85811148383, -39841.98449158484, -44249.346166771196, -60925.356856031045, -59129.237726835934, -75663.44894927132, -64131.84870861158, -69033.56391591596, 0.41600000000000004, -0.892, 0.224, 192.0, 0.0, 0.0, 0.0, 0.0, 0.0, 0.0, 0.0, 0.0, 0.0, 1.6635023515372424E9, 0.0, 2022-09-18 16:59:11.537
107.0, -43871.66874070987, -39513.14562715836, -44292.37327484766, -60971.557911820164, -59160.70898302901, -75738.59551413007, -64175.81458995517, -69084.59294850743, 0.41600000000000004, -0.892, 0.224, 192.0, 0.0, 0.0, 0.0, 0.0, 0.0, 0.0, 0.0, 0.0, 0.0, 1.663502351541237E9, 0.0, 2022-09-18 16:59:11.541
108.0, -42973.73211070682, -38606.55887205111, -44353.505295932926, -61034.81334862868, -59226.46781521652, -75827.95778846239, -64234.800843572724, -69149.30124870554, 0.41600000000000004, -0.892, 0.224, 192.0, 0.0, 0.0, 0.0, 0.0, 0.0, 0.0, 0.0, 0.0, 0.0, 1.6635023515453951E9, 0.0, 2022-09-18 16:59:11.545
109.0, -41059.34990159868, -37528.109553826995, -44409.3846570712, -61089.2174946329, -59269.96430992655, -75898.94692885244, -64289.875541910595, -69204.10772610996, 0.41600000000000004, -0.892, 0.224, 192.0, 0.0, 0.0, 0.0, 0.0, 0.0, 0.0, 0.0, 0.0, 0.0, 1.6635023515492494E9, 0.0, 2022-09-18 16:59:11.549
110.0, -41581.15137590783, -38561.095423829014, -44316.89313851514, -60988.05349922818, -59218.91292559063, -75783.2319478073, -64195.68529077593, -69107.86111448541, 0.41600000000000004, -0.892, 0.224, 192.0, 0.0, 0.0, 0.0, 0.0, 0.0, 0.0, 0.0, 0.0, 0.0, 1.6635023515532725E9, 0.0, 2022-09-18 16:59:11.553
111.0, -43584.918211092736, -39854.43441324645, -44253.749460428895, -60930.16248108894, -59149.08607591225, -75730.88416229298, -64135.84967086908, -69054.08281732594, 0.41600000000000004, -0.892, 0.224, 192.0, 0.0, 0.0, 0.0, 0.0, 0.0, 0.0, 0.0, 0.0, 0.0, 1.6635023515562727E9, 0.0, 2022-09-18 16:59:11.556
112.0, -43881.86113618149, -39497.05237115054, -44302.78918776383, -60984.81249628217, -59190.52621013239, -75813.76443073327, -64182.56481678067, -69110.43156509777, 0.41600000000000004, -0.892, 0.224, 192.0, 0.0, 0.0, 0.0, 0.0, 0.0, 0.0, 0.0, 0.0, 0.0, 1.6635023515613308E9, 0.0, 2022-09-18 16:59:11.561
113.0, -42934.10246778756, -38568.516202988176, -44366.8716391172, -61052.538281981746, -59260.330708066314, -75912.15680982552, -64243.406265188016, -69180.34782175397, 0.41600000000000004, -0.892, 0.224, 192.0, 0.0, 0.0, 0.0, 0.0, 0.0, 0.0, 0.0, 0.0, 0.0, 1.6635023515653167E9, 0.0, 2022-09-18 16:59:11.565
114.0, -41043.54721826878, -37525.248530536715, -44415.66549726314, -61102.8744104951, -59300.07210970785, -75975.16637744503, -64292.37893728959, -69227.95703744376, 0.41600000000000004, -0.892, 0.224, 192.0, 0.0, 0.0, 0.0, 0.0, 0.0, 0.0, 0.0, 0.0, 0.0, 1.663502351569324E9, 0.0, 2022-09-18 16:59:11.569
115.0, -41693.670057495845, -38630.385831640466, -44323.017516495886, -61002.55978137968, -59248.97602188302, -75855.0481027422, -64199.03805244423, -69131.57631535249, 0.422, -0.888, 0.232, 192.0, 13.0, 48.0, 228.0, 64.0, 7.0, 64.0, 0.0, 0.0, 0.0, 1.663502351573351E9, 0.0, 2022-09-18 16:59:11.573
116.0, -43659.32716838446, -39854.54617196872, -44271.005007148386, -60951.39663832148, -59180.51262861641, -75797.87234042554, -64151.205319309876, -69082.58129150645, 0.422, -0.888, 0.232, 192.0, 0.0, 0.0, 0.0, 0.0, 0.0, 0.0, 0.0, 0.0, 0.0, 1.663502351577354E9, 0.0, 2022-09-18 16:59:11.577
117.0, -43897.127377644465, -39456.059271819504, -44317.29546991533, -60997.88826678852, -59214.35316972175, -75863.29589644622, -64196.86993323207, -69131.75512930812, 0.422, -0.888, 0.232, 192.0, 0.0, 0.0, 0.0, 0.0, 0.0, 0.0, 0.0, 0.0, 0.0, 1.6635023515813353E9, 0.0, 2022-09-18 16:59:11.581
118.0, -42902.72061857231, -38515.453161651276, -44376.68405493308, -61061.07664836367, -59275.46283906256, -75948.9254294545, -64251.58700365866, -69197.7374789402, 0.422, -0.888, 0.232, 192.0, 0.0, 0.0, 0.0, 0.0, 0.0, 0.0, 0.0, 0.0, 0.0, 1.6635023515842872E9, 0.0, 2022-09-18 16:59:11.584
119.0, -41037.489895521394, -37518.543007200125, -44417.8336164753, -61104.21551516242, -59303.40251963169, -75987.01280200634, -64293.13889660107, -69237.1436044149, 0.422, -0.888, 0.232, 192.0, 0.0, 0.0, 0.0, 0.0, 0.0, 0.0, 0.0, 0.0, 0.0, 1.6635023515883155E9, 0.0, 2022-09-18 16:59:11.588
120.0, -41793.560003466606, -38692.4342742484, -44310.232318667455, -60986.466525371856, -59230.35701875175, -75834.1492216765, -64185.47054355986, -69122.45680361471, 0.422, -0.888, 0.232, 192.0, 0.0, 0.0, 0.0, 0.0, 0.0, 0.0, 0.0, 0.0, 0.0, 1.663502351593308E9, 0.0, 2022-09-18 16:59:11.593
121.0, -43716.838206867964, -39861.58697147214, -44255.09056509621, -60936.48802476979, -59158.42910509457, -75773.15131105797, -64135.44733946888, -69073.37237279087, 0.422, -0.888, 0.232, 192.0, 0.0, 0.0, 0.0, 0.0, 0.0, 0.0, 0.0, 0.0, 0.0, 1.6635023515973754E9, 0.0, 2022-09-18 16:59:11.597
122.0, -43902.42474108037, -39432.34407095243, -44301.135158674144, -60989.12638296204, -59197.18702998007, -75833.03163445374, -64180.84373245761, -69121.92036174779, 0.422, -0.888, 0.232, 192.0, 0.0, 0.0, 0.0, 0.0, 0.0, 0.0, 0.0, 0.0, 0.0, 1.6635023516013532E9, 0.0, 2022-09-18 16:59:11.601
123.0, -42852.29508308114, -38466.05580640505, -44362.222476270494, -61050.75014242532, -59256.50855976446, -75907.95468186792, -64240.09820700863, -69181.30894676554, 0.422, -0.888, 0.232, 192.0, 0.0, 0.0, 0.0, 0.0, 0.0, 0.0, 0.0, 0.0, 0.0, 1.6635023516053767E9, 0.0, 2022-09-18 16:59:11.605
124.0, -41021.50839823585, -37518.6547659224, -44406.79185471438, -61091.00563418933, -59285.498772322986, -75940.94585668396, -64283.952329629945, -69218.41284256135, 0.422, -0.888, 0.232, 192.0, 0.0, 0.0, 0.0, 0.0, 0.0, 0.0, 0.0, 0.0, 0.0, 1.663502351609339E9, 0.0, 2022-09-18 16:59:11.609
125.0, -41895.4392546939, -38764.98803675032, -44310.232318667455, -60981.12445844704, -59218.86822210172, -75791.94912814489, -64187.30338660519, -69109.35868136391, 0.422, -0.888, 0.232, 192.0, 0.0, 0.0, 0.0, 0.0, 0.0, 0.0, 0.0, 0.0, 0.0, 1.6635023516123664E9, 0.0, 2022-09-18 16:59:11.612
126.0, -43764.872105702416, -39866.63846571904, -44264.7465187009, -60935.52689975821, -59149.5107590569, -75732.26997044921, -64148.03137159722, -69063.78347441954, 0.422, -0.888, 0.23600000000000002, 192.0, 13.0, 48.0, 228.0, 64.0, 7.0, 96.0, 0.0, 0.0, 0.0, 1.6635023516163733E9, 0.0, 2022-09-18 16:59:11.616
127.0, -43901.061284668605, -39412.02633524255, -44313.04863846882, -60984.5442753487, -59188.29103568686, -75791.74796244479, -64197.0040436988, -69112.39851860983, 0.422, -0.888, 0.23600000000000002, 192.0, 0.0, 0.0, 0.0, 0.0, 0.0, 0.0, 0.0, 0.0, 0.0, 1.6635023516213663E9, 0.0, 2022-09-18 16:59:11.621
128.0, -42806.42930345885, -38427.70021291974, -44369.59855194075, -61041.407113243, -59241.57759446831, -75867.67683835946, -64252.52577692578, -69169.9766123267, 0.422, -0.888, 0.23600000000000002, 192.0, 0.0, 0.0, 0.0, 0.0, 0.0, 0.0, 0.0, 0.0, 0.0, 1.663502351625393E9, 0.0, 2022-09-18 16:59:11.625
129.0, -41012.23242428689, -37530.41178350589, -44406.52363378092, -61074.37593631458, -59268.220873859034, -75898.41048698551, -64289.65202446604, -69200.35263304146, 0.422, -0.888, 0.23600000000000002, 192.0, 0.0, 0.0, 0.0, 0.0, 0.0, 0.0, 0.0, 0.0, 0.0, 1.6635023516294353E9, 0.0, 2022-09-18 16:59:11.629
130.0, -41990.635334329054, -38835.843066673646, -44301.24691739642, -60959.10799015856, -59198.52813464739, -75748.81026134614, -64184.37530808155, -69087.92335843126, 0.422, -0.888, 0.23600000000000002, 192.0, 0.0, 0.0, 0.0, 0.0, 0.0, 0.0, 0.0, 0.0, 0.0, 1.6635023516327453E9, 0.0, 2022-09-18 16:59:11.632
131.0, -43804.32293466603, -39865.83380291865, -44260.65614946558, -60917.7796146607, -59135.87619493916, -75700.77636251168, -64147.02554309673, -69047.8466806229, 0.422, -0.888, 0.23600000000000002, 192.0, 0.0, 0.0, 0.0, 0.0, 0.0, 0.0, 0.0, 0.0, 0.0, 1.663502351636622E9, 0.0, 2022-09-18 16:59:11.636
132.0, -43886.443243794834, -39380.51037556057, -44313.585080335746, -60971.46850484235, -59184.692404829555, -75768.85977612255, -64195.79704949821, -69099.56861729248, 0.422, -0.888, 0.23600000000000002, 192.0, 0.0, 0.0, 0.0, 0.0, 0.0, 0.0, 0.0, 0.0, 0.0, 1.6635023516403952E9, 0.0, 2022-09-18 16:59:11.640
133.0, -42739.731698004216, -38375.82181403897, -44380.752072423944, -61042.815273143686, -59250.09360910578, -75853.59523935262, -64258.40428571752, -69168.36728672592, 0.422, -0.888, 0.23600000000000002, 192.0, 0.0, 0.0, 0.0, 0.0, 0.0, 0.0, 0.0, 0.0, 0.0, 1.6635023516444628E9, 0.0, 2022-09-18 16:59:11.644
134.0, -40983.935115806475, -37532.579902718055, -44417.99007868649, -61074.59945375913, -59280.26846412045, -75877.73512336434, -64294.39059429057, -69196.9328161398, 0.422, -0.888, 0.23600000000000002, 192.0, 0.0, 0.0, 0.0, 0.0, 0.0, 0.0, 0.0, 0.0, 0.0, 1.6635023516494827E9, 0.0, 2022-09-18 16:59:11.649
135.0, -42061.378605530095, -38895.14224471358, -44304.420865109074, -60956.135208146006, -59204.09371901676, -75718.47894412029, -64180.620215013056, -69079.49675077162, 0.422, -0.888, 0.23600000000000002, 192.0, 0.0, 0.0, 0.0, 0.0, 0.0, 0.0, 0.0, 0.0, 0.0, 1.6635023516534941E9, 0.0, 2022-09-18 16:59:11.653
136.0, -43824.66302212036, -39860.13410808255, -44265.03709137882, -60930.34129504458, -59144.928651443566, -75677.50819653372, -64145.34916226258, -69051.4453114802, 0.42, -0.888, 0.23600000000000002, 192.0, 13.0, 32.0, 228.0, 64.0, 7.0, 96.0, 0.0, 0.0, 0.0, 1.66350235165744E9, 0.0, 2022-09-18 16:59:11.657
137.0, -43862.750394672206, -39351.09547985739, -44309.807635522804, -60978.554007834675, -59186.72641357499, -75738.23788621878, -64187.43749707193, -69099.0098236811, 0.42, -0.888, 0.23600000000000002, 192.0, 0.0, 0.0, 0.0, 0.0, 0.0, 0.0, 0.0, 0.0, 0.0, 1.6635023516604893E9, 0.0, 2022-09-18 16:59:11.660
138.0, -42662.68523486677, -38323.96576690266, -44375.11943282121, -61045.58688945614, -59247.679620704606, -75822.3475006041, -64251.162320514006, -69167.38380996989, 0.42, -0.888, 0.23600000000000002, 192.0, 0.0, 0.0, 0.0, 0.0, 0.0, 0.0, 0.0, 0.0, 0.0, 1.6635023516645112E9, 0.0, 2022-09-18 16:59:11.664
