%OpenBCI Raw EEG Data
%Number of channels = 8
%Sample Rate = 250 Hz
%Board = OpenBCI_GUI$BoardCytonSerial
Sample Index, EXG Channel 0, EXG Channel 1, EXG Channel 2, EXG Channel 3, EXG Channel 4, EXG Channel 5, EXG Channel 6, EXG Channel 7, Accel Channel 0, Accel Channel 1, Accel Channel 2, Other, Other, Other, Other, Other, Other, Other, Analog Channel 0, Analog Channel 1, Analog Channel 2, Timestamp, Other, Timestamp (Formatted)
213.0, 4420.2139282481585, 7163.912911881556, 12244.643240528494, 3500.573754379005, 25623.235180763626, 187500.0, 17726.743844359382, 17043.115740193814, 0.0, 0.0, 0.0, 192.0, 0.0, 0.0, 0.0, 0.0, 0.0, 0.0, 0.0, 0.0, 0.0, 1.663580592525472E9, 0.0, 2022-09-19 14:43:12.525
214.0, 4412.457872922168, 7251.084715257253, 12154.521006884695, 3678.0019018652324, 25754.797548627565, 187500.0, 17502.287626539186, 17274.970385428715, 0.742, -0.666, 0.292, 192.0, 23.0, 48.0, 235.0, 48.0, 9.0, 32.0, 0.0, 0.0, 0.0, 1.6635805925255032E9, 0.0, 2022-09-19 14:43:12.525
0.0, 0.0, 0.0, 0.0, 0.0, 0.0, 0.0, 0.0, 0.0, 0.74, -0.662, 0.29, 192.0, 23.0, 32.0, 235.0, 80.0, 9.0, 16.0, 0.0, 0.0, 0.0, 1.663580592632935E9, 0.0, 2022-09-19 14:43:12.632
1.0, 6990.418671419463, 9340.726952639456, 11710.36949281329, 5097.0023986104015, 24970.72070487985, 187500.0, 17513.12822260001, 17574.260243685276, 0.74, -0.662, 0.29, 192.0, 0.0, 0.0, 0.0, 0.0, 0.0, 0.0, 0.0, 0.0, 0.0, 1.6635805926489012E9, 0.0, 2022-09-19 14:43:12.648
2.0, 6943.412952829952, 9308.138109223617, 11674.941977851628, 5061.776049348838, 24936.8354602856, 187500.0, 17405.884552703446, 17561.340935390108, 0.74, -0.662, 0.29, 192.0, 0.0, 0.0, 0.0, 0.0, 0.0, 0.0, 0.0, 0.0, 0.0, 1.663580592651876E9, 0.0, 2022-09-19 14:43:12.651
3.0, 6712.966467495736, 9165.511627854303, 11632.026628497439, 4935.175768753978, 24771.18668212732, 187500.0, 17162.429352096242, 17484.27212050821, 0.74, -0.662, 0.29, 192.0, 0.0, 0.0, 0.0, 0.0, 0.0, 0.0, 0.0, 0.0, 0.0, 1.663580592655944E9, 0.0, 2022-09-19 14:43:12.655
4.0, 6685.049138671057, 9152.033525947754, 11644.051867014394, 4921.764722080794, 24751.047760373087, 187500.0, 17165.78211376454, 17475.13025702599, 0.74, -0.662, 0.29, 192.0, 0.0, 0.0, 0.0, 0.0, 0.0, 0.0, 0.0, 0.0, 0.0, 1.663580592658912E9, 0.0, 2022-09-19 14:43:12.658
5.0, 6756.552369183585, 9197.899305570043, 11668.035288814937, 4962.2213795449, 24808.11176396749, 187500.0, 17270.14240862637, 17502.55584747265, 0.74, -0.662, 0.29, 192.0, 0.0, 0.0, 0.0, 0.0, 0.0, 0.0, 0.0, 0.0, 0.0, 1.663580592662916E9, 0.0, 2022-09-19 14:43:12.662
6.0, 6989.5693051301605, 9341.777484628856, 11705.74268171104, 5081.400880980597, 24977.873263105546, 187500.0, 17509.864867909535, 17581.52456063325, 0.74, -0.662, 0.29, 192.0, 0.0, 0.0, 0.0, 0.0, 0.0, 0.0, 0.0, 0.0, 0.0, 1.6635805926669235E9, 0.0, 2022-09-19 14:43:12.666
7.0, 6950.923138966935, 9316.050626760796, 11674.517294706977, 5055.04817426779, 24949.643009858493, 187500.0, 17416.166355152887, 17569.968708749857, 0.74, -0.662, 0.29, 192.0, 0.0, 0.0, 0.0, 0.0, 0.0, 0.0, 0.0, 0.0, 0.0, 1.6635805926708987E9, 0.0, 2022-09-19 14:43:12.670
8.0, 6714.195813440778, 9169.646700578536, 11631.043151741404, 4931.443027429942, 24779.881510720435, 187500.0, 17170.230110911147, 17490.776478144704, 0.738, -0.652, 0.292, 192.0, 23.0, 16.0, 235.0, 160.0, 9.0, 32.0, 0.0, 0.0, 0.0, 1.6635805926759448E9, 0.0, 2022-09-19 14:43:12.675
9.0, 6678.589484523473, 9149.597185802126, 11647.87401531625, 4917.093207489635, 24754.33346680802, 187500.0, 17173.15818943479, 17475.89021633747, 0.738, -0.652, 0.292, 192.0, 0.0, 0.0, 0.0, 0.0, 0.0, 0.0, 0.0, 0.0, 0.0, 1.6635805926789584E9, 0.0, 2022-09-19 14:43:12.678
10.0, 6747.745781868194, 9194.233619479373, 11668.482323704044, 4953.817123629704, 24804.714298810282, 187500.0, 17271.75173422715, 17495.716213669326, 0.738, -0.652, 0.292, 192.0, 0.0, 0.0, 0.0, 0.0, 0.0, 0.0, 0.0, 0.0, 0.0, 1.6635805926829348E9, 0.0, 2022-09-19 14:43:12.682
11.0, 6979.958055014379, 9337.687115393534, 11710.682417235663, 5072.1472587761, 24969.0443240457, 187500.0, 17511.317731299132, 17572.829732040136, 0.738, -0.652, 0.292, 192.0, 0.0, 0.0, 0.0, 0.0, 0.0, 0.0, 0.0, 0.0, 0.0, 1.6635805926878903E9, 0.0, 2022-09-19 14:43:12.687
12.0, 6955.237025646809, 9320.252754718394, 11684.776745411962, 5050.287252698809, 24947.787815068703, 187500.0, 17430.91850649339, 17567.599423837593, 0.738, -0.652, 0.292, 192.0, 0.0, 0.0, 0.0, 0.0, 0.0, 0.0, 0.0, 0.0, 0.0, 1.663580592691917E9, 0.0, 2022-09-19 14:43:12.691
13.0, 6715.0898832189905, 9172.060688979709, 11636.63108785523, 4919.596602868629, 24772.70660075028, 187500.0, 17174.387535379832, 17482.28281525169, 0.738, -0.652, 0.292, 192.0, 0.0, 0.0, 0.0, 0.0, 0.0, 0.0, 0.0, 0.0, 0.0, 1.663580592696926E9, 0.0, 2022-09-19 14:43:12.696
14.0, 6670.900484430848, 9148.18902590144, 11645.728247848541, 4898.027169469258, 24743.17994632482, 187500.0, 17169.06782019947, 17464.468474920806, 0.738, -0.652, 0.292, 192.0, 0.0, 0.0, 0.0, 0.0, 0.0, 0.0, 0.0, 0.0, 0.0, 1.6635805926999123E9, 0.0, 2022-09-19 14:43:12.699
15.0, 6736.90518580737, 9190.858506066621, 11670.806905127396, 4935.399286198532, 24795.77360102816, 187500.0, 17264.97915565719, 17489.100097310555, 0.738, -0.652, 0.292, 192.0, 0.0, 0.0, 0.0, 0.0, 0.0, 0.0, 0.0, 0.0, 0.0, 1.6635805927049296E9, 0.0, 2022-09-19 14:43:12.704
16.0, 6965.742345540803, 9331.920365324064, 11713.588144014853, 5052.947110288991, 24962.495262920293, 187500.0, 17503.360510273043, 17568.292327915708, 0.738, -0.652, 0.292, 192.0, 0.0, 0.0, 0.0, 0.0, 0.0, 0.0, 0.0, 0.0, 0.0, 1.663580592708003E9, 0.0, 2022-09-19 14:43:12.708
17.0, 6950.990194200301, 9319.6492576181, 11686.676643690664, 5036.250357180877, 24953.107530249064, 187500.0, 17430.136195437455, 17565.14073194751, 0.738, -0.652, 0.292, 192.0, 0.0, 0.0, 0.0, 0.0, 0.0, 0.0, 0.0, 0.0, 0.0, 1.6635805927119591E9, 0.0, 2022-09-19 14:43:12.711
18.0, 6715.045179730079, 9173.468848880393, 11645.661192615175, 4909.180689952456, 24782.407257843883, 187500.0, 17169.62661381085, 17485.054431564145, 0.736, -0.654, 0.294, 192.0, 23.0, 0.0, 235.0, 144.0, 9.0, 48.0, 0.0, 0.0, 0.0, 1.6635805927149556E9, 0.0, 2022-09-19 14:43:12.714
19.0, 6669.626434996896, 9147.607880545602, 11658.066410787871, 4891.589867066129, 24751.047760373087, 187500.0, 17161.289413129023, 17470.212873245822, 0.736, -0.654, 0.294, 192.0, 0.0, 0.0, 0.0, 0.0, 0.0, 0.0, 0.0, 0.0, 0.0, 1.6635805927191017E9, 0.0, 2022-09-19 14:43:12.719
20.0, 6730.423179915331, 9187.304578698227, 11678.227684286558, 4925.922146549481, 24796.220635917263, 187500.0, 17250.60698397243, 17490.08357406659, 0.736, -0.654, 0.294, 192.0, 0.0, 0.0, 0.0, 0.0, 0.0, 0.0, 0.0, 0.0, 0.0, 1.663580592722944E9, 0.0, 2022-09-19 14:43:12.722
21.0, 6957.80747625917, 9330.355743212192, 11719.332542339867, 5043.693488084494, 24960.03657103021, 187500.0, 17495.291530524675, 17564.805455780683, 0.736, -0.654, 0.294, 192.0, 0.0, 0.0, 0.0, 0.0, 0.0, 0.0, 0.0, 0.0, 0.0, 1.6635805927269747E9, 0.0, 2022-09-19 14:43:12.726
22.0, 6955.102915180078, 9325.572469898758, 11689.582370469854, 5033.4340373795085, 24956.75086459528, 187500.0, 17438.40634088592, 17564.984269736324, 0.736, -0.654, 0.294, 192.0, 0.0, 0.0, 0.0, 0.0, 0.0, 0.0, 0.0, 0.0, 0.0, 1.6635805927310016E9, 0.0, 2022-09-19 14:43:12.731
23.0, 6713.659371573851, 9173.9158837695, 11646.10822750428, 4904.509175361297, 24781.82611248805, 187500.0, 17174.611052824384, 17483.914492596923, 0.736, -0.654, 0.294, 192.0, 0.0, 0.0, 0.0, 0.0, 0.0, 0.0, 0.0, 0.0, 0.0, 1.663580592734156E9, 0.0, 2022-09-19 14:43:12.734
24.0, 6669.067641385513, 9147.652584034513, 11661.106248033793, 4884.996102451814, 24748.298495805087, 187500.0, 17164.418657352766, 17470.101114523546, 0.736, -0.654, 0.294, 192.0, 0.0, 0.0, 0.0, 0.0, 0.0, 0.0, 0.0, 0.0, 0.0, 1.6635805927380447E9, 0.0, 2022-09-19 14:43:12.738
25.0, 6727.80802581406, 9185.024700763786, 11682.16159131069, 4918.903698790515, 24793.314909138073, 187500.0, 17252.03749561757, 17490.08357406659, 0.736, -0.654, 0.294, 192.0, 0.0, 0.0, 0.0, 0.0, 0.0, 0.0, 0.0, 0.0, 0.0, 1.663580592743004E9, 0.0, 2022-09-19 14:43:12.743
26.0, 6955.192322157899, 9325.79598734331, 11722.953524941628, 5037.256185681365, 24958.963687296357, 187500.0, 17492.229341534297, 17567.33120290413, 0.736, -0.654, 0.294, 192.0, 0.0, 0.0, 0.0, 0.0, 0.0, 0.0, 0.0, 0.0, 0.0, 1.6635805927471943E9, 0.0, 2022-09-19 14:43:12.747
27.0, 6966.211732174365, 9328.522900166858, 11699.864172919295, 5035.289232169299, 24964.95395481038, 187500.0, 17447.74937006824, 17573.679098329438, 0.736, -0.654, 0.294, 192.0, 0.0, 0.0, 0.0, 0.0, 0.0, 0.0, 0.0, 0.0, 0.0, 1.6635805927510588E9, 0.0, 2022-09-19 14:43:12.751
28.0, 6721.99657225568, 9177.20159020443, 11647.181111238137, 4900.910544503992, 24788.509284080184, 187500.0, 17176.846227269918, 17490.1282775555, 0.734, -0.654, 0.304, 192.0, 22.0, 240.0, 235.0, 144.0, 9.0, 128.0, 0.0, 0.0, 0.0, 1.6635805927550683E9, 0.0, 2022-09-19 14:43:12.755
29.0, 6666.921873917803, 9145.57387180017, 11655.719477620063, 4874.088451157624, 24749.617248727947, 187500.0, 17157.06493342697, 17468.26827147821, 0.734, -0.654, 0.304, 192.0, 0.0, 0.0, 0.0, 0.0, 0.0, 0.0, 0.0, 0.0, 0.0, 1.6635805927590675E9, 0.0, 2022-09-19 14:43:12.759
30.0, 6722.130682722412, 9183.05774725172, 11682.116887821781, 4906.342018406632, 24790.967975970267, 187500.0, 17243.65559144683, 17486.37318448701, 0.734, -0.654, 0.304, 192.0, 0.0, 0.0, 0.0, 0.0, 0.0, 0.0, 0.0, 0.0, 0.0, 1.663580592764098E9, 0.0, 2022-09-19 14:43:12.764
31.0, 6950.252586633276, 9325.170138498563, 11723.266449364, 5024.292173897287, 24957.153195995474, 187500.0, 17482.26046350723, 17560.51392084526, 0.734, -0.654, 0.304, 192.0, 0.0, 0.0, 0.0, 0.0, 0.0, 0.0, 0.0, 0.0, 0.0, 1.66358059276707E9, 0.0, 2022-09-19 14:43:12.767
32.0, 6974.213656689365, 9337.016563059875, 11698.903047907717, 5025.23094716441, 24973.626431659035, 187500.0, 17449.850434047035, 17566.95122324839, 0.734, -0.654, 0.304, 192.0, 0.0, 0.0, 0.0, 0.0, 0.0, 0.0, 0.0, 0.0, 0.0, 1.6635805927720687E9, 0.0, 2022-09-19 14:43:12.772
33.0, 6730.490235148697, 9185.471735652893, 11653.149027007703, 4891.29929438821, 24796.488856850727, 187500.0, 17180.198988938213, 17483.333347241085, 0.734, -0.654, 0.304, 192.0, 0.0, 0.0, 0.0, 0.0, 0.0, 0.0, 0.0, 0.0, 0.0, 1.6635805927751875E9, 0.0, 2022-09-19 14:43:12.775
34.0, 6672.174533864801, 9153.24052014834, 11664.570768424364, 4863.650186496996, 24755.495757519693, 187500.0, 17157.06493342697, 17461.830969075083, 0.734, -0.654, 0.304, 192.0, 0.0, 0.0, 0.0, 0.0, 0.0, 0.0, 0.0, 0.0, 0.0, 1.6635805927790635E9, 0.0, 2022-09-19 14:43:12.779
35.0, 6723.494139134185, 9186.857543809121, 11683.16741981118, 4893.713282789384, 24793.694888793816, 187500.0, 17237.93354486627, 17479.42179196141, 0.734, -0.654, 0.304, 192.0, 0.0, 0.0, 0.0, 0.0, 0.0, 0.0, 0.0, 0.0, 0.0, 1.6635805927830896E9, 0.0, 2022-09-19 14:43:12.783
36.0, 6943.524711552229, 9323.381998942137, 11723.221745875091, 5007.885993467092, 24953.912193049455, 187500.0, 17477.521893682708, 17553.786045764213, 0.734, -0.654, 0.304, 192.0, 0.0, 0.0, 0.0, 0.0, 0.0, 0.0, 0.0, 0.0, 0.0, 1.6635805927861376E9, 0.0, 2022-09-19 14:43:12.786
37.0, 6975.755927056781, 9338.581185171746, 11702.613437487298, 5015.932621471003, 24977.448579960896, 187500.0, 17460.243995218756, 17563.687868557914, 0.734, -0.654, 0.304, 192.0, 0.0, 0.0, 0.0, 0.0, 0.0, 0.0, 0.0, 0.0, 0.0, 1.6635805927901127E9, 0.0, 2022-09-19 14:43:12.790
38.0, 6732.1889677273, 9183.191857718452, 11647.516387404965, 4882.425651839453, 24799.9533772413, 187500.0, 17186.837457041438, 17479.1759227724, 0.742, -0.654, 0.296, 192.0, 23.0, 48.0, 235.0, 144.0, 9.0, 64.0, 0.0, 0.0, 0.0, 1.6635805927940915E9, 0.0, 2022-09-19 14:43:12.794
39.0, 6664.574940749996, 9145.52916831126, 11658.804018354896, 4851.088506113113, 24753.640562729903, 187500.0, 17159.143645661312, 17455.840701561057, 0.742, -0.654, 0.296, 192.0, 0.0, 0.0, 0.0, 0.0, 0.0, 0.0, 0.0, 0.0, 0.0, 1.663580592798078E9, 0.0, 2022-09-19 14:43:12.798
40.0, 6712.765301795638, 9179.034433249764, 11681.69220467713, 4880.212829138378, 24791.102086437, 187500.0, 17234.379617497878, 17471.97866105779, 0.742, -0.654, 0.296, 192.0, 0.0, 0.0, 0.0, 0.0, 0.0, 0.0, 0.0, 0.0, 0.0, 1.663580592803112E9, 0.0, 2022-09-19 14:43:12.803
41.0, 6935.701600992871, 9316.497661649903, 11725.635734276264, 4994.363188071631, 24953.107530249064, 187500.0, 17473.83385584758, 17544.420664837442, 0.742, -0.654, 0.296, 192.0, 0.0, 0.0, 0.0, 0.0, 0.0, 0.0, 0.0, 0.0, 0.0, 1.6635805928071933E9, 0.0, 2022-09-19 14:43:12.807
42.0, 6979.421613147451, 9338.715295638478, 11711.040045146949, 5005.583763788195, 24983.349440497095, 187500.0, 17465.83193133258, 17558.144635933, 0.742, -0.654, 0.296, 192.0, 0.0, 0.0, 0.0, 0.0, 0.0, 0.0, 0.0, 0.0, 0.0, 1.6635805928111749E9, 0.0, 2022-09-19 14:43:12.811
43.0, 6722.667124589339, 9176.24046519285, 11652.59023339632, 4864.253683597289, 24794.924234738857, 187500.0, 17180.31074766049, 17467.530663911184, 0.742, -0.654, 0.296, 192.0, 0.0, 0.0, 0.0, 0.0, 0.0, 0.0, 0.0, 0.0, 0.0, 1.663580592814181E9, 0.0, 2022-09-19 14:43:12.814
44.0, 6638.669268926295, 9124.004438400798, 11654.177207252647, 4820.578374931619, 24733.054606086567, 187500.0, 17133.43913953771, 17434.83006177307, 0.742, -0.654, 0.296, 192.0, 0.0, 0.0, 0.0, 0.0, 0.0, 0.0, 0.0, 0.0, 0.0, 1.6635805928181741E9, 0.0, 2022-09-19 14:43:12.818
45.0, 6668.911179174326, 9144.500988066315, 11674.07025981787, 4837.6774594399285, 24756.546289509093, 187500.0, 17195.77815482356, 17445.31302992261, 0.742, -0.654, 0.296, 192.0, 0.0, 0.0, 0.0, 0.0, 0.0, 0.0, 0.0, 0.0, 0.0, 1.663580592822163E9, 0.0, 2022-09-19 14:43:12.822
46.0, 6867.372318192997, 9266.452105814471, 11715.666856249198, 4938.059143788712, 24899.530398789695, 187500.0, 17419.988503454748, 17507.920266141926, 0.742, -0.654, 0.296, 192.0, 0.0, 0.0, 0.0, 0.0, 0.0, 0.0, 0.0, 0.0, 0.0, 1.6635805928262188E9, 0.0, 2022-09-19 14:43:12.826
47.0, 6908.119548335022, 9286.54632407979, 11708.424891045677, 4948.475056704886, 24924.720814790824, 187500.0, 17421.19549765533, 17518.246772080278, 0.742, -0.654, 0.296, 192.0, 0.0, 0.0, 0.0, 0.0, 0.0, 0.0, 0.0, 0.0, 0.0, 1.6635805928311727E9, 0.0, 2022-09-19 14:43:12.831
48.0, 6638.1998822927335, 9117.589487742125, 11656.054753786893, 4801.489985166787, 24724.873867615923, 187500.0, 17128.946438902192, 17424.235334901256, 0.736, -0.656, 0.294, 192.0, 23.0, 0.0, 235.0, 128.0, 9.0, 48.0, 0.0, 0.0, 0.0, 1.6635805928351731E9, 0.0, 2022-09-19 14:43:12.835
49.0, 6537.415866543754, 9059.430248669416, 11663.676698646153, 4752.025574687192, 24650.107282412922, 187500.0, 17073.938795797683, 17388.181971094844, 0.736, -0.656, 0.294, 192.0, 0.0, 0.0, 0.0, 0.0, 0.0, 0.0, 0.0, 0.0, 0.0, 1.6635805928391576E9, 0.0, 2022-09-19 14:43:12.839
50.0, 6557.644195275807, 9073.377737209528, 11685.894332634727, 4766.107173694036, 24662.445445352252, 187500.0, 17133.372084304345, 17393.412279297387, 0.736, -0.656, 0.294, 192.0, 0.0, 0.0, 0.0, 0.0, 0.0, 0.0, 0.0, 0.0, 0.0, 1.6635805928421743E9, 0.0, 2022-09-19 14:43:12.842
51.0, 6748.952776068781, 9190.076195010686, 11730.441359334154, 4866.891189443015, 24797.829961518048, 187500.0, 17357.940060846813, 17456.243032961254, 0.736, -0.656, 0.294, 192.0, 0.0, 0.0, 0.0, 0.0, 0.0, 0.0, 0.0, 0.0, 0.0, 1.6635805928471699E9, 0.0, 2022-09-19 14:43:12.847
52.0, 6796.092605125023, 9216.317143001217, 11721.83593771886, 4884.392605351521, 24829.569438644583, 187500.0, 17371.30640403109, 17471.464570935317, 0.736, -0.656, 0.294, 192.0, 0.0, 0.0, 0.0, 0.0, 0.0, 0.0, 0.0, 0.0, 0.0, 1.663580592852202E9, 0.0, 2022-09-19 14:43:12.852
53.0, 6528.653982717274, 9050.064867742643, 11669.085820804337, 4741.564958282109, 24634.617523505392, 187500.0, 17081.62779589031, 17376.939043633825, 0.736, -0.656, 0.294, 192.0, 0.0, 0.0, 0.0, 0.0, 0.0, 0.0, 0.0, 0.0, 0.0, 1.6635805928562324E9, 0.0, 2022-09-19 14:43:12.856
54.0, 6422.46084481011, 8985.982416389277, 11675.701937163109, 4687.920771589372, 24554.86649928886, 187500.0, 17024.720254507098, 17336.683551869817, 0.736, -0.656, 0.294, 192.0, 0.0, 0.0, 0.0, 0.0, 0.0, 0.0, 0.0, 0.0, 0.0, 1.663580592859208E9, 0.0, 2022-09-19 14:43:12.859
55.0, 6433.949641460138, 8995.012521149221, 11694.969140883582, 4694.648646670419, 24562.019057514557, 187500.0, 17081.180761001204, 17338.225822237233, 0.736, -0.656, 0.294, 192.0, 0.0, 0.0, 0.0, 0.0, 0.0, 0.0, 0.0, 0.0, 0.0, 1.6635805928642385E9, 0.0, 2022-09-19 14:43:12.864
56.0, 6614.484681425653, 9108.067644604165, 11736.856309992829, 4788.213048960334, 24691.435657910784, 187500.0, 17301.2336851637, 17397.882628188447, 0.736, -0.656, 0.294, 192.0, 0.0, 0.0, 0.0, 0.0, 0.0, 0.0, 0.0, 0.0, 0.0, 1.6635805928681877E9, 0.0, 2022-09-19 14:43:12.868
57.0, 6668.039461140569, 9139.650659519513, 11729.256716878024, 4808.530784670208, 24726.46084147225, 187500.0, 17327.117005242944, 17417.619218542484, 0.736, -0.656, 0.294, 192.0, 0.0, 0.0, 0.0, 0.0, 0.0, 0.0, 0.0, 0.0, 0.0, 1.6635805928712409E9, 0.0, 2022-09-19 14:43:12.871
58.0, 6392.420100262178, 8968.324538269584, 11669.711669649085, 4658.63998635292, 24521.80826923946, 187500.0, 17031.51518482151, 17320.210316206256, 0.736, -0.658, 0.296, 192.0, 23.0, 0.0, 235.0, 112.0, 9.0, 64.0, 0.0, 0.0, 0.0, 1.6635805928742514E9, 0.0, 2022-09-19 14:43:12.874
59.0, 6261.125953331703, 8889.37817685344, 11666.157742280691, 4593.864630921439, 24424.444070392143, 187500.0, 16956.5027304295, 17272.3775830719, 0.736, -0.658, 0.296, 192.0, 0.0, 0.0, 0.0, 0.0, 0.0, 0.0, 0.0, 0.0, 0.0, 1.6635805928782563E9, 0.0, 2022-09-19 14:43:12.878
60.0, 6260.678918442598, 8890.361653609474, 11684.799097156418, 4600.078415880014, 24422.275951179978, 187500.0, 17008.917571177193, 17275.953862184746, 0.736, -0.658, 0.296, 192.0, 0.0, 0.0, 0.0, 0.0, 0.0, 0.0, 0.0, 0.0, 0.0, 1.663580592882246E9, 0.0, 2022-09-19 14:43:12.882
61.0, 6425.523033800488, 8995.616018249515, 11724.22757437558, 4688.971303578771, 24538.61678106985, 187500.0, 17221.88499234736, 17332.95081054578, 0.736, -0.658, 0.296, 192.0, 0.0, 0.0, 0.0, 0.0, 0.0, 0.0, 0.0, 0.0, 0.0, 1.6635805928862271E9, 0.0, 2022-09-19 14:43:12.886
62.0, 6477.312025703433, 9026.662591297936, 11722.148862141235, 4709.199632310824, 24569.842168073916, 187500.0, 17255.479664263687, 17350.89926134339, 0.736, -0.658, 0.296, 192.0, 0.0, 0.0, 0.0, 0.0, 0.0, 0.0, 0.0, 0.0, 0.0, 1.6635805928912919E9, 0.0, 2022-09-19 14:43:12.891
63.0, 6194.517754854889, 8849.457961256261, 11664.771934124463, 4556.38075546989, 24356.53947073692, 187500.0, 16955.899233329204, 17253.89269040736, 0.736, -0.658, 0.296, 192.0, 0.0, 0.0, 0.0, 0.0, 0.0, 0.0, 0.0, 0.0, 0.0, 1.6635805928942597E9, 0.0, 2022-09-19 14:43:12.894
64.0, 6052.762991519331, 8765.661271293315, 11659.183998010636, 4486.5092023026, 24248.491138039964, 187500.0, 16871.14141835468, 17201.16492523729, 0.736, -0.658, 0.296, 192.0, 0.0, 0.0, 0.0, 0.0, 0.0, 0.0, 0.0, 0.0, 0.0, 1.6635805928982449E9, 0.0, 2022-09-19 14:43:12.898
65.0, 6052.584177563689, 8773.618492319405, 11689.26944604748, 4496.232211140658, 24247.12768162819, 187500.0, 16928.67480858264, 17208.988035796647, 0.736, -0.658, 0.296, 192.0, 0.0, 0.0, 0.0, 0.0, 0.0, 0.0, 0.0, 0.0, 0.0, 1.663580592902284E9, 0.0, 2022-09-19 14:43:12.902
66.0, 6223.642077880154, 8882.717357005758, 11733.503548324532, 4590.690683208786, 24367.044790630913, 187500.0, 17149.82296822345, 17270.902367937848, 0.736, -0.658, 0.296, 192.0, 0.0, 0.0, 0.0, 0.0, 0.0, 0.0, 0.0, 0.0, 0.0, 1.6635805929062135E9, 0.0, 2022-09-19 14:43:12.906
67.0, 6301.426148584623, 8928.627840116958, 11731.380132601278, 4629.20273890528, 24419.191410445146, 187500.0, 17211.267913731088, 17301.926589241815, 0.736, -0.658, 0.296, 192.0, 0.0, 0.0, 0.0, 0.0, 0.0, 0.0, 0.0, 0.0, 0.0, 1.6635805929102905E9, 0.0, 2022-09-19 14:43:12.910
68.0, 6035.95447968894, 8762.73319276967, 11674.226722029058, 4488.654969770309, 24220.864381893207, 187500.0, 16926.283171925923, 17214.88889633285, 0.74, -0.656, 0.292, 192.0, 23.0, 32.0, 235.0, 128.0, 9.0, 32.0, 0.0, 0.0, 0.0, 1.663580592914365E9, 0.0, 2022-09-19 14:43:12.914
69.0, 5902.000475168285, 8685.262046487576, 11676.081916818848, 4425.287774239513, 24121.57793302273, 187500.0, 16853.170615812614, 17170.92301498926, 0.74, -0.656, 0.292, 192.0, 0.0, 0.0, 0.0, 0.0, 0.0, 0.0, 0.0, 0.0, 0.0, 1.6635805929193404E9, 0.0, 2022-09-19 14:43:12.919
70.0, 5911.499966561791, 8697.063767559977, 11702.658140976208, 4439.369373246357, 24126.025930169337, 187500.0, 16916.87308751024, 17180.86954127187, 0.74, -0.656, 0.292, 192.0, 0.0, 0.0, 0.0, 0.0, 0.0, 0.0, 0.0, 0.0, 0.0, 1.6635805929232566E9, 0.0, 2022-09-19 14:43:12.923
71.0, 6091.878544316119, 8812.756396860648, 11748.680382809685, 4541.986232040672, 24254.481405553986, 187500.0, 17142.91627918676, 17247.902422893338, 0.74, -0.656, 0.292, 192.0, 0.0, 0.0, 0.0, 0.0, 0.0, 0.0, 0.0, 0.0, 0.0, 1.6635805929273987E9, 0.0, 2022-09-19 14:43:12.927
72.0, 6203.458452637012, 8880.258665115674, 11752.636641578274, 4599.407863546356, 24331.23729601351, 187500.0, 17230.64687617384, 17287.912045468336, 0.74, -0.656, 0.292, 192.0, 0.0, 0.0, 0.0, 0.0, 0.0, 0.0, 0.0, 0.0, 0.0, 1.663580592931327E9, 0.0, 2022-09-19 14:43:12.931
73.0, 5971.067365535184, 8737.25220409062, 11698.03132987396, 4477.344987075923, 24159.955878252495, 187500.0, 16966.516311945477, 17213.97247481018, 0.74, -0.656, 0.292, 192.0, 0.0, 0.0, 0.0, 0.0, 0.0, 0.0, 0.0, 0.0, 0.0, 1.663580592935286E9, 0.0, 2022-09-19 14:43:12.935
74.0, 5861.074431070618, 8674.28733996002, 11694.455050761111, 4425.488939939612, 24079.556653446754, 187500.0, 16898.231732634515, 17183.81997153997, 0.74, -0.656, 0.292, 192.0, 0.0, 0.0, 0.0, 0.0, 0.0, 0.0, 0.0, 0.0, 0.0, 1.663580592940476E9, 0.0, 2022-09-19 14:43:12.940
75.0, 5895.630227998523, 8702.986979840634, 11716.806795216418, 4452.288681541524, 24105.864656670652, 187500.0, 16977.938053362137, 17205.523515406076, 0.74, -0.656, 0.292, 192.0, 0.0, 0.0, 0.0, 0.0, 0.0, 0.0, 0.0, 0.0, 0.0, 1.6635805929443295E9, 0.0, 2022-09-19 14:43:12.944
76.0, 6098.15938450806, 8833.565870948538, 11762.918444027717, 4565.209694529735, 24251.70978924153, 187500.0, 17215.917076577793, 17280.67008026482, 0.74, -0.656, 0.292, 192.0, 0.0, 0.0, 0.0, 0.0, 0.0, 0.0, 0.0, 0.0, 0.0, 1.663580592948341E9, 0.0, 2022-09-19 14:43:12.948
77.0, 6244.451551968044, 8924.068084248076, 11766.070039995915, 4638.7469337876955, 24355.041903858415, 187500.0, 17324.680665097316, 17337.555269903572, 0.74, -0.656, 0.292, 192.0, 0.0, 0.0, 0.0, 0.0, 0.0, 0.0, 0.0, 0.0, 0.0, 1.6635805929513285E9, 0.0, 2022-09-19 14:43:12.951
78.0, 6031.707648242432, 8792.59512336196, 11708.22372534558, 4525.6918103327525, 24202.088916550747, 187500.0, 17068.149693983756, 17277.876112207905, 0.732, -0.658, 0.292, 192.0, 22.0, 224.0, 235.0, 112.0, 9.0, 32.0, 0.0, 0.0, 0.0, 1.6635805929554253E9, 0.0, 2022-09-19 14:43:12.955
79.0, 5930.945984237907, 8736.402837801319, 11700.55707699741, 4475.065109141482, 24127.903476703585, 187500.0, 16995.864152415295, 17250.942260139258, 0.732, -0.658, 0.292, 192.0, 0.0, 0.0, 0.0, 0.0, 0.0, 0.0, 0.0, 0.0, 0.0, 1.663580592958314E9, 0.0, 2022-09-19 14:43:12.958
80.0, 5972.7884498582425, 8768.209370161221, 11713.454033548122, 4501.283705387557, 24161.408741642088, 187500.0, 17067.27797595, 17273.830446461492, 0.732, -0.658, 0.292, 192.0, 0.0, 0.0, 0.0, 0.0, 0.0, 0.0, 0.0, 0.0, 0.0, 1.6635805929623847E9, 0.0, 2022-09-19 14:43:12.962
81.0, 6185.040615205839, 8903.549182838105, 11762.359650416332, 4617.289259110601, 24319.167354007644, 187500.0, 17299.110269440447, 17355.414313723366, 0.732, -0.658, 0.292, 192.0, 0.0, 0.0, 0.0, 0.0, 0.0, 0.0, 0.0, 0.0, 0.0, 1.6635805929664547E9, 0.0, 2022-09-19 14:43:12.966
82.0, 6349.571806141354, 9004.377902075996, 11769.71337434213, 4698.180222294357, 24438.145689743244, 187500.0, 17418.06625343159, 17416.948666208824, 0.732, -0.658, 0.292, 192.0, 0.0, 0.0, 0.0, 0.0, 0.0, 0.0, 0.0, 0.0, 0.0, 1.6635805929704697E9, 0.0, 2022-09-19 14:43:12.970
83.0, 6147.936719410029, 8879.65516801538, 11703.17223109868, 4586.600313973465, 24292.211150194544, 187500.0, 17153.689820014217, 17352.553290433087, 0.732, -0.658, 0.292, 192.0, 0.0, 0.0, 0.0, 0.0, 0.0, 0.0, 0.0, 0.0, 0.0, 1.6635805929754791E9, 0.0, 2022-09-19 14:43:12.975
84.0, 6047.800904250254, 8822.904088843357, 11695.259713561501, 4537.985269783172, 24222.89839063864, 187500.0, 17071.457752163144, 17322.51254588515, 0.732, -0.658, 0.292, 192.0, 0.0, 0.0, 0.0, 0.0, 0.0, 0.0, 0.0, 0.0, 0.0, 1.6635805929784384E9, 0.0, 2022-09-19 14:43:12.978
85.0, 6095.96891355144, 8858.08573461601, 11714.057530648415, 4568.405993986845, 24262.57273704681, 187500.0, 17138.33417157342, 17344.417255451353, 0.732, -0.658, 0.292, 192.0, 0.0, 0.0, 0.0, 0.0, 0.0, 0.0, 0.0, 0.0, 0.0, 1.6635805929814382E9, 0.0, 2022-09-19 14:43:12.981
86.0, 6307.05878818736, 8991.726814714291, 11756.27997592449, 4681.662283141885, 24418.78907904495, 187500.0, 17359.459979469775, 17423.095395934033, 0.732, -0.658, 0.292, 192.0, 0.0, 0.0, 0.0, 0.0, 0.0, 0.0, 0.0, 0.0, 0.0, 1.6635805929864264E9, 0.0, 2022-09-19 14:43:12.986
87.0, 6480.463621671632, 9096.690606676413, 11757.934005014182, 4763.782592270683, 24544.517641606053, 187500.0, 17483.378050729996, 17487.758992643237, 0.732, -0.658, 0.292, 192.0, 0.0, 0.0, 0.0, 0.0, 0.0, 0.0, 0.0, 0.0, 0.0, 1.6635805929904833E9, 0.0, 2022-09-19 14:43:12.990
88.0, 6286.562238521843, 8974.15834357242, 11697.025501373471, 4653.432029894832, 24404.059279448902, 187500.0, 17225.30480924902, 17427.58809656955, 0.732, -0.658, 0.292, 192.0, 0.0, 0.0, 0.0, 0.0, 0.0, 0.0, 0.0, 0.0, 0.0, 1.6635805929944713E9, 0.0, 2022-09-19 14:43:12.994
89.0, 6178.446850591523, 8909.76296779668, 11687.973044869072, 4599.676084479819, 24330.00795006847, 187500.0, 17131.136909858815, 17392.808782197095, 0.728, -0.658, 0.302, 192.0, 22.0, 192.0, 235.0, 112.0, 9.0, 112.0, 0.0, 0.0, 0.0, 1.663580592998458E9, 0.0, 2022-09-19 14:43:12.998
90.0, 6224.580851147277, 8942.418866445883, 11704.960370655104, 4628.2416138937015, 24369.995220899014, 187500.0, 17196.60516936841, 17414.06529117409, 0.728, -0.658, 0.302, 192.0, 0.0, 0.0, 0.0, 0.0, 0.0, 0.0, 0.0, 0.0, 0.0, 1.6635805930034204E9, 0.0, 2022-09-19 14:43:13.003
91.0, 6424.6513157667305, 9068.169780751441, 11738.398580360245, 4734.859434945516, 24521.160068650257, 187500.0, 17404.92342769187, 17484.629748419495, 0.728, -0.658, 0.302, 192.0, 0.0, 0.0, 0.0, 0.0, 0.0, 0.0, 0.0, 0.0, 0.0, 1.6635805930075047E9, 0.0, 2022-09-19 14:43:13.007
92.0, 6609.813166834494, 9179.10148848313, 11746.445208364155, 4826.032200578714, 24658.176262161287, 187500.0, 17539.547984546185, 17549.159234661965, 0.728, -0.658, 0.302, 192.0, 0.0, 0.0, 0.0, 0.0, 0.0, 0.0, 0.0, 0.0, 0.0, 1.6635805930115435E9, 0.0, 2022-09-19 14:43:13.011
93.0, 6424.874833211284, 9060.74900159228, 11686.475477990565, 4722.633030728463, 24523.84227798489, 187500.0, 17281.94412969877, 17489.591835688574, 0.728, -0.658, 0.302, 192.0, 0.0, 0.0, 0.0, 0.0, 0.0, 0.0, 0.0, 0.0, 0.0, 1.6635805930154805E9, 0.0, 2022-09-19 14:43:13.015
94.0, 6309.696294033086, 8992.486774025772, 11676.260730774491, 4664.831419567039, 24443.800681090437, 187500.0, 17176.1533231918, 17454.231375960277, 0.728, -0.658, 0.302, 192.0, 0.0, 0.0, 0.0, 0.0, 0.0, 0.0, 0.0, 0.0, 0.0, 1.663580593019484E9, 0.0, 2022-09-19 14:43:13.019
95.0, 6353.818637587862, 9024.40506510795, 11694.566809483387, 4694.067501314581, 24482.379792020296, 187500.0, 17235.676018676284, 17475.30907098163, 0.728, -0.658, 0.302, 192.0, 0.0, 0.0, 0.0, 0.0, 0.0, 0.0, 0.0, 0.0, 0.0, 1.6635805930245144E9, 0.0, 2022-09-19 14:43:13.024
96.0, 6547.451799804187, 9145.506816566804, 11728.98849594456, 4794.6503513634625, 24626.705005968215, 187500.0, 17440.038018231156, 17539.123301401534, 0.728, -0.658, 0.302, 192.0, 0.0, 0.0, 0.0, 0.0, 0.0, 0.0, 0.0, 0.0, 0.0, 1.6635805930284996E9, 0.0, 2022-09-19 14:43:13.028
97.0, 6737.508682907664, 9260.97592842292, 11743.360667629322, 4884.437308840431, 24767.118664636455, 187500.0, 17583.80443856769, 17600.38943295353, 0.728, -0.658, 0.302, 192.0, 0.0, 0.0, 0.0, 0.0, 0.0, 0.0, 0.0, 0.0, 0.0, 1.6635805930314949E9, 0.0, 2022-09-19 14:43:13.031
98.0, 6549.82108471645, 9142.891662465532, 11686.028443101459, 4776.925418010404, 24633.566991515996, 187500.0, 17323.741891830196, 17538.631563023515, 0.728, -0.658, 0.302, 192.0, 0.0, 0.0, 0.0, 0.0, 0.0, 0.0, 0.0, 0.0, 0.0, 1.6635805930344923E9, 0.0, 2022-09-19 14:43:13.034
99.0, 6422.706713999119, 9065.532274905716, 11670.225759771558, 4711.255992800712, 24543.064778216456, 187500.0, 17204.49533516113, 17493.883370623993, 0.736, -0.656, 0.304, 192.0, 23.0, 0.0, 235.0, 128.0, 9.0, 128.0, 0.0, 0.0, 0.0, 1.6635805930385814E9, 0.0, 2022-09-19 14:43:13.038
100.0, 6456.167275448714, 9089.202772283885, 11684.709690178597, 4732.668963988896, 24574.044296031512, 187500.0, 17260.88878642187, 17505.2827602962, 0.736, -0.656, 0.304, 192.0, 0.0, 0.0, 0.0, 0.0, 0.0, 0.0, 0.0, 0.0, 0.0, 1.66358059304256E9, 0.0, 2022-09-19 14:43:13.042
101.0, 6634.444789224242, 9200.380349204583, 11716.5162225385, 4824.154654044468, 24708.80296335256, 187500.0, 17454.991335271756, 17563.1961301799, 0.736, -0.656, 0.304, 192.0, 0.0, 0.0, 0.0, 0.0, 0.0, 0.0, 0.0, 0.0, 0.0, 1.663580593046481E9, 0.0, 2022-09-19 14:43:13.046
102.0, 6827.87678574047, 9316.967048283464, 11731.089559923359, 4915.014495255291, 24850.87065111049, 187500.0, 17604.97154056687, 17627.16682281099, 0.736, -0.656, 0.304, 192.0, 0.0, 0.0, 0.0, 0.0, 0.0, 0.0, 0.0, 0.0, 0.0, 1.6635805930506303E9, 0.0, 2022-09-19 14:43:13.050
103.0, 6645.195978307245, 9200.872087582598, 11673.220893528569, 4806.51912766923, 24721.61051292545, 187500.0, 17352.307421244077, 17566.303022659187, 0.736, -0.656, 0.304, 192.0, 0.0, 0.0, 0.0, 0.0, 0.0, 0.0, 0.0, 0.0, 0.0, 1.6635805930545273E9, 0.0, 2022-09-19 14:43:13.054
104.0, 6506.346941750878, 9114.236726073828, 11654.713649119574, 4731.149045365935, 24624.559238500507, 187500.0, 17222.108509791913, 17514.044644122678, 0.736, -0.656, 0.304, 192.0, 0.0, 0.0, 0.0, 0.0, 0.0, 0.0, 0.0, 0.0, 0.0, 1.6635805930585496E9, 0.0, 2022-09-19 14:43:13.058
105.0, 6537.684087477218, 9135.225014117363, 11669.689317904631, 4749.678641519385, 24649.235564379163, 187500.0, 17269.94124292627, 17521.174850603922, 0.736, -0.656, 0.304, 192.0, 0.0, 0.0, 0.0, 0.0, 0.0, 0.0, 0.0, 0.0, 0.0, 1.6635805930615509E9, 0.0, 2022-09-19 14:43:13.061
106.0, 6701.500022590163, 9237.439541511481, 11703.708672965608, 4834.637622194007, 24768.973859426245, 187500.0, 17446.74354156775, 17571.265109928263, 0.736, -0.656, 0.304, 192.0, 0.0, 0.0, 0.0, 0.0, 0.0, 0.0, 0.0, 0.0, 0.0, 1.6635805930656729E9, 0.0, 2022-09-19 14:43:13.065
107.0, 6880.604550910539, 9341.33044973975, 11716.627981260775, 4919.238974957344, 24897.138762132974, 187500.0, 17592.409860182986, 17625.266924532287, 0.736, -0.656, 0.304, 192.0, 0.0, 0.0, 0.0, 0.0, 0.0, 0.0, 0.0, 0.0, 0.0, 1.663580593070609E9, 0.0, 2022-09-19 14:43:13.070
108.0, 6689.27361837311, 9215.11014880063, 11653.663117130174, 4811.548270171675, 24757.172138353842, 187500.0, 17335.543612902595, 17558.837540011114, 0.736, -0.656, 0.304, 192.0, 0.0, 0.0, 0.0, 0.0, 0.0, 0.0, 0.0, 0.0, 0.0, 1.663580593074628E9, 0.0, 2022-09-19 14:43:13.074
109.0, 6534.376029297832, 9119.534089509736, 11642.263727457968, 4735.842911701549, 24646.93333470027, 187500.0, 17189.676128587264, 17504.969835873824, 0.736, -0.664, 0.298, 192.0, 23.0, 0.0, 235.0, 64.0, 9.0, 80.0, 0.0, 0.0, 0.0, 1.6635805930786552E9, 0.0, 2022-09-19 14:43:13.078
110.0, 6551.922148695248, 9134.129778639053, 11659.429867199644, 4753.299624121145, 24664.099474441944, 187500.0, 17230.401006984834, 17508.277894053208, 0.736, -0.664, 0.298, 192.0, 0.0, 0.0, 0.0, 0.0, 0.0, 0.0, 0.0, 0.0, 0.0, 1.6635805930825768E9, 0.0, 2022-09-19 14:43:13.082
111.0, 6706.149185436868, 9232.522157731313, 11696.399652528722, 4839.331488529621, 24777.691039763813, 187500.0, 17407.963264937793, 17559.731609789327, 0.736, -0.664, 0.298, 192.0, 0.0, 0.0, 0.0, 0.0, 0.0, 0.0, 0.0, 0.0, 0.0, 1.6635805930866191E9, 0.0, 2022-09-19 14:43:13.086
112.0, 6900.095272075567, 9350.964051599985, 11714.37045507079, 4937.232129243866, 24918.998768210266, 187500.0, 17575.66840358596, 17623.81406114269, 0.736, -0.664, 0.298, 192.0, 0.0, 0.0, 0.0, 0.0, 0.0, 0.0, 0.0, 0.0, 0.0, 1.6635805930915933E9, 0.0, 2022-09-19 14:43:13.091
113.0, 6724.90229903487, 9240.792303179778, 11659.854550344295, 4838.929157129426, 24790.789162014626, 187500.0, 17337.085883270014, 17564.38077263603, 0.736, -0.664, 0.298, 192.0, 0.0, 0.0, 0.0, 0.0, 0.0, 0.0, 0.0, 0.0, 0.0, 1.6635805930955448E9, 0.0, 2022-09-19 14:43:13.095
114.0, 6559.253520876589, 9140.43297057545, 11641.056733257383, 4752.316147365111, 24670.246204167153, 187500.0, 17183.909378517794, 17502.622902706018, 0.736, -0.664, 0.298, 192.0, 0.0, 0.0, 0.0, 0.0, 0.0, 0.0, 0.0, 0.0, 0.0, 1.6635805930995908E9, 0.0, 2022-09-19 14:43:13.099
115.0, 6568.708308781184, 9149.887758480043, 11657.060582287382, 4760.899217235949, 24678.136369959877, 187500.0, 17224.991884826646, 17501.03592884969, 0.736, -0.664, 0.298, 192.0, 0.0, 0.0, 0.0, 0.0, 0.0, 0.0, 0.0, 0.0, 0.0, 1.6635805931036618E9, 0.0, 2022-09-19 14:43:13.103
116.0, 6716.319229164033, 9243.07218111422, 11694.812678672395, 4839.95733737437, 24786.38586835693, 187500.0, 17397.21207585479, 17550.142711418, 0.736, -0.664, 0.298, 192.0, 0.0, 0.0, 0.0, 0.0, 0.0, 0.0, 0.0, 0.0, 0.0, 1.6635805931076767E9, 0.0, 2022-09-19 14:43:13.107
117.0, 6920.837690930091, 9366.856141907709, 11716.896202194239, 4940.607242656618, 24934.17560269542, 187500.0, 17575.310775674676, 17616.616799428084, 0.736, -0.664, 0.298, 192.0, 0.0, 0.0, 0.0, 0.0, 0.0, 0.0, 0.0, 0.0, 0.0, 1.6635805931126268E9, 0.0, 2022-09-19 14:43:13.112
118.0, 6753.378421470931, 9259.679527244512, 11662.894387590217, 4842.326622286632, 24812.112726224987, 187500.0, 17340.684514127315, 17555.03774345371, 0.736, -0.664, 0.298, 192.0, 0.0, 0.0, 0.0, 0.0, 0.0, 0.0, 0.0, 0.0, 0.0, 1.6635805931155684E9, 0.0, 2022-09-19 14:43:13.115
119.0, 6585.628579333852, 9156.19095041644, 11638.48628264502, 4752.22674038729, 24690.40747766584, 187500.0, 17182.255349428102, 17492.98930084578, 0.736, -0.66, 0.298, 192.0, 23.0, 0.0, 235.0, 96.0, 9.0, 80.0, 0.0, 0.0, 0.0, 1.6635805931187053E9, 0.0, 2022-09-19 14:43:13.118
120.0, 6599.777233574061, 9167.52328485528, 11653.104323518792, 4761.6591765474295, 24701.65040512686, 187500.0, 17224.12016679289, 17497.75022241476, 0.736, -0.66, 0.298, 192.0, 0.0, 0.0, 0.0, 0.0, 0.0, 0.0, 0.0, 0.0, 0.0, 1.6635805931216955E9, 0.0, 2022-09-19 14:43:13.121
121.0, 6737.978069541225, 9255.87973068711, 11680.97694885456, 4834.704677427373, 24804.87076102147, 187500.0, 17385.07507861556, 17543.861871226058, 0.736, -0.66, 0.298, 192.0, 0.0, 0.0, 0.0, 0.0, 0.0, 0.0, 0.0, 0.0, 0.0, 1.6635805931256924E9, 0.0, 2022-09-19 14:43:13.125
122.0, 6944.888167964002, 9380.446002536537, 11702.054643875916, 4933.789960597749, 24951.60996337056, 187500.0, 17570.28163317223, 17616.147412794522, 0.736, -0.66, 0.298, 192.0, 0.0, 0.0, 0.0, 0.0, 0.0, 0.0, 0.0, 0.0, 0.0, 1.6635805931306543E9, 0.0, 2022-09-19 14:43:13.130
123.0, 6782.1227648404565, 9273.537608806802, 11644.811826325873, 4836.716334428351, 24832.184592745853, 187500.0, 17344.35020021799, 17561.832673768124, 0.736, -0.66, 0.298, 192.0, 0.0, 0.0, 0.0, 0.0, 0.0, 0.0, 0.0, 0.0, 0.0, 1.6635805931346796E9, 0.0, 2022-09-19 14:43:13.134
124.0, 6601.0959864969245, 9160.95187198542, 11623.644724326698, 4741.542606537653, 24704.46672492823, 187500.0, 17174.946328991216, 17498.21960904832, 0.736, -0.66, 0.298, 192.0, 0.0, 0.0, 0.0, 0.0, 0.0, 0.0, 0.0, 0.0, 0.0, 1.663580593138628E9, 0.0, 2022-09-19 14:43:13.138
125.0, 6607.600344133419, 9167.702098810923, 11642.330782691335, 4750.3938973419545, 24713.876809343914, 187500.0, 17214.82184109948, 17500.32067302712, 0.736, -0.66, 0.298, 192.0, 0.0, 0.0, 0.0, 0.0, 0.0, 0.0, 0.0, 0.0, 0.0, 1.6635805931416204E9, 0.0, 2022-09-19 14:43:13.141
126.0, 6741.308479465066, 9250.716477717933, 11673.489114462032, 4822.344162743588, 24813.319720425574, 187500.0, 17373.11689533197, 17541.22436538033, 0.736, -0.66, 0.298, 192.0, 0.0, 0.0, 0.0, 0.0, 0.0, 0.0, 0.0, 0.0, 0.0, 1.6635805931456969E9, 0.0, 2022-09-19 14:43:13.145
127.0, 6954.789990757703, 9379.194304847038, 11699.864172919295, 4927.397361683531, 24967.70321937838, 187500.0, 17567.398258137495, 17608.39135746853, 0.736, -0.66, 0.298, 192.0, 0.0, 0.0, 0.0, 0.0, 0.0, 0.0, 0.0, 0.0, 0.0, 1.6635805931497028E9, 0.0, 2022-09-19 14:43:13.149
128.0, 6805.010951162691, 9283.215914155951, 11650.489169417522, 4840.158503074468, 24857.06208432461, 187500.0, 17349.66991539835, 17557.407028365975, 0.736, -0.66, 0.298, 192.0, 0.0, 0.0, 0.0, 0.0, 0.0, 0.0, 0.0, 0.0, 0.0, 1.663580593153692E9, 0.0, 2022-09-19 14:43:13.153
129.0, 6619.402065205821, 9171.43484013496, 11628.360942406767, 4743.84483621655, 24724.22566702672, 187500.0, 17169.58191032194, 17493.637501434983, 0.74, -0.658, 0.29, 192.0, 23.0, 32.0, 235.0, 112.0, 9.0, 16.0, 0.0, 0.0, 0.0, 1.66358059315877E9, 0.0, 2022-09-19 14:43:13.158
130.0, 6622.799530363028, 9174.608787847614, 11642.867224558262, 4748.650461274441, 24728.025463584123, 187500.0, 17204.204762483212, 17492.899893867958, 0.74, -0.658, 0.29, 192.0, 0.0, 0.0, 0.0, 0.0, 0.0, 0.0, 0.0, 0.0, 0.0, 1.6635805931626737E9, 0.0, 2022-09-19 14:43:13.162
131.0, 6753.534883682119, 9255.253881842362, 11676.730117408051, 4818.410255719454, 24823.71328159729, 187500.0, 17360.91284285937, 17535.345856588585, 0.74, -0.658, 0.29, 192.0, 0.0, 0.0, 0.0, 0.0, 0.0, 0.0, 0.0, 0.0, 0.0, 1.663580593166695E9, 0.0, 2022-09-19 14:43:13.166
132.0, 6967.351671141586, 9384.223447349483, 11704.155707854714, 4925.586870382652, 24977.56033868317, 187500.0, 17560.446865611895, 17603.496325432818, 0.74, -0.658, 0.29, 192.0, 0.0, 0.0, 0.0, 0.0, 0.0, 0.0, 0.0, 0.0, 0.0, 1.6635805931697786E9, 0.0, 2022-09-19 14:43:13.169
133.0, 6818.153776902411, 9289.005015969875, 11649.148064750203, 4842.5501397311855, 24870.607241464528, 187500.0, 17352.463883455264, 17551.70733352987, 0.74, -0.658, 0.29, 192.0, 0.0, 0.0, 0.0, 0.0, 0.0, 0.0, 0.0, 0.0, 0.0, 1.6635805931747077E9, 0.0, 2022-09-19 14:43:13.174
134.0, 6621.011390806603, 9167.590340088647, 11625.119939460748, 4742.5260832936865, 24729.634789184904, 187500.0, 17164.30689863049, 17481.545207684663, 0.74, -0.658, 0.29, 192.0, 0.0, 0.0, 0.0, 0.0, 0.0, 0.0, 0.0, 0.0, 0.0, 1.6635805931797433E9, 0.0, 2022-09-19 14:43:13.179
135.0, 6622.620716407385, 9172.552427357725, 11651.271480473457, 4749.253958374734, 24733.613399697948, 187500.0, 17197.253369957612, 17483.22158851881, 0.74, -0.658, 0.29, 192.0, 0.0, 0.0, 0.0, 0.0, 0.0, 0.0, 0.0, 0.0, 0.0, 1.6635805931837392E9, 0.0, 2022-09-19 14:43:13.183
136.0, 6746.76230511216, 9251.431733540503, 11683.726213422564, 4816.577412674119, 24824.58499963105, 187500.0, 17347.725313630737, 17524.549964016674, 0.74, -0.658, 0.29, 192.0, 0.0, 0.0, 0.0, 0.0, 0.0, 0.0, 0.0, 0.0, 0.0, 1.6635805931877208E9, 0.0, 2022-09-19 14:43:13.187
137.0, 6967.239912419309, 9385.318682827794, 11710.436548046655, 4927.68793436145, 24983.572957941647, 187500.0, 17557.42938011043, 17594.265054972777, 0.74, -0.658, 0.29, 192.0, 0.0, 0.0, 0.0, 0.0, 0.0, 0.0, 0.0, 0.0, 0.0, 1.6635805931917565E9, 0.0, 2022-09-19 14:43:13.191
138.0, 6832.436541609352, 9296.515202106859, 11659.631032899742, 4848.160427589468, 24883.437142781873, 187500.0, 17359.52703470314, 17543.95127820388, 0.74, -0.658, 0.29, 192.0, 0.0, 0.0, 0.0, 0.0, 0.0, 0.0, 0.0, 0.0, 0.0, 1.6635805931957524E9, 0.0, 2022-09-19 14:43:13.195
139.0, 6631.159082789312, 9172.731241313368, 11635.11116923227, 4743.554263538631, 24739.938943378802, 187500.0, 17169.514855088575, 17473.342117469565, 0.736, -0.658, 0.294, 192.0, 23.0, 0.0, 235.0, 112.0, 9.0, 48.0, 0.0, 0.0, 0.0, 1.6635805931988318E9, 0.0, 2022-09-19 14:43:13.198
140.0, 6629.058018810513, 9174.877008781077, 11652.277308973946, 4747.376411840488, 24743.80579516957, 187500.0, 17203.243637471634, 17470.74931511275, 0.736, -0.658, 0.294, 192.0, 0.0, 0.0, 0.0, 0.0, 0.0, 0.0, 0.0, 0.0, 0.0, 1.6635805932017798E9, 0.0, 2022-09-19 14:43:13.201
141.0, 6742.381363198921, 9246.626108482613, 11680.373451754267, 4808.888412581493, 24830.217639233786, 187500.0, 17345.490139185207, 17507.56263823064, 0.736, -0.658, 0.294, 192.0, 0.0, 0.0, 0.0, 0.0, 0.0, 0.0, 0.0, 0.0, 0.0, 1.6635805932057152E9, 0.0, 2022-09-19 14:43:13.205
142.0, 6971.866723521558, 9387.307988084316, 11714.392806815244, 4922.189405225445, 24996.0005278588, 187500.0, 17564.447827869397, 17583.312700189676, 0.736, -0.658, 0.294, 192.0, 0.0, 0.0, 0.0, 0.0, 0.0, 0.0, 0.0, 0.0, 0.0, 1.6635805932097225E9, 0.0, 2022-09-19 14:43:13.209
143.0, 6850.07206798459, 9306.349969667193, 11662.156780023191, 4847.5345787447195, 24905.11833490352, 187500.0, 17379.68830820183, 17542.47606306983, 0.736, -0.658, 0.294, 192.0, 0.0, 0.0, 0.0, 0.0, 0.0, 0.0, 0.0, 0.0, 0.0, 1.6635805932148125E9, 0.0, 2022-09-19 14:43:13.214
144.0, 6647.453504497231, 9182.096622240142, 11631.870166286251, 4740.425019314887, 24758.51324302116, 187500.0, 17179.327270904454, 17469.78819010117, 0.736, -0.658, 0.294, 192.0, 0.0, 0.0, 0.0, 0.0, 0.0, 0.0, 0.0, 0.0, 0.0, 1.6635805932187767E9, 0.0, 2022-09-19 14:43:13.218
145.0, 6651.454466754731, 9187.86337230961, 11654.02074504146, 4743.554263538631, 24763.028295401135, 187500.0, 17217.526402178573, 17471.084591279578, 0.736, -0.658, 0.294, 192.0, 0.0, 0.0, 0.0, 0.0, 0.0, 0.0, 0.0, 0.0, 0.0, 1.6635805932218E9, 0.0, 2022-09-19 14:43:13.221
146.0, 6773.29382578061, 9262.428791812516, 11684.173248311668, 4806.653238135963, 24852.390569733452, 187500.0, 17363.01390683817, 17512.301208055163, 0.736, -0.658, 0.294, 192.0, 0.0, 0.0, 0.0, 0.0, 0.0, 0.0, 0.0, 0.0, 0.0, 1.6635805932258394E9, 0.0, 2022-09-19 14:43:13.225
147.0, 7013.888003097535, 9407.603372049734, 11713.722254481585, 4927.576175639174, 25027.42708056296, 187500.0, 17587.000738024803, 17593.05806077219, 0.736, -0.658, 0.294, 192.0, 0.0, 0.0, 0.0, 0.0, 0.0, 0.0, 0.0, 0.0, 0.0, 1.6635805932298663E9, 0.0, 2022-09-19 14:43:13.229
148.0, 6912.813414670636, 9339.587013672235, 11665.688355647131, 4865.7288987313395, 24955.342704694594, 187500.0, 17415.339340608043, 17559.821016767146, 0.736, -0.658, 0.294, 192.0, 0.0, 0.0, 0.0, 0.0, 0.0, 0.0, 0.0, 0.0, 0.0, 1.6635805932338798E9, 0.0, 2022-09-19 14:43:13.233
149.0, 6708.741987793683, 9211.332703987682, 11634.664134343164, 4756.7864962561725, 24807.28474942264, 187500.0, 17206.730509606663, 17487.78134438769, 0.736, -0.66, 0.28600000000000003, 192.0, 23.0, 0.0, 235.0, 96.0, 8.0, 240.0, 0.0, 0.0, 0.0, 1.6635805932377872E9, 0.0, 2022-09-19 14:43:13.237
150.0, 6711.647714572873, 9217.479433712893, 11649.103361261292, 4759.960443968826, 24814.347900670517, 187500.0, 17240.99573385665, 17489.435373477387, 0.736, -0.66, 0.28600000000000003, 192.0, 0.0, 0.0, 0.0, 0.0, 0.0, 0.0, 0.0, 0.0, 0.0, 1.6635805932419388E9, 0.0, 2022-09-19 14:43:13.241
151.0, 6834.291736399143, 9298.12452770764, 11680.97694885456, 4824.601688933574, 24908.806372738647, 187500.0, 17386.080907116044, 17531.94839143138, 0.736, -0.66, 0.28600000000000003, 192.0, 0.0, 0.0, 0.0, 0.0, 0.0, 0.0, 0.0, 0.0, 0.0, 1.6635805932458365E9, 0.0, 2022-09-19 14:43:13.245
152.0, 7085.25712314333, 9452.910358060642, 11715.51039403801, 4953.437143973964, 25091.867159827612, 187500.0, 17623.38937799804, 17616.750909894814, 0.736, -0.66, 0.28600000000000003, 192.0, 0.0, 0.0, 0.0, 0.0, 0.0, 0.0, 0.0, 0.0, 0.0, 1.6635805932507951E9, 0.0, 2022-09-19 14:43:13.250
153.0, 7004.455566937396, 9399.221467878993, 11666.78359112544, 4904.598582339118, 25035.04902542222, 187500.0, 17468.000050544746, 17592.745136349815, 0.736, -0.66, 0.28600000000000003, 192.0, 0.0, 0.0, 0.0, 0.0, 0.0, 0.0, 0.0, 0.0, 0.0, 1.6635805932549045E9, 0.0, 2022-09-19 14:43:13.254
154.0, 6812.163509388389, 9281.69599553299, 11633.323029675847, 4804.261601479245, 24897.719907488812, 187500.0, 17261.246414333156, 17529.9367344304, 0.736, -0.66, 0.28600000000000003, 192.0, 0.0, 0.0, 0.0, 0.0, 0.0, 0.0, 0.0, 0.0, 0.0, 1.6635805932588909E9, 0.0, 2022-09-19 14:43:13.258
155.0, 6829.776684019171, 9296.60460908468, 11653.461951430078, 4819.438435964398, 24912.896741973967, 187500.0, 17297.992682217682, 17533.691827498893, 0.736, -0.66, 0.28600000000000003, 192.0, 0.0, 0.0, 0.0, 0.0, 0.0, 0.0, 0.0, 0.0, 0.0, 1.663580593261917E9, 0.0, 2022-09-19 14:43:13.261
156.0, 6962.613101317061, 9382.658825237611, 11683.390937255734, 4895.63553281254, 25015.625359490557, 187500.0, 17444.731884566772, 17582.306871689187, 0.736, -0.66, 0.28600000000000003, 192.0, 0.0, 0.0, 0.0, 0.0, 0.0, 0.0, 0.0, 0.0, 0.0, 1.6635805932680223E9, 0.0, 2022-09-19 14:43:13.268
157.0, 7226.05076146731, 9543.211405660082, 11712.93994342565, 5030.573014089228, 25209.437335662526, 187500.0, 17687.672995051504, 17671.065648921212, 0.736, -0.66, 0.28600000000000003, 192.0, 0.0, 0.0, 0.0, 0.0, 0.0, 0.0, 0.0, 0.0, 0.0, 1.6635805932709584E9, 0.0, 2022-09-19 14:43:13.270
158.0, 7171.691318952003, 9504.364073796758, 11667.387088225734, 4993.290304337776, 25172.489902077905, 187500.0, 17550.142711418, 17655.039448146756, 0.736, -0.66, 0.28600000000000003, 192.0, 0.0, 0.0, 0.0, 0.0, 0.0, 0.0, 0.0, 0.0, 0.0, 1.6635805932759192E9, 0.0, 2022-09-19 14:43:13.275
159.0, 6985.657749850482, 9390.839563708254, 11624.91877376065, 4894.942628734426, 25041.82160399218, 187500.0, 17340.61745889395, 17591.135810749034, 0.738, -0.658, 0.28800000000000003, 192.0, 23.0, 16.0, 235.0, 112.0, 9.0, 0.0, 0.0, 0.0, 0.0, 1.6635805932789433E9, 0.0, 2022-09-19 14:43:13.278
160.0, 7001.549840158205, 9403.960037703519, 11632.987753509016, 4907.236088184844, 25059.881813512067, 187500.0, 17370.971127864257, 17594.354461950596, 0.738, -0.658, 0.28800000000000003, 192.0, 0.0, 0.0, 0.0, 0.0, 0.0, 0.0, 0.0, 0.0, 0.0, 1.6635805932829115E9, 0.0, 2022-09-19 14:43:13.282
161.0, 7130.6758678765145, 9485.454497987568, 11665.464838202577, 4977.107641352134, 25159.816462971743, 187500.0, 17502.779364917205, 17642.29895380723, 0.738, -0.658, 0.28800000000000003, 192.0, 0.0, 0.0, 0.0, 0.0, 0.0, 0.0, 0.0, 0.0, 0.0, 1.6635805932859776E9, 0.0, 2022-09-19 14:43:13.285
162.0, 7388.458536679571, 9641.112046374326, 11703.283989820957, 5107.552421993306, 25350.58860189779, 187500.0, 17741.384236977607, 17728.353169960163, 0.738, -0.658, 0.28800000000000003, 192.0, 0.0, 0.0, 0.0, 0.0, 0.0, 0.0, 0.0, 0.0, 0.0, 1.6635805932900114E9, 0.0, 2022-09-19 14:43:13.290
163.0, 7329.874614462211, 9599.202525520626, 11658.066410787871, 5064.033575538823, 25309.550799077846, 187500.0, 17603.54102892173, 17706.806088305246, 0.738, -0.658, 0.28800000000000003, 192.0, 0.0, 0.0, 0.0, 0.0, 0.0, 0.0, 0.0, 0.0, 0.0, 1.6635805932938688E9, 0.0, 2022-09-19 14:43:13.293
164.0, 7118.069484003721, 9465.986128566996, 11617.185070179114, 4950.419658472498, 25158.855337960165, 187500.0, 17365.91963361736, 17628.105596078112, 0.738, -0.658, 0.28800000000000003, 192.0, 0.0, 0.0, 0.0, 0.0, 0.0, 0.0, 0.0, 0.0, 0.0, 1.6635805932978876E9, 0.0, 2022-09-19 14:43:13.297
165.0, 7112.682713589992, 9464.287395988393, 11631.423131397145, 4950.93374859497, 25157.961268181953, 187500.0, 17380.828247169047, 17621.735348908347, 0.738, -0.658, 0.28800000000000003, 192.0, 0.0, 0.0, 0.0, 0.0, 0.0, 0.0, 0.0, 0.0, 0.0, 1.663580593302931E9, 0.0, 2022-09-19 14:43:13.302
166.0, 7214.405502606095, 9526.380542085237, 11655.227739242047, 5004.42147307652, 25236.32648424226, 187500.0, 17494.710385168837, 17653.564233012705, 0.738, -0.658, 0.28800000000000003, 192.0, 0.0, 0.0, 0.0, 0.0, 0.0, 0.0, 0.0, 0.0, 0.0, 1.66358059330591E9, 0.0, 2022-09-19 14:43:13.305
167.0, 7465.281482372461, 9678.037128214495, 11690.275274547968, 5128.853634459214, 25420.616617276268, 187500.0, 17730.923620572525, 17732.398835706572, 0.738, -0.658, 0.28800000000000003, 192.0, 0.0, 0.0, 0.0, 0.0, 0.0, 0.0, 0.0, 0.0, 0.0, 1.663580593309989E9, 0.0, 2022-09-19 14:43:13.309
168.0, 7415.079464325841, 9641.916709174719, 11652.16555025167, 5091.973256107957, 25385.83730290381, 187500.0, 17603.183401010443, 17714.383329675595, 0.738, -0.658, 0.28800000000000003, 192.0, 0.0, 0.0, 0.0, 0.0, 0.0, 0.0, 0.0, 0.0, 0.0, 1.6635805933139744E9, 0.0, 2022-09-19 14:43:13.313
169.0, 7197.32876984224, 9505.839288930809, 11612.379445121223, 4975.945350640458, 25229.50920218339, 187500.0, 17362.410409737877, 17638.387398527553, 0.742, -0.66, 0.29, 192.0, 23.0, 48.0, 235.0, 96.0, 9.0, 16.0, 0.0, 0.0, 0.0, 1.6635805933180332E9, 0.0, 2022-09-19 14:43:13.318
170.0, 7182.598970246193, 9498.865544660754, 11624.851718527285, 4968.323405781199, 25220.18852474553, 187500.0, 17373.072191843057, 17628.172651311477, 0.742, -0.66, 0.29, 192.0, 0.0, 0.0, 0.0, 0.0, 0.0, 0.0, 0.0, 0.0, 0.0, 1.663580593322018E9, 0.0, 2022-09-19 14:43:13.322
171.0, 7274.621102168692, 9557.918853511674, 11652.523178162954, 5014.367999359131, 25291.20001688004, 187500.0, 17483.89214085247, 17656.291145836254, 0.742, -0.66, 0.29, 192.0, 0.0, 0.0, 0.0, 0.0, 0.0, 0.0, 0.0, 0.0, 0.0, 1.6635805933259647E9, 0.0, 2022-09-19 14:43:13.325
172.0, 7520.53499466598, 9707.675541362232, 11691.83989665984, 5136.676745018572, 25472.360905690304, 187500.0, 17722.69817861297, 17734.499899685372, 0.742, -0.66, 0.29, 192.0, 0.0, 0.0, 0.0, 0.0, 0.0, 0.0, 0.0, 0.0, 0.0, 1.6635805933300397E9, 0.0, 2022-09-19 14:43:13.330
173.0, 7471.472915586582, 9670.795163010975, 11653.551358407898, 5098.097634088711, 25437.156908173194, 187500.0, 17597.975444552358, 17716.03735876529, 0.742, -0.66, 0.29, 192.0, 0.0, 0.0, 0.0, 0.0, 0.0, 0.0, 0.0, 0.0, 0.0, 1.663580593335042E9, 0.0, 2022-09-19 14:43:13.335
174.0, 7238.523034873371, 9523.810091472877, 11609.831346253319, 4967.429336002986, 25267.8647956687, 187500.0, 17344.1937380068, 17634.319381036687, 0.742, -0.66, 0.29, 192.0, 0.0, 0.0, 0.0, 0.0, 0.0, 0.0, 0.0, 0.0, 0.0, 1.6635805933390584E9, 0.0, 2022-09-19 14:43:13.339
175.0, 7212.706770027491, 9508.722663965544, 11619.755520791474, 4952.140742795556, 25249.514013470893, 187500.0, 17345.601897907483, 17620.170726796478, 0.742, -0.66, 0.29, 192.0, 0.0, 0.0, 0.0, 0.0, 0.0, 0.0, 0.0, 0.0, 0.0, 1.6635805933430195E9, 0.0, 2022-09-19 14:43:13.343
176.0, 7289.77558490939, 9554.834312776842, 11637.748675077997, 4990.049301391757, 25307.986176965976, 187500.0, 17441.826157787582, 17640.98020088437, 0.742, -0.66, 0.29, 192.0, 0.0, 0.0, 0.0, 0.0, 0.0, 0.0, 0.0, 0.0, 0.0, 1.6635805933460867E9, 0.0, 2022-09-19 14:43:13.346
177.0, 7522.792520855966, 9694.555067366966, 11679.434678487145, 5104.7584539363925, 25478.507635415514, 187500.0, 17675.93832921247, 17713.89159129758, 0.742, -0.66, 0.29, 192.0, 0.0, 0.0, 0.0, 0.0, 0.0, 0.0, 0.0, 0.0, 0.0, 1.6635805933510392E9, 0.0, 2022-09-19 14:43:13.351
178.0, 7472.702261531623, 9658.658165771743, 11645.012992025971, 5066.000529050891, 25442.074291953362, 187500.0, 17564.29136565821, 17693.73031779889, 0.742, -0.66, 0.29, 192.0, 0.0, 0.0, 0.0, 0.0, 0.0, 0.0, 0.0, 0.0, 0.0, 1.6635805933560371E9, 0.0, 2022-09-19 14:43:13.356
179.0, 7222.7203515434685, 9502.285361562415, 11598.051976925371, 4930.951289051925, 25262.120397343686, 187500.0, 17298.99851071817, 17602.57990391015, 0.738, -0.658, 0.292, 192.0, 23.0, 16.0, 235.0, 112.0, 9.0, 32.0, 0.0, 0.0, 0.0, 1.6635805933600972E9, 0.0, 2022-09-19 14:43:13.360
180.0, 7188.075147637743, 9483.152268308671, 11621.074273714337, 4912.913431276493, 25239.835708121744, 187500.0, 17297.05390895056, 17587.11249674708, 0.738, -0.658, 0.292, 192.0, 0.0, 0.0, 0.0, 0.0, 0.0, 0.0, 0.0, 0.0, 0.0, 1.6635805933630805E9, 0.0, 2022-09-19 14:43:13.363
181.0, 7253.990442036444, 9524.480643806535, 11642.420189669156, 4945.3905159700535, 25289.43422906807, 187500.0, 17390.35009030701, 17605.306816733697, 0.738, -0.658, 0.292, 192.0, 0.0, 0.0, 0.0, 0.0, 0.0, 0.0, 0.0, 0.0, 0.0, 1.663580593366083E9, 0.0, 2022-09-19 14:43:13.366
182.0, 7484.682796559668, 9664.223750141115, 11678.093573819826, 5060.6137586371615, 25455.12771071526, 187500.0, 17629.513755978795, 17678.464076335917, 0.738, -0.658, 0.292, 192.0, 0.0, 0.0, 0.0, 0.0, 0.0, 0.0, 0.0, 0.0, 0.0, 1.6635805933700464E9, 0.0, 2022-09-19 14:43:13.370
183.0, 7442.125075116763, 9633.110121859327, 11640.989678024016, 5028.337839643698, 25423.902323711198, 187500.0, 17530.026141408223, 17661.29793659424, 0.738, -0.658, 0.292, 192.0, 0.0, 0.0, 0.0, 0.0, 0.0, 0.0, 0.0, 0.0, 0.0, 1.6635805933740792E9, 0.0, 2022-09-19 14:43:13.374
184.0, 7188.455127293483, 9477.184352539105, 11597.716700758541, 4889.77937576525, 25240.640370922134, 187500.0, 17262.65457423384, 17571.443923883908, 0.738, -0.658, 0.292, 192.0, 0.0, 0.0, 0.0, 0.0, 0.0, 0.0, 0.0, 0.0, 0.0, 1.6635805933781743E9, 0.0, 2022-09-19 14:43:13.378
185.0, 7137.157873768553, 9448.39530568067, 11608.981979964015, 4860.118610873057, 25203.60353035969, 187500.0, 17256.194920086255, 17551.70733352987, 0.738, -0.658, 0.292, 192.0, 0.0, 0.0, 0.0, 0.0, 0.0, 0.0, 0.0, 0.0, 0.0, 1.6635805933821363E9, 0.0, 2022-09-19 14:43:13.382
186.0, 7195.8982581971, 9488.851963144776, 11641.436712913122, 4891.098128688112, 25248.776405903867, 187500.0, 17347.948831075293, 17572.91913901796, 0.738, -0.658, 0.292, 192.0, 0.0, 0.0, 0.0, 0.0, 0.0, 0.0, 0.0, 0.0, 0.0, 1.6635805933851757E9, 0.0, 2022-09-19 14:43:13.385
187.0, 7420.75680741749, 9626.449302011646, 11681.423983743667, 5004.063845165235, 25411.31829158286, 187500.0, 17586.933682791434, 17644.757645697315, 0.738, -0.658, 0.292, 192.0, 0.0, 0.0, 0.0, 0.0, 0.0, 0.0, 0.0, 0.0, 0.0, 1.6635805933891537E9, 0.0, 2022-09-19 14:43:13.389
188.0, 7389.866696580255, 9600.320112743391, 11646.3988001822, 4975.431260517987, 25385.904358137173, 187500.0, 17502.734661428294, 17631.458357746407, 0.738, -0.658, 0.292, 192.0, 0.0, 0.0, 0.0, 0.0, 0.0, 0.0, 0.0, 0.0, 0.0, 1.663580593393252E9, 0.0, 2022-09-19 14:43:13.393
189.0, 7129.670039376026, 9436.258308441438, 11596.442651324589, 4834.905843127471, 25194.908701766577, 187500.0, 17228.23288777267, 17540.956144446867, 0.738, -0.658, 0.292, 192.0, 0.0, 0.0, 0.0, 0.0, 0.0, 0.0, 0.0, 0.0, 0.0, 1.6635805933981788E9, 0.0, 2022-09-19 14:43:13.398
190.0, 7073.6789195154815, 9402.820098736298, 11608.132613674714, 4809.335447470599, 25156.039018158797, 187500.0, 17214.866544588393, 17521.55483025966, 0.732, -0.656, 0.292, 192.0, 22.0, 224.0, 235.0, 128.0, 9.0, 32.0, 0.0, 0.0, 0.0, 1.6635805934021688E9, 0.0, 2022-09-19 14:43:13.402
191.0, 7128.440693430984, 9439.611070109733, 11635.044113998903, 4840.694944941395, 25199.781382057834, 187500.0, 17305.56992358803, 17542.65487702547, 0.732, -0.656, 0.292, 192.0, 0.0, 0.0, 0.0, 0.0, 0.0, 0.0, 0.0, 0.0, 0.0, 1.663580593406135E9, 0.0, 2022-09-19 14:43:13.406
192.0, 7352.40517287316, 9576.627263620767, 11684.329710522856, 4954.398268985542, 25361.63036365871, 187500.0, 17547.773426505737, 17616.48268896135, 0.732, -0.656, 0.292, 192.0, 0.0, 0.0, 0.0, 0.0, 0.0, 0.0, 0.0, 0.0, 0.0, 1.6635805934102583E9, 0.0, 2022-09-19 14:43:13.410
193.0, 7331.238070873985, 9557.740039556033, 11659.385163710735, 4931.286565218755, 25344.21835472803, 187500.0, 17475.577291915095, 17609.24072375783, 0.732, -0.656, 0.292, 192.0, 0.0, 0.0, 0.0, 0.0, 0.0, 0.0, 0.0, 0.0, 0.0, 1.663580593413462E9, 0.0, 2022-09-19 14:43:13.413
194.0, 7064.246483355342, 9390.23606660796, 11607.283247385412, 4785.866115792527, 25149.579364011213, 187500.0, 17194.817029811984, 17513.776423189214, 0.732, -0.656, 0.292, 192.0, 0.0, 0.0, 0.0, 0.0, 0.0, 0.0, 0.0, 0.0, 0.0, 1.663580593417107E9, 0.0, 2022-09-19 14:43:13.417
195.0, 6998.800575590203, 9352.506321967403, 11614.68167480012, 4750.595063042052, 25101.83603785468, 187500.0, 17173.269948157067, 17487.55782694314, 0.732, -0.656, 0.292, 192.0, 0.0, 0.0, 0.0, 0.0, 0.0, 0.0, 0.0, 0.0, 0.0, 1.6635805934231932E9, 0.0, 2022-09-19 14:43:13.423
196.0, 7039.391343521041, 9379.306063569316, 11636.944012277605, 4772.767993541717, 25131.183878324497, 187500.0, 17256.574899741998, 17501.99705386127, 0.732, -0.656, 0.292, 192.0, 0.0, 0.0, 0.0, 0.0, 0.0, 0.0, 0.0, 0.0, 0.0, 1.663580593426308E9, 0.0, 2022-09-19 14:43:13.426
197.0, 7251.19647397953, 9507.78389069842, 11680.507562220999, 4880.034015182736, 25281.92404293109, 187500.0, 17492.542265956672, 17568.471141871352, 0.732, -0.656, 0.292, 192.0, 0.0, 0.0, 0.0, 0.0, 0.0, 0.0, 0.0, 0.0, 0.0, 1.6635805934301777E9, 0.0, 2022-09-19 14:43:13.430
198.0, 7233.67270632657, 9491.511820734957, 11656.390029953722, 4859.738631217317, 25265.942545645543, 187500.0, 17431.030265215668, 17557.80935976617, 0.732, -0.656, 0.292, 192.0, 0.0, 0.0, 0.0, 0.0, 0.0, 0.0, 0.0, 0.0, 0.0, 1.6635805934342427E9, 0.0, 2022-09-19 14:43:13.434
199.0, 6961.897845494491, 9321.817376830266, 11612.692369543598, 4716.128673091969, 25070.029505494775, 187500.0, 17153.890985714315, 17469.02823078969, 0.732, -0.656, 0.292, 192.0, 0.0, 0.0, 0.0, 0.0, 0.0, 0.0, 0.0, 0.0, 0.0, 1.6635805934381719E9, 0.0, 2022-09-19 14:43:13.438
200.0, 6887.3100742471315, 9276.957425708464, 11624.807015038374, 4680.097661030014, 25014.932455412443, 187500.0, 17131.449834281186, 17440.775625798182, 0.724, -0.66, 0.28600000000000003, 192.0, 22.0, 160.0, 235.0, 96.0, 8.0, 240.0, 0.0, 0.0, 0.0, 1.66358059344127E9, 0.0, 2022-09-19 14:43:13.441
201.0, 6929.532519523206, 9302.237248687417, 11647.292869960413, 4704.326952019567, 25044.772034260277, 187500.0, 17211.93846606475, 17455.013687016213, 0.724, -0.66, 0.28600000000000003, 192.0, 0.0, 0.0, 0.0, 0.0, 0.0, 0.0, 0.0, 0.0, 0.0, 1.6635805934452083E9, 0.0, 2022-09-19 14:43:13.445
202.0, 7148.177283785019, 9436.034790996884, 11697.383129284755, 4815.951563829371, 25198.46262913497, 187500.0, 17453.091436993058, 17527.47804254032, 0.724, -0.66, 0.28600000000000003, 192.0, 0.0, 0.0, 0.0, 0.0, 0.0, 0.0, 0.0, 0.0, 0.0, 1.663580593449239E9, 0.0, 2022-09-19 14:43:13.449
203.0, 7147.104400051165, 9428.815177537821, 11678.562960453388, 4809.156633514957, 25195.89217852261, 187500.0, 17414.333512107554, 17526.360455317554, 0.724, -0.66, 0.28600000000000003, 192.0, 0.0, 0.0, 0.0, 0.0, 0.0, 0.0, 0.0, 0.0, 0.0, 1.6635805934532409E9, 0.0, 2022-09-19 14:43:13.453
204.0, 6877.385899708975, 9259.478361544414, 11625.119939460748, 4665.658434111886, 25001.297891294707, 187500.0, 17133.416787793256, 17433.243087916744, 0.724, -0.66, 0.28600000000000003, 192.0, 0.0, 0.0, 0.0, 0.0, 0.0, 0.0, 0.0, 0.0, 0.0, 1.6635805934582431E9, 0.0, 2022-09-19 14:43:13.458
205.0, 6800.227677849255, 9213.59023017767, 11634.440616898612, 4630.63325055042, 24944.8373848006, 187500.0, 17105.92414211323, 17405.16929688088, 0.724, -0.66, 0.28600000000000003, 192.0, 0.0, 0.0, 0.0, 0.0, 0.0, 0.0, 0.0, 0.0, 0.0, 1.663580593462208E9, 0.0, 2022-09-19 14:43:13.462
206.0, 6839.052657968124, 9239.562957234735, 11660.413343955677, 4659.9363875313275, 24973.201748514384, 187500.0, 17190.145515220825, 17422.111919178, 0.724, -0.66, 0.28600000000000003, 192.0, 0.0, 0.0, 0.0, 0.0, 0.0, 0.0, 0.0, 0.0, 0.0, 1.6635805934662547E9, 0.0, 2022-09-19 14:43:13.466
207.0, 7049.807256437213, 9369.560702986802, 11698.143088596236, 4772.857400519539, 25124.63481719909, 187500.0, 17434.092454206046, 17490.597664189063, 0.724, -0.66, 0.28600000000000003, 192.0, 0.0, 0.0, 0.0, 0.0, 0.0, 0.0, 0.0, 0.0, 0.0, 1.6635805934692488E9, 0.0, 2022-09-19 14:43:13.469
208.0, 7065.766401978302, 9376.445040279037, 11687.615416957786, 4775.584313343085, 25133.910791148042, 187500.0, 17406.890381203935, 17495.962082858336, 0.724, -0.66, 0.28600000000000003, 192.0, 0.0, 0.0, 0.0, 0.0, 0.0, 0.0, 0.0, 0.0, 0.0, 1.663580593473282E9, 0.0, 2022-09-19 14:43:13.473
209.0, 6800.071215638068, 9214.037265066776, 11640.229718712535, 4637.405829120377, 24939.40591089796, 187500.0, 17124.18551733321, 17408.745575993726, 0.724, -0.66, 0.28600000000000003, 192.0, 0.0, 0.0, 0.0, 0.0, 0.0, 0.0, 0.0, 0.0, 0.0, 1.6635805934773407E9, 0.0, 2022-09-19 14:43:13.477
210.0, 6714.9781244967135, 9164.170523186986, 11648.119884505259, 4600.883078680406, 24877.73744794577, 187500.0, 17092.021357062025, 17379.464790757276, 0.73, -0.662, 0.28200000000000003, 192.0, 22.0, 208.0, 235.0, 80.0, 8.0, 208.0, 0.0, 0.0, 0.0, 1.6635805934812844E9, 0.0, 2022-09-19 14:43:13.481
211.0, 6745.5553109115735, 9184.890590297055, 11670.35987023829, 4624.642983036397, 24900.491523801273, 187500.0, 17167.570253320962, 17390.685366473837, 0.73, -0.662, 0.28200000000000003, 192.0, 0.0, 0.0, 0.0, 0.0, 0.0, 0.0, 0.0, 0.0, 0.0, 1.6635805934862158E9, 0.0, 2022-09-19 14:43:13.486
212.0, 6950.207883144365, 9311.13324298063, 11714.325751581879, 4731.931356421871, 25047.118967428087, 187500.0, 17403.761136980193, 17457.382971928477, 0.73, -0.662, 0.28200000000000003, 192.0, 0.0, 0.0, 0.0, 0.0, 0.0, 0.0, 0.0, 0.0, 0.0, 1.6635805934904244E9, 0.0, 2022-09-19 14:43:13.490
213.0, 6967.217560674854, 9316.631772116634, 11699.260675819001, 4732.870129688994, 25056.931383243966, 187500.0, 17386.1032588605, 17462.859149320026, 0.73, -0.662, 0.28200000000000003, 192.0, 0.0, 0.0, 0.0, 0.0, 0.0, 0.0, 0.0, 0.0, 0.0, 1.663580593494285E9, 0.0, 2022-09-19 14:43:13.494
214.0, 6686.3902433383755, 9139.38243858605, 11641.816692568862, 4583.404014516355, 24850.647133665938, 187500.0, 17094.882380352305, 17368.24421504071, 0.73, -0.662, 0.28200000000000003, 192.0, 0.0, 0.0, 0.0, 0.0, 0.0, 0.0, 0.0, 0.0, 0.0, 1.6635805934973156E9, 0.0, 2022-09-19 14:43:13.497
215.0, 6590.21068694719, 9081.089089046609, 11645.817654826362, 4539.527540150588, 24776.215824629766, 187500.0, 17050.60357458634, 17332.973162290236, 0.73, -0.662, 0.28200000000000003, 192.0, 0.0, 0.0, 0.0, 0.0, 0.0, 0.0, 0.0, 0.0, 0.0, 1.66358059350143E9, 0.0, 2022-09-19 14:43:13.501
216.0, 6615.423454692776, 9099.41751949996, 11667.968233581572, 4560.292310749568, 24794.678365549848, 187500.0, 17123.58202023292, 17347.166520019357, 0.73, -0.662, 0.28200000000000003, 192.0, 0.0, 0.0, 0.0, 0.0, 0.0, 0.0, 0.0, 0.0, 0.0, 1.6635805935073256E9, 0.0, 2022-09-19 14:43:13.507
217.0, 6812.7670064886825, 9220.072236069707, 11711.151803869225, 4666.485448656732, 24937.081329474608, 187500.0, 17363.23742428272, 17411.40543358391, 0.73, -0.662, 0.28200000000000003, 192.0, 0.0, 0.0, 0.0, 0.0, 0.0, 0.0, 0.0, 0.0, 0.0, 1.6635805935113325E9, 0.0, 2022-09-19 14:43:13.511
218.0, 6849.177998206377, 9238.713590945434, 11694.164478083192, 4680.12001277447, 24957.08614076211, 187500.0, 17367.238386540223, 17423.87770698997, 0.73, -0.662, 0.28200000000000003, 192.0, 0.0, 0.0, 0.0, 0.0, 0.0, 0.0, 0.0, 0.0, 0.0, 1.6635805935142875E9, 0.0, 2022-09-19 14:43:13.514
219.0, 6587.260256679089, 9077.803382611679, 11647.248166471501, 4541.561548896021, 24762.22363260074, 187500.0, 17083.997080802572, 17338.091711770503, 0.73, -0.662, 0.28200000000000003, 192.0, 0.0, 0.0, 0.0, 0.0, 0.0, 0.0, 0.0, 0.0, 0.0, 1.663580593519406E9, 0.0, 2022-09-19 14:43:13.519
220.0, 6491.706549132651, 9023.131015673998, 11648.030477527438, 4498.042702441538, 24688.865207298426, 187500.0, 17040.433530859176, 17301.2336851637, 0.74, -0.658, 0.28400000000000003, 192.0, 23.0, 32.0, 235.0, 112.0, 8.0, 224.0, 0.0, 0.0, 0.0, 1.6635805935224864E9, 0.0, 2022-09-19 14:43:13.522
221.0, 6516.382875011311, 9041.593556594082, 11670.762201638485, 4519.142749207348, 24704.73494586169, 187500.0, 17110.774470660028, 17309.32501665652, 0.74, -0.658, 0.28400000000000003, 192.0, 0.0, 0.0, 0.0, 0.0, 0.0, 0.0, 0.0, 0.0, 0.0, 1.6635805935263236E9, 0.0, 2022-09-19 14:43:13.526
222.0, 6720.722522821728, 9171.14426745704, 11715.286876593456, 4628.576890060531, 24851.25063076623, 187500.0, 17349.66991539835, 17377.43078201184, 0.74, -0.658, 0.28400000000000003, 192.0, 0.0, 0.0, 0.0, 0.0, 0.0, 0.0, 0.0, 0.0, 0.0, 1.663580593529295E9, 0.0, 2022-09-19 14:43:13.529
223.0, 6767.191799544311, 9198.234581736873, 11701.115870608792, 4647.799390292095, 24881.49254101426, 187500.0, 17362.946851604804, 17395.379232809453, 0.74, -0.658, 0.28400000000000003, 192.0, 0.0, 0.0, 0.0, 0.0, 0.0, 0.0, 0.0, 0.0, 0.0, 1.6635805935333462E9, 0.0, 2022-09-19 14:43:13.533
224.0, 6484.755156607051, 9021.007599950743, 11643.716590847564, 4499.070882686482, 24675.99060249217, 187500.0, 17063.411124159233, 17300.630188063406, 0.74, -0.658, 0.28400000000000003, 192.0, 0.0, 0.0, 0.0, 0.0, 0.0, 0.0, 0.0, 0.0, 0.0, 1.6635805935373826E9, 0.0, 2022-09-19 14:43:13.537
225.0, 6366.939111583128, 8950.018459560688, 11642.30843094688, 4441.492788969611, 24586.494217693118, 187500.0, 16994.94773089263, 17256.306678808534, 0.74, -0.658, 0.28400000000000003, 192.0, 0.0, 0.0, 0.0, 0.0, 0.0, 0.0, 0.0, 0.0, 0.0, 1.663580593541394E9, 0.0, 2022-09-19 14:43:13.541
226.0, 6372.459992463589, 8955.740506141246, 11661.709745134085, 4449.5617687179765, 24589.44464796122, 187500.0, 17055.94564151116, 17259.145350354356, 0.74, -0.658, 0.28400000000000003, 192.0, 0.0, 0.0, 0.0, 0.0, 0.0, 0.0, 0.0, 0.0, 0.0, 1.6635805935463815E9, 0.0, 2022-09-19 14:43:13.546
227.0, 6547.295337593, 9062.917120804444, 11705.40740554421, 4541.606252384931, 24712.379242465406, 187500.0, 17280.714783753727, 17315.628208592916, 0.74, -0.658, 0.28400000000000003, 192.0, 0.0, 0.0, 0.0, 0.0, 0.0, 0.0, 0.0, 0.0, 0.0, 1.663580593549445E9, 0.0, 2022-09-19 14:43:13.549
228.0, 6580.44297462022, 9078.451583200882, 11695.684396706152, 4550.94928156725, 24728.584257195504, 187500.0, 17292.829429248504, 17323.63013310792, 0.74, -0.658, 0.28400000000000003, 192.0, 0.0, 0.0, 0.0, 0.0, 0.0, 0.0, 0.0, 0.0, 0.0, 1.6635805935533643E9, 0.0, 2022-09-19 14:43:13.553
229.0, 6283.075366386815, 8891.322778621052, 11644.141273992214, 4392.676579079221, 24505.245626598076, 187500.0, 16984.308300531902, 17221.66147490281, 0.74, -0.658, 0.28400000000000003, 192.0, 0.0, 0.0, 0.0, 0.0, 0.0, 0.0, 0.0, 0.0, 0.0, 1.6635805935573878E9, 0.0, 2022-09-19 14:43:13.557
230.0, 6141.946451896007, 8804.665065367826, 11650.779742095441, 4324.5708137239, 24397.286700878944, 187500.0, 16907.15007867218, 17170.230110911147, 0.734, -0.656, 0.28800000000000003, 192.0, 22.0, 240.0, 235.0, 128.0, 9.0, 0.0, 0.0, 0.0, 0.0, 1.6635805935613973E9, 0.0, 2022-09-19 14:43:13.561
231.0, 6132.849291902697, 8800.84291706597, 11673.98085284005, 4328.012982370017, 24386.624918773763, 187500.0, 16958.73790487503, 17165.200968408702, 0.734, -0.656, 0.28800000000000003, 192.0, 0.0, 0.0, 0.0, 0.0, 0.0, 0.0, 0.0, 0.0, 0.0, 1.6635805935653715E9, 0.0, 2022-09-19 14:43:13.565
232.0, 6297.559296793855, 8903.772700282658, 11722.014751674504, 4418.716361369653, 24501.356423062854, 187500.0, 17180.02017498257, 17219.02396905708, 0.734, -0.656, 0.28800000000000003, 192.0, 0.0, 0.0, 0.0, 0.0, 0.0, 0.0, 0.0, 0.0, 0.0, 1.6635805935695064E9, 0.0, 2022-09-19 14:43:13.569
233.0, 6347.291928206912, 8930.617145373482, 11719.712521995607, 4440.643422680309, 24530.883077488314, 187500.0, 17216.811146356005, 17235.296039020544, 0.734, -0.656, 0.28800000000000003, 192.0, 0.0, 0.0, 0.0, 0.0, 0.0, 0.0, 0.0, 0.0, 0.0, 1.6635805935744247E9, 0.0, 2022-09-19 14:43:13.574
234.0, 6058.507389844345, 8751.78083798657, 11663.095553290315, 4287.288103972448, 24312.126554504222, 187500.0, 16920.829346278828, 17137.060122139468, 0.734, -0.656, 0.28800000000000003, 192.0, 0.0, 0.0, 0.0, 0.0, 0.0, 0.0, 0.0, 0.0, 0.0, 1.6635805935784807E9, 0.0, 2022-09-19 14:43:13.578
235.0, 5919.278373632237, 8668.319424190453, 11666.403611469701, 4216.634239749222, 24202.670061906585, 187500.0, 16848.879080877196, 17086.589883159388, 0.734, -0.656, 0.28800000000000003, 192.0, 0.0, 0.0, 0.0, 0.0, 0.0, 0.0, 0.0, 0.0, 0.0, 1.663580593582409E9, 0.0, 2022-09-19 14:43:13.582
236.0, 5917.132606164528, 8671.560427136472, 11691.325806537368, 4221.842196207309, 24194.64578564713, 187500.0, 16909.519363584444, 17086.81340060394, 0.734, -0.656, 0.28800000000000003, 192.0, 0.0, 0.0, 0.0, 0.0, 0.0, 0.0, 0.0, 0.0, 0.0, 1.6635805935864925E9, 0.0, 2022-09-19 14:43:13.586
237.0, 6086.558829135755, 8777.708861554725, 11735.381094858778, 4313.99843859654, 24309.377289936223, 187500.0, 17134.601430249386, 17142.2457268531, 0.734, -0.656, 0.28800000000000003, 192.0, 0.0, 0.0, 0.0, 0.0, 0.0, 0.0, 0.0, 0.0, 0.0, 1.6635805935904737E9, 0.0, 2022-09-19 14:43:13.590
238.0, 6154.709297979987, 8815.595068406472, 11740.790217016962, 4344.173293611204, 24349.409264255675, 187500.0, 17194.280587945057, 17165.91622423127, 0.734, -0.656, 0.28800000000000003, 192.0, 0.0, 0.0, 0.0, 0.0, 0.0, 0.0, 0.0, 0.0, 0.0, 1.6635805935944347E9, 0.0, 2022-09-19 14:43:13.594
239.0, 5881.123945847028, 8644.984202979113, 11682.765088410984, 4197.970533129041, 24142.34270362171, 187500.0, 16905.607808304765, 17074.251720220058, 0.734, -0.656, 0.28800000000000003, 192.0, 0.0, 0.0, 0.0, 0.0, 0.0, 0.0, 0.0, 0.0, 0.0, 1.6635805935994682E9, 0.0, 2022-09-19 14:43:13.599
240.0, 5753.361374540494, 8569.859989864826, 11678.45120173111, 4137.844340544265, 24041.84926055065, 187500.0, 16836.920897593605, 17031.023446443494, 0.738, -0.654, 0.294, 192.0, 23.0, 16.0, 235.0, 144.0, 9.0, 48.0, 0.0, 0.0, 0.0, 1.6635805936034777E9, 0.0, 2022-09-19 14:43:13.603
241.0, 5772.963854427798, 8586.959074373135, 11715.733911482563, 4158.363241954236, 24050.342923443666, 187500.0, 16907.507706583467, 17045.015638472516, 0.738, -0.654, 0.294, 192.0, 0.0, 0.0, 0.0, 0.0, 0.0, 0.0, 0.0, 0.0, 0.0, 1.6635805936064239E9, 0.0, 2022-09-19 14:43:13.606
242.0, 5964.317138709681, 8707.747901409615, 11762.784333560985, 4266.791554306931, 24184.609852386697, 187500.0, 17142.62570650884, 17113.367273016844, 0.738, -0.654, 0.294, 192.0, 0.0, 0.0, 0.0, 0.0, 0.0, 0.0, 0.0, 0.0, 0.0, 1.663580593610554E9, 0.0, 2022-09-19 14:43:13.610
243.0, 6071.717270817432, 8773.998471975145, 11760.727973071096, 4322.3579910228245, 24256.04602766586, 187500.0, 17226.22123077169, 17154.516834559065, 0.738, -0.654, 0.294, 192.0, 0.0, 0.0, 0.0, 0.0, 0.0, 0.0, 0.0, 0.0, 0.0, 1.6635805936134484E9, 0.0, 2022-09-19 14:43:13.613
244.0, 5818.6731718389, 8618.117406143834, 11697.003149629016, 4193.388425515703, 24071.107694042646, 187500.0, 16948.67961987014, 17079.482028422597, 0.738, -0.654, 0.294, 192.0, 0.0, 0.0, 0.0, 0.0, 0.0, 0.0, 0.0, 0.0, 0.0, 1.6635805936174977E9, 0.0, 2022-09-19 14:43:13.617
245.0, 5699.560725636569, 8549.519902410497, 11692.108117593303, 4142.359392924237, 23983.22063484438, 187500.0, 16875.879988179207, 17046.33439139538, 0.738, -0.654, 0.294, 192.0, 0.0, 0.0, 0.0, 0.0, 0.0, 0.0, 0.0, 0.0, 0.0, 1.6635805936215262E9, 0.0, 2022-09-19 14:43:13.621
246.0, 5731.344906252016, 8577.057251579434, 11717.522051038988, 4172.042509560884, 24005.974710699884, 187500.0, 16951.026553037947, 17068.3285079394, 0.738, -0.654, 0.294, 192.0, 0.0, 0.0, 0.0, 0.0, 0.0, 0.0, 0.0, 0.0, 0.0, 1.663580593625486E9, 0.0, 2022-09-19 14:43:13.625
247.0, 5937.830321530142, 8710.273648533064, 11760.102124226347, 4288.718615617588, 24154.837328772228, 187500.0, 17190.033756498546, 17148.168939133757, 0.738, -0.654, 0.294, 192.0, 0.0, 0.0, 0.0, 0.0, 0.0, 0.0, 0.0, 0.0, 0.0, 1.6635805936295147E9, 0.0, 2022-09-19 14:43:13.629
248.0, 6078.7357185763985, 8797.35604493094, 11763.521941128009, 4366.748555511064, 24255.46488231002, 187500.0, 17298.0820891955, 17207.60222764042, 0.738, -0.654, 0.294, 192.0, 0.0, 0.0, 0.0, 0.0, 0.0, 0.0, 0.0, 0.0, 0.0, 1.6635805936335287E9, 0.0, 2022-09-19 14:43:13.633
249.0, 5855.0394600676855, 8658.685822330215, 11706.659103233707, 4255.235702423537, 24091.850112897173, 187500.0, 17029.257658631523, 17143.96681117616, 0.738, -0.654, 0.294, 192.0, 0.0, 0.0, 0.0, 0.0, 0.0, 0.0, 0.0, 0.0, 0.0, 1.6635805936366105E9, 0.0, 2022-09-19 14:43:13.636
250.0, 5753.85311291851, 8601.822984435914, 11703.775728198974, 4215.06961763735, 24017.17293467199, 187500.0, 16955.899233329204, 17118.776395175028, 0.734, -0.652, 0.3, 192.0, 22.0, 240.0, 235.0, 160.0, 9.0, 96.0, 0.0, 0.0, 0.0, 1.6635805936416152E9, 0.0, 2022-09-19 14:43:13.641
251.0, 5800.881183252476, 8636.401133108275, 11716.359760327312, 4252.441734366624, 24052.354580444644, 187500.0, 17029.190603398158, 17144.413846065265, 0.734, -0.652, 0.3, 192.0, 0.0, 0.0, 0.0, 0.0, 0.0, 0.0, 0.0, 0.0, 0.0, 1.6635805936454887E9, 0.0, 2022-09-19 14:43:13.645
252.0, 6020.174148103493, 8775.965425487211, 11759.56568235942, 4378.1255934388155, 24212.370719000188, 187500.0, 17263.816864945515, 17228.009370328113, 0.734, -0.652, 0.3, 192.0, 0.0, 0.0, 0.0, 0.0, 0.0, 0.0, 0.0, 0.0, 0.0, 1.663580593649521E9, 0.0, 2022-09-19 14:43:13.649
253.0, 6187.164030929092, 8876.414165069362, 11762.605519605342, 4466.727908459653, 24331.61727566925, 187500.0, 17381.655261713895, 17295.690452538784, 0.734, -0.652, 0.3, 192.0, 0.0, 0.0, 0.0, 0.0, 0.0, 0.0, 0.0, 0.0, 0.0, 1.6635805936536148E9, 0.0, 2022-09-19 14:43:13.653
254.0, 5986.08773780915, 8752.585500786961, 11700.445318275133, 4366.547389810967, 24186.397991943122, 187500.0, 17122.732653943618, 17240.571050712, 0.734, -0.652, 0.3, 192.0, 0.0, 0.0, 0.0, 0.0, 0.0, 0.0, 0.0, 0.0, 0.0, 1.663580593657544E9, 0.0, 2022-09-19 14:43:13.657
255.0, 5892.076300630129, 8698.807203627492, 11695.751451939519, 4328.884700403774, 24121.15324987808, 187500.0, 17043.85334776084, 17214.4642131882, 0.734, -0.652, 0.3, 192.0, 0.0, 0.0, 0.0, 0.0, 0.0, 0.0, 0.0, 0.0, 0.0, 1.6635805936615486E9, 0.0, 2022-09-19 14:43:13.661
0.0, 5956.426972916958, 8745.298832094531, 11716.627981260775, 4376.024529460016, 24171.332916180243, 187500.0, 17121.30214229848, 17247.209518815223, 0.734, -0.652, 0.3, 192.0, 0.0, 0.0, 0.0, 0.0, 0.0, 0.0, 0.0, 0.0, 0.0, 1.6635805936645432E9, 0.0, 2022-09-19 14:43:13.664
1.0, 6178.871533736174, 8886.628912285438, 11755.207092190634, 4500.479042587166, 24333.71833964805, 187500.0, 17350.47457819874, 17331.073264011535, 0.734, -0.652, 0.3, 192.0, 0.0, 0.0, 0.0, 0.0, 0.0, 0.0, 0.0, 0.0, 0.0, 1.663580593669602E9, 0.0, 2022-09-19 14:43:13.669
2.0, 6354.846817832807, 8991.68211122538, 11751.787275288973, 4590.847145419973, 24462.285573754976, 187500.0, 17473.69974538085, 17392.607616496996, 0.734, -0.652, 0.3, 192.0, 0.0, 0.0, 0.0, 0.0, 0.0, 0.0, 0.0, 0.0, 0.0, 1.6635805936736095E9, 0.0, 2022-09-19 14:43:13.673
3.0, 6159.961957926984, 8869.08279288802, 11690.588198970343, 4489.034949426049, 24325.805822110873, 187500.0, 17215.179469010767, 17334.940115802303, 0.734, -0.652, 0.3, 192.0, 0.0, 0.0, 0.0, 0.0, 0.0, 0.0, 0.0, 0.0, 0.0, 1.6635805936775753E9, 0.0, 2022-09-19 14:43:13.677
4.0, 6063.156552691049, 8813.203431749753, 11682.250998288513, 4443.258576781581, 24255.75545498794, 187500.0, 17126.4430435232, 17306.2851794106, 0.736, -0.658, 0.298, 192.0, 23.0, 0.0, 235.0, 112.0, 9.0, 80.0, 0.0, 0.0, 0.0, 1.6635805936815636E9, 0.0, 2022-09-19 14:43:13.681
5.0, 6119.5947074406995, 8850.955528134768, 11700.087690363847, 4476.31680683098, 24295.608615351754, 187500.0, 17188.603244853406, 17328.838089566005, 0.736, -0.658, 0.298, 192.0, 0.0, 0.0, 0.0, 0.0, 0.0, 0.0, 0.0, 0.0, 0.0, 1.6635805936846077E9, 0.0, 2022-09-19 14:43:13.684
6.0, 6330.148140209692, 8981.936750642866, 11735.738722770062, 4589.506040752654, 24449.768596860005, 187500.0, 17405.14694513642, 17404.83402071405, 0.736, -0.658, 0.298, 192.0, 0.0, 0.0, 0.0, 0.0, 0.0, 0.0, 0.0, 0.0, 0.0, 1.6635805936886537E9, 0.0, 2022-09-19 14:43:13.688
7.0, 6511.130215064313, 9090.02978682873, 11736.699847781641, 4677.303692973101, 24582.0015170576, 187500.0, 17534.18356587691, 17467.01657378871, 0.736, -0.658, 0.298, 192.0, 0.0, 0.0, 0.0, 0.0, 0.0, 0.0, 0.0, 0.0, 0.0, 1.6635805936927273E9, 0.0, 2022-09-19 14:43:13.692
8.0, 6315.127767935725, 8966.268177779697, 11668.147047537213, 4567.869552119917, 24440.15734674422, 187500.0, 17267.66136499183, 17400.944817178824, 0.736, -0.658, 0.298, 192.0, 0.0, 0.0, 0.0, 0.0, 0.0, 0.0, 0.0, 0.0, 0.0, 1.6635805936976452E9, 0.0, 2022-09-19 14:43:13.697
9.0, 6202.765548558897, 8901.604581070493, 11661.64268990072, 4512.124301448382, 24362.3509242953, 187500.0, 17164.575119563953, 17362.969203349257, 0.736, -0.658, 0.298, 192.0, 0.0, 0.0, 0.0, 0.0, 0.0, 0.0, 0.0, 0.0, 0.0, 1.6635805937016418E9, 0.0, 2022-09-19 14:43:13.701
10.0, 6250.3747642487015, 8934.975735542266, 11678.093573819826, 4543.774371597096, 24402.651119548216, 187500.0, 17224.79071912655, 17381.63290996944, 0.736, -0.658, 0.298, 192.0, 0.0, 0.0, 0.0, 0.0, 0.0, 0.0, 0.0, 0.0, 0.0, 1.663580593705702E9, 0.0, 2022-09-19 14:43:13.705
11.0, 6451.1828364351795, 9060.480780658816, 11718.572583028386, 4651.085096727025, 24551.692551576205, 187500.0, 17428.951552981325, 17451.146835225445, 0.736, -0.658, 0.298, 192.0, 0.0, 0.0, 0.0, 0.0, 0.0, 0.0, 0.0, 0.0, 0.0, 1.6635805937096708E9, 0.0, 2022-09-19 14:43:13.709
12.0, 6641.507940472119, 9174.34056691415, 11727.51328081051, 4743.867187961005, 24688.351117175953, 187500.0, 17567.644127326505, 17514.961065645348, 0.736, -0.658, 0.298, 192.0, 0.0, 0.0, 0.0, 0.0, 0.0, 0.0, 0.0, 0.0, 0.0, 1.6635805937126713E9, 0.0, 2022-09-19 14:43:13.712
13.0, 6448.411220122722, 9053.17176022193, 11661.597986411809, 4634.768323274651, 24547.49042361861, 187500.0, 17306.843973021983, 17448.419922401896, 0.736, -0.658, 0.298, 192.0, 0.0, 0.0, 0.0, 0.0, 0.0, 0.0, 0.0, 0.0, 0.0, 1.6635805937167027E9, 0.0, 2022-09-19 14:43:13.716
14.0, 6323.599079084287, 8979.276893052685, 11643.604832125287, 4572.026976588604, 24457.83757660837, 187500.0, 17189.720832076175, 17401.43655555684, 0.738, -0.654, 0.292, 192.0, 23.0, 16.0, 235.0, 144.0, 9.0, 32.0, 0.0, 0.0, 0.0, 1.6635805937207212E9, 0.0, 2022-09-19 14:43:13.720
15.0, 6363.83221910384, 9006.21074512133, 11662.44735270111, 4599.854898435462, 24489.420591523718, 187500.0, 17242.2697832906, 17412.992407440237, 0.738, -0.654, 0.292, 192.0, 0.0, 0.0, 0.0, 0.0, 0.0, 0.0, 0.0, 0.0, 0.0, 1.663580593724687E9, 0.0, 2022-09-19 14:43:13.724
16.0, 6555.096096407902, 9128.09480763612, 11703.060472376405, 4706.003332853715, 24632.02472114858, 187500.0, 17444.64247758895, 17475.823161104105, 0.738, -0.654, 0.292, 192.0, 0.0, 0.0, 0.0, 0.0, 0.0, 0.0, 0.0, 0.0, 0.0, 1.6635805937296853E9, 0.0, 2022-09-19 14:43:13.729
17.0, 6753.512531937663, 9246.715515460433, 11713.69990273713, 4806.161499757945, 24775.52292055165, 187500.0, 17598.62364514156, 17540.66557176895, 0.738, -0.654, 0.292, 192.0, 0.0, 0.0, 0.0, 0.0, 0.0, 0.0, 0.0, 0.0, 0.0, 1.663580593733708E9, 0.0, 2022-09-19 14:43:13.733
18.0, 6566.383727357832, 9126.66429599098, 11649.818617083862, 4701.532983962654, 24639.691369496748, 187500.0, 17339.455168182274, 17474.616166903517, 0.738, -0.654, 0.292, 192.0, 0.0, 0.0, 0.0, 0.0, 0.0, 0.0, 0.0, 0.0, 0.0, 1.6635805937376983E9, 0.0, 2022-09-19 14:43:13.737
19.0, 6429.300478613434, 9043.962841506343, 11630.014971496461, 4631.9967069621935, 24537.834470013913, 187500.0, 17206.708157862206, 17421.530773822164, 0.738, -0.654, 0.292, 192.0, 0.0, 0.0, 0.0, 0.0, 0.0, 0.0, 0.0, 0.0, 0.0, 1.6635805937407398E9, 0.0, 2022-09-19 14:43:13.740
20.0, 6462.001080751548, 9067.879208073522, 11649.68450661713, 4652.5379601166205, 24561.43791215872, 187500.0, 17256.46314101972, 17430.73969253775, 0.738, -0.654, 0.292, 192.0, 0.0, 0.0, 0.0, 0.0, 0.0, 0.0, 0.0, 0.0, 0.0, 1.66358059374576E9, 0.0, 2022-09-19 14:43:13.745
21.0, 6639.4292282377755, 9176.888665782055, 11682.005129099505, 4745.588272284063, 24690.765105577124, 187500.0, 17448.59873635754, 17485.233245519787, 0.738, -0.654, 0.292, 192.0, 0.0, 0.0, 0.0, 0.0, 0.0, 0.0, 0.0, 0.0, 0.0, 1.6635805937507155E9, 0.0, 2022-09-19 14:43:13.750
22.0, 6840.617280079995, 9296.917533507054, 11699.238324074546, 4843.801837420683, 24833.078662524065, 187500.0, 17610.850049358614, 17546.52172881624, 0.738, -0.654, 0.292, 192.0, 0.0, 0.0, 0.0, 0.0, 0.0, 0.0, 0.0, 0.0, 0.0, 1.6635805937547376E9, 0.0, 2022-09-19 14:43:13.754
23.0, 6658.0929348579575, 9180.286130939261, 11635.088817487815, 4733.071295389092, 24693.670832356314, 187500.0, 17355.48136895673, 17479.466495450317, 0.738, -0.654, 0.292, 192.0, 0.0, 0.0, 0.0, 0.0, 0.0, 0.0, 0.0, 0.0, 0.0, 1.663580593757823E9, 0.0, 2022-09-19 14:43:13.757
24.0, 6511.398435997777, 9090.253304273285, 11618.481471357522, 4652.403849649889, 24583.968470569667, 187500.0, 17218.152251023323, 17422.87187848948, 0.744, -0.654, 0.292, 192.0, 23.0, 64.0, 235.0, 144.0, 9.0, 32.0, 0.0, 0.0, 0.0, 1.663580593761742E9, 0.0, 2022-09-19 14:43:13.761
25.0, 6539.136950866813, 9108.358217282082, 11630.417302896656, 4667.401870179399, 24603.14626731232, 187500.0, 17266.253205091143, 17428.45981460331, 0.744, -0.654, 0.292, 192.0, 0.0, 0.0, 0.0, 0.0, 0.0, 0.0, 0.0, 0.0, 0.0, 1.6635805937667327E9, 0.0, 2022-09-19 14:43:13.766
26.0, 6706.395054625876, 9211.73503538788, 11669.063469059882, 4753.456086332332, 24722.929265848314, 187500.0, 17451.92914628138, 17482.618091418517, 0.744, -0.654, 0.292, 192.0, 0.0, 0.0, 0.0, 0.0, 0.0, 0.0, 0.0, 0.0, 0.0, 1.663580593770766E9, 0.0, 2022-09-19 14:43:13.770
27.0, 6911.561716981139, 9335.250775247905, 11690.096460592325, 4852.139038102512, 24868.506177485728, 187500.0, 17623.43408148695, 17547.23698463881, 0.744, -0.654, 0.292, 192.0, 0.0, 0.0, 0.0, 0.0, 0.0, 0.0, 0.0, 0.0, 0.0, 1.6635805937737818E9, 0.0, 2022-09-19 14:43:13.773
28.0, 6733.485368905708, 9220.452215725449, 11627.131596461726, 4743.733077494273, 24735.80387065457, 187500.0, 17375.888511644425, 17480.919358839914, 0.744, -0.654, 0.292, 192.0, 0.0, 0.0, 0.0, 0.0, 0.0, 0.0, 0.0, 0.0, 0.0, 1.6635805937768147E9, 0.0, 2022-09-19 14:43:13.776
29.0, 6569.512971581576, 9117.410673786482, 11603.662264783654, 4655.600149106997, 24617.049052363524, 187500.0, 17225.148347037833, 17414.48997431874, 0.744, -0.654, 0.292, 192.0, 0.0, 0.0, 0.0, 0.0, 0.0, 0.0, 0.0, 0.0, 0.0, 1.663580593780779E9, 0.0, 2022-09-19 14:43:13.780
30.0, 6594.792794560528, 9135.716752495378, 11619.889631258206, 4671.805163837095, 24636.74093922865, 187500.0, 17272.869321449914, 17417.418052842386, 0.744, -0.654, 0.292, 192.0, 0.0, 0.0, 0.0, 0.0, 0.0, 0.0, 0.0, 0.0, 0.0, 1.663580593785824E9, 0.0, 2022-09-19 14:43:13.785
31.0, 6760.1957035298, 9239.518253745826, 11651.047963028905, 4759.379298612988, 24756.9933243982, 187500.0, 17454.432541660375, 17466.971870299803, 0.744, -0.654, 0.292, 192.0, 0.0, 0.0, 0.0, 0.0, 0.0, 0.0, 0.0, 0.0, 0.0, 1.6635805937897484E9, 0.0, 2022-09-19 14:43:13.789
32.0, 6975.28654042322, 9367.079659352263, 11673.802038884407, 4861.370308562554, 24907.59937853806, 187500.0, 17633.35825602511, 17532.350722831576, 0.744, -0.654, 0.292, 192.0, 0.0, 0.0, 0.0, 0.0, 0.0, 0.0, 0.0, 0.0, 0.0, 1.663580593793784E9, 0.0, 2022-09-19 14:43:13.793
33.0, 6807.290829097132, 9257.801980710266, 11616.849794012285, 4758.887560234972, 24779.121551408953, 187500.0, 17389.858351928993, 17470.816370346114, 0.744, -0.654, 0.292, 192.0, 0.0, 0.0, 0.0, 0.0, 0.0, 0.0, 0.0, 0.0, 0.0, 1.6635805937967894E9, 0.0, 2022-09-19 14:43:13.796
34.0, 6643.452542239731, 9158.090848695141, 11596.375596091224, 4668.92178880236, 24656.63399179387, 187500.0, 17225.17069878229, 17406.68921550384, 0.744, -0.654, 0.292, 192.0, 0.0, 0.0, 0.0, 0.0, 0.0, 0.0, 0.0, 0.0, 0.0, 1.66358059380091E9, 0.0, 2022-09-19 14:43:13.800
35.0, 6665.357251805932, 9173.178276202474, 11612.379445121223, 4680.6564546413965, 24670.58148033398, 187500.0, 17266.767295213616, 17409.192610882834, 0.742, -0.66, 0.29, 192.0, 23.0, 48.0, 235.0, 96.0, 9.0, 16.0, 0.0, 0.0, 0.0, 1.6635805938048074E9, 0.0, 2022-09-19 14:43:13.804
36.0, 6821.752407759715, 9269.737812249401, 11642.129616991237, 4761.905045736438, 24783.301327622095, 187500.0, 17438.138119952455, 17457.02534401719, 0.742, -0.66, 0.29, 192.0, 0.0, 0.0, 0.0, 0.0, 0.0, 0.0, 0.0, 0.0, 0.0, 1.66358059380882E9, 0.0, 2022-09-19 14:43:13.808
37.0, 7041.358297033107, 9402.462470825014, 11665.73305913604, 4867.986424921325, 24940.143518464985, 187500.0, 17625.021055343277, 17526.80749020666, 0.742, -0.66, 0.29, 192.0, 0.0, 0.0, 0.0, 0.0, 0.0, 0.0, 0.0, 0.0, 0.0, 1.6635805938128762E9, 0.0, 2022-09-19 14:43:13.812
38.0, 6883.0855945450785, 9303.086614976719, 11610.881878242717, 4774.287912164678, 24821.455755407307, 187500.0, 17392.339395563533, 17472.26923373571, 0.742, -0.66, 0.29, 192.0, 0.0, 0.0, 0.0, 0.0, 0.0, 0.0, 0.0, 0.0, 0.0, 1.663580593817819E9, 0.0, 2022-09-19 14:43:13.817
39.0, 6712.251211673166, 9202.01202654982, 11586.943159931083, 4683.316312231578, 24697.202407980254, 187500.0, 17222.89082084785, 17408.902038204913, 0.742, -0.66, 0.29, 192.0, 0.0, 0.0, 0.0, 0.0, 0.0, 0.0, 0.0, 0.0, 0.0, 1.663580593821977E9, 0.0, 2022-09-19 14:43:13.821
40.0, 6733.597127627984, 9217.412378479527, 11604.981017706516, 4696.861469371494, 24712.155725020853, 187500.0, 17262.967498656213, 17413.14886965142, 0.742, -0.66, 0.29, 192.0, 0.0, 0.0, 0.0, 0.0, 0.0, 0.0, 0.0, 0.0, 0.0, 1.6635805938258553E9, 0.0, 2022-09-19 14:43:13.825
41.0, 6888.941751592369, 9315.8494610607, 11640.63205011273, 4778.221819188812, 24825.121441497977, 187500.0, 17433.198384427833, 17463.55205339814, 0.742, -0.66, 0.29, 192.0, 0.0, 0.0, 0.0, 0.0, 0.0, 0.0, 0.0, 0.0, 0.0, 1.6635805938288517E9, 0.0, 2022-09-19 14:43:13.828
42.0, 7115.879013047102, 9455.257291228449, 11664.883692846739, 4889.175878664956, 24988.17741729944, 187500.0, 17629.737273423347, 17536.0387606667, 0.742, -0.66, 0.29, 192.0, 0.0, 0.0, 0.0, 0.0, 0.0, 0.0, 0.0, 0.0, 0.0, 1.6635805938328729E9, 0.0, 2022-09-19 14:43:13.832
43.0, 6962.858970506069, 9357.177836558561, 11604.310465372857, 4799.277162465712, 24875.211700822318, 187500.0, 17402.15181137941, 17481.746373384758, 0.742, -0.66, 0.29, 192.0, 0.0, 0.0, 0.0, 0.0, 0.0, 0.0, 0.0, 0.0, 0.0, 1.6635805938389363E9, 0.0, 2022-09-19 14:43:13.838
44.0, 6784.492049752718, 9250.291794573282, 11575.588473747788, 4707.746768921229, 24748.119681849443, 187500.0, 17224.053111559526, 17422.02251220018, 0.742, -0.66, 0.29, 192.0, 0.0, 0.0, 0.0, 0.0, 0.0, 0.0, 0.0, 0.0, 0.0, 1.6635805938429132E9, 0.0, 2022-09-19 14:43:13.842
45.0, 6803.513384284185, 9268.240245370895, 11589.24538960998, 4723.6835627178625, 24764.861138446468, 187500.0, 17263.660402734327, 17431.96903848279, 0.736, -0.664, 0.296, 192.0, 23.0, 0.0, 235.0, 64.0, 9.0, 64.0, 0.0, 0.0, 0.0, 1.6635805938458376E9, 0.0, 2022-09-19 14:43:13.845
46.0, 6957.405144858974, 9369.247778564428, 11626.192823194602, 4805.222726490823, 24877.670392712404, 187500.0, 17432.192555927344, 17487.42371647641, 0.736, -0.664, 0.296, 192.0, 0.0, 0.0, 0.0, 0.0, 0.0, 0.0, 0.0, 0.0, 0.0, 1.6635805938499749E9, 0.0, 2022-09-19 14:43:13.849
47.0, 7195.339464585718, 9516.232850102526, 11657.462913687577, 4924.156358737512, 25049.354141873617, 187500.0, 17640.756683439813, 17568.828769782634, 0.736, -0.664, 0.296, 192.0, 0.0, 0.0, 0.0, 0.0, 0.0, 0.0, 0.0, 0.0, 0.0, 1.6635805938528948E9, 0.0, 2022-09-19 14:43:13.852
48.0, 7059.597320508638, 9431.005648494442, 11594.319235601335, 4844.830017665627, 24950.492376147795, 187500.0, 17426.49286109124, 17524.147632616477, 0.736, -0.664, 0.296, 192.0, 0.0, 0.0, 0.0, 0.0, 0.0, 0.0, 0.0, 0.0, 0.0, 1.663580593857006E9, 0.0, 2022-09-19 14:43:13.857
49.0, 6881.900952088947, 9326.734760610434, 11571.453401023557, 4755.534798566675, 24825.926104298367, 187500.0, 17242.001562357138, 17463.619108631505, 0.736, -0.664, 0.296, 192.0, 0.0, 0.0, 0.0, 0.0, 0.0, 0.0, 0.0, 0.0, 0.0, 1.663580593860941E9, 0.0, 2022-09-19 14:43:13.860
50.0, 6903.425681999408, 9345.823150375265, 11595.168601890637, 4774.42202263141, 24848.188441775852, 187500.0, 17284.156952399844, 17476.292547737667, 0.736, -0.664, 0.296, 192.0, 0.0, 0.0, 0.0, 0.0, 0.0, 0.0, 0.0, 0.0, 0.0, 1.663580593864915E9, 0.0, 2022-09-19 14:43:13.864
51.0, 7048.577910492171, 9438.15820672014, 11625.186994694113, 4852.988404391815, 24956.728512850823, 187500.0, 17441.02149498719, 17530.339065830598, 0.736, -0.664, 0.296, 192.0, 0.0, 0.0, 0.0, 0.0, 0.0, 0.0, 0.0, 0.0, 0.0, 1.6635805938689506E9, 0.0, 2022-09-19 14:43:13.868
52.0, 7288.725052919991, 9584.405670691212, 11653.68546887463, 4973.9113418950255, 25130.423919013014, 187500.0, 17652.78192195677, 17611.744119136827, 0.736, -0.664, 0.296, 192.0, 0.0, 0.0, 0.0, 0.0, 0.0, 0.0, 0.0, 0.0, 0.0, 1.663580593873984E9, 0.0, 2022-09-19 14:43:13.873
53.0, 7164.270539792841, 9506.68865522011, 11598.454308325567, 4900.754082292805, 25040.592258047138, 187500.0, 17450.185710213867, 17570.05811572768, 0.736, -0.664, 0.296, 192.0, 0.0, 0.0, 0.0, 0.0, 0.0, 0.0, 0.0, 0.0, 0.0, 1.6635805938769686E9, 0.0, 2022-09-19 14:43:13.876
54.0, 6978.5275433692395, 9395.645188766144, 11569.732316700498, 4804.932153812904, 24908.314634360628, 187500.0, 17258.385391042877, 17509.529591742707, 0.736, -0.664, 0.296, 192.0, 0.0, 0.0, 0.0, 0.0, 0.0, 0.0, 0.0, 0.0, 0.0, 1.6635805938809497E9, 0.0, 2022-09-19 14:43:13.880
55.0, 6992.519735398261, 9408.072758683296, 11586.540828530888, 4815.6609911514515, 24925.011387468745, 187500.0, 17293.857609493447, 17516.19041159039, 0.734, -0.658, 0.292, 192.0, 22.0, 240.0, 235.0, 112.0, 9.0, 32.0, 0.0, 0.0, 0.0, 1.6635805938849745E9, 0.0, 2022-09-19 14:43:13.884
56.0, 7127.703085863958, 9493.992864369497, 11617.25212541248, 4890.472279843364, 25031.47274630937, 187500.0, 17446.07298923409, 17566.660650570473, 0.734, -0.658, 0.292, 192.0, 0.0, 0.0, 0.0, 0.0, 0.0, 0.0, 0.0, 0.0, 0.0, 1.6635805938890584E9, 0.0, 2022-09-19 14:43:13.889
57.0, 7369.45955389256, 9640.888528929774, 11651.562053151376, 5013.473929580919, 25211.270178707862, 187500.0, 17667.109390152622, 17652.156073112023, 0.734, -0.658, 0.292, 192.0, 0.0, 0.0, 0.0, 0.0, 0.0, 0.0, 0.0, 0.0, 0.0, 1.6635805938930447E9, 0.0, 2022-09-19 14:43:13.893
58.0, 7255.108029259209, 9567.41834490518, 11603.326988616824, 4946.575158426185, 25131.295637046773, 187500.0, 17473.565634914117, 17617.019130828277, 0.734, -0.658, 0.292, 192.0, 0.0, 0.0, 0.0, 0.0, 0.0, 0.0, 0.0, 0.0, 0.0, 1.6635805938969827E9, 0.0, 2022-09-19 14:43:13.896
59.0, 7062.167771120999, 9451.278680715404, 11571.47575276801, 4848.562758989663, 25000.403821516495, 187500.0, 17272.109362138435, 17555.41772310945, 0.734, -0.658, 0.292, 192.0, 0.0, 0.0, 0.0, 0.0, 0.0, 0.0, 0.0, 0.0, 0.0, 1.6635805939020057E9, 0.0, 2022-09-19 14:43:13.902
60.0, 7068.180390379476, 9457.380706951702, 11583.657453496153, 4856.162352104468, 25012.116135611075, 187500.0, 17303.491211353685, 17560.55862433417, 0.734, -0.658, 0.292, 192.0, 0.0, 0.0, 0.0, 0.0, 0.0, 0.0, 0.0, 0.0, 0.0, 1.6635805939050097E9, 0.0, 2022-09-19 14:43:13.905
61.0, 7195.183002374531, 9535.053018933895, 11615.86631725625, 4925.4304081714645, 25110.910846103532, 187500.0, 17449.17988171338, 17604.368043466573, 0.734, -0.658, 0.292, 192.0, 0.0, 0.0, 0.0, 0.0, 0.0, 0.0, 0.0, 0.0, 0.0, 1.6635805939090328E9, 0.0, 2022-09-19 14:43:13.909
62.0, 7440.046362882419, 9681.792221282985, 11644.118922247759, 5046.576863119229, 25294.083391914774, 187500.0, 17673.993727444857, 17686.108372939634, 0.734, -0.658, 0.292, 192.0, 0.0, 0.0, 0.0, 0.0, 0.0, 0.0, 0.0, 0.0, 0.0, 1.6635805939129915E9, 0.0, 2022-09-19 14:43:13.912
63.0, 7335.328440109306, 9611.116005315305, 11603.662264783654, 4983.477888521897, 25223.407175947093, 187500.0, 17494.732736913295, 17654.88298593557, 0.734, -0.658, 0.292, 192.0, 0.0, 0.0, 0.0, 0.0, 0.0, 0.0, 0.0, 0.0, 0.0, 1.6635805939180129E9, 0.0, 2022-09-19 14:43:13.918
64.0, 7128.530100408805, 9481.185314796605, 11570.24640682297, 4875.563666291674, 25080.601880622136, 187500.0, 17284.51458031113, 17585.1008397461, 0.734, -0.658, 0.292, 192.0, 0.0, 0.0, 0.0, 0.0, 0.0, 0.0, 0.0, 0.0, 0.0, 1.6635805939209905E9, 0.0, 2022-09-19 14:43:13.920
65.0, 7131.257013232353, 9482.191143297094, 11587.993691920483, 4878.782317493238, 25090.861331327123, 187500.0, 17315.494098126186, 17583.312700189676, 0.738, -0.654, 0.292, 192.0, 23.0, 16.0, 235.0, 144.0, 9.0, 32.0, 0.0, 0.0, 0.0, 1.66358059392504E9, 0.0, 2022-09-19 14:43:13.925
66.0, 7248.335450689251, 9551.570958086368, 11615.82161376734, 4939.422600200486, 25183.01757371635, 187500.0, 17454.49959689374, 17620.304837263207, 0.738, -0.654, 0.292, 192.0, 0.0, 0.0, 0.0, 0.0, 0.0, 0.0, 0.0, 0.0, 0.0, 1.6635805939290564E9, 0.0, 2022-09-19 14:43:13.929
67.0, 7487.208543683118, 9690.241180687091, 11645.057695514883, 5056.612796379662, 25362.21150901455, 187500.0, 17686.35424212864, 17695.898437011056, 0.738, -0.654, 0.292, 192.0, 0.0, 0.0, 0.0, 0.0, 0.0, 0.0, 0.0, 0.0, 0.0, 1.66358059393305E9, 0.0, 2022-09-19 14:43:13.933
68.0, 7392.727719870534, 9624.348238032846, 11605.673921784632, 4994.8102229607375, 25297.503208816437, 187500.0, 17520.169022103433, 17664.896567451546, 0.738, -0.654, 0.292, 192.0, 0.0, 0.0, 0.0, 0.0, 0.0, 0.0, 0.0, 0.0, 0.0, 1.6635805939370253E9, 0.0, 2022-09-19 14:43:13.937
69.0, 7184.3871098026175, 9494.328140536325, 11573.375651046712, 4879.922256460459, 25150.36167506715, 187500.0, 17304.921722998824, 17589.90646480399, 0.738, -0.654, 0.292, 192.0, 0.0, 0.0, 0.0, 0.0, 0.0, 0.0, 0.0, 0.0, 0.0, 1.663580593941167E9, 0.0, 2022-09-19 14:43:13.941
70.0, 7175.669929465048, 9488.181410811116, 11585.49029654149, 4873.149677890501, 25146.65128548757, 187500.0, 17326.267638953643, 17580.38462166603, 0.738, -0.654, 0.292, 192.0, 0.0, 0.0, 0.0, 0.0, 0.0, 0.0, 0.0, 0.0, 0.0, 1.663580593945114E9, 0.0, 2022-09-19 14:43:13.945
71.0, 7269.77077362189, 9541.043286447917, 11613.228811410525, 4916.556765622708, 25215.09232700972, 187500.0, 17446.005934000725, 17605.1056510336, 0.738, -0.654, 0.292, 192.0, 0.0, 0.0, 0.0, 0.0, 0.0, 0.0, 0.0, 0.0, 0.0, 1.6635805939481096E9, 0.0, 2022-09-19 14:43:13.948
72.0, 7493.690549575156, 9669.319947876924, 11649.036306027927, 5022.548737829774, 25375.935480110107, 187500.0, 17669.009288431324, 17670.216282631907, 0.738, -0.654, 0.292, 192.0, 0.0, 0.0, 0.0, 0.0, 0.0, 0.0, 0.0, 0.0, 0.0, 1.6635805939521265E9, 0.0, 2022-09-19 14:43:13.952
73.0, 7392.101871025786, 9599.247229009537, 11603.818726994841, 4955.381745741576, 25303.135848419173, 187500.0, 17504.679263195903, 17633.15709032501, 0.738, -0.654, 0.292, 192.0, 0.0, 0.0, 0.0, 0.0, 0.0, 0.0, 0.0, 0.0, 0.0, 1.6635805939571915E9, 0.0, 2022-09-19 14:43:13.957
74.0, 7163.398821759084, 9456.866616829231, 11564.18908407558, 4830.010811091758, 25138.738767950388, 187500.0, 17270.298870837556, 17550.455635840375, 0.738, -0.654, 0.292, 192.0, 0.0, 0.0, 0.0, 0.0, 0.0, 0.0, 0.0, 0.0, 0.0, 1.6635805939611804E9, 0.0, 2022-09-19 14:43:13.961
75.0, 7137.224929001919, 9442.405038166648, 11586.518476786432, 4817.292668496689, 25123.718395676424, 187500.0, 17282.41351633233, 17538.94448744589, 0.734, -0.654, 0.29, 192.0, 22.0, 240.0, 235.0, 144.0, 9.0, 16.0, 0.0, 0.0, 0.0, 1.6635805939651785E9, 0.0, 2022-09-19 14:43:13.965
76.0, 7218.451168352505, 9493.590532969301, 11620.068445213848, 4860.5656457621635, 25189.678393564034, 187500.0, 17399.894285189424, 17565.587766836616, 0.734, -0.654, 0.29, 192.0, 0.0, 0.0, 0.0, 0.0, 0.0, 0.0, 0.0, 0.0, 0.0, 1.6635805939691389E9, 0.0, 2022-09-19 14:43:13.969
77.0, 7442.035668138942, 9628.528014245989, 11654.579538652843, 4969.485696492875, 25354.053122288362, 187500.0, 17629.849032145623, 17633.805290914213, 0.734, -0.654, 0.29, 192.0, 0.0, 0.0, 0.0, 0.0, 0.0, 0.0, 0.0, 0.0, 0.0, 1.6635805939731717E9, 0.0, 2022-09-19 14:43:13.973
78.0, 7350.237053660996, 9567.463048394091, 11615.39693062269, 4910.745312064328, 25288.85308371223, 187500.0, 17480.897007095457, 17600.076508531154, 0.734, -0.654, 0.29, 192.0, 0.0, 0.0, 0.0, 0.0, 0.0, 0.0, 0.0, 0.0, 0.0, 1.6635805939782012E9, 0.0, 2022-09-19 14:43:13.978
79.0, 7113.733245579392, 9419.315686144315, 11580.349395316767, 4780.568752356619, 25116.856410128643, 187500.0, 17241.17454781229, 17518.827917436116, 0.734, -0.654, 0.29, 192.0, 0.0, 0.0, 0.0, 0.0, 0.0, 0.0, 0.0, 0.0, 0.0, 1.663580593982225E9, 0.0, 2022-09-19 14:43:13.982
80.0, 7080.83147774118, 9397.81330797831, 11592.821668722829, 4758.75344976824, 25091.39777319405, 187500.0, 17249.645858960852, 17499.784231160193, 0.734, -0.654, 0.29, 192.0, 0.0, 0.0, 0.0, 0.0, 0.0, 0.0, 0.0, 0.0, 0.0, 1.6635805939851627E9, 0.0, 2022-09-19 14:43:13.985
81.0, 7160.22487404643, 9444.997840523463, 11623.756483048974, 4797.041988020181, 25147.590058754693, 187500.0, 17365.0479155836, 17520.928981414912, 0.734, -0.654, 0.29, 192.0, 0.0, 0.0, 0.0, 0.0, 0.0, 0.0, 0.0, 0.0, 0.0, 1.6635805939901183E9, 0.0, 2022-09-19 14:43:13.990
82.0, 7385.441051178104, 9577.878961310264, 11662.760277123485, 4903.257477671799, 25306.77918276539, 187500.0, 17600.00945329779, 17586.91133104698, 0.734, -0.654, 0.29, 192.0, 0.0, 0.0, 0.0, 0.0, 0.0, 0.0, 0.0, 0.0, 0.0, 1.663580593994141E9, 0.0, 2022-09-19 14:43:13.994
83.0, 7295.162355323119, 9512.947143667596, 11618.570878335344, 4842.3713257755435, 25239.791004632832, 187500.0, 17457.65119286194, 17550.925022473933, 0.734, -0.654, 0.29, 192.0, 0.0, 0.0, 0.0, 0.0, 0.0, 0.0, 0.0, 0.0, 0.0, 1.6635805939991953E9, 0.0, 2022-09-19 14:43:13.999
84.0, 7046.119218602088, 9356.976670858463, 11574.493238269477, 4707.6573619434075, 25058.071322211188, 187500.0, 17209.12214626338, 17462.657983619927, 0.734, -0.654, 0.29, 192.0, 0.0, 0.0, 0.0, 0.0, 0.0, 0.0, 0.0, 0.0, 0.0, 1.6635805940021791E9, 0.0, 2022-09-19 14:43:14.002
85.0, 7006.914258827479, 9334.110836280684, 11593.693386756586, 4687.898419844916, 25029.57284803067, 187500.0, 17219.582762668462, 17442.943745010347, 0.734, -0.658, 0.29, 192.0, 22.0, 240.0, 235.0, 112.0, 9.0, 16.0, 0.0, 0.0, 0.0, 1.6635805940051312E9, 0.0, 2022-09-19 14:43:14.005
86.0, 7079.736242262869, 9379.261360080405, 11628.785625551418, 4726.254013330223, 25085.072229513196, 187500.0, 17331.117967500446, 17463.149721997943, 0.734, -0.658, 0.29, 192.0, 0.0, 0.0, 0.0, 0.0, 0.0, 0.0, 0.0, 0.0, 0.0, 1.6635805940092213E9, 0.0, 2022-09-19 14:43:14.009
87.0, 7304.818308927812, 9512.656570989677, 11663.609643412787, 4838.504473984775, 25246.921211114077, 187500.0, 17573.187359951422, 17534.138862388, 0.734, -0.658, 0.29, 192.0, 0.0, 0.0, 0.0, 0.0, 0.0, 0.0, 0.0, 0.0, 0.0, 1.6635805940131884E9, 0.0, 2022-09-19 14:43:14.013
88.0, 7230.297592913818, 9459.057087785852, 11622.325971403834, 4787.363682671033, 25188.091419707707, 187500.0, 17443.748407810737, 17503.740489928783, 0.734, -0.658, 0.29, 192.0, 0.0, 0.0, 0.0, 0.0, 0.0, 0.0, 0.0, 0.0, 0.0, 1.663580594017158E9, 0.0, 2022-09-19 14:43:14.017
89.0, 6978.304025924686, 9302.661931832068, 11578.33773831579, 4650.749820560196, 25000.739097683323, 187500.0, 17186.07749772996, 17413.886477218446, 0.734, -0.658, 0.29, 192.0, 0.0, 0.0, 0.0, 0.0, 0.0, 0.0, 0.0, 0.0, 0.0, 1.66358059402117E9, 0.0, 2022-09-19 14:43:14.021
90.0, 6947.32450810963, 9286.859248502165, 11596.286189113402, 4635.77415177514, 24975.571033426648, 187500.0, 17198.862695558393, 17402.375328823964, 0.734, -0.658, 0.29, 192.0, 0.0, 0.0, 0.0, 0.0, 0.0, 0.0, 0.0, 0.0, 0.0, 1.6635805940252264E9, 0.0, 2022-09-19 14:43:14.025
91.0, 7031.098846328122, 9341.7551328844, 11626.796320294896, 4682.623408153464, 25036.30072311172, 187500.0, 17314.309455670056, 17434.874765261982, 0.734, -0.658, 0.29, 192.0, 0.0, 0.0, 0.0, 0.0, 0.0, 0.0, 0.0, 0.0, 0.0, 1.6635805940283027E9, 0.0, 2022-09-19 14:43:14.028
92.0, 7269.994291066443, 9491.02008235694, 11662.760277123485, 4805.468595679831, 25209.258521706884, 187500.0, 17560.312755145165, 17512.569428988627, 0.734, -0.658, 0.29, 192.0, 0.0, 0.0, 0.0, 0.0, 0.0, 0.0, 0.0, 0.0, 0.0, 1.6635805940322278E9, 0.0, 2022-09-19 14:43:14.032
93.0, 7218.227650907952, 9457.313651718337, 11618.794395779896, 4766.688319049874, 25170.210024143464, 187500.0, 17448.196404957343, 17494.17394330191, 0.734, -0.658, 0.29, 192.0, 0.0, 0.0, 0.0, 0.0, 0.0, 0.0, 0.0, 0.0, 0.0, 1.6635805940361688E9, 0.0, 2022-09-19 14:43:14.036
94.0, 6970.346804898597, 9307.8475365457, 11579.09769762727, 4634.5224540856425, 24992.915987123968, 187500.0, 17192.380689666355, 17412.63477952895, 0.734, -0.658, 0.29, 192.0, 0.0, 0.0, 0.0, 0.0, 0.0, 0.0, 0.0, 0.0, 0.0, 1.6635805940412805E9, 0.0, 2022-09-19 14:43:14.041
95.0, 6936.7968364711805, 9291.26254215986, 11592.017005922438, 4620.3737998454335, 24968.932565323423, 187500.0, 17197.096907746425, 17400.989520667736, 0.734, -0.652, 0.292, 192.0, 22.0, 240.0, 235.0, 160.0, 9.0, 32.0, 0.0, 0.0, 0.0, 1.6635805940452168E9, 0.0, 2022-09-19 14:43:14.045
96.0, 7014.156224030999, 9343.364458485183, 11620.53783184741, 4664.742012589218, 25025.013092161786, 187500.0, 17306.240475921688, 17433.287791405655, 0.734, -0.652, 0.292, 192.0, 0.0, 0.0, 0.0, 0.0, 0.0, 0.0, 0.0, 0.0, 0.0, 1.6635805940492811E9, 0.0, 2022-09-19 14:43:14.049
97.0, 7253.565758891793, 9491.802393412876, 11655.227739242047, 4788.078938493602, 25198.060297734773, 187500.0, 17556.825883010137, 17516.346873801576, 0.734, -0.652, 0.292, 192.0, 0.0, 0.0, 0.0, 0.0, 0.0, 0.0, 0.0, 0.0, 0.0, 1.6635805940521934E9, 0.0, 2022-09-19 14:43:14.052
98.0, 7220.440473609027, 9469.227131513017, 11616.492166101, 4761.636824802974, 25171.618184044146, 187500.0, 17461.11571325251, 17510.04368186518, 0.734, -0.652, 0.292, 192.0, 0.0, 0.0, 0.0, 0.0, 0.0, 0.0, 0.0, 0.0, 0.0, 1.663580594057258E9, 0.0, 2022-09-19 14:43:14.057
99.0, 6974.995967745301, 9319.805719829288, 11582.361052317745, 4633.986012218716, 24996.268748792263, 187500.0, 17199.130916491857, 17431.11967219349, 0.734, -0.652, 0.292, 192.0, 0.0, 0.0, 0.0, 0.0, 0.0, 0.0, 0.0, 0.0, 0.0, 1.6635805940622172E9, 0.0, 2022-09-19 14:43:14.062
100.0, 6934.718124236838, 9299.331521908227, 11588.217209365035, 4616.842224221495, 24968.88786183451, 187500.0, 17196.73927983514, 17419.519116821186, 0.734, -0.652, 0.292, 192.0, 0.0, 0.0, 0.0, 0.0, 0.0, 0.0, 0.0, 0.0, 0.0, 1.6635805940653017E9, 0.0, 2022-09-19 14:43:14.065
101.0, 7009.238840250831, 9349.891167866132, 11618.615581824253, 4659.243483453212, 25024.409595061494, 187500.0, 17297.47859209521, 17450.61039335852, 0.734, -0.652, 0.292, 192.0, 0.0, 0.0, 0.0, 0.0, 0.0, 0.0, 0.0, 0.0, 0.0, 1.6635805940703545E9, 0.0, 2022-09-19 14:43:14.070
102.0, 7249.38598267865, 9499.31257954986, 11656.144160764714, 4782.5580576131415, 25198.17205645705, 187500.0, 17544.018333437245, 17531.121376886535, 0.734, -0.652, 0.292, 192.0, 0.0, 0.0, 0.0, 0.0, 0.0, 0.0, 0.0, 0.0, 0.0, 1.6635805940733132E9, 0.0, 2022-09-19 14:43:14.073
103.0, 7230.968145247477, 9487.309692777359, 11624.136462704715, 4765.570731827108, 25185.923300495542, 187500.0, 17462.45681791983, 17529.824975708125, 0.734, -0.652, 0.292, 192.0, 0.0, 0.0, 0.0, 0.0, 0.0, 0.0, 0.0, 0.0, 0.0, 1.6635805940783596E9, 0.0, 2022-09-19 14:43:14.078
104.0, 6980.986235259323, 9334.84844384771, 11572.079249868304, 4631.817893006551, 25006.796420430714, 187500.0, 17188.022099497568, 17447.50350087923, 0.734, -0.652, 0.292, 192.0, 0.0, 0.0, 0.0, 0.0, 0.0, 0.0, 0.0, 0.0, 0.0, 1.6635805940822933E9, 0.0, 2022-09-19 14:43:14.082
105.0, 6938.003830671768, 9313.502527892892, 11588.977168676516, 4615.143491642892, 24981.293080007206, 187500.0, 17183.909378517794, 17436.327628651576, 0.728, -0.658, 0.29, 192.0, 22.0, 192.0, 235.0, 112.0, 9.0, 16.0, 0.0, 0.0, 0.0, 1.6635805940853267E9, 0.0, 2022-09-19 14:43:14.085
106.0, 7012.1669187744765, 9363.749249428422, 11622.638895826209, 4658.304710186089, 25036.256019622808, 187500.0, 17282.726440754705, 17466.79305634416, 0.728, -0.658, 0.29, 192.0, 0.0, 0.0, 0.0, 0.0, 0.0, 0.0, 0.0, 0.0, 0.0, 1.663580594088378E9, 0.0, 2022-09-19 14:43:14.088
107.0, 7250.883549557156, 9512.924791923142, 11663.922567835161, 4786.022578003714, 25211.56075138578, 187500.0, 17536.485795555807, 17548.86866198405, 0.728, -0.658, 0.29, 192.0, 0.0, 0.0, 0.0, 0.0, 0.0, 0.0, 0.0, 0.0, 0.0, 1.6635805940923495E9, 0.0, 2022-09-19 14:43:14.092
108.0, 7244.937985532044, 9507.515669764956, 11628.696218573597, 4774.913761009427, 25206.531608883335, 187500.0, 17470.816370346114, 17548.935717217413, 0.728, -0.658, 0.29, 192.0, 0.0, 0.0, 0.0, 0.0, 0.0, 0.0, 0.0, 0.0, 0.0, 1.6635805940963356E9, 0.0, 2022-09-19 14:43:14.096
109.0, 6994.062005765678, 9352.483970222947, 11571.565159745833, 4640.691535555307, 25025.169554372973, 187500.0, 17197.02985251306, 17465.98839354377, 0.728, -0.658, 0.29, 192.0, 0.0, 0.0, 0.0, 0.0, 0.0, 0.0, 0.0, 0.0, 0.0, 1.6635805941013534E9, 0.0, 2022-09-19 14:43:14.101
110.0, 6942.51888305174, 9323.94079255352, 11588.53013378741, 4618.67506726683, 24989.674984177946, 187500.0, 17183.998785495616, 17447.190576456855, 0.728, -0.658, 0.29, 192.0, 0.0, 0.0, 0.0, 0.0, 0.0, 0.0, 0.0, 0.0, 0.0, 1.6635805941053019E9, 0.0, 2022-09-19 14:43:14.105
111.0, 7005.394340204518, 9365.09035409574, 11617.453291112577, 4656.225997951746, 25037.15008940102, 187500.0, 17276.914987196327, 17470.41403894592, 0.728, -0.658, 0.29, 192.0, 0.0, 0.0, 0.0, 0.0, 0.0, 0.0, 0.0, 0.0, 0.0, 1.663580594108409E9, 0.0, 2022-09-19 14:43:14.108
112.0, 7242.456941897505, 9510.220230844048, 11658.044059043415, 4776.321920910111, 25208.610321117678, 187500.0, 17524.75112971677, 17549.33804861761, 0.728, -0.658, 0.29, 192.0, 0.0, 0.0, 0.0, 0.0, 0.0, 0.0, 0.0, 0.0, 0.0, 1.6635805941123831E9, 0.0, 2022-09-19 14:43:14.112
113.0, 7246.413200666095, 9508.11916686525, 11629.97026800755, 4768.5882173285745, 25210.75608858539, 187500.0, 17470.257576734733, 17553.406066108473, 0.728, -0.658, 0.29, 192.0, 0.0, 0.0, 0.0, 0.0, 0.0, 0.0, 0.0, 0.0, 0.0, 1.6635805941164105E9, 0.0, 2022-09-19 14:43:14.116
114.0, 6988.407014418485, 9346.761923642389, 11569.553502744855, 4628.956869716271, 25024.43194680595, 187500.0, 17188.804410553505, 17461.94272779736, 0.728, -0.658, 0.29, 192.0, 0.0, 0.0, 0.0, 0.0, 0.0, 0.0, 0.0, 0.0, 0.0, 1.6635805941204057E9, 0.0, 2022-09-19 14:43:14.120
115.0, 6929.353705567563, 9311.31205693627, 11578.67301448262, 4601.128947869414, 24984.243510275308, 187500.0, 17167.413791109775, 17437.199346685335, 0.724, -0.66, 0.292, 192.0, 22.0, 160.0, 235.0, 96.0, 9.0, 32.0, 0.0, 0.0, 0.0, 1.6635805941244636E9, 0.0, 2022-09-19 14:43:14.124
116.0, 6991.156278986487, 9354.47327547947, 11615.173413178136, 4639.417486121355, 25032.09859515412, 187500.0, 17260.531158510585, 17463.619108631505, 0.724, -0.66, 0.292, 192.0, 0.0, 0.0, 0.0, 0.0, 0.0, 0.0, 0.0, 0.0, 0.0, 1.6635805941294174E9, 0.0, 2022-09-19 14:43:14.129
117.0, 7229.314116157784, 9503.157079596172, 11660.078067788849, 4765.928359738393, 25205.86105654968, 187500.0, 17514.357568545052, 17547.81812999465, 0.724, -0.66, 0.292, 192.0, 0.0, 0.0, 0.0, 0.0, 0.0, 0.0, 0.0, 0.0, 0.0, 1.6635805941334398E9, 0.0, 2022-09-19 14:43:14.133
118.0, 7245.094447743231, 9509.393216299202, 11628.11507321776, 4766.598912072052, 25214.13120199814, 187500.0, 17472.15747501343, 17550.992077707302, 0.724, -0.66, 0.292, 192.0, 0.0, 0.0, 0.0, 0.0, 0.0, 0.0, 0.0, 0.0, 0.0, 1.6635805941364E9, 0.0, 2022-09-19 14:43:14.136
119.0, 6989.301084196697, 9352.595728945224, 11577.778944704407, 4634.388343618911, 25028.81288871919, 187500.0, 17190.63725359884, 17464.691992365362, 0.724, -0.66, 0.292, 192.0, 0.0, 0.0, 0.0, 0.0, 0.0, 0.0, 0.0, 0.0, 0.0, 1.6635805941414807E9, 0.0, 2022-09-19 14:43:14.141
120.0, 6934.584013770105, 9323.6502198756, 11598.186087392103, 4616.059913165559, 24992.51365572377, 187500.0, 17169.917186488772, 17447.68231483487, 0.724, -0.66, 0.292, 192.0, 0.0, 0.0, 0.0, 0.0, 0.0, 0.0, 0.0, 0.0, 0.0, 1.663580594146434E9, 0.0, 2022-09-19 14:43:14.146
121.0, 6994.710206354882, 9364.352746528715, 11619.084968457815, 4656.315404929567, 25040.77107200278, 187500.0, 17256.396085786353, 17473.006841302737, 0.724, -0.66, 0.292, 192.0, 0.0, 0.0, 0.0, 0.0, 0.0, 0.0, 0.0, 0.0, 0.0, 1.6635805941494255E9, 0.0, 2022-09-19 14:43:14.149
122.0, 7232.108084214698, 9510.197879099595, 11658.02170729896, 4782.289836679678, 25215.919341554563, 187500.0, 17503.40521376195, 17552.93667947491, 0.724, -0.66, 0.292, 192.0, 0.0, 0.0, 0.0, 0.0, 0.0, 0.0, 0.0, 0.0, 0.0, 1.663580594154392E9, 0.0, 2022-09-19 14:43:14.154
123.0, 7267.177971265075, 9527.632239774734, 11637.3463436778, 4796.349083942066, 25241.221516277972, 187500.0, 17493.99512934627, 17565.52071160325, 0.724, -0.66, 0.292, 192.0, 0.0, 0.0, 0.0, 0.0, 0.0, 0.0, 0.0, 0.0, 0.0, 1.663580594158434E9, 0.0, 2022-09-19 14:43:14.158
124.0, 7015.050293809211, 9372.33231929926, 11581.310520328347, 4668.139477746425, 25060.798235034734, 187500.0, 17216.31940797799, 17482.551036185152, 0.724, -0.66, 0.292, 192.0, 0.0, 0.0, 0.0, 0.0, 0.0, 0.0, 0.0, 0.0, 0.0, 1.6635805941614788E9, 0.0, 2022-09-19 14:43:14.161
125.0, 6955.259377391265, 9338.536481682835, 11581.377575561712, 4646.5476926025985, 25017.480554280348, 187500.0, 17186.010442496594, 17462.233300475276, 0.732, -0.662, 0.29, 192.0, 22.0, 224.0, 235.0, 80.0, 9.0, 16.0, 0.0, 0.0, 0.0, 1.6635805941654265E9, 0.0, 2022-09-19 14:43:14.165
126.0, 7013.3962647195185, 9378.411993791104, 11603.014064194449, 4689.5748006790645, 25063.21222343591, 187500.0, 17268.980117914693, 17485.210893775333, 0.732, -0.662, 0.29, 192.0, 0.0, 0.0, 0.0, 0.0, 0.0, 0.0, 0.0, 0.0, 0.0, 1.663580594168459E9, 0.0, 2022-09-19 14:43:14.168
127.0, 7253.38694493615, 9527.900460708197, 11655.83123634234, 4822.2994592546775, 25242.517917456382, 187500.0, 17525.332275072607, 17567.867644771057, 0.732, -0.662, 0.29, 192.0, 0.0, 0.0, 0.0, 0.0, 0.0, 0.0, 0.0, 0.0, 0.0, 1.6635805941724308E9, 0.0, 2022-09-19 14:43:14.172
128.0, 7316.955306167043, 9563.886769281242, 11635.088817487815, 4854.038936381214, 25290.261243612917, 187500.0, 17533.445958309883, 17594.57797939515, 0.732, -0.662, 0.29, 192.0, 0.0, 0.0, 0.0, 0.0, 0.0, 0.0, 0.0, 0.0, 0.0, 1.663580594176606E9, 0.0, 2022-09-19 14:43:14.176
129.0, 7085.994730710356, 9422.221412923505, 11566.424258521112, 4736.692277990852, 25125.0818520882, 187500.0, 17263.146312611858, 17522.001865148766, 0.732, -0.662, 0.29, 192.0, 0.0, 0.0, 0.0, 0.0, 0.0, 0.0, 0.0, 0.0, 0.0, 1.6635805941804488E9, 0.0, 2022-09-19 14:43:14.180
130.0, 7031.121198072577, 9393.722938742989, 11572.302767312858, 4717.201556825824, 25089.140247004063, 187500.0, 17232.390312241354, 17505.2827602962, 0.732, -0.662, 0.29, 192.0, 0.0, 0.0, 0.0, 0.0, 0.0, 0.0, 0.0, 0.0, 0.0, 1.663580594185417E9, 0.0, 2022-09-19 14:43:14.185
131.0, 7086.665283044015, 9433.285526428883, 11603.595209550287, 4754.596025299553, 25134.044901614776, 187500.0, 17308.36389164494, 17529.04266465219, 0.732, -0.662, 0.29, 192.0, 0.0, 0.0, 0.0, 0.0, 0.0, 0.0, 0.0, 0.0, 0.0, 1.6635805941884499E9, 0.0, 2022-09-19 14:43:14.188
132.0, 7308.483995018482, 9568.982967017051, 11630.931393019127, 4867.829962710138, 25293.703412259034, 187500.0, 17541.827862480626, 17597.282540474243, 0.732, -0.662, 0.29, 192.0, 0.0, 0.0, 0.0, 0.0, 0.0, 0.0, 0.0, 0.0, 0.0, 1.6635805941915395E9, 0.0, 2022-09-19 14:43:14.191
133.0, 7353.701574051568, 9589.32305447138, 11602.432918838611, 4878.87172447106, 25321.933665506087, 187500.0, 17522.3371413156, 17606.267941745275, 0.732, -0.662, 0.29, 192.0, 0.0, 0.0, 0.0, 0.0, 0.0, 0.0, 0.0, 0.0, 0.0, 1.663580594196462E9, 0.0, 2022-09-19 14:43:14.196
134.0, 7088.5875330671715, 9424.970677491508, 11563.093848597271, 4737.631051257975, 25130.245105057373, 187500.0, 17236.45832973222, 17516.011597634744, 0.732, -0.662, 0.29, 192.0, 0.0, 0.0, 0.0, 0.0, 0.0, 0.0, 0.0, 0.0, 0.0, 1.6635805942004347E9, 0.0, 2022-09-19 14:43:14.200
135.0, 6995.872497066557, 9369.873627409175, 11555.203682804547, 4693.799280381118, 25062.474615868883, 187500.0, 17177.516779603575, 17479.041812305666, 0.732, -0.662, 0.29, 192.0, 0.0, 0.0, 0.0, 0.0, 0.0, 0.0, 0.0, 0.0, 0.0, 1.663580594204497E9, 0.0, 2022-09-19 14:43:14.204
136.0, 7028.215471293387, 9390.437232308059, 11576.706060970553, 4713.491167246243, 25086.078058013685, 187500.0, 17244.393199013855, 17489.927111855402, 0.736, -0.656, 0.3, 192.0, 23.0, 0.0, 235.0, 128.0, 9.0, 96.0, 0.0, 0.0, 0.0, 1.6635805942086945E9, 0.0, 2022-09-19 14:43:14.208
137.0, 7240.467636640983, 9520.390274571213, 11609.831346253319, 4822.612383677052, 25239.656894166103, 187500.0, 17482.551036185152, 17556.356496376575, 0.736, -0.656, 0.3, 192.0, 0.0, 0.0, 0.0, 0.0, 0.0, 0.0, 0.0, 0.0, 0.0, 1.663580594212592E9, 0.0, 2022-09-19 14:43:14.212
138.0, 7301.599657726248, 9552.710897053588, 11594.140421645692, 4844.494741498797, 25281.43230455307, 187500.0, 17495.827972391602, 17571.890958773012, 0.736, -0.656, 0.3, 192.0, 0.0, 0.0, 0.0, 0.0, 0.0, 0.0, 0.0, 0.0, 0.0, 1.663580594217559E9, 0.0, 2022-09-19 14:43:14.217
139.0, 7044.241672067842, 9394.684063754567, 11548.431104234589, 4708.864356143994, 25095.6222528961, 187500.0, 17208.004559040615, 17488.630710676993, 0.736, -0.656, 0.3, 192.0, 0.0, 0.0, 0.0, 0.0, 0.0, 0.0, 0.0, 0.0, 0.0, 1.663580594221522E9, 0.0, 2022-09-19 14:43:14.221
140.0, 6955.013508202256, 9342.872720107165, 11546.33004025579, 4663.445611410811, 25032.076243409665, 187500.0, 17158.137817160823, 17454.611355616016, 0.736, -0.656, 0.3, 192.0, 0.0, 0.0, 0.0, 0.0, 0.0, 0.0, 0.0, 0.0, 0.0, 1.6635805942255087E9, 0.0, 2022-09-19 14:43:14.225
141.0, 6994.687854610426, 9369.024261119874, 11563.205607319547, 4685.439727954832, 25058.42895012247, 187500.0, 17228.545812195043, 17466.16720749941, 0.736, -0.656, 0.3, 192.0, 0.0, 0.0, 0.0, 0.0, 0.0, 0.0, 0.0, 0.0, 0.0, 1.663580594229601E9, 0.0, 2022-09-19 14:43:14.229
142.0, 7204.816604234768, 9497.658550460166, 11604.846907239784, 4793.443357162876, 25208.56561762877, 187500.0, 17462.657983619927, 17534.250621110277, 0.736, -0.656, 0.3, 192.0, 0.0, 0.0, 0.0, 0.0, 0.0, 0.0, 0.0, 0.0, 0.0, 1.6635805942346156E9, 0.0, 2022-09-19 14:43:14.234
143.0, 7269.3237387327845, 9533.443693333113, 11591.34645358878, 4814.588107417597, 25253.80554840631, 187500.0, 17492.452858978853, 17552.310830630166, 0.736, -0.656, 0.3, 192.0, 0.0, 0.0, 0.0, 0.0, 0.0, 0.0, 0.0, 0.0, 0.0, 1.6635805942375417E9, 0.0, 2022-09-19 14:43:14.237
144.0, 6988.4517179073955, 9358.116609825684, 11528.13572026917, 4658.438820652821, 25049.041217451242, 187500.0, 17186.233959941146, 17451.772684070194, 0.736, -0.656, 0.3, 192.0, 0.0, 0.0, 0.0, 0.0, 0.0, 0.0, 0.0, 0.0, 0.0, 1.6635805942416673E9, 0.0, 2022-09-19 14:43:14.241
145.0, 6862.45493441283, 9283.193562411496, 11549.436932735078, 4592.925857654316, 24955.588573883604, 187500.0, 17108.38283400331, 17404.16346838039, 0.736, -0.656, 0.3, 192.0, 0.0, 0.0, 0.0, 0.0, 0.0, 0.0, 0.0, 0.0, 0.0, 1.6635805942445717E9, 0.0, 2022-09-19 14:43:14.244
146.0, 6864.153666991433, 9285.652254301578, 11568.01123237744, 4594.088148365992, 24955.789739583703, 187500.0, 17155.276793870544, 17396.899151432415, 0.732, -0.658, 0.302, 192.0, 22.0, 224.0, 235.0, 112.0, 9.0, 112.0, 0.0, 0.0, 0.0, 1.6635805942475781E9, 0.0, 2022-09-19 14:43:14.247
147.0, 7040.598337721627, 9393.05238640933, 11608.624352052731, 4681.483469186243, 25080.8701015556, 187500.0, 17378.771886679162, 17448.017591001702, 0.732, -0.658, 0.302, 192.0, 0.0, 0.0, 0.0, 0.0, 0.0, 0.0, 0.0, 0.0, 0.0, 1.6635805942515697E9, 0.0, 2022-09-19 14:43:14.251
148.0, 7101.573896595704, 9423.763683290921, 11597.001444935971, 4702.762329907695, 25121.505572975348, 187500.0, 17416.993369697735, 17465.966041799315, 0.732, -0.658, 0.302, 192.0, 0.0, 0.0, 0.0, 0.0, 0.0, 0.0, 0.0, 0.0, 0.0, 1.663580594256575E9, 0.0, 2022-09-19 14:43:14.256
149.0, 6830.044904952634, 9253.778666708311, 11533.298973238347, 4555.084354291482, 24921.0327769557, 187500.0, 17121.86093590986, 17373.876854643448, 0.732, -0.658, 0.302, 192.0, 0.0, 0.0, 0.0, 0.0, 0.0, 0.0, 0.0, 0.0, 0.0, 1.6635805942606723E9, 0.0, 2022-09-19 14:43:14.260
150.0, 6716.922726264325, 9185.851715308632, 11540.09390355276, 4498.534440819555, 24837.43725269285, 187500.0, 17058.493740379065, 17333.91193555736, 0.732, -0.658, 0.302, 192.0, 0.0, 0.0, 0.0, 0.0, 0.0, 0.0, 0.0, 0.0, 0.0, 1.6635805942646303E9, 0.0, 2022-09-19 14:43:14.264
151.0, 6746.225863245233, 9208.561087675225, 11570.536979500888, 4517.980458495672, 24859.34196225905, 187500.0, 17127.67238946824, 17347.546499675096, 0.732, -0.658, 0.302, 192.0, 0.0, 0.0, 0.0, 0.0, 0.0, 0.0, 0.0, 0.0, 0.0, 1.663580594268655E9, 0.0, 2022-09-19 14:43:14.268
152.0, 6950.498455822284, 9336.27895549285, 11610.054863697871, 4626.788750504106, 25007.08699310863, 187500.0, 17362.18689229332, 17416.523983064173, 0.732, -0.658, 0.302, 192.0, 0.0, 0.0, 0.0, 0.0, 0.0, 0.0, 0.0, 0.0, 0.0, 1.6635805942726269E9, 0.0, 2022-09-19 14:43:14.272
153.0, 7052.176541349476, 9394.996988176941, 11605.651570040176, 4674.085041771536, 25079.528996888283, 187500.0, 17439.45687287532, 17454.67841084938, 0.732, -0.658, 0.302, 192.0, 0.0, 0.0, 0.0, 0.0, 0.0, 0.0, 0.0, 0.0, 0.0, 1.6635805942756984E9, 0.0, 2022-09-19 14:43:14.275
154.0, 6807.983733175246, 9244.614451481635, 11553.259081036937, 4543.3049849635345, 24902.59258778007, 187500.0, 17154.53918630352, 17378.078982601044, 0.732, -0.658, 0.302, 192.0, 0.0, 0.0, 0.0, 0.0, 0.0, 0.0, 0.0, 0.0, 0.0, 1.6635805942806509E9, 0.0, 2022-09-19 14:43:14.280
155.0, 6704.361045880443, 9183.996520518842, 11551.314479269324, 4495.382844851357, 24830.23999097824, 187500.0, 17089.22738900511, 17344.77488336264, 0.732, -0.658, 0.302, 192.0, 0.0, 0.0, 0.0, 0.0, 0.0, 0.0, 0.0, 0.0, 0.0, 1.6635805942846828E9, 0.0, 2022-09-19 14:43:14.284
156.0, 6740.90614806487, 9212.137366788074, 11573.085078368793, 4523.926022520784, 24858.894927369944, 187500.0, 17159.16599740577, 17363.30447951609, 0.732, -0.652, 0.302, 192.0, 22.0, 224.0, 235.0, 160.0, 9.0, 112.0, 0.0, 0.0, 0.0, 1.6635805942886717E9, 0.0, 2022-09-19 14:43:14.288
157.0, 6947.3021563651755, 9338.983516571941, 11614.860488755761, 4637.227015164735, 25008.785725687234, 187500.0, 17392.540561263628, 17434.226564672776, 0.732, -0.652, 0.302, 192.0, 0.0, 0.0, 0.0, 0.0, 0.0, 0.0, 0.0, 0.0, 0.0, 1.6635805942926977E9, 0.0, 2022-09-19 14:43:14.292
158.0, 7067.77805897928, 9405.636418537668, 11606.389177607201, 4692.257010013701, 25092.649470883545, 187500.0, 17471.77749535769, 17476.337251226574, 0.732, -0.652, 0.302, 192.0, 0.0, 0.0, 0.0, 0.0, 0.0, 0.0, 0.0, 0.0, 0.0, 1.663580594296651E9, 0.0, 2022-09-19 14:43:14.296
159.0, 6827.943840973836, 9258.226663854917, 11544.81012163283, 4564.740307896174, 24917.79177400968, 187500.0, 17189.452611142708, 17399.894285189424, 0.732, -0.652, 0.302, 192.0, 0.0, 0.0, 0.0, 0.0, 0.0, 0.0, 0.0, 0.0, 0.0, 1.6635805943007374E9, 0.0, 2022-09-19 14:43:14.300
160.0, 6718.867328031937, 9195.261799724318, 11543.066685565316, 4513.957144493716, 24838.800709104624, 187500.0, 17112.361444516355, 17363.416238238366, 0.732, -0.652, 0.302, 192.0, 0.0, 0.0, 0.0, 0.0, 0.0, 0.0, 0.0, 0.0, 0.0, 1.663580594305699E9, 0.0, 2022-09-19 14:43:14.305
161.0, 6757.737011639716, 9222.195651792963, 11573.129781857704, 4541.785066340574, 24868.48382574127, 187500.0, 17176.108619702893, 17380.403564024396, 0.732, -0.652, 0.302, 192.0, 0.0, 0.0, 0.0, 0.0, 0.0, 0.0, 0.0, 0.0, 0.0, 1.6635805943097484E9, 0.0, 2022-09-19 14:43:14.309
162.0, 6959.305043137675, 9349.533539954846, 11611.105395687271, 4649.520474615154, 25015.603007746104, 187500.0, 17405.81749747008, 17453.89609979345, 0.732, -0.652, 0.302, 192.0, 0.0, 0.0, 0.0, 0.0, 0.0, 0.0, 0.0, 0.0, 0.0, 1.6635805943127348E9, 0.0, 2022-09-19 14:43:14.312
163.0, 7087.134669677576, 9425.171843191605, 11612.53590733241, 4709.2443357997345, 25107.20045652395, 187500.0, 17495.090364824577, 17498.55488521515, 0.732, -0.652, 0.302, 192.0, 0.0, 0.0, 0.0, 0.0, 0.0, 0.0, 0.0, 0.0, 0.0, 1.6635805943176963E9, 0.0, 2022-09-19 14:43:14.317
164.0, 6852.128428474478, 9280.846629243688, 11555.583662460287, 4584.4321947613, 24937.014274241243, 187500.0, 17212.944294565237, 17421.709587777805, 0.732, -0.652, 0.302, 192.0, 0.0, 0.0, 0.0, 0.0, 0.0, 0.0, 0.0, 0.0, 0.0, 1.6635805943217428E9, 0.0, 2022-09-19 14:43:14.321
165.0, 6729.685572348306, 9209.67867489799, 11538.70809539653, 4525.870624288395, 24849.14956678743, 187500.0, 17122.57619173243, 17377.4531337563, 0.732, -0.652, 0.302, 192.0, 0.0, 0.0, 0.0, 0.0, 0.0, 0.0, 0.0, 0.0, 0.0, 1.6635805943267856E9, 0.0, 2022-09-19 14:43:14.326
166.0, 6759.368688984953, 9231.24810829736, 11562.132723585693, 4549.161142010826, 24871.83658740957, 187500.0, 17182.188294194733, 17390.037165884634, 0.734, -0.656, 0.302, 192.0, 22.0, 240.0, 235.0, 128.0, 9.0, 112.0, 0.0, 0.0, 0.0, 1.6635805943297691E9, 0.0, 2022-09-19 14:43:14.329
167.0, 6953.203016901376, 9349.779409143855, 11600.801241493375, 4654.616672350964, 25012.63022573355, 187500.0, 17400.810706712095, 17455.55012888314, 0.734, -0.656, 0.302, 192.0, 0.0, 0.0, 0.0, 0.0, 0.0, 0.0, 0.0, 0.0, 0.0, 1.6635805943327615E9, 0.0, 2022-09-19 14:43:14.332
168.0, 7091.627370313093, 9429.932764760586, 11600.398910093178, 4720.464911516298, 25111.268474014818, 187500.0, 17502.287626539186, 17502.37703351701, 0.734, -0.656, 0.302, 192.0, 0.0, 0.0, 0.0, 0.0, 0.0, 0.0, 0.0, 0.0, 0.0, 1.6635805943367574E9, 0.0, 2022-09-19 14:43:14.336
169.0, 6854.2071407088215, 9281.69599553299, 11544.743066399464, 4591.830622176007, 24942.51280337725, 187500.0, 17221.728530136174, 17428.45981460331, 0.734, -0.656, 0.302, 192.0, 0.0, 0.0, 0.0, 0.0, 0.0, 0.0, 0.0, 0.0, 0.0, 1.663580594340752E9, 0.0, 2022-09-19 14:43:14.340
170.0, 6723.024752500624, 9203.755462617333, 11539.445702963556, 4526.876452788884, 24849.48484295426, 187500.0, 17120.00574112007, 17385.410354782387, 0.734, -0.656, 0.302, 192.0, 0.0, 0.0, 0.0, 0.0, 0.0, 0.0, 0.0, 0.0, 0.0, 1.6635805943448143E9, 0.0, 2022-09-19 14:43:14.344
