%OpenBCI Raw EEG Data
%Number of channels = 8
%Sample Rate = 250 Hz
%Board = OpenBCI_GUI$BoardCytonSerial
Sample Index, EXG Channel 0, EXG Channel 1, EXG Channel 2, EXG Channel 3, EXG Channel 4, EXG Channel 5, EXG Channel 6, EXG Channel 7, Accel Channel 0, Accel Channel 1, Accel Channel 2, Other, Other, Other, Other, Other, Other, Other, Analog Channel 0, Analog Channel 1, Analog Channel 2, Timestamp, Other, Timestamp (Formatted)
15.0, -35811.60733838169, -45646.79958186145, -39326.24034002308, -35140.96559774466, -42754.37209062244, -26640.46307092465, -13070.20492198526, -31732.90571366617, 0.0, 0.0, 0.0, 192.0, 0.0, 0.0, 0.0, 0.0, 0.0, 0.0, 0.0, 0.0, 0.0, 1.6635006691041265E9, 0.0, 2022-09-18 16:31:09.104
16.0, -35339.22557106323, -46455.64215846565, -39476.064083107005, -36050.14515520873, -42770.264180930164, -26865.388675378406, -13150.69355376882, -31295.929109564917, 0.0, 0.0, 0.0, 192.0, 0.0, 0.0, 0.0, 0.0, 0.0, 0.0, 0.0, 0.0, 0.0, 1.6635006691041567E9, 0.0, 2022-09-18 16:31:09.104
17.0, -33949.14823164323, -45104.3450956756, -39963.51092618834, -34990.94068896064, -43172.036787514306, -27406.79262957485, -11872.30788139199, -31156.92361079736, 0.0, 0.0, 0.0, 192.0, 0.0, 0.0, 0.0, 0.0, 0.0, 0.0, 0.0, 0.0, 0.0, 1.6635006691041727E9, 0.0, 2022-09-18 16:31:09.104
0.0, 0.0, 0.0, 0.0, 0.0, 0.0, 0.0, 0.0, 0.0, 0.0, 0.0, 0.0, 192.0, 0.0, 0.0, 0.0, 0.0, 0.0, 0.0, 0.0, 0.0, 0.0, 1.66350066920658E9, 0.0, 2022-09-18 16:31:09.206
1.0, -32809.25396791148, -43119.66665025552, -49006.33382872747, -35627.54072279224, -43044.00599527431, -25923.575571009587, -10354.467970665452, -31357.754034728296, 0.75, -0.526, 0.47200000000000003, 192.0, 23.0, 112.0, 239.0, 144.0, 14.0, 192.0, 0.0, 0.0, 0.0, 1.6635006692235367E9, 0.0, 2022-09-18 16:31:09.223
2.0, -32492.932080379975, -43871.624037220965, -49133.559958167076, -36393.11032213096, -43018.74852403981, -26060.189433120424, -10291.503106534852, -31016.37584166239, 0.75, -0.526, 0.47200000000000003, 192.0, 0.0, 0.0, 0.0, 0.0, 0.0, 0.0, 0.0, 0.0, 0.0, 1.6635006692265396E9, 0.0, 2022-09-18 16:31:09.226
3.0, -31507.555426067764, -42977.39779679749, -49457.235569624376, -35663.571734854195, -43272.8655067522, -26427.294484054386, -9751.529663983543, -30824.66492946922, 0.75, -0.526, 0.47200000000000003, 192.0, 0.0, 0.0, 0.0, 0.0, 0.0, 0.0, 0.0, 0.0, 0.0, 1.6635006692305875E9, 0.0, 2022-09-18 16:31:09.230
4.0, -30498.21770169946, -40955.72721430388, -49819.020905377976, -33814.36721257773, -43599.02216184404, -26830.139974372385, -9114.124967351552, -30720.483448563034, 0.75, -0.526, 0.47200000000000003, 192.0, 0.0, 0.0, 0.0, 0.0, 0.0, 0.0, 0.0, 0.0, 0.0, 1.663500669234566E9, 0.0, 2022-09-18 16:31:09.234
5.0, -31194.921576371384, -40795.68872400388, -49541.881625876624, -33535.193924330946, -43505.435407809666, -26485.18550219363, -9410.062063939818, -31149.54753512711, 0.75, -0.526, 0.47200000000000003, 192.0, 0.0, 0.0, 0.0, 0.0, 0.0, 0.0, 0.0, 0.0, 0.0, 1.6635006692375867E9, 0.0, 2022-09-18 16:31:09.237
6.0, -32687.995754241438, -43145.63937731259, -49016.14624454335, -35658.22966792937, -43053.61724539009, -25932.98565542527, -10353.998584031891, -31345.77349970025, 0.75, -0.526, 0.47200000000000003, 192.0, 0.0, 0.0, 0.0, 0.0, 0.0, 0.0, 0.0, 0.0, 0.0, 1.6635006692415016E9, 0.0, 2022-09-18 16:31:09.241
7.0, -32370.623334720534, -43841.47153395075, -49154.36943225496, -36372.81493816554, -43045.59296913064, -26088.01735496728, -10272.727641192394, -31000.99784147714, 0.75, -0.526, 0.47200000000000003, 192.0, 0.0, 0.0, 0.0, 0.0, 0.0, 0.0, 0.0, 0.0, 0.0, 1.6635006692456284E9, 0.0, 2022-09-18 16:31:09.245
8.0, -31418.12609650208, -42921.630194381505, -49432.04515362324, -35609.56992025017, -43294.32318142929, -26443.9912371625, -9715.431596688222, -30808.61637695031, 0.756, -0.522, 0.47800000000000004, 192.0, 23.0, 160.0, 239.0, 176.0, 14.0, 240.0, 0.0, 0.0, 0.0, 1.6635006692495892E9, 0.0, 2022-09-18 16:31:09.249
9.0, -30446.20519235196, -40898.48439675384, -49786.32030323986, -33741.09819425323, -43579.889068590295, -26793.594872187958, -9075.501152932782, -30678.596279453788, 0.756, -0.522, 0.47800000000000004, 192.0, 0.0, 0.0, 0.0, 0.0, 0.0, 0.0, 0.0, 0.0, 0.0, 1.6635006692545872E9, 0.0, 2022-09-18 16:31:09.254
10.0, -31200.040125851647, -40841.57685537063, -49519.37341921013, -33556.2716193523, -43476.199326062124, -26433.597675990783, -9425.48476761398, -31141.880886778938, 0.756, -0.522, 0.47800000000000004, 192.0, 0.0, 0.0, 0.0, 0.0, 0.0, 0.0, 0.0, 0.0, 0.0, 1.6635006692586129E9, 0.0, 2022-09-18 16:31:09.258
11.0, -32671.142538922137, -43189.582906911724, -48999.69536062424, -35681.117854251606, -43040.608530117104, -25921.474507030787, -10349.550586885285, -31311.35181323908, 0.756, -0.522, 0.47800000000000004, 192.0, 0.0, 0.0, 0.0, 0.0, 0.0, 0.0, 0.0, 0.0, 0.0, 1.6635006692625644E9, 0.0, 2022-09-18 16:31:09.262
12.0, -32355.826479891122, -43841.851513606496, -49154.97292935526, -36350.68671115478, -43059.92043732649, -26109.050346499724, -10237.59069890865, -30982.311783112502, 0.756, -0.522, 0.47800000000000004, 192.0, 0.0, 0.0, 0.0, 0.0, 0.0, 0.0, 0.0, 0.0, 0.0, 1.6635006692656164E9, 0.0, 2022-09-18 16:31:09.265
13.0, -31402.703392827916, -42894.20460393484, -49464.05285168324, -35554.69638761239, -43290.27751568288, -26445.958190674566, -9683.736823050598, -30797.70872565612, 0.756, -0.522, 0.47800000000000004, 192.0, 0.0, 0.0, 0.0, 0.0, 0.0, 0.0, 0.0, 0.0, 0.0, 1.6635006692695522E9, 0.0, 2022-09-18 16:31:09.269
14.0, -30422.82526765171, -40876.065597065164, -49829.973260161074, -33685.7999784708, -43587.44395821619, -26806.69299443877, -9072.997757553787, -30692.856692416277, 0.756, -0.522, 0.47800000000000004, 192.0, 0.0, 0.0, 0.0, 0.0, 0.0, 0.0, 0.0, 0.0, 0.0, 1.6635006692736993E9, 0.0, 2022-09-18 16:31:09.273
15.0, -31218.636777238466, -40913.884748683544, -49529.63286991511, -33589.26279416833, -43472.55599171591, -26435.586981247307, -9465.404983211158, -31199.146056073438, 0.756, -0.522, 0.47800000000000004, 192.0, 0.0, 0.0, 0.0, 0.0, 0.0, 0.0, 0.0, 0.0, 0.0, 1.6635006692776425E9, 0.0, 2022-09-18 16:31:09.277
16.0, -32638.151364106106, -43256.481678066455, -49043.21420707872, -35721.932139627, -43053.23726573435, -25941.188745640367, -10380.86538086717, -31403.44100039494, 0.756, -0.522, 0.47800000000000004, 192.0, 0.0, 0.0, 0.0, 0.0, 0.0, 0.0, 0.0, 0.0, 0.0, 1.66350066928257E9, 0.0, 2022-09-18 16:31:09.282
17.0, -32254.0142838972, -43838.118772282454, -49220.08356095357, -36333.2747022241, -43061.28389373826, -26111.531390134263, -10246.464341457407, -31021.18146672028, 0.756, -0.522, 0.47800000000000004, 192.0, 0.0, 0.0, 0.0, 0.0, 0.0, 0.0, 0.0, 0.0, 0.0, 1.6635006692866168E9, 0.0, 2022-09-18 16:31:09.286
18.0, -31298.410153199453, -42855.37962381597, -49494.22770669791, -35509.635270790495, -43302.61567862221, -26460.777397248436, -9702.914619793251, -30783.09068478235, 0.754, -0.522, 0.486, 192.0, 23.0, 144.0, 239.0, 176.0, 15.0, 48.0, 0.0, 0.0, 0.0, 1.6635006692907343E9, 0.0, 2022-09-18 16:31:09.290
19.0, -30381.742761342855, -40832.90437852197, -49786.65557940669, -33633.27337900083, -43571.373053952826, -26792.700802409745, -9081.491420446804, -30672.762474150953, 0.754, -0.522, 0.486, 192.0, 0.0, 0.0, 0.0, 0.0, 0.0, 0.0, 0.0, 0.0, 0.0, 1.663500669293668E9, 0.0, 2022-09-18 16:31:09.293
20.0, -31249.839812498074, -40954.63197882557, -49485.331712404695, -33619.16942824953, -43432.792238329916, -26394.437419705086, -9493.054091102373, -31151.603895616998, 0.754, -0.522, 0.486, 192.0, 0.0, 0.0, 0.0, 0.0, 0.0, 0.0, 0.0, 0.0, 0.0, 1.6635006692976592E9, 0.0, 2022-09-18 16:31:09.297
21.0, -32644.409852553592, -43277.64878006563, -48968.134697453344, -35740.10410786916, -43012.17711116995, -25913.338472049058, -10359.899444568091, -31299.885368333504, 0.754, -0.522, 0.486, 192.0, 0.0, 0.0, 0.0, 0.0, 0.0, 0.0, 0.0, 0.0, 0.0, 1.6635006693016114E9, 0.0, 2022-09-18 16:31:09.301
22.0, -32272.588583539557, -43812.45896964776, -49135.213987256764, -36306.586719344465, -43035.24411144783, -26097.78506729425, -10186.53931457273, -30935.17195405626, 0.754, -0.522, 0.486, 192.0, 0.0, 0.0, 0.0, 0.0, 0.0, 0.0, 0.0, 0.0, 0.0, 1.6635006693057003E9, 0.0, 2022-09-18 16:31:09.305
23.0, -31323.779383156227, -42806.272841247664, -49507.45993941545, -35461.333151022576, -43301.34162918826, -26468.019362451956, -9647.10231388835, -30762.907059539208, 0.754, -0.522, 0.486, 192.0, 0.0, 0.0, 0.0, 0.0, 0.0, 0.0, 0.0, 0.0, 0.0, 1.663500669309692E9, 0.0, 2022-09-18 16:31:09.309
24.0, -30387.129531756585, -40797.65567751595, -49875.369653149806, -33594.8283785377, -43591.46727221814, -26809.889293895878, -9080.977330324333, -30697.63996572971, 0.754, -0.522, 0.486, 192.0, 0.0, 0.0, 0.0, 0.0, 0.0, 0.0, 0.0, 0.0, 0.0, 1.6635006693146892E9, 0.0, 2022-09-18 16:31:09.314
25.0, -31307.954348081872, -41016.725124922414, -49496.0829014877, -33668.7455974514, -43442.381136701246, -26403.154600042653, -9531.566146798867, -31216.915692915405, 0.754, -0.522, 0.486, 192.0, 0.0, 0.0, 0.0, 0.0, 0.0, 0.0, 0.0, 0.0, 0.0, 1.6635006693187208E9, 0.0, 2022-09-18 16:31:09.318
26.0, -32690.38739089816, -43340.41247849613, -49008.94898282874, -35794.55295736229, -43037.54634112673, -25945.502632320244, -10384.06168032428, -31362.671418508464, 0.754, -0.522, 0.486, 192.0, 0.0, 0.0, 0.0, 0.0, 0.0, 0.0, 0.0, 0.0, 0.0, 1.6635006693216746E9, 0.0, 2022-09-18 16:31:09.321
27.0, -32258.305818832618, -43813.442446403795, -49164.53947598213, -36306.34085015546, -43059.92043732649, -26138.39818696954, -10181.867799981572, -30983.675239524277, 0.754, -0.522, 0.486, 192.0, 0.0, 0.0, 0.0, 0.0, 0.0, 0.0, 0.0, 0.0, 0.0, 1.6635006693257165E9, 0.0, 2022-09-18 16:31:09.325
28.0, -31292.643403129987, -42766.218515183755, -49492.394863652575, -35421.748211592225, -43304.89555655665, -26496.22726395455, -9621.040179853462, -30780.341420214347, 0.754, -0.52, 0.484, 192.0, 23.0, 144.0, 239.0, 192.0, 15.0, 32.0, 0.0, 0.0, 0.0, 1.6635006693297448E9, 0.0, 2022-09-18 16:31:09.329
29.0, -30388.358877701627, -40750.73936590426, -49843.965452190096, -33544.961636657914, -43587.10868204936, -26816.08072711, -9057.418591668438, -30692.32025054935, 0.754, -0.52, 0.484, 192.0, 0.0, 0.0, 0.0, 0.0, 0.0, 0.0, 0.0, 0.0, 0.0, 1.663500669333788E9, 0.0, 2022-09-18 16:31:09.333
30.0, -31366.62767727705, -41069.98933195941, -49513.3384482072, -33713.82906601776, -43439.76598259997, -26392.60457665975, -9563.104458225305, -31213.294710313647, 0.754, -0.52, 0.484, 192.0, 0.0, 0.0, 0.0, 0.0, 0.0, 0.0, 0.0, 0.0, 0.0, 1.6635006693377695E9, 0.0, 2022-09-18 16:31:09.337
31.0, -32682.474873360978, -43371.414348055645, -49022.56119520202, -35826.314786233284, -43023.554149097705, -25935.13142289298, -10401.473689254963, -31301.986432312304, 0.754, -0.52, 0.484, 192.0, 0.0, 0.0, 0.0, 0.0, 0.0, 0.0, 0.0, 0.0, 0.0, 1.6635006693427637E9, 0.0, 2022-09-18 16:31:09.342
32.0, -32222.833600382044, -43789.28021064761, -49183.58316225805, -36295.544957583545, -43074.225553777884, -26142.13092829358, -10192.753099531306, -30978.5119865551, 0.754, -0.52, 0.484, 192.0, 0.0, 0.0, 0.0, 0.0, 0.0, 0.0, 0.0, 0.0, 0.0, 1.6635006693468409E9, 0.0, 2022-09-18 16:31:09.346
33.0, -31237.501649558744, -42710.60737497895, -49532.82916937223, -35386.61126930848, -43331.360021991735, -26505.078554758857, -9643.794255708965, -30786.935184828664, 0.754, -0.52, 0.484, 192.0, 0.0, 0.0, 0.0, 0.0, 0.0, 0.0, 0.0, 0.0, 0.0, 1.6635006693498144E9, 0.0, 2022-09-18 16:31:09.349
34.0, -30370.16455771501, -40715.24479570923, -49870.519324603, -33524.286273036756, -43617.50705450858, -26830.25173309466, -9097.808193899178, -30690.82268367084, 0.754, -0.52, 0.484, 192.0, 0.0, 0.0, 0.0, 0.0, 0.0, 0.0, 0.0, 0.0, 0.0, 1.6635006693537984E9, 0.0, 2022-09-18 16:31:09.353
35.0, -31405.87734054057, -41117.956175560495, -49503.45897715795, -33768.70259865554, -43434.44626741961, -26376.824245074302, -9617.754473418532, -31196.352088016523, 0.754, -0.52, 0.484, 192.0, 0.0, 0.0, 0.0, 0.0, 0.0, 0.0, 0.0, 0.0, 0.0, 1.6635006693578095E9, 0.0, 2022-09-18 16:31:09.357
36.0, -32685.67117281809, -43405.880738005726, -49065.70006200076, -35870.8171094438, -43024.47057062037, -25940.65230377344, -10446.02071595439, -31272.14685346447, 0.754, -0.52, 0.484, 192.0, 0.0, 0.0, 0.0, 0.0, 0.0, 0.0, 0.0, 0.0, 0.0, 1.663500669361755E9, 0.0, 2022-09-18 16:31:09.361
37.0, -32192.12230350045, -43776.405605841355, -49200.63754327745, -36292.23689940416, -43067.654140908024, -26148.679989418983, -10213.495518385831, -30942.480974493144, 0.754, -0.52, 0.484, 192.0, 0.0, 0.0, 0.0, 0.0, 0.0, 0.0, 0.0, 0.0, 0.0, 1.6635006693657503E9, 0.0, 2022-09-18 16:31:09.365
38.0, -31233.120707645503, -42674.822232106, -49552.52105623735, -35362.29257134111, -43339.272539528916, -26520.031871799456, -9652.734953491086, -30790.131484285772, 0.756, -0.52, 0.484, 192.0, 23.0, 160.0, 239.0, 192.0, 15.0, 32.0, 0.0, 0.0, 0.0, 1.6635006693707533E9, 0.0, 2022-09-18 16:31:09.370
39.0, -30364.64367683455, -40675.637504534425, -49891.865240557825, -33495.13959826703, -43624.72666796764, -26825.021424892122, -9103.910220135478, -30707.564140267867, 0.756, -0.52, 0.484, 192.0, 0.0, 0.0, 0.0, 0.0, 0.0, 0.0, 0.0, 0.0, 0.0, 1.6635006693738492E9, 0.0, 2022-09-18 16:31:09.373
40.0, -31433.057061798223, -41158.18931558005, -49482.42598562551, -33809.80745670885, -43420.94581376861, -26351.83499477327, -9628.326848545892, -31220.581379006075, 0.756, -0.52, 0.484, 192.0, 0.0, 0.0, 0.0, 0.0, 0.0, 0.0, 0.0, 0.0, 0.0, 1.66350066937782E9, 0.0, 2022-09-18 16:31:09.377
41.0, -32665.621658041677, -43426.75726732698, -49055.17239036231, -35892.9229847101, -43015.46281760488, -25928.51530653421, -10413.387169049642, -31282.071028002625, 0.756, -0.52, 0.484, 192.0, 0.0, 0.0, 0.0, 0.0, 0.0, 0.0, 0.0, 0.0, 0.0, 1.6635006693817532E9, 0.0, 2022-09-18 16:31:09.381
42.0, -32143.507259310158, -43755.19380035327, -49242.83763680907, -36276.16599514079, -43082.85332713763, -26156.234879044878, -10169.306119597688, -30964.02805614806, 0.756, -0.52, 0.484, 192.0, 0.0, 0.0, 0.0, 0.0, 0.0, 0.0, 0.0, 0.0, 0.0, 1.6635006693858793E9, 0.0, 2022-09-18 16:31:09.385
43.0, -31171.899279582416, -42623.90495823681, -49571.22946634644, -35315.44331496279, -43355.4328507701, -26540.595476698338, -9607.606781435821, -30793.484245954067, 0.756, -0.52, 0.484, 192.0, 0.0, 0.0, 0.0, 0.0, 0.0, 0.0, 0.0, 0.0, 0.0, 1.663500669389843E9, 0.0, 2022-09-18 16:31:09.389
44.0, -30364.53191811227, -40647.51901000965, -49859.63402505327, -33461.25435367279, -43620.52454001004, -26824.909666169842, -9074.674138387936, -30731.45815509059, 0.756, -0.52, 0.484, 192.0, 0.0, 0.0, 0.0, 0.0, 0.0, 0.0, 0.0, 0.0, 0.0, 1.66350066939384E9, 0.0, 2022-09-18 16:31:09.393
45.0, -31483.84022520068, -41223.70227857856, -49443.73511597337, -33865.73152133603, -43398.951697224584, -26334.467689331497, -9644.643621998266, -31236.09348965806, 0.756, -0.52, 0.484, 192.0, 0.0, 0.0, 0.0, 0.0, 0.0, 0.0, 0.0, 0.0, 0.0, 1.6635006693978832E9, 0.0, 2022-09-18 16:31:09.397
46.0, -32687.682829819067, -43475.28290453946, -49050.210303093234, -35938.60995037675, -43006.142140167016, -25931.84571645805, -10419.310381330299, -31270.00108599676, 0.756, -0.52, 0.484, 192.0, 0.0, 0.0, 0.0, 0.0, 0.0, 0.0, 0.0, 0.0, 0.0, 1.6635006694018672E9, 0.0, 2022-09-18 16:31:09.401
47.0, -32136.533515040104, -43746.70013746025, -49234.008697749225, -36268.09701539243, -43069.889315353554, -26150.781053397783, -10151.022392633247, -30922.565570183466, 0.756, -0.52, 0.484, 192.0, 0.0, 0.0, 0.0, 0.0, 0.0, 0.0, 0.0, 0.0, 0.0, 1.6635006694048705E9, 0.0, 2022-09-18 16:31:09.404
48.0, -31142.26086643468, -42578.86619315937, -49597.1574899146, -35273.489090620176, -43337.931434861595, -26526.91620909169, -9589.881848082763, -30750.770062299976, 0.754, -0.518, 0.482, 192.0, 23.0, 144.0, 239.0, 208.0, 15.0, 16.0, 0.0, 0.0, 0.0, 1.6635006694098349E9, 0.0, 2022-09-18 16:31:09.409
49.0, -30359.34631339864, -40620.29458526309, -49935.74171492359, -33433.80641148167, -43610.220385816145, -26816.97479688821, -9069.309719718662, -30718.98588168453, 0.754, -0.518, 0.482, 192.0, 0.0, 0.0, 0.0, 0.0, 0.0, 0.0, 0.0, 0.0, 0.0, 1.6635006694139354E9, 0.0, 2022-09-18 16:31:09.413
50.0, -31537.998502015893, -41290.578697988836, -49481.82248852521, -33925.05305112041, -43387.552307552374, -26319.402613568618, -9666.257758886548, -31249.616295053518, 0.754, -0.518, 0.482, 192.0, 0.0, 0.0, 0.0, 0.0, 0.0, 0.0, 0.0, 0.0, 0.0, 1.6635006694178932E9, 0.0, 2022-09-18 16:31:09.417
51.0, -32692.309640921314, -43508.430541566675, -49037.69332619826, -35971.64582868169, -42999.52602380825, -25936.76310023822, -10401.652503210606, -31266.782434795194, 0.754, -0.518, 0.482, 192.0, 0.0, 0.0, 0.0, 0.0, 0.0, 0.0, 0.0, 0.0, 0.0, 1.6635006694218943E9, 0.0, 2022-09-18 16:31:09.421
52.0, -32140.400366830872, -43737.91590188932, -49274.28654125769, -36265.99595141363, -43101.29351631326, -26191.99767017337, -10110.722197380328, -30964.519794526077, 0.754, -0.518, 0.482, 192.0, 0.0, 0.0, 0.0, 0.0, 0.0, 0.0, 0.0, 0.0, 0.0, 1.6635006694259405E9, 0.0, 2022-09-18 16:31:09.425
53.0, -31156.700093352807, -42526.339593689394, -49586.65217002061, -35225.94693016374, -43349.755507678456, -26543.836479644357, -9520.256164104481, -30770.32783869837, 0.754, -0.518, 0.482, 192.0, 0.0, 0.0, 0.0, 0.0, 0.0, 0.0, 0.0, 0.0, 0.0, 1.6635006694298744E9, 0.0, 2022-09-18 16:31:09.429
54.0, -30414.488066969883, -40589.024494770114, -49873.69327231566, -33401.0834575991, -43610.4439032607, -26814.136125342386, -9019.55473656115, -30748.579591343358, 0.754, -0.518, 0.482, 192.0, 0.0, 0.0, 0.0, 0.0, 0.0, 0.0, 0.0, 0.0, 0.0, 1.6635006694329152E9, 0.0, 2022-09-18 16:31:09.432
55.0, -31631.317035116797, -41350.481373129056, -49421.62924070707, -33976.01502847851, -43370.497926532975, -26303.666985472082, -9643.14605511976, -31259.18284168039, 0.754, -0.518, 0.482, 192.0, 0.0, 0.0, 0.0, 0.0, 0.0, 0.0, 0.0, 0.0, 0.0, 1.6635006694369235E9, 0.0, 2022-09-18 16:31:09.436
56.0, -32759.141356842683, -43545.10975421784, -48991.89460180934, -36001.75362846299, -42989.08775914762, -25933.969132181304, -10343.739133326904, -31259.13813819148, 0.754, -0.518, 0.482, 192.0, 0.0, 0.0, 0.0, 0.0, 0.0, 0.0, 0.0, 0.0, 0.0, 1.663500669441959E9, 0.0, 2022-09-18 16:31:09.441
57.0, -32178.97947776073, -43725.086000571966, -49241.496532141755, -36248.360425038394, -43086.541364972756, -26180.911204923537, -10032.669905742396, -30935.060195333983, 0.754, -0.518, 0.482, 192.0, 0.0, 0.0, 0.0, 0.0, 0.0, 0.0, 0.0, 0.0, 0.0, 1.663500669445976E9, 0.0, 2022-09-18 16:31:09.445
58.0, -31165.663142879384, -42482.95485770165, -49641.928034058576, -35182.4057319648, -43352.52712399091, -26545.177584311677, -9472.44578271458, -30745.450347119615, 0.758, -0.518, 0.484, 192.0, 23.0, 176.0, 239.0, 208.0, 15.0, 32.0, 0.0, 0.0, 0.0, 1.6635006694499836E9, 0.0, 2022-09-18 16:31:09.449
59.0, -30427.899113643067, -40561.04011071207, -49944.66006096126, -33372.58498341859, -43625.330165067935, -26811.29745379656, -9019.241812138775, -30743.639855818732, 0.758, -0.518, 0.484, 192.0, 0.0, 0.0, 0.0, 0.0, 0.0, 0.0, 0.0, 0.0, 0.0, 1.6635006694539993E9, 0.0, 2022-09-18 16:31:09.453
60.0, -31707.26826277593, -41408.931184879686, -49409.24637427883, -34029.14512504877, -43354.20350482506, -26267.501862943398, -9662.994404196073, -31253.773719522207, 0.758, -0.518, 0.484, 192.0, 0.0, 0.0, 0.0, 0.0, 0.0, 0.0, 0.0, 0.0, 0.0, 1.6635006694580183E9, 0.0, 2022-09-18 16:31:09.458
61.0, -32811.6456045682, -43587.13103379381, -49056.647605496364, -36042.29969290492, -42988.68542774742, -25925.050786143638, -10356.881959066624, -31236.719338502808, 0.758, -0.518, 0.484, 192.0, 0.0, 0.0, 0.0, 0.0, 0.0, 0.0, 0.0, 0.0, 0.0, 1.6635006694609475E9, 0.0, 2022-09-18 16:31:09.460
62.0, -32205.04161179562, -43726.51651221711, -49315.033771399714, -36253.05429137401, -43115.39746706456, -26201.206588888956, -10054.865187986516, -30928.35467199739, 0.758, -0.518, 0.484, 192.0, 0.0, 0.0, 0.0, 0.0, 0.0, 0.0, 0.0, 0.0, 0.0, 1.663500669464955E9, 0.0, 2022-09-18 16:31:09.464
63.0, -31200.50951248521, -42443.928711882676, -49589.82611773326, -35143.13371695682, -43364.86528693024, -26563.953049654134, -9457.000727295963, -30719.544675295914, 0.758, -0.518, 0.484, 192.0, 0.0, 0.0, 0.0, 0.0, 0.0, 0.0, 0.0, 0.0, 0.0, 1.6635006694700215E9, 0.0, 2022-09-18 16:31:09.470
64.0, -30498.105942977185, -40541.415279080305, -49852.704984272124, -33343.25949469322, -43603.514862479555, -26793.952500099243, -8981.802640176134, -30733.98390221404, 0.758, -0.518, 0.484, 192.0, 0.0, 0.0, 0.0, 0.0, 0.0, 0.0, 0.0, 0.0, 0.0, 1.6635006694739916E9, 0.0, 2022-09-18 16:31:09.473
65.0, -31789.81325504938, -41482.42372064874, -49425.294926797746, -34089.38307635583, -43350.62722571221, -26262.405665207585, -9679.24412241508, -31308.62490041553, 0.758, -0.518, 0.484, 192.0, 0.0, 0.0, 0.0, 0.0, 0.0, 0.0, 0.0, 0.0, 0.0, 1.663500669477954E9, 0.0, 2022-09-18 16:31:09.477
66.0, -32791.39492409169, -43616.7470951971, -49128.73198136473, -36068.74180659554, -43007.125616923055, -25943.89330671946, -10359.43005793453, -31280.640516357485, 0.758, -0.518, 0.484, 192.0, 0.0, 0.0, 0.0, 0.0, 0.0, 0.0, 0.0, 0.0, 0.0, 1.6635006694821498E9, 0.0, 2022-09-18 16:31:09.482
67.0, -32145.809488989056, -43702.13075901637, -49350.751859039294, -36227.595654439414, -43115.86685369812, -26202.257120878356, -10037.900213944939, -30926.343014996415, 0.758, -0.518, 0.484, 192.0, 0.0, 0.0, 0.0, 0.0, 0.0, 0.0, 0.0, 0.0, 0.0, 1.6635006694859884E9, 0.0, 2022-09-18 16:31:09.485
68.0, -31174.06739879458, -42402.622688129275, -49654.48971444246, -35104.95693742716, -43380.17623188213, -26587.93647145468, -9456.82191334032, -30721.55633229689, 0.756, -0.518, 0.48, 192.0, 23.0, 160.0, 239.0, 208.0, 15.0, 0.0, 0.0, 0.0, 0.0, 1.6635006694890208E9, 0.0, 2022-09-18 16:31:09.489
69.0, -30545.245772033428, -40532.45222955373, -49915.558089680446, -33330.54135209815, -43613.48374050662, -26809.55401772905, -9008.892954455967, -30738.27543714946, 0.756, -0.518, 0.48, 192.0, 0.0, 0.0, 0.0, 0.0, 0.0, 0.0, 0.0, 0.0, 0.0, 1.6635006694929917E9, 0.0, 2022-09-18 16:31:09.492
70.0, -31865.563317008415, -41546.88615165784, -49391.74495837033, -34140.54621941403, -43313.92566131659, -26235.00242650538, -9705.596829127888, -31269.934030763394, 0.756, -0.518, 0.48, 192.0, 0.0, 0.0, 0.0, 0.0, 0.0, 0.0, 0.0, 0.0, 0.0, 1.6635006694980285E9, 0.0, 2022-09-18 16:31:09.498
71.0, -32819.53577036092, -43648.799496746, -49047.39398329186, -36093.10520805183, -42976.48137527482, -25934.88555370397, -10332.831482032714, -31228.73976573226, 0.756, -0.518, 0.48, 192.0, 0.0, 0.0, 0.0, 0.0, 0.0, 0.0, 0.0, 0.0, 0.0, 1.663500669502019E9, 0.0, 2022-09-18 16:31:09.502
72.0, -32171.201070690284, -43694.73233160166, -49321.113445891555, -36220.48779970262, -43107.06026638273, -26210.259045393355, -9974.30950096959, -30915.345956724403, 0.756, -0.518, 0.48, 192.0, 0.0, 0.0, 0.0, 0.0, 0.0, 0.0, 0.0, 0.0, 0.0, 1.6635006695060437E9, 0.0, 2022-09-18 16:31:09.506
73.0, -31162.73506435574, -42353.38179509423, -49687.41383402513, -35061.39338748377, -43381.94201969409, -26592.540930812473, -9383.597598504735, -30721.735146252533, 0.756, -0.518, 0.48, 192.0, 0.0, 0.0, 0.0, 0.0, 0.0, 0.0, 0.0, 0.0, 0.0, 1.6635006695102017E9, 0.0, 2022-09-18 16:31:09.510
74.0, -30537.33325449625, -40502.6573541948, -49914.90988909124, -33305.373287841474, -43602.2408130456, -26789.14687504135, -8948.34207872654, -30745.51740235298, 0.756, -0.518, 0.48, 192.0, 0.0, 0.0, 0.0, 0.0, 0.0, 0.0, 0.0, 0.0, 0.0, 1.6635006695140476E9, 0.0, 2022-09-18 16:31:09.514
75.0, -31902.9801372266, -41600.21741392821, -49379.563257642185, -34196.06795264101, -43295.284306440866, -26211.354280871667, -9679.110011948349, -31283.255670458755, 0.756, -0.518, 0.48, 192.0, 0.0, 0.0, 0.0, 0.0, 0.0, 0.0, 0.0, 0.0, 0.0, 1.6635006695170736E9, 0.0, 2022-09-18 16:31:09.517
76.0, -32798.34631661729, -43664.66923530927, -49096.54546934908, -36114.18290307318, -42968.7923751822, -25930.303446090635, -10312.737263767394, -31237.412242580922, 0.756, -0.518, 0.48, 192.0, 0.0, 0.0, 0.0, 0.0, 0.0, 0.0, 0.0, 0.0, 0.0, 1.6635006695210528E9, 0.0, 2022-09-18 16:31:09.521
77.0, -32133.471326049726, -43669.13958420033, -49302.60620148256, -36202.4946454161, -43117.230310109895, -26220.920827498536, -9955.332869927033, -30947.063082106484, 0.756, -0.518, 0.48, 192.0, 0.0, 0.0, 0.0, 0.0, 0.0, 0.0, 0.0, 0.0, 0.0, 1.6635006695261536E9, 0.0, 2022-09-18 16:31:09.526
78.0, -31153.012055517684, -42302.442169480586, -49680.373034521705, -35014.946462505635, -43393.654333788676, -26609.528256598504, -9360.32943252676, -30716.37072758326, 0.756, -0.518, 0.48, 192.0, 0.0, 0.0, 0.0, 0.0, 0.0, 0.0, 0.0, 0.0, 0.0, 1.6635006695300863E9, 0.0, 2022-09-18 16:31:09.530
79.0, -30562.18839433055, -40485.133586541844, -49943.095438849385, -33283.96031665329, -43611.561490483466, -26794.287776266072, -8954.712325896302, -30777.882728324264, 0.76, -0.518, 0.47600000000000003, 192.0, 23.0, 192.0, 239.0, 208.0, 14.0, 224.0, 0.0, 0.0, 0.0, 1.6635006695340989E9, 0.0, 2022-09-18 16:31:09.534
80.0, -31948.93532382671, -41671.47477525172, -49426.09958959813, -34261.335046450506, -43305.61081237922, -26215.24348440689, -9722.360637469368, -31341.52666825374, 0.76, -0.518, 0.47600000000000003, 192.0, 0.0, 0.0, 0.0, 0.0, 0.0, 0.0, 0.0, 0.0, 0.0, 1.6635006695381167E9, 0.0, 2022-09-18 16:31:09.538
81.0, -32818.038203482414, -43698.57683164797, -49114.71743759125, -36150.23626687959, -42980.638799743516, -25948.251896888247, -10303.617752029628, -31227.376309320487, 0.76, -0.518, 0.47600000000000003, 192.0, 0.0, 0.0, 0.0, 0.0, 0.0, 0.0, 0.0, 0.0, 0.0, 1.6635006695412126E9, 0.0, 2022-09-18 16:31:09.541
82.0, -32138.32165459653, -43651.25818863609, -49325.47203606034, -36186.490796386104, -43104.33335355918, -26216.405775118565, -9903.856802446462, -30895.028221014527, 0.76, -0.518, 0.47600000000000003, 192.0, 0.0, 0.0, 0.0, 0.0, 0.0, 0.0, 0.0, 0.0, 0.0, 1.663500669545123E9, 0.0, 2022-09-18 16:31:09.545
83.0, -31126.569941827052, -42241.71247979552, -49660.25646451193, -34961.190517090625, -43372.64369400069, -26592.764448257025, -9309.412158657571, -30692.387305782715, 0.76, -0.518, 0.47600000000000003, 192.0, 0.0, 0.0, 0.0, 0.0, 0.0, 0.0, 0.0, 0.0, 0.0, 1.663500669549131E9, 0.0, 2022-09-18 16:31:09.549
84.0, -30588.898728954642, -40463.63120837584, -49861.176295420686, -33264.849575144006, -43593.590687941396, -26767.085703263965, -8933.187595985843, -30761.297733938427, 0.76, -0.518, 0.47600000000000003, 192.0, 0.0, 0.0, 0.0, 0.0, 0.0, 0.0, 0.0, 0.0, 0.0, 1.6635006695541975E9, 0.0, 2022-09-18 16:31:09.554
85.0, -32035.637740568847, -41733.70203181529, -49337.117294921554, -34314.77806744314, -43268.305750883315, -26173.13279785309, -9714.604582143376, -31292.933975807904, 0.76, -0.518, 0.47600000000000003, 192.0, 0.0, 0.0, 0.0, 0.0, 0.0, 0.0, 0.0, 0.0, 0.0, 1.663500669558142E9, 0.0, 2022-09-18 16:31:09.558
86.0, -32860.059483058394, -43720.392134236354, -49077.837059239995, -36164.742549031085, -42954.01787209724, -25922.74855646474, -10270.492466746864, -31182.51635819869, 0.76, -0.518, 0.47600000000000003, 192.0, 0.0, 0.0, 0.0, 0.0, 0.0, 0.0, 0.0, 0.0, 0.0, 1.6635006695622392E9, 0.0, 2022-09-18 16:31:09.562
87.0, -32140.31095985305, -43635.56726402846, -49363.47000163436, -36171.87275551233, -43108.58018500569, -26208.917940726038, -9901.286351834102, -30880.96897375214, 0.76, -0.518, 0.47600000000000003, 192.0, 0.0, 0.0, 0.0, 0.0, 0.0, 0.0, 0.0, 0.0, 0.0, 1.66350066956619E9, 0.0, 2022-09-18 16:31:09.566
88.0, -31105.40283982788, -42202.2616508319, -49793.562268443384, -34929.20517077508, -43413.83795903182, -26621.03940499299, -9345.04083931933, -30733.447460347114, 0.76, -0.518, 0.47600000000000003, 192.0, 0.0, 0.0, 0.0, 0.0, 0.0, 0.0, 0.0, 0.0, 0.0, 1.663500669569193E9, 0.0, 2022-09-18 16:31:09.569
89.0, -30596.543025558356, -40455.852801305395, -49921.771874639024, -33262.390883253924, -43626.96184241317, -26788.25280526314, -8986.45180302284, -30847.44135706918, 0.754, -0.522, 0.482, 192.0, 23.0, 144.0, 239.0, 176.0, 15.0, 16.0, 0.0, 0.0, 0.0, 1.663500669573305E9, 0.0, 2022-09-18 16:31:09.573
90.0, -32062.593944381948, -41800.17611982538, -49395.14242352753, -34381.207451964314, -43286.969457503496, -26174.85388217615, -9777.390632318335, -31359.609229518086, 0.754, -0.522, 0.482, 192.0, 0.0, 0.0, 0.0, 0.0, 0.0, 0.0, 0.0, 0.0, 0.0, 1.6635006695771868E9, 0.0, 2022-09-18 16:31:09.577
91.0, -32851.63287539874, -43747.66126247183, -49105.597925853486, -36197.28668895801, -42981.71168347737, -25943.4239200859, -10306.255257875355, -31208.086753855558, 0.754, -0.522, 0.482, 192.0, 0.0, 0.0, 0.0, 0.0, 0.0, 0.0, 0.0, 0.0, 0.0, 1.6635006695811625E9, 0.0, 2022-09-18 16:31:09.581
92.0, -32151.129204169418, -43626.60421450189, -49346.66148980397, -36166.4859850986, -43120.89599620056, -26222.66426356605, -9914.853860718473, -30880.432531885213, 0.754, -0.522, 0.482, 192.0, 0.0, 0.0, 0.0, 0.0, 0.0, 0.0, 0.0, 0.0, 0.0, 1.6635006695862415E9, 0.0, 2022-09-18 16:31:09.586
93.0, -31121.25022664669, -42146.605807138185, -49747.428267887626, -34875.02454221541, -43396.35889486777, -26621.41938464873, -9326.824167588255, -30670.527299705424, 0.754, -0.522, 0.482, 192.0, 0.0, 0.0, 0.0, 0.0, 0.0, 0.0, 0.0, 0.0, 0.0, 1.6635006695901744E9, 0.0, 2022-09-18 16:31:09.590
94.0, -30648.711997117043, -40435.8926935068, -49875.92844676119, -33236.14993526339, -43598.843347888396, -26768.20329048673, -8990.139840857964, -30791.539644186458, 0.754, -0.522, 0.482, 192.0, 0.0, 0.0, 0.0, 0.0, 0.0, 0.0, 0.0, 0.0, 0.0, 1.6635006695942268E9, 0.0, 2022-09-18 16:31:09.594
95.0, -32148.60345704597, -41859.45294612085, -49379.071519264166, -34431.38711826648, -43253.93357919855, -26147.048312073748, -9814.405121136322, -31324.651101189986, 0.754, -0.522, 0.482, 192.0, 0.0, 0.0, 0.0, 0.0, 0.0, 0.0, 0.0, 0.0, 0.0, 1.6635006695971737E9, 0.0, 2022-09-18 16:31:09.597
96.0, -32862.24995401502, -43763.41924231282, -49169.747432440214, -36209.53544491952, -42961.036319856204, -25931.309274591124, -10317.14055742509, -31162.17627074436, 0.754, -0.522, 0.482, 192.0, 0.0, 0.0, 0.0, 0.0, 0.0, 0.0, 0.0, 0.0, 0.0, 1.6635006696012933E9, 0.0, 2022-09-18 16:31:09.601
97.0, -32093.68522091928, -43592.00371408507, -49354.57400734115, -36137.60753126234, -43110.12245537311, -26221.61373157665, -9927.147320168891, -30871.24596491408, 0.754, -0.522, 0.482, 192.0, 0.0, 0.0, 0.0, 0.0, 0.0, 0.0, 0.0, 0.0, 0.0, 1.663500669605219E9, 0.0, 2022-09-18 16:31:09.605
98.0, -31068.34364752098, -42086.6360767646, -49709.65381975816, -34828.17528583709, -43408.56294734037, -26638.674931368227, -9337.687115393534, -30708.70407923509, 0.754, -0.522, 0.482, 192.0, 0.0, 0.0, 0.0, 0.0, 0.0, 0.0, 0.0, 0.0, 0.0, 1.6635006696092231E9, 0.0, 2022-09-18 16:31:09.609
99.0, -30656.333941976303, -40421.945204966694, -49874.319121160406, -33227.298644459086, -43600.542080467, -26751.39477865634, -9002.813279964123, -30820.932188145187, 0.752, -0.516, 0.488, 192.0, 23.0, 128.0, 239.0, 224.0, 15.0, 64.0, 0.0, 0.0, 0.0, 1.6635006696142678E9, 0.0, 2022-09-18 16:31:09.614
100.0, -32190.580033133036, -41919.8473596391, -49314.92201267744, -34492.720305051844, -43243.36120407119, -26133.369044467097, -9841.942470305261, -31343.940656654915, 0.752, -0.516, 0.488, 192.0, 0.0, 0.0, 0.0, 0.0, 0.0, 0.0, 0.0, 0.0, 0.0, 1.6635006696182418E9, 0.0, 2022-09-18 16:31:09.618
101.0, -32876.912698377695, -43777.657303530854, -49105.08383573101, -36230.680195174245, -42968.92648564893, -25956.633801058986, -10318.459310347953, -31180.88468085345, 0.752, -0.516, 0.488, 192.0, 0.0, 0.0, 0.0, 0.0, 0.0, 0.0, 0.0, 0.0, 0.0, 1.6635006696212313E9, 0.0, 2022-09-18 16:31:09.621
102.0, -32113.15359033985, -43578.65972264525, -49432.201615834434, -36133.60656900484, -43129.814342238235, -26243.205516720478, -9920.4417968323, -30904.7959333415, 0.752, -0.516, 0.488, 192.0, 0.0, 0.0, 0.0, 0.0, 0.0, 0.0, 0.0, 0.0, 0.0, 1.6635006696252313E9, 0.0, 2022-09-18 16:31:09.625
103.0, -31061.593420695477, -42036.925797095995, -49828.11806537129, -34784.47762542697, -43405.12077869425, -26623.31928292743, -9343.386810229636, -30710.55927402488, 0.752, -0.516, 0.488, 192.0, 0.0, 0.0, 0.0, 0.0, 0.0, 0.0, 0.0, 0.0, 0.0, 1.6635006696293368E9, 0.0, 2022-09-18 16:31:09.629
104.0, -30672.31543926185, -40417.22898688662, -49913.054694301456, -33222.38126067892, -43585.834632615406, -26727.791336511535, -9059.586710880603, -30821.401574778745, 0.752, -0.516, 0.488, 192.0, 0.0, 0.0, 0.0, 0.0, 0.0, 0.0, 0.0, 0.0, 0.0, 1.6635006696332371E9, 0.0, 2022-09-18 16:31:09.633
105.0, -32238.077490100564, -41987.99782848333, -49268.542142932674, -34553.71821567038, -43224.94336664002, -26114.861800058105, -9903.320360579535, -31321.991243599805, 0.752, -0.516, 0.488, 192.0, 0.0, 0.0, 0.0, 0.0, 0.0, 0.0, 0.0, 0.0, 0.0, 1.6635006696373029E9, 0.0, 2022-09-18 16:31:09.637
106.0, -32897.99039339905, -43806.13342596691, -49099.942934506296, -36257.18936409824, -42973.44153802891, -25950.71058877833, -10334.70902856696, -31148.519354882166, 0.752, -0.516, 0.488, 192.0, 0.0, 0.0, 0.0, 0.0, 0.0, 0.0, 0.0, 0.0, 0.0, 1.6635006696423247E9, 0.0, 2022-09-18 16:31:09.642
107.0, -32136.242942362183, -43569.00376904056, -49422.85858665212, -36126.69987996815, -43153.52954310531, -26259.209365750477, -9910.58467752751, -30890.937851779207, 0.752, -0.516, 0.488, 192.0, 0.0, 0.0, 0.0, 0.0, 0.0, 0.0, 0.0, 0.0, 0.0, 1.6635006696462893E9, 0.0, 2022-09-18 16:31:09.646
108.0, -31071.62935395591, -41976.88901148904, -49744.276671919426, -34727.05599392128, -43422.1975114581, -26649.068492539944, -9298.37039689665, -30693.951927894585, 0.752, -0.516, 0.488, 192.0, 0.0, 0.0, 0.0, 0.0, 0.0, 0.0, 0.0, 0.0, 0.0, 1.6635006696492786E9, 0.0, 2022-09-18 16:31:09.649
109.0, -30742.812841273888, -40415.440847330196, -49872.46392637061, -33214.96048151976, -43599.55860371097, -26729.244199901128, -9035.7821030357, -30849.92240070372, 0.752, -0.518, 0.488, 192.0, 23.0, 128.0, 239.0, 208.0, 15.0, 64.0, 0.0, 0.0, 0.0, 1.66350066965332E9, 0.0, 2022-09-18 16:31:09.653
110.0, -32325.696328365368, -42065.06664336522, -49311.681009731416, -34623.99210023786, -43225.61391897368, -26104.3117766752, -9914.652695018374, -31351.227325347347, 0.752, -0.518, 0.488, 192.0, 0.0, 0.0, 0.0, 0.0, 0.0, 0.0, 0.0, 0.0, 0.0, 1.6635006696574352E9, 0.0, 2022-09-18 16:31:09.657
111.0, -32909.72505923809, -43827.74756285519, -49109.39772241089, -36278.691742264244, -42972.74863395079, -25953.079873690593, -10333.457330877463, -31139.712767566776, 0.752, -0.518, 0.488, 192.0, 0.0, 0.0, 0.0, 0.0, 0.0, 0.0, 0.0, 0.0, 0.0, 1.6635006696612844E9, 0.0, 2022-09-18 16:31:09.661
112.0, -32120.619072987924, -43543.00869023904, -49386.17937400095, -36103.297603523446, -43144.54414183428, -26246.91590630006, -9899.05117738857, -30846.86021171334, 0.752, -0.518, 0.488, 192.0, 0.0, 0.0, 0.0, 0.0, 0.0, 0.0, 0.0, 0.0, 0.0, 1.663500669665276E9, 0.0, 2022-09-18 16:31:09.665
113.0, -31067.181356809302, -41927.715173687364, -49788.93545734113, -34682.24074628839, -43425.21499695957, -26635.322169699928, -9288.245056658394, -30650.72365411802, 0.752, -0.518, 0.488, 192.0, 0.0, 0.0, 0.0, 0.0, 0.0, 0.0, 0.0, 0.0, 0.0, 1.6635006696693945E9, 0.0, 2022-09-18 16:31:09.669
114.0, -30767.556222385912, -40410.74698099458, -49907.28794423198, -33209.50665587266, -43589.880298361815, -26693.503760517095, -9056.055135256665, -30854.750377506065, 0.752, -0.518, 0.488, 192.0, 0.0, 0.0, 0.0, 0.0, 0.0, 0.0, 0.0, 0.0, 0.0, 1.6635006696743968E9, 0.0, 2022-09-18 16:31:09.674
115.0, -32366.44355850739, -42125.14813246109, -49300.12515784802, -34680.34084800969, -43220.54007298232, -26084.508131087798, -9942.704134309786, -31361.084444652137, 0.752, -0.518, 0.488, 192.0, 0.0, 0.0, 0.0, 0.0, 0.0, 0.0, 0.0, 0.0, 0.0, 1.663500669677368E9, 0.0, 2022-09-18 16:31:09.677
116.0, -32901.74548646754, -43842.03032756213, -49134.07404828955, -36292.28160289307, -42976.280209574725, -25955.315048136123, -10323.220231916934, -31122.92660748084, 0.752, -0.518, 0.488, 192.0, 0.0, 0.0, 0.0, 0.0, 0.0, 0.0, 0.0, 0.0, 0.0, 1.663500669681357E9, 0.0, 2022-09-18 16:31:09.681
117.0, -32106.135142580886, -43528.7259255321, -49415.281345281765, -36091.36177198432, -43164.72776707742, -26267.52421468785, -9890.937494151294, -30871.380075380814, 0.752, -0.518, 0.488, 192.0, 0.0, 0.0, 0.0, 0.0, 0.0, 0.0, 0.0, 0.0, 0.0, 1.6635006696853073E9, 0.0, 2022-09-18 16:31:09.685
118.0, -31060.58759219499, -41878.42957716341, -49755.63135810273, -34633.804516053744, -43444.21397974658, -26665.40761773677, -9248.816579439233, -30686.30763129087, 0.752, -0.518, 0.488, 192.0, 0.0, 0.0, 0.0, 0.0, 0.0, 0.0, 0.0, 0.0, 0.0, 1.6635006696893744E9, 0.0, 2022-09-18 16:31:09.689
119.0, -30823.524990502, -40424.67211779024, -49881.80695555294, -33210.46778088424, -43604.02895260203, -26712.636853770837, -9012.245716124264, -30901.577282139933, 0.744, -0.518, 0.486, 192.0, 23.0, 64.0, 239.0, 208.0, 15.0, 48.0, 0.0, 0.0, 0.0, 1.663500669693339E9, 0.0, 2022-09-18 16:31:09.693
120.0, -32437.94678901992, -42198.66301997459, -49253.432363680884, -34734.767345758366, -43205.02796233034, -26076.97559320636, -9894.983159897705, -31368.460520322387, 0.744, -0.518, 0.486, 192.0, 0.0, 0.0, 0.0, 0.0, 0.0, 0.0, 0.0, 0.0, 0.0, 1.6635006696974983E9, 0.0, 2022-09-18 16:31:09.697
121.0, -32939.43052761919, -43866.997226118714, -49137.15858902438, -36305.245614677144, -42982.091663133106, -25968.033190731192, -10239.31178323171, -31119.886770234916, 0.744, -0.518, 0.486, 192.0, 0.0, 0.0, 0.0, 0.0, 0.0, 0.0, 0.0, 0.0, 0.0, 1.6635006697024205E9, 0.0, 2022-09-18 16:31:09.702
122.0, -32156.761843772158, -43532.36925987831, -49502.8331283132, -36087.42786496018, -43177.24474397239, -26287.01493585288, -9815.61211533691, -30892.05543900197, 0.744, -0.518, 0.486, 192.0, 0.0, 0.0, 0.0, 0.0, 0.0, 0.0, 0.0, 0.0, 0.0, 1.663500669705387E9, 0.0, 2022-09-18 16:31:09.705
123.0, -31052.898592102363, -41838.33054761059, -49836.43291430866, -34591.023277166285, -43455.88159035225, -26683.624289467847, -9195.664131124513, -30694.108390105772, 0.744, -0.518, 0.486, 192.0, 0.0, 0.0, 0.0, 0.0, 0.0, 0.0, 0.0, 0.0, 0.0, 1.6635006697093925E9, 0.0, 2022-09-18 16:31:09.709
124.0, -30847.39665358027, -40423.35336486738, -49842.087905655855, -33199.18014993431, -43581.833670357904, -26696.722411718656, -8962.647195177937, -30882.265374930546, 0.744, -0.518, 0.486, 192.0, 0.0, 0.0, 0.0, 0.0, 0.0, 0.0, 0.0, 0.0, 0.0, 1.6635006697133863E9, 0.0, 2022-09-18 16:31:09.713
125.0, -32487.634716944067, -42257.15753521413, -49236.48974138376, -34782.421264937075, -43170.80744156927, -26048.76769170376, -9852.447790199256, -31324.226418045335, 0.744, -0.518, 0.486, 192.0, 0.0, 0.0, 0.0, 0.0, 0.0, 0.0, 0.0, 0.0, 0.0, 1.663500669717457E9, 0.0, 2022-09-18 16:31:09.717
126.0, -32909.210969115615, -43865.90199064041, -49169.613321973484, -36307.59254784496, -42965.14904083598, -25961.70764705034, -10196.508192599797, -31074.691542946286, 0.744, -0.518, 0.486, 192.0, 0.0, 0.0, 0.0, 0.0, 0.0, 0.0, 0.0, 0.0, 0.0, 1.6635006697213871E9, 0.0, 2022-09-18 16:31:09.721
127.0, -32057.453043157228, -43467.973884102576, -49509.315134205244, -36038.27637890296, -43171.36623518065, -26280.465874727473, -9758.97279488716, -30848.335426847392, 0.744, -0.518, 0.486, 192.0, 0.0, 0.0, 0.0, 0.0, 0.0, 0.0, 0.0, 0.0, 0.0, 1.6635006697255065E9, 0.0, 2022-09-18 16:31:09.725
128.0, -31008.105696213926, -41756.67962511535, -49820.04908562292, -34525.1973897454, -43485.81057617791, -26706.847751956913, -9122.730388966846, -30685.07828534583, 0.744, -0.518, 0.486, 192.0, 0.0, 0.0, 0.0, 0.0, 0.0, 0.0, 0.0, 0.0, 0.0, 1.6635006697304497E9, 0.0, 2022-09-18 16:31:09.730
129.0, -30911.724974122644, -40421.22994914412, -49819.847919922824, -33204.3881063924, -43593.05424607447, -26688.47461801465, -8922.995200514222, -30900.035011772517, 0.744, -0.518, 0.482, 192.0, 23.0, 64.0, 239.0, 208.0, 15.0, 16.0, 0.0, 0.0, 0.0, 1.6635006697334633E9, 0.0, 2022-09-18 16:31:09.733
130.0, -32566.02228474883, -42318.42366676613, -49237.0708867396, -34852.58339078229, -43177.53531665031, -26043.045645123202, -9822.004714251127, -31336.899857151493, 0.744, -0.518, 0.482, 192.0, 0.0, 0.0, 0.0, 0.0, 0.0, 0.0, 0.0, 0.0, 0.0, 1.6635006697375295E9, 0.0, 2022-09-18 16:31:09.737
131.0, -32940.458707864134, -43865.49965924021, -49135.01282155667, -36321.338870684966, -42971.13930835001, -25960.14302493847, -10104.351950210566, -31071.741112678184, 0.744, -0.518, 0.482, 192.0, 0.0, 0.0, 0.0, 0.0, 0.0, 0.0, 0.0, 0.0, 0.0, 1.6635006697414272E9, 0.0, 2022-09-18 16:31:09.741
132.0, -32105.129314080397, -43435.83207557584, -49418.65645869452, -36015.09761990281, -43168.34874967918, -26277.738961903928, -9628.393903779257, -30843.373339578313, 0.744, -0.518, 0.482, 192.0, 0.0, 0.0, 0.0, 0.0, 0.0, 0.0, 0.0, 0.0, 0.0, 1.6635006697454352E9, 0.0, 2022-09-18 16:31:09.745
133.0, -31041.074519285503, -41697.648668008886, -49798.14437605672, -34469.787415240695, -43461.871857866274, -26686.060629613476, -8998.298227584151, -30652.735311119, 0.744, -0.518, 0.482, 192.0, 0.0, 0.0, 0.0, 0.0, 0.0, 0.0, 0.0, 0.0, 0.0, 1.663500669749462E9, 0.0, 2022-09-18 16:31:09.749
134.0, -30954.573268243465, -40423.80039975648, -49839.09277189884, -33202.64467032489, -43571.373053952826, -26650.23078325162, -8842.551272219573, -30882.712409819655, 0.744, -0.518, 0.482, 192.0, 0.0, 0.0, 0.0, 0.0, 0.0, 0.0, 0.0, 0.0, 0.0, 1.6635006697535694E9, 0.0, 2022-09-18 16:31:09.753
135.0, -32592.710267628467, -42366.03288245593, -49213.15452017242, -34896.07988549231, -43150.46735411494, -26005.42765920492, -9755.463571007678, -31340.185563586423, 0.744, -0.518, 0.482, 192.0, 0.0, 0.0, 0.0, 0.0, 0.0, 0.0, 0.0, 0.0, 0.0, 1.66350066975854E9, 0.0, 2022-09-18 16:31:09.758
136.0, -32912.40726857272, -43865.34319702902, -49142.74652513821, -36326.77034458761, -42993.22283187185, -25978.80673155865, -10026.478472528277, -31119.64090104591, 0.744, -0.518, 0.482, 192.0, 0.0, 0.0, 0.0, 0.0, 0.0, 0.0, 0.0, 0.0, 0.0, 1.663500669761472E9, 0.0, 2022-09-18 16:31:09.761
137.0, -32097.529720965595, -43422.21986320256, -49492.14899446357, -36011.789561723424, -43224.384573028634, -26323.001244425923, -9582.394013690235, -30920.77743062704, 0.744, -0.518, 0.482, 192.0, 0.0, 0.0, 0.0, 0.0, 0.0, 0.0, 0.0, 0.0, 0.0, 1.6635006697655065E9, 0.0, 2022-09-18 16:31:09.765
138.0, -31009.916187514806, -41643.31157723803, -49889.831231812386, -34430.00131011025, -43491.48791926955, -26694.37547855085, -8966.782267902168, -30703.384364054724, 0.744, -0.518, 0.482, 192.0, 0.0, 0.0, 0.0, 0.0, 0.0, 0.0, 0.0, 0.0, 0.0, 1.6635006697694595E9, 0.0, 2022-09-18 16:31:09.769
139.0, -30961.725826469163, -40433.36694638335, -49887.21607771112, -33217.48622864321, -43583.375940725324, -26647.03448379451, -8858.555121249572, -30929.02522433105, 0.752, -0.514, 0.488, 192.0, 23.0, 128.0, 239.0, 240.0, 15.0, 64.0, 0.0, 0.0, 0.0, 1.6635006697735431E9, 0.0, 2022-09-18 16:31:09.773
140.0, -32654.60224802521, -42449.62840671878, -49244.24579670976, -34971.51702302897, -43170.919200291544, -26030.23809555031, -9773.88140843885, -31367.477043566352, 0.752, -0.514, 0.488, 192.0, 0.0, 0.0, 0.0, 0.0, 0.0, 0.0, 0.0, 0.0, 0.0, 1.663500669777571E9, 0.0, 2022-09-18 16:31:09.777
141.0, -32974.85804258085, -43894.623982265475, -49122.13821675041, -36350.7314146437, -42984.77387246775, -25983.880577550004, -10002.517402472187, -31079.787740682095, 0.752, -0.514, 0.488, 192.0, 0.0, 0.0, 0.0, 0.0, 0.0, 0.0, 0.0, 0.0, 0.0, 1.663500669781496E9, 0.0, 2022-09-18 16:31:09.781
142.0, -32127.59281725798, -43382.43375807211, -49397.936391584444, -35973.5904304493, -43160.34682516418, -26271.14519728961, -9513.394178556702, -30806.224740293594, 0.752, -0.514, 0.488, 192.0, 0.0, 0.0, 0.0, 0.0, 0.0, 0.0, 0.0, 0.0, 0.0, 1.6635006697866385E9, 0.0, 2022-09-18 16:31:09.786
143.0, -31066.868432386927, -41586.67225678829, -49814.259983808995, -34372.44556813784, -43470.611389948295, -26689.748667448603, -8889.780508253636, -30649.024921539418, 0.752, -0.514, 0.488, 192.0, 0.0, 0.0, 0.0, 0.0, 0.0, 0.0, 0.0, 0.0, 0.0, 1.6635006697895725E9, 0.0, 2022-09-18 16:31:09.789
144.0, -31106.67688926183, -40461.172516485756, -49825.18998684764, -33236.23934224121, -43580.3361034794, -26640.46307092465, -8810.454167181751, -30981.64123077884, 0.752, -0.514, 0.488, 192.0, 0.0, 0.0, 0.0, 0.0, 0.0, 0.0, 0.0, 0.0, 0.0, 1.6635006697926123E9, 0.0, 2022-09-18 16:31:09.792
145.0, -32742.489307223477, -42506.55829984645, -49262.17189576291, -35030.59268362435, -43154.87064777263, -26002.656042892464, -9760.068030365472, -31411.957015032414, 0.752, -0.514, 0.488, 192.0, 0.0, 0.0, 0.0, 0.0, 0.0, 0.0, 0.0, 0.0, 0.0, 1.6635006697975729E9, 0.0, 2022-09-18 16:31:09.797
146.0, -32963.63746686429, -43885.660932738894, -49199.43054907687, -36349.54677218757, -42989.19951786989, -25979.52198738122, -9978.39987020491, -31083.453426772765, 0.752, -0.514, 0.488, 192.0, 0.0, 0.0, 0.0, 0.0, 0.0, 0.0, 0.0, 0.0, 0.0, 1.6635006698015058E9, 0.0, 2022-09-18 16:31:09.801
147.0, -32143.954294199266, -43358.71855720503, -49445.1209241296, -35950.54578191588, -43188.957058066975, -26299.420154025574, -9490.796564912387, -30815.99245262056, 0.752, -0.514, 0.488, 192.0, 0.0, 0.0, 0.0, 0.0, 0.0, 0.0, 0.0, 0.0, 0.0, 1.663500669805565E9, 0.0, 2022-09-18 16:31:09.805
148.0, -31118.702127778786, -41539.13009633185, -49808.64969595071, -34320.611872745976, -43477.406320262715, -26697.839998941425, -8857.795161938091, -30626.851991039755, 0.752, -0.514, 0.488, 192.0, 0.0, 0.0, 0.0, 0.0, 0.0, 0.0, 0.0, 0.0, 0.0, 1.6635006698095984E9, 0.0, 2022-09-18 16:31:09.809
149.0, -31241.5249635607, -40488.82162437697, -49777.53606766892, -33250.365644736965, -43555.74918457856, -26607.87422750881, -8811.370588704418, -30946.07960535045, 0.75, -0.514, 0.484, 192.0, 23.0, 112.0, 239.0, 240.0, 15.0, 32.0, 0.0, 0.0, 0.0, 1.663500669814561E9, 0.0, 2022-09-18 16:31:09.814
150.0, -32899.80088469993, -42576.92159139176, -49185.773633214674, -35084.862719161836, -43121.32067934521, -25970.156606454446, -9757.36346928638, -31346.332293311632, 0.75, -0.514, 0.484, 192.0, 0.0, 0.0, 0.0, 0.0, 0.0, 0.0, 0.0, 0.0, 0.0, 1.6635006698175948E9, 0.0, 2022-09-18 16:31:09.817
151.0, -33071.68579956124, -43907.23036613827, -49203.02917993417, -36363.02487409412, -42995.90504120649, -25987.14393224048, -9968.676861366852, -31074.40097026837, 0.75, -0.514, 0.484, 192.0, 0.0, 0.0, 0.0, 0.0, 0.0, 0.0, 0.0, 0.0, 0.0, 1.6635006698206444E9, 0.0, 2022-09-18 16:31:09.820
152.0, -32194.089257012518, -43343.809943653345, -49495.90408753206, -35937.62647362071, -43219.95892762648, -26325.191715382545, -9492.651759702178, -30880.812511540953, 0.75, -0.514, 0.484, 192.0, 0.0, 0.0, 0.0, 0.0, 0.0, 0.0, 0.0, 0.0, 0.0, 1.663500669825634E9, 0.0, 2022-09-18 16:31:09.825
153.0, -31129.274502906148, -41490.35858993037, -49879.46002238512, -34280.11051179296, -43514.04082942496, -26729.870048745877, -8854.554158992072, -30700.433933786626, 0.75, -0.514, 0.484, 192.0, 0.0, 0.0, 0.0, 0.0, 0.0, 0.0, 0.0, 0.0, 0.0, 1.6635006698296092E9, 0.0, 2022-09-18 16:31:09.829
154.0, -31276.639554099987, -40499.10342682641, -49833.81776020739, -33265.07309258856, -43555.79388806747, -26596.810114003434, -8838.349144261974, -30978.46728306619, 0.75, -0.514, 0.484, 192.0, 0.0, 0.0, 0.0, 0.0, 0.0, 0.0, 0.0, 0.0, 0.0, 1.663500669833656E9, 0.0, 2022-09-18 16:31:09.833
155.0, -32941.06220496442, -42632.15275194082, -49206.71721776929, -35146.374719902844, -43117.58793802118, -25966.96030699734, -9797.50720232811, -31344.767671199763, 0.75, -0.514, 0.484, 192.0, 0.0, 0.0, 0.0, 0.0, 0.0, 0.0, 0.0, 0.0, 0.0, 1.6635006698376637E9, 0.0, 2022-09-18 16:31:09.837
156.0, -33107.537997667554, -43905.7104475153, -49141.85245535999, -36371.07150209803, -42987.70195099139, -25989.446161919375, -9947.263890178669, -31045.43310945429, 0.75, -0.514, 0.484, 192.0, 0.0, 0.0, 0.0, 0.0, 0.0, 0.0, 0.0, 0.0, 0.0, 1.6635006698406408E9, 0.0, 2022-09-18 16:31:09.840
157.0, -32252.71788271879, -43304.09089375626, -49449.479514298386, -35907.20574941704, -43193.494462191404, -26310.037232641847, -9454.027945283407, -30827.168324848215, 0.75, -0.514, 0.484, 192.0, 0.0, 0.0, 0.0, 0.0, 0.0, 0.0, 0.0, 0.0, 0.0, 1.6635006698446393E9, 0.0, 2022-09-18 16:31:09.844
158.0, -31201.068306096593, -41430.880597934796, -49874.54263860496, -34229.21558966823, -43505.59187002086, -26723.2092288982, -8842.484216986206, -30654.054064041862, 0.75, -0.514, 0.484, 192.0, 0.0, 0.0, 0.0, 0.0, 0.0, 0.0, 0.0, 0.0, 0.0, 1.6635006698486989E9, 0.0, 2022-09-18 16:31:09.848
159.0, -31412.26993945479, -40523.869159682894, -49795.81979463337, -33285.23436608724, -43551.23413219859, -26578.571090527905, -8864.411278296862, -30985.575137802978, 0.746, -0.514, 0.484, 192.0, 23.0, 80.0, 239.0, 240.0, 15.0, 32.0, 0.0, 0.0, 0.0, 1.6635006698526423E9, 0.0, 2022-09-18 16:31:09.852
160.0, -33055.14550866431, -42692.100130569954, -49199.51995605468, -35204.69042118674, -43107.68611522748, -25950.46471958932, -9825.022199752593, -31382.653878051507, 0.746, -0.514, 0.484, 192.0, 0.0, 0.0, 0.0, 0.0, 0.0, 0.0, 0.0, 0.0, 0.0, 1.6635006698577287E9, 0.0, 2022-09-18 16:31:09.857
161.0, -33125.6205589319, -43893.55109853162, -49175.20125808731, -36368.05401659656, -42988.05957890268, -25984.528778139207, -9954.282337937635, -31075.496205746676, 0.746, -0.514, 0.484, 192.0, 0.0, 0.0, 0.0, 0.0, 0.0, 0.0, 0.0, 0.0, 0.0, 1.6635006698616414E9, 0.0, 2022-09-18 16:31:09.861
162.0, -32246.302932060116, -43256.07934666626, -49494.11594797563, -35869.9677431545, -43209.140683310114, -26313.747622221428, -9462.275738987415, -30832.86801968432, 0.746, -0.514, 0.484, 192.0, 0.0, 0.0, 0.0, 0.0, 0.0, 0.0, 0.0, 0.0, 0.0, 1.663500669865738E9, 0.0, 2022-09-18 16:31:09.865
163.0, -31209.763134689707, -41359.13149823326, -49896.402644682246, -34162.473280724684, -43506.01655316551, -26708.01004266859, -8853.950661891779, -30635.435060910593, 0.746, -0.514, 0.484, 192.0, 0.0, 0.0, 0.0, 0.0, 0.0, 0.0, 0.0, 0.0, 0.0, 1.6635006698697343E9, 0.0, 2022-09-18 16:31:09.869
164.0, -31481.00155365486, -40536.58730227796, -49827.71573397109, -33296.47729354826, -43541.354661149344, -26548.530345979972, -8927.86788080548, -30991.811274506006, 0.746, -0.514, 0.484, 192.0, 0.0, 0.0, 0.0, 0.0, 0.0, 0.0, 0.0, 0.0, 0.0, 1.6635006698727155E9, 0.0, 2022-09-18 16:31:09.872
165.0, -33113.86354134841, -42747.688919030305, -49224.084523211066, -35260.59213406946, -43109.40719955054, -25944.22858288629, -9904.773223969129, -31364.057226664692, 0.746, -0.514, 0.484, 192.0, 0.0, 0.0, 0.0, 0.0, 0.0, 0.0, 0.0, 0.0, 0.0, 1.6635006698767328E9, 0.0, 2022-09-18 16:31:09.876
166.0, -33167.19480361877, -43894.22165086528, -49169.412156273385, -36375.34068528899, -43001.71649476486, -25993.156551498956, -9995.990693091237, -31037.52059191711, 0.746, -0.514, 0.484, 192.0, 0.0, 0.0, 0.0, 0.0, 0.0, 0.0, 0.0, 0.0, 0.0, 1.663500669880794E9, 0.0, 2022-09-18 16:31:09.880
167.0, -32283.29506913365, -43227.87144516366, -49489.48913687338, -35850.27585628937, -43215.3991717576, -26322.665968259094, -9491.847096901787, -30809.756315917533, 0.746, -0.514, 0.484, 192.0, 0.0, 0.0, 0.0, 0.0, 0.0, 0.0, 0.0, 0.0, 0.0, 1.6635006698857355E9, 0.0, 2022-09-18 16:31:09.885
168.0, -31229.678538999386, -41310.58350927634, -49899.28601971699, -34122.9553965277, -43522.80271325144, -26728.35013012292, -8871.9438161783, -30652.10946227425, 0.746, -0.514, 0.484, 192.0, 0.0, 0.0, 0.0, 0.0, 0.0, 0.0, 0.0, 0.0, 0.0, 1.6635006698896809E9, 0.0, 2022-09-18 16:31:09.889
169.0, -31543.42997591853, -40564.906962502835, -49812.449492508116, -33323.634663061464, -43544.90858851774, -26542.24950578803, -8960.00968933221, -31025.920036544805, 0.748, -0.514, 0.47800000000000004, 192.0, 23.0, 96.0, 239.0, 240.0, 14.0, 240.0, 0.0, 0.0, 0.0, 1.6635006698938336E9, 0.0, 2022-09-18 16:31:09.893
170.0, -33158.20940234773, -42805.848158103014, -49245.00575602124, -35315.24214926269, -43112.64820249656, -25943.51332706372, -9937.049142962593, -31369.91338371198, 0.748, -0.514, 0.47800000000000004, 192.0, 0.0, 0.0, 0.0, 0.0, 0.0, 0.0, 0.0, 0.0, 0.0, 1.6635006698967843E9, 0.0, 2022-09-18 16:31:09.896
171.0, -33153.60494298994, -43898.22261312278, -49210.98640096026, -36380.95097314727, -43022.59302408613, -26006.05350804967, -10002.942085616838, -31048.629408911398, 0.748, -0.514, 0.47800000000000004, 192.0, 0.0, 0.0, 0.0, 0.0, 0.0, 0.0, 0.0, 0.0, 0.0, 1.663500669900783E9, 0.0, 2022-09-18 16:31:09.900
172.0, -32277.86359523101, -43189.06881678925, -49465.95274996194, -35816.256501228396, -43225.45745676249, -26317.659177501104, -9468.713041390543, -30806.09062982686, 0.748, -0.514, 0.47800000000000004, 192.0, 0.0, 0.0, 0.0, 0.0, 0.0, 0.0, 0.0, 0.0, 0.0, 1.6635006699047887E9, 0.0, 2022-09-18 16:31:09.904
173.0, -31246.487050829775, -41246.21048524505, -49870.474621114095, -34061.13047136432, -43526.49075108657, -26722.58338005345, -8844.540577476095, -30628.371909662714, 0.748, -0.514, 0.47800000000000004, 192.0, 0.0, 0.0, 0.0, 0.0, 0.0, 0.0, 0.0, 0.0, 0.0, 1.6635006699088018E9, 0.0, 2022-09-18 16:31:09.908
174.0, -31624.119773402188, -40582.944820278266, -49741.683869562614, -33335.74930855624, -43527.943614476164, -26518.19902875412, -8966.11171556851, -31004.574120589987, 0.748, -0.514, 0.47800000000000004, 192.0, 0.0, 0.0, 0.0, 0.0, 0.0, 0.0, 0.0, 0.0, 0.0, 1.663500669913796E9, 0.0, 2022-09-18 16:31:09.913
175.0, -33237.62515039744, -42848.16001035691, -49155.03998458863, -35353.88831542591, -43081.4675189814, -25922.145059364448, -9913.848032217984, -31346.15347935599, 0.748, -0.514, 0.47800000000000004, 192.0, 0.0, 0.0, 0.0, 0.0, 0.0, 0.0, 0.0, 0.0, 0.0, 1.6635006699177575E9, 0.0, 2022-09-18 16:31:09.917
176.0, -33178.90711771335, -43887.91845892888, -49224.37509588899, -36378.20170857927, -43013.674678048454, -26007.975758072826, -9972.87898932445, -31064.52149921912, 0.748, -0.514, 0.47800000000000004, 192.0, 0.0, 0.0, 0.0, 0.0, 0.0, 0.0, 0.0, 0.0, 0.0, 1.663500669922819E9, 0.0, 2022-09-18 16:31:09.922
177.0, -32257.948190921332, -43149.86385701464, -49551.112896336665, -35791.155492205085, -43244.72466048296, -26351.74558779545, -9483.711061920056, -30832.48804002858, 0.748, -0.514, 0.47800000000000004, 192.0, 0.0, 0.0, 0.0, 0.0, 0.0, 0.0, 0.0, 0.0, 0.0, 1.6635006699258192E9, 0.0, 2022-09-18 16:31:09.925
178.0, -31208.757306189218, -41182.15038563614, -49935.71936317914, -34005.63108988179, -43528.56946332091, -26728.23837140064, -8881.465659316262, -30617.01722347942, 0.748, -0.514, 0.47800000000000004, 192.0, 0.0, 0.0, 0.0, 0.0, 0.0, 0.0, 0.0, 0.0, 0.0, 1.6635006699298005E9, 0.0, 2022-09-18 16:31:09.929
179.0, -31651.54536384885, -40610.772742125126, -49771.65755887718, -33358.70455011184, -43513.34792534685, -26494.282662186943, -9058.849103313578, -31010.5196846151, 0.748, -0.514, 0.47800000000000004, 192.0, 0.0, 0.0, 0.0, 0.0, 0.0, 0.0, 0.0, 0.0, 0.0, 1.663500669933925E9, 0.0, 2022-09-18 16:31:09.933
180.0, -33277.16538633888, -42910.54372913167, -49155.79994390011, -35408.113647474485, -43078.986475346865, -25916.60182673953, -10009.714664186797, -31322.371223255544, 0.748, -0.522, 0.484, 192.0, 23.0, 96.0, 239.0, 176.0, 15.0, 32.0, 0.0, 0.0, 0.0, 1.6635006699377973E9, 0.0, 2022-09-18 16:31:09.937
181.0, -33197.50376910016, -43891.69590374183, -49196.2118978753, -36370.423301508825, -43009.24903264631, -26005.517066182743, -10027.529004517675, -30991.230129150168, 0.748, -0.522, 0.484, 192.0, 0.0, 0.0, 0.0, 0.0, 0.0, 0.0, 0.0, 0.0, 0.0, 1.6635006699408188E9, 0.0, 2022-09-18 16:31:09.940
182.0, -32274.063798673607, -43123.9805369354, -49532.22567227193, -35750.385910318604, -43237.46034353499, -26340.614419056707, -9517.015161158462, -30796.009993077518, 0.748, -0.522, 0.484, 192.0, 0.0, 0.0, 0.0, 0.0, 0.0, 0.0, 0.0, 0.0, 0.0, 1.663500669944815E9, 0.0, 2022-09-18 16:31:09.944
183.0, -31219.553198761132, -41147.05814684131, -49951.72321220914, -33955.58553404636, -43545.02034724002, -26729.937103979246, -8919.418921401373, -30665.565212436344, 0.748, -0.522, 0.484, 192.0, 0.0, 0.0, 0.0, 0.0, 0.0, 0.0, 0.0, 0.0, 0.0, 1.663500669948917E9, 0.0, 2022-09-18 16:31:09.948
184.0, -31717.818286158836, -40661.95823692778, -49761.71103259457, -33389.75112316026, -43529.64234705477, -26491.801618552403, -9118.66237147598, -31096.35038332348, 0.748, -0.522, 0.484, 192.0, 0.0, 0.0, 0.0, 0.0, 0.0, 0.0, 0.0, 0.0, 0.0, 1.66350066995279E9, 0.0, 2022-09-18 16:31:09.952
185.0, -33311.40825884441, -42971.98867463931, -49159.622092201964, -35456.66163643142, -43073.84557412214, -25905.98474812326, -10046.75150474924, -31358.58104927314, 0.748, -0.522, 0.484, 192.0, 0.0, 0.0, 0.0, 0.0, 0.0, 0.0, 0.0, 0.0, 0.0, 1.6635006699578629E9, 0.0, 2022-09-18 16:31:09.957
186.0, -33177.78953049058, -43892.54527003113, -49225.760904045215, -36369.6856939418, -43016.915680994476, -26017.564656444152, -10034.458045298821, -30994.761704774108, 0.748, -0.522, 0.484, 192.0, 0.0, 0.0, 0.0, 0.0, 0.0, 0.0, 0.0, 0.0, 0.0, 1.663500669961908E9, 0.0, 2022-09-18 16:31:09.961
187.0, -32256.271810087183, -43086.407254506026, -49543.75917241087, -35717.752363413856, -43237.46034353499, -26350.337427894763, -9510.35434131078, -30777.636859135255, 0.748, -0.522, 0.484, 192.0, 0.0, 0.0, 0.0, 0.0, 0.0, 0.0, 0.0, 0.0, 0.0, 1.663500669964885E9, 0.0, 2022-09-18 16:31:09.964
188.0, -31215.909864414916, -41085.389683889116, -49935.85347364587, -33900.62259443076, -43532.59277732286, -26728.461888845195, -8903.348017138007, -30646.856802327253, 0.748, -0.522, 0.484, 192.0, 0.0, 0.0, 0.0, 0.0, 0.0, 0.0, 0.0, 0.0, 0.0, 1.6635006699688942E9, 0.0, 2022-09-18 16:31:09.968
189.0, -31743.41103356016, -40684.51114708318, -49778.810117102876, -33413.9357106609, -43511.96211719062, -26476.691839300616, -9146.602052045113, -31102.273595604136, 0.748, -0.522, 0.484, 192.0, 0.0, 0.0, 0.0, 0.0, 0.0, 0.0, 0.0, 0.0, 0.0, 1.663500669972892E9, 0.0, 2022-09-18 16:31:09.972
190.0, -33335.25757017822, -43018.7038205509, -49160.13618232444, -35506.327212611104, -43066.827126363176, -25915.08190811657, -10080.390880154477, -31351.87552593655, 0.756, -0.516, 0.484, 192.0, 23.0, 160.0, 239.0, 224.0, 15.0, 32.0, 0.0, 0.0, 0.0, 1.6635006699769013E9, 0.0, 2022-09-18 16:31:09.976
191.0, -33188.02662945112, -43885.50447052771, -49223.391619132955, -36363.89659212787, -43018.77087578426, -26034.283761296723, -10033.653382498429, -30987.47503608168, 0.756, -0.516, 0.484, 192.0, 0.0, 0.0, 0.0, 0.0, 0.0, 0.0, 0.0, 0.0, 0.0, 1.6635006699808946E9, 0.0, 2022-09-18 16:31:09.980
192.0, -32282.19983365534, -43061.12743152707, -49564.79216394331, -35689.566813655714, -43259.834439734754, -26377.561852641327, -9516.903402436186, -30782.800112104433, 0.756, -0.516, 0.484, 192.0, 0.0, 0.0, 0.0, 0.0, 0.0, 0.0, 0.0, 0.0, 0.0, 1.6635006699858525E9, 0.0, 2022-09-18 16:31:09.985
193.0, -31259.00402772475, -41051.03505266131, -49945.84470341739, -33854.15331770817, -43546.76378330753, -26751.8641652899, -8909.204174185297, -30638.474898156514, 0.756, -0.516, 0.484, 192.0, 0.0, 0.0, 0.0, 0.0, 0.0, 0.0, 0.0, 0.0, 0.0, 1.6635006699899445E9, 0.0, 2022-09-18 16:31:09.989
194.0, -31845.245581298543, -40734.020261051686, -49723.511901320446, -33436.399213838486, -43483.50834649901, -26455.10005415679, -9163.365860386593, -31090.181301853812, 0.756, -0.516, 0.484, 192.0, 0.0, 0.0, 0.0, 0.0, 0.0, 0.0, 0.0, 0.0, 0.0, 1.6635006699930685E9, 0.0, 2022-09-18 16:31:09.993
195.0, -33379.24580326627, -43078.070053824194, -49153.87769387695, -35540.257160694266, -43039.64740510552, -25902.922559132883, -10091.454993659854, -31353.507203281788, 0.756, -0.516, 0.484, 192.0, 0.0, 0.0, 0.0, 0.0, 0.0, 0.0, 0.0, 0.0, 0.0, 1.6635006699969573E9, 0.0, 2022-09-18 16:31:09.996
196.0, -33173.92267869981, -43897.30619160011, -49286.11061407455, -36364.745958417174, -43036.406402159504, -26060.189433120424, -10047.578519294086, -31038.213495995224, 0.756, -0.516, 0.484, 192.0, 0.0, 0.0, 0.0, 0.0, 0.0, 0.0, 0.0, 0.0, 0.0, 1.663500670000944E9, 0.0, 2022-09-18 16:31:10.000
197.0, -32244.71595820379, -43031.48901837933, -49616.71526631299, -35655.12277545009, -43264.37184385918, -26395.73382088349, -9524.100664150794, -30800.882673368775, 0.756, -0.516, 0.484, 192.0, 0.0, 0.0, 0.0, 0.0, 0.0, 0.0, 0.0, 0.0, 0.0, 1.6635006700058956E9, 0.0, 2022-09-18 16:31:10.005
198.0, -31238.708643759328, -41002.68822940448, -49957.06527913395, -33801.112628115734, -43549.28953043098, -26760.15666248282, -8910.880555019445, -30650.701302373567, 0.756, -0.516, 0.484, 192.0, 0.0, 0.0, 0.0, 0.0, 0.0, 0.0, 0.0, 0.0, 0.0, 1.6635006700089695E9, 0.0, 2022-09-18 16:31:10.008
199.0, -31910.1326954523, -40777.44970052835, -49693.76172945044, -33466.23879268632, -43467.72801491356, -26436.570458003338, -9197.452270680937, -31096.551549023578, 0.756, -0.516, 0.484, 192.0, 0.0, 0.0, 0.0, 0.0, 0.0, 0.0, 0.0, 0.0, 0.0, 1.663500670012921E9, 0.0, 2022-09-18 16:31:10.012
200.0, -33434.05228067068, -43137.8833219866, -49181.0574151346, -35589.34159151812, -43047.82814357617, -25912.019719126194, -10125.139072554002, -31317.38678424201, 0.756, -0.522, 0.482, 192.0, 23.0, 160.0, 239.0, 176.0, 15.0, 16.0, 0.0, 0.0, 0.0, 1.66350067001793E9, 0.0, 2022-09-18 16:31:10.017
201.0, -33179.44355958028, -43894.37811307646, -49317.268945845244, -36357.74986240266, -43052.365547700596, -26074.583956549643, -10062.42007761241, -30993.532358829067, 0.756, -0.522, 0.482, 192.0, 0.0, 0.0, 0.0, 0.0, 0.0, 0.0, 0.0, 0.0, 0.0, 1.66350067002103E9, 0.0, 2022-09-18 16:31:10.021
202.0, -32216.441001467825, -42987.43373005793, -49620.58211810376, -35617.32597557616, -43280.55450684482, -26403.959262843047, -9530.627373531745, -30818.92053114421, 0.756, -0.522, 0.482, 192.0, 0.0, 0.0, 0.0, 0.0, 0.0, 0.0, 0.0, 0.0, 0.0, 1.6635006700250525E9, 0.0, 2022-09-18 16:31:10.025
203.0, -31231.4219750669, -40955.59310383715, -49968.01763391705, -33761.30417124083, -43579.17381276772, -26769.477339920682, -8923.196366214319, -30679.78092190992, 0.756, -0.522, 0.482, 192.0, 0.0, 0.0, 0.0, 0.0, 0.0, 0.0, 0.0, 0.0, 0.0, 1.663500670028987E9, 0.0, 2022-09-18 16:31:10.028
204.0, -31963.910992611767, -40815.73823878029, -49680.46244149953, -33503.43209545995, -43470.767852159486, -26418.353786272262, -9239.250032812362, -31093.422304799835, 0.756, -0.522, 0.482, 192.0, 0.0, 0.0, 0.0, 0.0, 0.0, 0.0, 0.0, 0.0, 0.0, 1.6635006700329669E9, 0.0, 2022-09-18 16:31:10.032
205.0, -33470.84325204411, -43178.69760736199, -49157.453972989795, -35639.923589220474, -43037.43458240445, -25898.586320708553, -10157.280881080733, -31297.694897376885, 0.756, -0.522, 0.482, 192.0, 0.0, 0.0, 0.0, 0.0, 0.0, 0.0, 0.0, 0.0, 0.0, 1.6635006700370238E9, 0.0, 2022-09-18 16:31:10.037
206.0, -33179.35415260246, -43869.12064184197, -49272.677215656906, -36355.26881876813, -43033.63478584705, -26061.44113080992, -10047.80203673864, -30976.768550487584, 0.756, -0.522, 0.482, 192.0, 0.0, 0.0, 0.0, 0.0, 0.0, 0.0, 0.0, 0.0, 0.0, 1.663500670041024E9, 0.0, 2022-09-18 16:31:10.041
207.0, -32223.75002190471, -42929.229787496304, -49605.092359196235, -35584.58066994914, -43286.00833249192, -26420.43249850661, -9507.359207553769, -30803.766048403508, 0.756, -0.522, 0.482, 192.0, 0.0, 0.0, 0.0, 0.0, 0.0, 0.0, 0.0, 0.0, 0.0, 1.6635006700460243E9, 0.0, 2022-09-18 16:31:10.046
208.0, -31231.936065189373, -40880.87122212305, -49954.986566899606, -33709.872807249165, -43573.742338865086, -26780.58615691497, -8902.18572642633, -30671.331962505814, 0.756, -0.522, 0.482, 192.0, 0.0, 0.0, 0.0, 0.0, 0.0, 0.0, 0.0, 0.0, 0.0, 1.6635006700490654E9, 0.0, 2022-09-18 16:31:10.049
209.0, -32016.01290893709, -40837.2406169463, -49667.61018843773, -33543.30760756822, -43458.83202062035, -26416.31977752683, -9249.867111428632, -31136.58352334303, 0.756, -0.522, 0.482, 192.0, 0.0, 0.0, 0.0, 0.0, 0.0, 0.0, 0.0, 0.0, 0.0, 1.6635006700530741E9, 0.0, 2022-09-18 16:31:10.053
210.0, -33496.86068259009, -43201.474034961946, -49144.89229260592, -35681.453130418435, -43024.47057062037, -25890.204416537814, -10147.312003053667, -31305.942691080894, 0.754, -0.52, 0.48, 192.0, 23.0, 144.0, 239.0, 192.0, 15.0, 0.0, 0.0, 0.0, 0.0, 1.6635006700570357E9, 0.0, 2022-09-18 16:31:10.057
211.0, -33172.693332754774, -43836.35298447049, -49267.40220396545, -36339.019100549114, -43022.637727575035, -26049.661761481973, -10019.169452091392, -30925.18072428474, 0.754, -0.52, 0.48, 192.0, 0.0, 0.0, 0.0, 0.0, 0.0, 0.0, 0.0, 0.0, 0.0, 1.663500670061004E9, 0.0, 2022-09-18 16:31:10.061
212.0, -32210.942472331823, -42863.29214135315, -49606.25464990791, -35535.40683214746, -43257.93454145605, -26391.531692925895, -9480.760631651954, -30723.27741661995, 0.754, -0.52, 0.48, 192.0, 0.0, 0.0, 0.0, 0.0, 0.0, 0.0, 0.0, 0.0, 0.0, 1.6635006700651112E9, 0.0, 2022-09-18 16:31:10.065
213.0, -31243.961303706328, -40822.75668653926, -50005.34504715742, -33666.398664283595, -43561.00184452556, -26757.09447349244, -8904.532659594139, -30657.406825710157, 0.754, -0.52, 0.48, 192.0, 0.0, 0.0, 0.0, 0.0, 0.0, 0.0, 0.0, 0.0, 0.0, 1.66350067006901E9, 0.0, 2022-09-18 16:31:10.069
214.0, -32056.9166012903, -40872.10933829658, -49743.49436086349, -33586.08884645568, -43461.26836076598, -26398.348974984765, -9302.103138220686, -31174.31326798359, 0.754, -0.52, 0.48, 192.0, 0.0, 0.0, 0.0, 0.0, 0.0, 0.0, 0.0, 0.0, 0.0, 1.6635006700740964E9, 0.0, 2022-09-18 16:31:10.074
215.0, -33488.746999352814, -43237.59445400172, -49195.25077286372, -35730.24698856437, -43039.13331498305, -25908.823419669083, -10181.845448237116, -31343.761842699274, 0.754, -0.52, 0.48, 192.0, 0.0, 0.0, 0.0, 0.0, 0.0, 0.0, 0.0, 0.0, 0.0, 1.663500670077151E9, 0.0, 2022-09-18 16:31:10.077
216.0, -33142.786698673575, -43818.4939406507, -49283.89779137347, -36337.700347626254, -43035.53468412575, -26078.897843229515, -10014.900268900426, -30963.31280032549, 0.754, -0.52, 0.48, 192.0, 0.0, 0.0, 0.0, 0.0, 0.0, 0.0, 0.0, 0.0, 0.0, 1.6635006700810688E9, 0.0, 2022-09-18 16:31:10.081
217.0, -32192.099951755998, -42815.86173961899, -49615.41886513458, -35505.2319771328, -43275.86064050921, -26421.885361896202, -9463.482733188002, -30744.243352919028, 0.754, -0.52, 0.48, 192.0, 0.0, 0.0, 0.0, 0.0, 0.0, 0.0, 0.0, 0.0, 0.0, 1.6635006700850787E9, 0.0, 2022-09-18 16:31:10.085
218.0, -31244.18482115088, -40768.03961611266, -49971.66096826327, -33619.437649183, -43572.133013264305, -26768.851491075933, -8877.308234847575, -30647.86263082774, 0.754, -0.52, 0.48, 192.0, 0.0, 0.0, 0.0, 0.0, 0.0, 0.0, 0.0, 0.0, 0.0, 1.6635006700891004E9, 0.0, 2022-09-18 16:31:10.089
219.0, -32134.767727228133, -40911.85073993811, -49636.02717352238, -33623.30450097376, -43438.78250584394, -26364.240212945966, -9293.385957883114, -31161.840994577527, 0.754, -0.52, 0.48, 192.0, 0.0, 0.0, 0.0, 0.0, 0.0, 0.0, 0.0, 0.0, 0.0, 1.6635006700931177E9, 0.0, 2022-09-18 16:31:10.093
220.0, -33552.583581517174, -43275.927695742575, -49162.52781898115, -35770.30131462828, -43028.76210555579, -25897.424029996877, -10165.618081762563, -31328.070918091646, 0.752, -0.524, 0.47800000000000004, 192.0, 23.0, 128.0, 239.0, 160.0, 14.0, 240.0, 0.0, 0.0, 0.0, 1.6635006700970693E9, 0.0, 2022-09-18 16:31:10.097
221.0, -33145.04422486356, -43802.0877602205, -49320.57700402463, -36331.5759696455, -43050.55505639971, -26093.06884921418, -9990.872143610972, -30963.5586695145, 0.752, -0.524, 0.47800000000000004, 192.0, 0.0, 0.0, 0.0, 0.0, 0.0, 0.0, 0.0, 0.0, 0.0, 1.6635006701021194E9, 0.0, 2022-09-18 16:31:10.102
222.0, -32173.145672457897, -42768.7442623072, -49656.322557487794, -35471.458491260826, -43291.05982673882, -26446.494632541497, -9441.019230010419, -30760.381312415757, 0.752, -0.524, 0.47800000000000004, 192.0, 0.0, 0.0, 0.0, 0.0, 0.0, 0.0, 0.0, 0.0, 0.0, 1.6635006701051774E9, 0.0, 2022-09-18 16:31:10.105
223.0, -31244.81066999563, -40721.95031904582, -50020.2536607091, -33583.138416187576, -43575.86575458834, -26778.775665614092, -8870.155676621876, -30659.30672398886, 0.752, -0.524, 0.47800000000000004, 192.0, 0.0, 0.0, 0.0, 0.0, 0.0, 0.0, 0.0, 0.0, 0.0, 1.663500670108127E9, 0.0, 2022-09-18 16:31:10.108
224.0, -32167.0436462216, -40949.96046423441, -49676.17090656411, -33661.45892875897, -43414.66497357666, -26345.4200441146, -9322.018542530364, -31145.747738569706, 0.752, -0.524, 0.47800000000000004, 192.0, 0.0, 0.0, 0.0, 0.0, 0.0, 0.0, 0.0, 0.0, 0.0, 1.6635006701131475E9, 0.0, 2022-09-18 16:31:10.113
225.0, -33545.07339538019, -43306.549585646346, -49159.286816035135, -35804.790056322825, -42994.92156445045, -25878.939137332338, -10171.362480087577, -31282.383952425, 0.752, -0.524, 0.47800000000000004, 192.0, 0.0, 0.0, 0.0, 0.0, 0.0, 0.0, 0.0, 0.0, 0.0, 1.6635006701171656E9, 0.0, 2022-09-18 16:31:10.117
226.0, -33126.82755313248, -43782.44057684429, -49309.24466958579, -36321.16005672933, -43036.85343704861, -26084.619889810074, -9974.421259691866, -30934.143773811316, 0.752, -0.524, 0.47800000000000004, 192.0, 0.0, 0.0, 0.0, 0.0, 0.0, 0.0, 0.0, 0.0, 0.0, 1.663500670121226E9, 0.0, 2022-09-18 16:31:10.121
227.0, -32150.54805881358, -42716.35177330396, -49651.718098130004, -35430.10776401851, -43302.50391989994, -26451.702588999582, -9422.19906117905, -30769.254954964515, 0.752, -0.524, 0.47800000000000004, 192.0, 0.0, 0.0, 0.0, 0.0, 0.0, 0.0, 0.0, 0.0, 0.0, 1.6635006701251566E9, 0.0, 2022-09-18 16:31:10.125
228.0, -31253.79607126666, -40683.52767032715, -49992.26927665106, -33550.52722102728, -43599.44684498869, -26787.626956418393, -8862.8913596739, -30713.710869993076, 0.752, -0.524, 0.47800000000000004, 192.0, 0.0, 0.0, 0.0, 0.0, 0.0, 0.0, 0.0, 0.0, 0.0, 1.6635006701301675E9, 0.0, 2022-09-18 16:31:10.130
229.0, -32236.021129610675, -41006.39861898406, -49628.94167053005, -33714.633728818146, -43414.910842765676, -26328.097442161732, -9343.967955585475, -31178.671858152375, 0.752, -0.524, 0.47800000000000004, 192.0, 0.0, 0.0, 0.0, 0.0, 0.0, 0.0, 0.0, 0.0, 0.0, 1.6635006701332595E9, 0.0, 2022-09-18 16:31:10.133
230.0, -33557.478613552885, -43341.418306996624, -49183.605514002506, -35842.07276607428, -42997.38025634054, -25875.720486130773, -10187.858067495594, -31257.37235037951, 0.748, -0.526, 0.484, 192.0, 23.0, 96.0, 239.0, 144.0, 15.0, 32.0, 0.0, 0.0, 0.0, 1.6635006701363292E9, 0.0, 2022-09-18 16:31:10.136
231.0, -33092.5623288825, -43767.75548073715, -49359.4019841435, -36316.153265971334, -43055.628902391065, -26098.477971372366, -9982.423184206866, -30936.378948256846, 0.748, -0.526, 0.484, 192.0, 0.0, 0.0, 0.0, 0.0, 0.0, 0.0, 0.0, 0.0, 0.0, 1.6635006701411457E9, 0.0, 2022-09-18 16:31:10.141
232.0, -32121.580197999505, -42676.18568851778, -49686.78798518038, -35405.96788000678, -43323.58161492129, -26478.234109668032, -9427.921107759608, -30780.47553068108, 0.748, -0.526, 0.484, 192.0, 0.0, 0.0, 0.0, 0.0, 0.0, 0.0, 0.0, 0.0, 0.0, 1.6635006701451833E9, 0.0, 2022-09-18 16:31:10.145
233.0, -31243.603675795042, -40632.74450692469, -49963.39082281481, -33510.65170891902, -43581.29722849098, -26774.260613234117, -8852.408391524363, -30688.185177825115, 0.748, -0.526, 0.484, 192.0, 0.0, 0.0, 0.0, 0.0, 0.0, 0.0, 0.0, 0.0, 0.0, 1.663500670149168E9, 0.0, 2022-09-18 16:31:10.149
234.0, -32287.184272668874, -41049.96216892746, -49577.756175727394, -33761.460633452014, -43384.46776681754, -26305.410421539596, -9357.088429580741, -31181.756398887206, 0.748, -0.526, 0.484, 192.0, 0.0, 0.0, 0.0, 0.0, 0.0, 0.0, 0.0, 0.0, 0.0, 1.6635006701532202E9, 0.0, 2022-09-18 16:31:10.153
235.0, -33597.51058787234, -43377.00228416947, -49143.1488565384, -35882.14944388264, -42983.902154433985, -25882.44836121182, -10171.764811487772, -31258.51228934673, 0.748, -0.526, 0.484, 192.0, 0.0, 0.0, 0.0, 0.0, 0.0, 0.0, 0.0, 0.0, 0.0, 1.6635006701572173E9, 0.0, 2022-09-18 16:31:10.157
236.0, -33108.5661779125, -43751.796335196064, -49338.458399588875, -36306.09498096645, -43044.27421620777, -26097.67330857197, -9943.508797110177, -30919.481029448634, 0.748, -0.526, 0.484, 192.0, 0.0, 0.0, 0.0, 0.0, 0.0, 0.0, 0.0, 0.0, 0.0, 1.6635006701611772E9, 0.0, 2022-09-18 16:31:10.161
237.0, -32121.803715444057, -42634.76790604209, -49703.68590398859, -35369.176908633344, -43324.25216725495, -26482.078609714343, -9403.222430136495, -30769.456120664614, 0.748, -0.526, 0.484, 192.0, 0.0, 0.0, 0.0, 0.0, 0.0, 0.0, 0.0, 0.0, 0.0, 1.66350067016421E9, 0.0, 2022-09-18 16:31:10.164
238.0, -31256.992370723772, -40612.11384679245, -50010.39654140431, -33496.12307502307, -43602.19610955669, -26785.01180231712, -8865.394755052896, -30744.109242452294, 0.748, -0.526, 0.484, 192.0, 0.0, 0.0, 0.0, 0.0, 0.0, 0.0, 0.0, 0.0, 0.0, 1.6635006701693006E9, 0.0, 2022-09-18 16:31:10.169
239.0, -32333.87706683601, -41118.246748238416, -49593.558859057295, -33829.85697148526, -43391.6426767877, -26305.410421539596, -9400.048482423841, -31231.444326811354, 0.748, -0.526, 0.484, 192.0, 0.0, 0.0, 0.0, 0.0, 0.0, 0.0, 0.0, 0.0, 0.0, 1.6635006701732593E9, 0.0, 2022-09-18 16:31:10.173
240.0, -33585.88768075558, -43422.44338064711, -49159.555036968595, -35932.3291101848, -42982.96338116686, -25881.733105389252, -10188.796840762716, -31252.544373577166, 0.748, -0.52, 0.484, 192.0, 23.0, 96.0, 239.0, 192.0, 15.0, 32.0, 0.0, 0.0, 0.0, 1.6635006701772065E9, 0.0, 2022-09-18 16:31:10.177
241.0, -33066.0531599585, -43750.56698925102, -49381.70902510989, -36315.683879337776, -43059.78632685976, -26121.634378628063, -9955.176407715846, -30912.574340411946, 0.748, -0.52, 0.484, 192.0, 0.0, 0.0, 0.0, 0.0, 0.0, 0.0, 0.0, 0.0, 0.0, 1.663500670181209E9, 0.0, 2022-09-18 16:31:10.181
242.0, -32067.19840373974, -42593.30542007749, -49726.64114554419, -35334.79992566108, -43330.42124872461, -26495.57906336535, -9408.564497061312, -30731.79343125742, 0.748, -0.52, 0.484, 192.0, 0.0, 0.0, 0.0, 0.0, 0.0, 0.0, 0.0, 0.0, 0.0, 1.663500670184269E9, 0.0, 2022-09-18 16:31:10.184
243.0, -31244.22952463979, -40583.727131334206, -49988.335369626926, -33459.600324583094, -43592.45074897417, -26781.52493018209, -8875.274226102141, -30694.13074185023, 0.748, -0.52, 0.484, 192.0, 0.0, 0.0, 0.0, 0.0, 0.0, 0.0, 0.0, 0.0, 0.0, 1.6635006701883297E9, 0.0, 2022-09-18 16:31:10.188
244.0, -32390.806959963676, -41187.11247290522, -49518.85932908766, -33878.47201567555, -43375.59412426879, -26287.305508530797, -9431.944421761564, -31229.902056443938, 0.748, -0.52, 0.484, 192.0, 0.0, 0.0, 0.0, 0.0, 0.0, 0.0, 0.0, 0.0, 0.0, 1.6635006701922376E9, 0.0, 2022-09-18 16:31:10.192
245.0, -33610.00521302286, -43475.88640163975, -49074.79722199407, -35966.79550013489, -42984.3491893231, -25885.667012413385, -10186.315797128176, -31272.95151626486, 0.748, -0.52, 0.484, 192.0, 0.0, 0.0, 0.0, 0.0, 0.0, 0.0, 0.0, 0.0, 0.0, 1.6635006701972563E9, 0.0, 2022-09-18 16:31:10.197
246.0, -33071.059950716495, -43759.44063179978, -49298.76170143625, -36305.536187355065, -43069.15170778653, -26120.94147454995, -9923.883965478417, -30912.864913089863, 0.748, -0.52, 0.484, 192.0, 0.0, 0.0, 0.0, 0.0, 0.0, 0.0, 0.0, 0.0, 0.0, 1.66350067020126E9, 0.0, 2022-09-18 16:31:10.201
247.0, -32078.083703289474, -42573.21120181218, -49667.29726401535, -35293.22568097421, -43331.74000164748, -26488.62767083975, -9363.212807561495, -30711.878026947743, 0.748, -0.52, 0.484, 192.0, 0.0, 0.0, 0.0, 0.0, 0.0, 0.0, 0.0, 0.0, 0.0, 1.663500670205279E9, 0.0, 2022-09-18 16:31:10.205
248.0, -31266.268344672724, -40587.45987265824, -49988.31301788247, -33433.64994927048, -43594.75297865307, -26768.96324979821, -8854.285938058609, -30688.721619692045, 0.748, -0.52, 0.484, 192.0, 0.0, 0.0, 0.0, 0.0, 0.0, 0.0, 0.0, 0.0, 0.0, 1.6635006702092683E9, 0.0, 2022-09-18 16:31:10.209
249.0, -32452.676588615966, -41296.010171891474, -49551.44817250349, -33946.13074614176, -43378.32103709233, -26278.14129330412, -9469.07066930183, -31250.622123554007, 0.748, -0.52, 0.484, 192.0, 0.0, 0.0, 0.0, 0.0, 0.0, 0.0, 0.0, 0.0, 0.0, 1.663500670212299E9, 0.0, 2022-09-18 16:31:10.212
250.0, -33616.42016368153, -43559.50427764706, -49132.12944652193, -36012.14718963471, -42997.35790459608, -25897.468733485788, -10211.64032359604, -31291.05642927366, 0.752, -0.516, 0.484, 192.0, 23.0, 128.0, 239.0, 224.0, 15.0, 32.0, 0.0, 0.0, 0.0, 1.6635006702162871E9, 0.0, 2022-09-18 16:31:10.216
251.0, -33031.16208686377, -43784.96632396774, -49354.171675940954, -36299.43416111877, -43092.397522020045, -26146.26600101781, -9924.420407345344, -30954.260343821094, 0.752, -0.516, 0.484, 192.0, 0.0, 0.0, 0.0, 0.0, 0.0, 0.0, 0.0, 0.0, 0.0, 1.663500670220367E9, 0.0, 2022-09-18 16:31:10.220
252.0, -32026.182952664254, -42563.30937901847, -49741.32624165133, -35263.050825959544, -43370.87790618872, -26527.25148525852, -9369.605406475712, -30755.79920480242, 0.752, -0.516, 0.484, 192.0, 0.0, 0.0, 0.0, 0.0, 0.0, 0.0, 0.0, 0.0, 0.0, 1.6635006702253807E9, 0.0, 2022-09-18 16:31:10.225
253.0, -31251.158565420934, -40581.24608769966, -49984.22264864715, -33410.29237631469, -43611.47208350564, -26774.52883416758, -8866.199417853286, -30721.444573574612, 0.752, -0.516, 0.484, 192.0, 0.0, 0.0, 0.0, 0.0, 0.0, 0.0, 0.0, 0.0, 0.0, 1.6635006702293277E9, 0.0, 2022-09-18 16:31:10.229
254.0, -32475.14009179355, -41353.25298944151, -49507.19171848199, -33986.54270011696, -43344.502847731455, -26230.755595058872, -9486.996768354986, -31218.949701660837, 0.752, -0.516, 0.484, 192.0, 0.0, 0.0, 0.0, 0.0, 0.0, 0.0, 0.0, 0.0, 0.0, 1.6635006702334056E9, 0.0, 2022-09-18 16:31:10.233
255.0, -33599.05285823975, -43588.986228583606, -49115.70091434728, -36037.51641959148, -42982.96338116686, -25878.380343720957, -10223.30793420171, -31209.22669282278, 0.752, -0.516, 0.484, 192.0, 0.0, 0.0, 0.0, 0.0, 0.0, 0.0, 0.0, 0.0, 0.0, 1.6635006702374532E9, 0.0, 2022-09-18 16:31:10.237
0.0, -33033.55372352049, -43775.01979768513, -49306.96479165135, -36287.94536446874, -43089.29062954076, -26146.64598067355, -9911.121119394436, -30897.464561160155, 0.752, -0.516, 0.484, 192.0, 0.0, 0.0, 0.0, 0.0, 0.0, 0.0, 0.0, 0.0, 0.0, 1.6635006702403648E9, 0.0, 2022-09-18 16:31:10.240
1.0, -32040.085737715453, -42517.46595114064, -49687.74911019196, -35214.59224398044, -43357.95859789355, -26526.424470713675, -9335.161368270084, -30721.89160846372, 0.752, -0.516, 0.484, 192.0, 0.0, 0.0, 0.0, 0.0, 0.0, 0.0, 0.0, 0.0, 0.0, 1.663500670244361E9, 0.0, 2022-09-18 16:31:10.244
2.0, -31294.52094966423, -40566.11395670342, -49990.39173011682, -33385.25842252474, -43613.43903701771, -26774.640592889857, -8855.001193881179, -30728.820649244866, 0.752, -0.516, 0.484, 192.0, 0.0, 0.0, 0.0, 0.0, 0.0, 0.0, 0.0, 0.0, 0.0, 1.6635006702483385E9, 0.0, 2022-09-18 16:31:10.248
3.0, -32553.594714831677, -41440.98358642859, -49510.499776661374, -34060.37051205284, -43360.35023455027, -26247.675865611538, -9518.065693147862, -31273.823234298616, 0.752, -0.516, 0.484, 192.0, 0.0, 0.0, 0.0, 0.0, 0.0, 0.0, 0.0, 0.0, 0.0, 1.663500670252478E9, 0.0, 2022-09-18 16:31:10.252
4.0, -33635.84382961319, -43636.930720440236, -49096.97015249373, -36078.37540845578, -42991.59115452661, -25904.531884733664, -10202.25259092481, -31261.57447833711, 0.756, -0.514, 0.48, 192.0, 23.0, 160.0, 239.0, 240.0, 15.0, 0.0, 0.0, 0.0, 0.0, 1.6635006702573578E9, 0.0, 2022-09-18 16:31:10.257
5.0, -32999.467313226145, -43754.97028290872, -49342.504065335284, -36268.074663647974, -43082.562754459716, -26149.730521408383, -9875.157162565847, -30936.960093612684, 0.756, -0.514, 0.48, 192.0, 0.0, 0.0, 0.0, 0.0, 0.0, 0.0, 0.0, 0.0, 0.0, 1.6635006702613544E9, 0.0, 2022-09-18 16:31:10.261
6.0, -31961.452300721685, -42459.30671206793, -49723.444846087084, -35156.88003979684, -43341.284196529894, -26519.316615976884, -9315.402426171593, -30717.37655608375, 0.756, -0.514, 0.48, 192.0, 0.0, 0.0, 0.0, 0.0, 0.0, 0.0, 0.0, 0.0, 0.0, 1.6635006702653794E9, 0.0, 2022-09-18 16:31:10.265
7.0, -31277.645382600473, -40539.89536045735, -49974.81256423147, -33350.30029419664, -43602.82195840144, -26768.650325375835, -8862.980766651723, -30720.528152051946, 0.756, -0.514, 0.48, 192.0, 0.0, 0.0, 0.0, 0.0, 0.0, 0.0, 0.0, 0.0, 0.0, 1.663500670268401E9, 0.0, 2022-09-18 16:31:10.268
8.0, -32618.928863874542, -41504.46254068167, -49449.747735231846, -34106.66097481978, -43327.26965275641, -26212.538923327797, -9531.677905521145, -31246.487050829775, 0.756, -0.514, 0.48, 192.0, 0.0, 0.0, 0.0, 0.0, 0.0, 0.0, 0.0, 0.0, 0.0, 1.6635006702724912E9, 0.0, 2022-09-18 16:31:10.272
9.0, -33649.65720768657, -43664.825697520464, -49087.80593726706, -36096.99441158705, -42969.59703798259, -25885.55525369111, -10185.153506416502, -31213.115896358002, 0.756, -0.514, 0.48, 192.0, 0.0, 0.0, 0.0, 0.0, 0.0, 0.0, 0.0, 0.0, 0.0, 1.6635006702764716E9, 0.0, 2022-09-18 16:31:10.276
10.0, -32998.57324344793, -43749.15882935034, -49323.88506220401, -36258.66457923229, -43084.19443180495, -26147.495346962853, -9849.43030469779, -30909.69096537721, 0.756, -0.514, 0.48, 192.0, 0.0, 0.0, 0.0, 0.0, 0.0, 0.0, 0.0, 0.0, 0.0, 1.6635006702804384E9, 0.0, 2022-09-18 16:31:10.280
11.0, -31983.155844587785, -42425.622633173785, -49702.21068885454, -35121.78780100201, -43361.847801428776, -26533.39821498373, -9274.945768707486, -30704.97133791105, 0.756, -0.514, 0.48, 192.0, 0.0, 0.0, 0.0, 0.0, 0.0, 0.0, 0.0, 0.0, 0.0, 1.663500670285458E9, 0.0, 2022-09-18 16:31:10.285
12.0, -31327.042737846703, -40532.65339525383, -49966.00597691607, -33333.51413411071, -43609.3933712713, -26766.10222650793, -8838.438551239795, -30730.295864378913, 0.756, -0.514, 0.48, 192.0, 0.0, 0.0, 0.0, 0.0, 0.0, 0.0, 0.0, 0.0, 0.0, 1.6635006702895167E9, 0.0, 2022-09-18 16:31:10.289
13.0, -32679.90442274862, -41585.84524224344, -49454.19573237845, -34173.157414574314, -43315.490283428466, -26194.09873415217, -9560.779876801953, -31283.076856503114, 0.756, -0.514, 0.48, 192.0, 0.0, 0.0, 0.0, 0.0, 0.0, 0.0, 0.0, 0.0, 0.0, 1.6635006702935367E9, 0.0, 2022-09-18 16:31:10.293
14.0, -33630.07707954372, -43703.762436361605, -49108.526004377134, -36125.85051367885, -42959.851677400075, -25880.324945488566, -10196.441137366432, -31221.251931339735, 0.752, -0.512, 0.48, 192.0, 23.0, 128.0, 240.0, 0.0, 15.0, 0.0, 0.0, 0.0, 0.0, 1.663500670296533E9, 0.0, 2022-09-18 16:31:10.296
15.0, -32945.08551896638, -43735.59132046597, -49371.0025395158, -36240.671424945765, -43091.74932143084, -26162.98510587038, -9846.591633151966, -30929.22639003115, 0.752, -0.512, 0.48, 192.0, 0.0, 0.0, 0.0, 0.0, 0.0, 0.0, 0.0, 0.0, 0.0, 1.6635006703004856E9, 0.0, 2022-09-18 16:31:10.300
16.0, -31906.9810994841, -42375.46531861607, -49787.14731778471, -35076.16789056872, -43379.170403381635, -26563.349552553842, -9290.167306681551, -30715.4990095495, 0.752, -0.512, 0.48, 192.0, 0.0, 0.0, 0.0, 0.0, 0.0, 0.0, 0.0, 0.0, 0.0, 1.6635006703045087E9, 0.0, 2022-09-18 16:31:10.304
17.0, -31296.219682242834, -40508.982897875656, -49991.66577955077, -33313.0622879341, -43621.86564467736, -26773.612412644914, -8867.808743454068, -30732.84396324682, 0.752, -0.512, 0.48, 192.0, 0.0, 0.0, 0.0, 0.0, 0.0, 0.0, 0.0, 0.0, 0.0, 1.663500670308522E9, 0.0, 2022-09-18 16:31:10.308
18.0, -32716.42717318859, -41642.64102490438, -49409.08991206765, -34225.34873787746, -43302.79449257785, -26179.301879322753, -9585.187981747149, -31251.672655543407, 0.752, -0.512, 0.48, 192.0, 0.0, 0.0, 0.0, 0.0, 0.0, 0.0, 0.0, 0.0, 0.0, 1.6635006703124645E9, 0.0, 2022-09-18 16:31:10.312
19.0, -33657.07798684573, -43734.69725068775, -49076.227733639214, -36159.087557683895, -42960.432822755916, -25893.020736339182, -10191.769622775271, -31198.02846885067, 0.752, -0.512, 0.48, 192.0, 0.0, 0.0, 0.0, 0.0, 0.0, 0.0, 0.0, 0.0, 0.0, 1.6635006703175073E9, 0.0, 2022-09-18 16:31:10.317
20.0, -32961.491699396574, -43722.13557030387, -49341.27471939024, -36236.84927664391, -43092.79985342024, -26163.94623088196, -9827.905574787328, -30907.232273487127, 0.752, -0.512, 0.48, 192.0, 0.0, 0.0, 0.0, 0.0, 0.0, 0.0, 0.0, 0.0, 0.0, 1.663500670321471E9, 0.0, 2022-09-18 16:31:10.321
21.0, -31909.730364052102, -42313.77450391943, -49735.112456692754, -35026.055279499924, -43365.31232181934, -26540.170793553687, -9242.669849714024, -30682.910166133664, 0.752, -0.512, 0.48, 192.0, 0.0, 0.0, 0.0, 0.0, 0.0, 0.0, 0.0, 0.0, 0.0, 1.6635006703245184E9, 0.0, 2022-09-18 16:31:10.324
22.0, -31330.373147770544, -40481.847880106914, -49965.067203648956, -33294.86796794748, -43609.08044684892, -26741.939990751744, -8848.65329845587, -30738.70012029411, 0.752, -0.512, 0.48, 192.0, 0.0, 0.0, 0.0, 0.0, 0.0, 0.0, 0.0, 0.0, 0.0, 1.663500670328536E9, 0.0, 2022-09-18 16:31:10.328
23.0, -32761.44358652158, -41693.91592668485, -49402.138519542044, -34286.95014559629, -43291.88684128366, -26152.99387609886, -9605.66217966821, -31283.255670458755, 0.752, -0.512, 0.48, 192.0, 0.0, 0.0, 0.0, 0.0, 0.0, 0.0, 0.0, 0.0, 0.0, 1.6635006703325908E9, 0.0, 2022-09-18 16:31:10.332
24.0, -33648.33845476371, -43742.05097461355, -49113.86807130195, -36185.35085741888, -42977.73307296432, -25903.45900099981, -10194.407128620998, -31189.98184084676, 0.752, -0.512, 0.48, 192.0, 0.0, 0.0, 0.0, 0.0, 0.0, 0.0, 0.0, 0.0, 0.0, 1.6635006703364983E9, 0.0, 2022-09-18 16:31:10.336
25.0, -32948.66179807923, -43691.75954958911, -49397.89168809554, -36224.55581719349, -43122.79589447926, -26196.244501619876, -9833.024124267593, -30880.49958711858, 0.756, -0.516, 0.47800000000000004, 192.0, 23.0, 160.0, 239.0, 224.0, 14.0, 240.0, 0.0, 0.0, 0.0, 1.6635006703406043E9, 0.0, 2022-09-18 16:31:10.340
26.0, -31915.720631566124, -42259.370357915206, -49793.070530065364, -34986.09036041384, -43397.92351697964, -26582.1250178963, -9256.55028302077, -30689.436875514613, 0.756, -0.516, 0.47800000000000004, 192.0, 0.0, 0.0, 0.0, 0.0, 0.0, 0.0, 0.0, 0.0, 0.0, 1.6635006703455045E9, 0.0, 2022-09-18 16:31:10.345
27.0, -31340.63259847553, -40453.28235069303, -50002.886355267336, -33275.01961887117, -43603.648972946285, -26742.655246574315, -8879.766926737659, -30796.702897155632, 0.756, -0.516, 0.47800000000000004, 192.0, 0.0, 0.0, 0.0, 0.0, 0.0, 0.0, 0.0, 0.0, 0.0, 1.6635006703495367E9, 0.0, 2022-09-18 16:31:10.349
28.0, -32784.46588331054, -41747.716575588776, -49428.80415067723, -34349.80325100461, -43283.750806301934, -26148.970562096903, -9667.375346109313, -31369.712218011886, 0.756, -0.516, 0.47800000000000004, 192.0, 0.0, 0.0, 0.0, 0.0, 0.0, 0.0, 0.0, 0.0, 0.0, 1.6635006703525283E9, 0.0, 2022-09-18 16:31:10.352
29.0, -33621.91869281753, -43750.83521018449, -49118.20430972628, -36211.61415715387, -42977.80012819769, -25912.0644226151, -10218.2117364659, -31221.430745295376, 0.756, -0.516, 0.47800000000000004, 192.0, 0.0, 0.0, 0.0, 0.0, 0.0, 0.0, 0.0, 0.0, 0.0, 1.6635006703565102E9, 0.0, 2022-09-18 16:31:10.356
30.0, -32905.81350395841, -43651.25818863609, -49354.52930385224, -36201.84644482689, -43099.21480407892, -26179.681858978496, -9817.355551404424, -30864.316924132938, 0.756, -0.516, 0.47800000000000004, 192.0, 0.0, 0.0, 0.0, 0.0, 0.0, 0.0, 0.0, 0.0, 0.0, 1.6635006703605397E9, 0.0, 2022-09-18 16:31:10.360
31.0, -31873.274668845497, -42192.538641993844, -49742.35442189627, -34932.468525465556, -43374.76710972394, -26568.758674712026, -9225.235489038883, -30661.184270523107, 0.756, -0.516, 0.47800000000000004, 192.0, 0.0, 0.0, 0.0, 0.0, 0.0, 0.0, 0.0, 0.0, 0.0, 1.66350067036465E9, 0.0, 2022-09-18 16:31:10.364
32.0, -31367.07471216616, -40439.6477865753, -49955.187732599705, -33256.08769131752, -43591.690789662694, -26726.114955677385, -8871.206208611275, -30762.527079883468, 0.756, -0.516, 0.47800000000000004, 192.0, 0.0, 0.0, 0.0, 0.0, 0.0, 0.0, 0.0, 0.0, 0.0, 1.6635006703685677E9, 0.0, 2022-09-18 16:31:10.368
33.0, -32852.39283471023, -41824.62892825949, -49421.383371518066, -34401.79340860766, -43271.94908522953, -26128.54106766475, -9687.849544030374, -31294.118618264034, 0.756, -0.516, 0.47800000000000004, 192.0, 0.0, 0.0, 0.0, 0.0, 0.0, 0.0, 0.0, 0.0, 0.0, 1.6635006703735924E9, 0.0, 2022-09-18 16:31:10.373
34.0, -33650.8418501427, -43803.49592012119, -49166.484077749745, -36239.062099344985, -42994.966267939366, -25929.498783290244, -10222.771492334783, -31188.394866990435, 0.756, -0.516, 0.47800000000000004, 192.0, 0.0, 0.0, 0.0, 0.0, 0.0, 0.0, 0.0, 0.0, 0.0, 1.663500670377616E9, 0.0, 2022-09-18 16:31:10.377
35.0, -32909.23332086007, -43664.266903909076, -49384.167716999975, -36192.10108424439, -43124.38286833559, -26196.646833020073, -9811.633504823865, -30888.7920843115, 0.758, -0.518, 0.48, 192.0, 23.0, 176.0, 239.0, 208.0, 15.0, 0.0, 0.0, 0.0, 0.0, 1.663500670380615E9, 0.0, 2022-09-18 16:31:10.380
36.0, -31855.862659914812, -42171.59505743922, -49749.6410905887, -34889.888452278195, -43399.532842580425, -26588.78583774398, -9216.16068079003, -30690.6438697152, 0.758, -0.518, 0.48, 192.0, 0.0, 0.0, 0.0, 0.0, 0.0, 0.0, 0.0, 0.0, 0.0, 1.663500670384596E9, 0.0, 2022-09-18 16:31:10.384
37.0, -31373.26614538028, -40457.1492024838, -49920.69899090517, -33244.73300513423, -43591.19905128468, -26717.531885806548, -8870.356842321973, -30788.27628949598, 0.758, -0.518, 0.48, 192.0, 0.0, 0.0, 0.0, 0.0, 0.0, 0.0, 0.0, 0.0, 0.0, 1.6635006703886373E9, 0.0, 2022-09-18 16:31:10.388
38.0, -32878.54437572293, -41908.91735660045, -49363.559408612186, -34459.90794419145, -43235.91807316757, -26096.466314371388, -9695.449137145179, -31308.580196926618, 0.758, -0.518, 0.48, 192.0, 0.0, 0.0, 0.0, 0.0, 0.0, 0.0, 0.0, 0.0, 0.0, 1.6635006703926387E9, 0.0, 2022-09-18 16:31:10.392
39.0, -33604.30551818675, -43821.31026045207, -49144.13233329444, -36245.38764302583, -42958.667034943945, -25901.000309109728, -10212.087358485147, -31161.393959688423, 0.758, -0.518, 0.48, 192.0, 0.0, 0.0, 0.0, 0.0, 0.0, 0.0, 0.0, 0.0, 0.0, 1.6635006703966165E9, 0.0, 2022-09-18 16:31:10.396
40.0, -32847.967189308074, -43643.010394932084, -49432.87216816809, -36171.06809271194, -43131.624833539114, -26208.448554092476, -9813.578106591476, -30877.68326731721, 0.758, -0.518, 0.48, 192.0, 0.0, 0.0, 0.0, 0.0, 0.0, 0.0, 0.0, 0.0, 0.0, 1.6635006704016469E9, 0.0, 2022-09-18 16:31:10.401
41.0, -31797.502255142008, -42122.980013248925, -49835.04710615243, -34846.50371629044, -43425.9973080155, -26617.843105535878, -9229.124692574107, -30711.721564736556, 0.758, -0.518, 0.48, 192.0, 0.0, 0.0, 0.0, 0.0, 0.0, 0.0, 0.0, 0.0, 0.0, 1.6635006704056146E9, 0.0, 2022-09-18 16:31:10.405
42.0, -31375.367209359076, -40455.651635605296, -49941.53081673751, -33243.95069407829, -43615.338935296415, -26733.602790069915, -8905.538488094628, -30853.87865947231, 0.758, -0.518, 0.48, 192.0, 0.0, 0.0, 0.0, 0.0, 0.0, 0.0, 0.0, 0.0, 0.0, 1.6635006704086547E9, 0.0, 2022-09-18 16:31:10.408
43.0, -32931.585065315376, -41982.253430158315, -49322.27573660323, -34526.06910777916, -43239.44964879151, -26093.091200958635, -9729.200271272692, -31343.06893862116, 0.758, -0.518, 0.48, 192.0, 0.0, 0.0, 0.0, 0.0, 0.0, 0.0, 0.0, 0.0, 0.0, 1.6635006704126422E9, 0.0, 2022-09-18 16:31:10.412
44.0, -33608.708811844444, -43845.94188284181, -49114.538623635606, -36264.76660546858, -42953.21320929685, -25893.490122972744, -10201.872611269071, -31131.084994207027, 0.758, -0.518, 0.48, 192.0, 0.0, 0.0, 0.0, 0.0, 0.0, 0.0, 0.0, 0.0, 0.0, 1.6635006704167325E9, 0.0, 2022-09-18 16:31:10.416
45.0, -32849.21888699757, -43635.0978773949, -49395.432996205454, -36157.94761871667, -43123.22057762391, -26196.222149875422, -9797.03781569455, -30855.756206006554, 0.752, -0.518, 0.47800000000000004, 192.0, 23.0, 128.0, 239.0, 208.0, 14.0, 240.0, 0.0, 0.0, 0.0, 1.663500670420692E9, 0.0, 2022-09-18 16:31:10.420
46.0, -31803.04548776692, -42072.219201590924, -49781.60408515979, -34790.400837707624, -43416.229595688535, -26602.241587906075, -9190.299712455238, -30681.859634144264, 0.752, -0.518, 0.47800000000000004, 192.0, 0.0, 0.0, 0.0, 0.0, 0.0, 0.0, 0.0, 0.0, 0.0, 1.6635006704246852E9, 0.0, 2022-09-18 16:31:10.424
47.0, -31440.164916535014, -40458.087975750925, -49927.18099679721, -33229.37735669343, -43598.30690602147, -26696.85652218539, -8895.144926922909, -30796.14410354425, 0.752, -0.518, 0.47800000000000004, 192.0, 0.0, 0.0, 0.0, 0.0, 0.0, 0.0, 0.0, 0.0, 0.0, 1.6635006704286933E9, 0.0, 2022-09-18 16:31:10.428
48.0, -32990.86189161085, -42051.40972750303, -49360.00548124379, -34578.707465971405, -43217.56729096977, -26054.98147666234, -9758.5034082536, -31280.685219846397, 0.752, -0.518, 0.47800000000000004, 192.0, 0.0, 0.0, 0.0, 0.0, 0.0, 0.0, 0.0, 0.0, 0.0, 1.6635006704336884E9, 0.0, 2022-09-18 16:31:10.433
49.0, -33593.15199770356, -43863.219781305765, -49174.91068540939, -36279.809329487005, -42971.45223277238, -25912.802030182127, -10212.780262563261, -31110.879017219428, 0.752, -0.518, 0.47800000000000004, 192.0, 0.0, 0.0, 0.0, 0.0, 0.0, 0.0, 0.0, 0.0, 0.0, 1.6635006704366999E9, 0.0, 2022-09-18 16:31:10.436
50.0, -32830.51047688848, -43611.829711416925, -49406.45240622192, -36136.42288880621, -43141.99604296638, -26217.009272218856, -9780.251655608614, -30851.509374560046, 0.752, -0.518, 0.47800000000000004, 192.0, 0.0, 0.0, 0.0, 0.0, 0.0, 0.0, 0.0, 0.0, 0.0, 1.6635006704406843E9, 0.0, 2022-09-18 16:31:10.440
51.0, -31775.374028131253, -42012.60709912862, -49762.85097156179, -34732.97920620194, -43415.78256079943, -26607.606006575348, -9166.71862205489, -30657.518584432437, 0.752, -0.518, 0.47800000000000004, 192.0, 0.0, 0.0, 0.0, 0.0, 0.0, 0.0, 0.0, 0.0, 0.0, 1.663500670444713E9, 0.0, 2022-09-18 16:31:10.444
52.0, -31457.778091165794, -40449.25903669107, -49902.281153473996, -33218.58146412152, -43586.34872273788, -26688.251100570098, -8901.649284559404, -30832.53274351749, 0.752, -0.518, 0.47800000000000004, 192.0, 0.0, 0.0, 0.0, 0.0, 0.0, 0.0, 0.0, 0.0, 0.0, 1.6635006704487565E9, 0.0, 2022-09-18 16:31:10.448
53.0, -33022.71312745966, -42115.0898474562, -49353.85875151858, -34640.71120509043, -43205.095017563704, -26051.718121971862, -9789.773498746574, -31334.374110028042, 0.752, -0.518, 0.47800000000000004, 192.0, 0.0, 0.0, 0.0, 0.0, 0.0, 0.0, 0.0, 0.0, 0.0, 1.6635006704527116E9, 0.0, 2022-09-18 16:31:10.452
54.0, -33568.20745089143, -43872.36164478799, -49178.39755754442, -36298.24951866263, -42967.02658737023, -25918.434669784867, -10213.026131752269, -31134.84008727552, 0.752, -0.518, 0.47800000000000004, 192.0, 0.0, 0.0, 0.0, 0.0, 0.0, 0.0, 0.0, 0.0, 0.0, 1.6635006704567437E9, 0.0, 2022-09-18 16:31:10.456
55.0, -32786.96927868954, -43575.57518191042, -49418.12001682759, -36117.848589163856, -43145.86289475714, -26225.435879878507, -9765.387745545835, -30873.816415526442, 0.756, -0.52, 0.48, 192.0, 23.0, 160.0, 239.0, 192.0, 15.0, 0.0, 0.0, 0.0, 0.0, 1.6635006704617114E9, 0.0, 2022-09-18 16:31:10.461
56.0, -31744.573324271838, -41942.400269794496, -49784.33099798334, -34682.665429433044, -43431.51818889596, -26620.637073592792, -9142.355220598605, -30655.43987219809, 0.756, -0.52, 0.48, 192.0, 0.0, 0.0, 0.0, 0.0, 0.0, 0.0, 0.0, 0.0, 0.0, 1.6635006704649177E9, 0.0, 2022-09-18 16:31:10.464
57.0, -31468.953963393447, -40432.33876613841, -49909.97015356662, -33211.47360938473, -43591.15434779577, -26679.019830110054, -8903.124499693455, -30815.85834215383, 0.756, -0.52, 0.48, 192.0, 0.0, 0.0, 0.0, 0.0, 0.0, 0.0, 0.0, 0.0, 0.0, 1.6635006704686997E9, 0.0, 2022-09-18 16:31:10.468
58.0, -33073.004552484104, -42169.672807416064, -49319.90645169097, -34702.178502342525, -43206.21260478647, -26049.974685904348, -9800.32352212948, -31313.43052547342, 0.756, -0.52, 0.48, 192.0, 0.0, 0.0, 0.0, 0.0, 0.0, 0.0, 0.0, 0.0, 0.0, 1.6635006704728053E9, 0.0, 2022-09-18 16:31:10.472
59.0, -33591.810893036236, -43879.91653441388, -49180.58802850104, -36316.19796946025, -42990.630029515036, -25946.79903349865, -10183.186552904433, -31114.67881377683, 0.756, -0.52, 0.48, 192.0, 0.0, 0.0, 0.0, 0.0, 0.0, 0.0, 0.0, 0.0, 0.0, 1.6635006704767983E9, 0.0, 2022-09-18 16:31:10.476
60.0, -32790.65731652467, -43547.83666704138, -49451.66998525501, -36101.04007733346, -43175.54601139379, -26258.337647716722, -9734.385875986323, -30891.474293646133, 0.756, -0.52, 0.48, 192.0, 0.0, 0.0, 0.0, 0.0, 0.0, 0.0, 0.0, 0.0, 0.0, 1.663500670480841E9, 0.0, 2022-09-18 16:31:10.480
61.0, -31715.560759968852, -41882.94462954338, -49839.696268999134, -34634.497420131855, -43449.62310190476, -26643.21233549265, -9115.130795852041, -30698.26581457446, 0.756, -0.52, 0.48, 192.0, 0.0, 0.0, 0.0, 0.0, 0.0, 0.0, 0.0, 0.0, 0.0, 1.663500670485776E9, 0.0, 2022-09-18 16:31:10.485
62.0, -31493.85380671666, -40434.57394058394, -49941.19554057068, -33216.748621076185, -43605.01242935806, -26677.298745786997, -8908.511270107183, -30865.09923518887, 0.756, -0.52, 0.48, 192.0, 0.0, 0.0, 0.0, 0.0, 0.0, 0.0, 0.0, 0.0, 0.0, 1.6635006704887662E9, 0.0, 2022-09-18 16:31:10.488
63.0, -33122.75953564162, -42232.32474712429, -49311.43514054241, -34763.466985638974, -43192.75685462438, -26025.790098403704, -9816.886164770862, -31299.751257866774, 0.756, -0.52, 0.48, 192.0, 0.0, 0.0, 0.0, 0.0, 0.0, 0.0, 0.0, 0.0, 0.0, 1.663500670491789E9, 0.0, 2022-09-18 16:31:10.491
64.0, -33585.59710807766, -43883.17988910436, -49181.81737444608, -36327.03856552107, -42970.87108741654, -25921.072175630594, -10174.82700047815, -31075.652667957864, 0.756, -0.52, 0.48, 192.0, 0.0, 0.0, 0.0, 0.0, 0.0, 0.0, 0.0, 0.0, 0.0, 1.6635006704958193E9, 0.0, 2022-09-18 16:31:10.495
65.0, -32746.803193903354, -43513.79496023595, -49489.802061295755, -36082.68929513566, -43163.11844147664, -26232.47667938193, -9735.950498098195, -30842.85924945584, 0.756, -0.524, 0.47800000000000004, 192.0, 23.0, 160.0, 239.0, 160.0, 14.0, 240.0, 0.0, 0.0, 0.0, 1.6635006705007856E9, 0.0, 2022-09-18 16:31:10.500
66.0, -31682.949564808558, -41825.21007361532, -49838.55633003191, -34592.94552718944, -43465.00110209001, -26651.750701874582, -9113.387359784527, -30696.209454084572, 0.756, -0.524, 0.47800000000000004, 192.0, 0.0, 0.0, 0.0, 0.0, 0.0, 0.0, 0.0, 0.0, 0.0, 1.663500670504815E9, 0.0, 2022-09-18 16:31:10.504
67.0, -31522.84401927519, -40432.89755974979, -49855.3201383734, -33217.10624898747, -43575.619885399334, -26642.81000409246, -8909.181822440842, -30884.902880776273, 0.756, -0.524, 0.47800000000000004, 192.0, 0.0, 0.0, 0.0, 0.0, 0.0, 0.0, 0.0, 0.0, 0.0, 1.6635006705087774E9, 0.0, 2022-09-18 16:31:10.508
68.0, -33164.870222195415, -42295.26725951043, -49255.332261959586, -34822.65440495663, -43163.11844147664, -26003.75127837077, -9822.854080540428, -31317.90087436448, 0.756, -0.524, 0.47800000000000004, 192.0, 0.0, 0.0, 0.0, 0.0, 0.0, 0.0, 0.0, 0.0, 0.0, 1.6635006705129137E9, 0.0, 2022-09-18 16:31:10.512
69.0, -33583.40663712104, -43896.859156711005, -49168.04869986161, -36340.29314998307, -42966.17722108093, -25933.03035891418, -10150.083619366123, -31073.372790023423, 0.756, -0.524, 0.47800000000000004, 192.0, 0.0, 0.0, 0.0, 0.0, 0.0, 0.0, 0.0, 0.0, 0.0, 1.6635006705168664E9, 0.0, 2022-09-18 16:31:10.516
70.0, -32746.892600881172, -43490.83971868035, -49475.94397973347, -36061.1645652252, -43159.27394143033, -26243.00435102038, -9702.914619793251, -30833.53857201798, 0.756, -0.524, 0.47800000000000004, 192.0, 0.0, 0.0, 0.0, 0.0, 0.0, 0.0, 0.0, 0.0, 0.0, 1.6635006705199113E9, 0.0, 2022-09-18 16:31:10.519
71.0, -31678.546271150863, -41770.64946539992, -49851.34152786035, -34541.91649459797, -43458.586151431344, -26655.17051877624, -9090.499173462293, -30675.109407318763, 0.756, -0.524, 0.47800000000000004, 192.0, 0.0, 0.0, 0.0, 0.0, 0.0, 0.0, 0.0, 0.0, 0.0, 1.6635006705248249E9, 0.0, 2022-09-18 16:31:10.524
72.0, -31564.552374428797, -40452.209466959175, -49918.75438913755, -33237.42398469734, -43593.63539143031, -26654.969353076143, -8935.311011709096, -30934.926084867253, 0.756, -0.524, 0.47800000000000004, 192.0, 0.0, 0.0, 0.0, 0.0, 0.0, 0.0, 0.0, 0.0, 0.0, 1.6635006705289528E9, 0.0, 2022-09-18 16:31:10.528
73.0, -33194.62039406543, -42357.09218467381, -49296.12419559052, -34888.72616156652, -43170.986255524906, -26005.00297606027, -9851.777237865595, -31350.24384859131, 0.756, -0.524, 0.47800000000000004, 192.0, 0.0, 0.0, 0.0, 0.0, 0.0, 0.0, 0.0, 0.0, 0.0, 1.6635006705328627E9, 0.0, 2022-09-18 16:31:10.532
74.0, -33569.3250381142, -43896.76974973318, -49182.80085120212, -36354.687673412285, -42978.537735764716, -25942.70866426333, -10141.053514606181, -31085.710952962752, 0.756, -0.524, 0.47800000000000004, 192.0, 0.0, 0.0, 0.0, 0.0, 0.0, 0.0, 0.0, 0.0, 0.0, 1.6635006705369525E9, 0.0, 2022-09-18 16:31:10.536
75.0, -32723.065641291818, -43445.9574158141, -49466.44448833996, -36034.67774804566, -43151.339072148694, -26225.547638600787, -9667.285939131492, -30800.659155924222, 0.75, -0.52, 0.47600000000000003, 192.0, 23.0, 112.0, 239.0, 192.0, 14.0, 224.0, 0.0, 0.0, 0.0, 1.6635006705409284E9, 0.0, 2022-09-18 16:31:10.540
76.0, -31640.41419511011, -41690.42905454982, -49888.423071911704, -34484.45015960338, -43454.58518917384, -26642.9888180481, -9067.588635395603, -30623.074546226806, 0.75, -0.52, 0.47600000000000003, 192.0, 0.0, 0.0, 0.0, 0.0, 0.0, 0.0, 0.0, 0.0, 0.0, 1.663500670544901E9, 0.0, 2022-09-18 16:31:10.544
77.0, -31589.8545491522, -40441.81590578746, -49928.142121808785, -33241.424946954845, -43589.29915300598, -26644.374626204328, -8960.635538176959, -30923.05730856148, 0.75, -0.52, 0.47600000000000003, 192.0, 0.0, 0.0, 0.0, 0.0, 0.0, 0.0, 0.0, 0.0, 0.0, 1.663500670547926E9, 0.0, 2022-09-18 16:31:10.547
78.0, -33243.7495283782, -42405.908394564205, -49287.65288444196, -34953.702682698095, -43169.06400550175, -26005.42765920492, -9886.221276071225, -31389.627622321565, 0.75, -0.52, 0.47600000000000003, 192.0, 0.0, 0.0, 0.0, 0.0, 0.0, 0.0, 0.0, 0.0, 0.0, 1.6635006705519001E9, 0.0, 2022-09-18 16:31:10.551
79.0, -33547.26386633681, -43872.92043839937, -49169.54626674012, -36361.99669384917, -42976.079043874626, -25945.837908487072, -10133.409218002465, -31111.750735253187, 0.75, -0.52, 0.47600000000000003, 192.0, 0.0, 0.0, 0.0, 0.0, 0.0, 0.0, 0.0, 0.0, 0.0, 1.663500670556893E9, 0.0, 2022-09-18 16:31:10.556
80.0, -32689.85094903123, -43386.367665096244, -49504.50950914735, -36014.22590186905, -43174.607238126664, -26264.19380476401, -9667.397697853768, -30829.559961504932, 0.75, -0.52, 0.47600000000000003, 192.0, 0.0, 0.0, 0.0, 0.0, 0.0, 0.0, 0.0, 0.0, 0.0, 1.6635006705609276E9, 0.0, 2022-09-18 16:31:10.560
81.0, -31617.950691932525, -41600.93266975077, -49868.59707457985, -34430.56010372163, -43464.9116951122, -26669.56504220546, -9052.165931721442, -30651.14833726267, 0.75, -0.52, 0.47600000000000003, 192.0, 0.0, 0.0, 0.0, 0.0, 0.0, 0.0, 0.0, 0.0, 0.0, 1.6635006705649133E9, 0.0, 2022-09-18 16:31:10.564
82.0, -31617.526008787874, -40409.160007138256, -49853.2190743946, -33233.19950499529, -43549.44599264217, -26606.086087952386, -8942.977660057266, -30903.566587396457, 0.75, -0.52, 0.47600000000000003, 192.0, 0.0, 0.0, 0.0, 0.0, 0.0, 0.0, 0.0, 0.0, 0.0, 1.6635006705689116E9, 0.0, 2022-09-18 16:31:10.568
83.0, -33285.99432539872, -42431.6129006878, -49264.80940160864, -34999.143779175734, -43132.69771727297, -25974.358734412046, -9888.881133661405, -31328.160325069468, 0.75, -0.52, 0.47600000000000003, 192.0, 0.0, 0.0, 0.0, 0.0, 0.0, 0.0, 0.0, 0.0, 0.0, 1.6635006705729034E9, 0.0, 2022-09-18 16:31:10.572
84.0, -33543.128793612574, -43848.557036943086, -49184.2090111028, -36360.968513604224, -42954.08492733061, -25935.444347315355, -10116.600706172074, -31038.61582739542, 0.75, -0.52, 0.47600000000000003, 192.0, 0.0, 0.0, 0.0, 0.0, 0.0, 0.0, 0.0, 0.0, 0.0, 1.6635006705761125E9, 0.0, 2022-09-18 16:31:10.576
85.0, -32687.191091441047, -43335.539798204874, -49494.071244486724, -35989.616631223755, -43163.47606938792, -26262.986810563423, -9640.709714974131, -30795.115923299305, 0.746, -0.522, 0.482, 192.0, 23.0, 80.0, 239.0, 176.0, 15.0, 16.0, 0.0, 0.0, 0.0, 1.6635006705799956E9, 0.0, 2022-09-18 16:31:10.579
86.0, -31612.608625007706, -41521.74043914562, -49882.36574916432, -34376.29006818415, -43458.65320666471, -26661.920745601747, -9019.152405160952, -30620.995833992463, 0.746, -0.522, 0.482, 192.0, 0.0, 0.0, 0.0, 0.0, 0.0, 0.0, 0.0, 0.0, 0.0, 1.663500670584991E9, 0.0, 2022-09-18 16:31:10.584
87.0, -31651.99239873796, -40405.24845185858, -49871.14517344775, -33246.454089457286, -43552.128201976804, -26591.78097150099, -8956.72398289728, -30930.67925342074, 0.746, -0.522, 0.482, 192.0, 0.0, 0.0, 0.0, 0.0, 0.0, 0.0, 0.0, 0.0, 0.0, 1.6635006705889711E9, 0.0, 2022-09-18 16:31:10.588
88.0, -33303.58514828505, -42469.78968021747, -49269.860895855534, -35057.68299790419, -43130.59665329417, -25957.50551909274, -9905.555535025065, -31360.43624406293, 0.746, -0.522, 0.482, 192.0, 0.0, 0.0, 0.0, 0.0, 0.0, 0.0, 0.0, 0.0, 0.0, 1.663500670592964E9, 0.0, 2022-09-18 16:31:10.592
89.0, -33504.01324081579, -43832.79905710209, -49236.57914836158, -36372.47966199871, -42968.56885773765, -25937.210135127323, -10111.750377625272, -31058.330066005, 0.746, -0.522, 0.482, 192.0, 0.0, 0.0, 0.0, 0.0, 0.0, 0.0, 0.0, 0.0, 0.0, 1.6635006705969622E9, 0.0, 2022-09-18 16:31:10.596
90.0, -32620.046451097307, -43285.27072492489, -49577.77852747185, -35967.801328635374, -43188.28650573332, -26269.871147855658, -9644.19658710916, -30840.802888965954, 0.746, -0.522, 0.482, 192.0, 0.0, 0.0, 0.0, 0.0, 0.0, 0.0, 0.0, 0.0, 0.0, 1.6635006705999308E9, 0.0, 2022-09-18 16:31:10.599
91.0, -31557.600981903197, -41456.026310447014, -49931.80780789946, -34336.615721775976, -43499.37808506228, -26688.586376736926, -9029.568318077127, -30703.496122777004, 0.746, -0.522, 0.482, 192.0, 0.0, 0.0, 0.0, 0.0, 0.0, 0.0, 0.0, 0.0, 0.0, 1.663500670604071E9, 0.0, 2022-09-18 16:31:10.604
92.0, -31654.182869694578, -40410.1881873832, -49872.03924322596, -33268.31409553457, -43560.934789292194, -26583.711991752625, -8984.529552999682, -31032.536152903576, 0.746, -0.522, 0.482, 192.0, 0.0, 0.0, 0.0, 0.0, 0.0, 0.0, 0.0, 0.0, 0.0, 1.663500670608018E9, 0.0, 2022-09-18 16:31:10.608
93.0, -33311.63177628896, -42518.36002091885, -49280.09799481607, -35118.77031550054, -43129.34495560467, -25956.834966759085, -9935.171596428347, -31349.528592768744, 0.746, -0.522, 0.482, 192.0, 0.0, 0.0, 0.0, 0.0, 0.0, 0.0, 0.0, 0.0, 0.0, 1.6635006706120133E9, 0.0, 2022-09-18 16:31:10.612
94.0, -33498.335897724144, -43831.12267626794, -49193.2614676072, -36383.54377550409, -42985.39972131249, -25962.445254617367, -10100.574505397619, -31024.80244932204, 0.746, -0.522, 0.482, 192.0, 0.0, 0.0, 0.0, 0.0, 0.0, 0.0, 0.0, 0.0, 0.0, 1.6635006706170318E9, 0.0, 2022-09-18 16:31:10.617
95.0, -32646.086233387738, -43248.54680878482, -49465.10338367264, -35938.028805020906, -43181.31276146326, -26271.882804856636, -9588.831316093363, -30785.057638294416, 0.748, -0.524, 0.484, 192.0, 23.0, 96.0, 239.0, 160.0, 15.0, 32.0, 0.0, 0.0, 0.0, 1.6635006706211429E9, 0.0, 2022-09-18 16:31:10.621
96.0, -31589.42986600755, -41393.97786783909, -49883.3715776648, -34274.9919623127, -43490.70560821362, -26684.048972612498, -8966.379936501973, -30616.77135429041, 0.748, -0.524, 0.484, 192.0, 0.0, 0.0, 0.0, 0.0, 0.0, 0.0, 0.0, 0.0, 0.0, 1.6635006706250126E9, 0.0, 2022-09-18 16:31:10.625
97.0, -31740.95234167008, -40439.11134470837, -49861.310405887416, -33287.1566161104, -43561.784155581496, -26567.30581132243, -8982.227323320785, -30992.4147716063, 0.748, -0.524, 0.484, 192.0, 0.0, 0.0, 0.0, 0.0, 0.0, 0.0, 0.0, 0.0, 0.0, 1.6635006706280074E9, 0.0, 2022-09-18 16:31:10.628
98.0, -33362.81727109161, -42588.16451885278, -49270.62085516702, -35177.264830740074, -43115.5762810202, -25933.5220972922, -9939.44077961931, -31378.407046605, 0.748, -0.524, 0.484, 192.0, 0.0, 0.0, 0.0, 0.0, 0.0, 0.0, 0.0, 0.0, 0.0, 1.663500670632042E9, 0.0, 2022-09-18 16:31:10.632
99.0, -33465.411778141475, -43838.31993798255, -49237.80849430663, -36391.56805176354, -42987.7466544803, -25957.885498748485, -10090.717386092829, -31052.4292054688, 0.748, -0.524, 0.484, 192.0, 0.0, 0.0, 0.0, 0.0, 0.0, 0.0, 0.0, 0.0, 0.0, 1.6635006706360452E9, 0.0, 2022-09-18 16:31:10.636
100.0, -32605.003727078885, -43229.21254983098, -49538.104181063674, -35930.02688050591, -43215.13095082414, -26299.442505770032, -9601.348292988336, -30813.66787119721, 0.748, -0.524, 0.484, 192.0, 0.0, 0.0, 0.0, 0.0, 0.0, 0.0, 0.0, 0.0, 0.0, 1.6635006706400313E9, 0.0, 2022-09-18 16:31:10.640
101.0, -31559.456176692987, -41345.295768415424, -49920.76604613853, -34238.93859850628, -43516.052486425935, -26707.741821735126, -8971.498485982238, -30636.664406855634, 0.748, -0.524, 0.484, 192.0, 0.0, 0.0, 0.0, 0.0, 0.0, 0.0, 0.0, 0.0, 0.0, 1.6635006706450443E9, 0.0, 2022-09-18 16:31:10.645
102.0, -31769.920202484158, -40456.81392631697, -49836.58937651985, -33304.68038376336, -43550.98826300958, -26557.35928503982, -8994.453727537839, -30976.65679176531, 0.748, -0.524, 0.484, 192.0, 0.0, 0.0, 0.0, 0.0, 0.0, 0.0, 0.0, 0.0, 0.0, 1.6635006706490772E9, 0.0, 2022-09-18 16:31:10.649
103.0, -33404.592681478585, -42638.970033999685, -49235.64037509446, -35228.29386333154, -43102.902841914045, -25925.810745455117, -9949.052029735092, -31339.179735085934, 0.748, -0.524, 0.484, 192.0, 0.0, 0.0, 0.0, 0.0, 0.0, 0.0, 0.0, 0.0, 0.0, 1.663500670653117E9, 0.0, 2022-09-18 16:31:10.653
104.0, -33472.743150322814, -43837.93995832682, -49278.265151770735, -36395.501958787674, -43012.51238733678, -25981.891272293484, -10082.067260988624, -31046.595400165967, 0.748, -0.524, 0.484, 192.0, 0.0, 0.0, 0.0, 0.0, 0.0, 0.0, 0.0, 0.0, 0.0, 1.6635006706560464E9, 0.0, 2022-09-18 16:31:10.656
105.0, -32588.999878048886, -43194.65675290308, -49557.88547490662, -35896.923946967596, -43227.31265155228, -26300.76125869289, -9579.220065977583, -30836.846630197364, 0.748, -0.522, 0.48, 192.0, 23.0, 96.0, 239.0, 176.0, 15.0, 0.0, 0.0, 0.0, 0.0, 1.6635006706600857E9, 0.0, 2022-09-18 16:31:10.660
106.0, -31530.28715017881, -41285.326038041836, -49911.579479167405, -34179.48295825517, -43511.42567532369, -26682.10437084489, -8945.324593225074, -30638.899581301164, 0.748, -0.522, 0.48, 192.0, 0.0, 0.0, 0.0, 0.0, 0.0, 0.0, 0.0, 0.0, 0.0, 1.6635006706640556E9, 0.0, 2022-09-18 16:31:10.664
107.0, -31803.090191255833, -40482.51843244057, -49823.401847291214, -33322.07004094959, -43548.39546065277, -26535.834555129357, -9004.891992198467, -31009.782077048076, 0.748, -0.522, 0.48, 192.0, 0.0, 0.0, 0.0, 0.0, 0.0, 0.0, 0.0, 0.0, 0.0, 1.6635006706680837E9, 0.0, 2022-09-18 16:31:10.668
108.0, -33425.40215556647, -42694.67058118231, -49235.93094777238, -35281.89334653537, -43110.54713851776, -25936.450175815844, -9951.331907669533, -31387.750075787317, 0.748, -0.522, 0.48, 192.0, 0.0, 0.0, 0.0, 0.0, 0.0, 0.0, 0.0, 0.0, 0.0, 1.663500670673201E9, 0.0, 2022-09-18 16:31:10.673
109.0, -33451.03960645671, -43828.619280888954, -49240.49070364126, -36393.15502561987, -43002.74467500981, -25983.031211260703, -10039.84481571255, -31084.77217969563, 0.748, -0.522, 0.48, 192.0, 0.0, 0.0, 0.0, 0.0, 0.0, 0.0, 0.0, 0.0, 0.0, 1.663500670677194E9, 0.0, 2022-09-18 16:31:10.677
110.0, -32549.616104318633, -43149.41682212554, -49582.919428696565, -35867.15142335313, -43225.725677695955, -26308.1596861076, -9543.904309738196, -30857.834918240897, 0.748, -0.522, 0.48, 192.0, 0.0, 0.0, 0.0, 0.0, 0.0, 0.0, 0.0, 0.0, 0.0, 1.663500670680188E9, 0.0, 2022-09-18 16:31:10.680
111.0, -31495.261966617345, -41230.05017400386, -49997.03019822004, -34139.1604112578, -43540.68410881569, -26716.168429394776, -8946.330421725563, -30674.282392773915, 0.748, -0.522, 0.48, 192.0, 0.0, 0.0, 0.0, 0.0, 0.0, 0.0, 0.0, 0.0, 0.0, 1.6635006706841488E9, 0.0, 2022-09-18 16:31:10.684
112.0, -31840.43995624065, -40505.09369434043, -49819.155015844706, -33348.936837784866, -43545.3779751513, -26516.902627575713, -9032.429341367406, -31009.513856114612, 0.748, -0.522, 0.48, 192.0, 0.0, 0.0, 0.0, 0.0, 0.0, 0.0, 0.0, 0.0, 0.0, 1.6635006706882887E9, 0.0, 2022-09-18 16:31:10.688
113.0, -33466.64112408651, -42747.97949170822, -49209.66764803739, -35340.11964084145, -43096.06320811072, -25902.27435854368, -9969.63798637843, -31344.00771188828, 0.748, -0.522, 0.48, 192.0, 0.0, 0.0, 0.0, 0.0, 0.0, 0.0, 0.0, 0.0, 0.0, 1.6635006706922157E9, 0.0, 2022-09-18 16:31:10.692
114.0, -33438.61203653956, -43819.23154821772, -49229.605404091526, -36396.68660124381, -43002.141177909514, -25973.3305541671, -10020.89053641445, -31035.15130700485, 0.748, -0.522, 0.48, 192.0, 0.0, 0.0, 0.0, 0.0, 0.0, 0.0, 0.0, 0.0, 0.0, 1.6635006706961868E9, 0.0, 2022-09-18 16:31:10.696
115.0, -32546.978598472906, -43112.49174028537, -49558.15369584009, -35845.872562631674, -43234.12993361115, -26321.50367754742, -9518.40096931469, -30823.39088003527, 0.75, -0.518, 0.482, 192.0, 23.0, 112.0, 239.0, 208.0, 15.0, 16.0, 0.0, 0.0, 0.0, 1.6635006707001574E9, 0.0, 2022-09-18 16:31:10.700
116.0, -31506.974280711926, -41167.13001336218, -49962.69791873669, -34087.684343777226, -43536.28081515799, -26720.86229573039, -8906.09728170601, -30646.700340116065, 0.75, -0.518, 0.482, 192.0, 0.0, 0.0, 0.0, 0.0, 0.0, 0.0, 0.0, 0.0, 0.0, 1.6635006707051997E9, 0.0, 2022-09-18 16:31:10.705
117.0, -31893.279480133, -40530.999366164135, -49831.448475295125, -33373.188480518875, -43535.6773180577, -26508.297205960418, -9039.201919937363, -31034.368995948913, 0.75, -0.518, 0.482, 192.0, 0.0, 0.0, 0.0, 0.0, 0.0, 0.0, 0.0, 0.0, 0.0, 1.6635006707081485E9, 0.0, 2022-09-18 16:31:10.708
118.0, -33508.193017028934, -42814.453579718305, -49245.832770566085, -35400.93873750434, -43085.691998683455, -25904.71069868931, -9993.3084837566, -31371.54506105722, 0.75, -0.518, 0.482, 192.0, 0.0, 0.0, 0.0, 0.0, 0.0, 0.0, 0.0, 0.0, 0.0, 1.6635006707122104E9, 0.0, 2022-09-18 16:31:10.712
119.0, -33436.84624872759, -43832.128504768436, -49259.75790736174, -36402.60981352447, -43000.97888719784, -25975.498673379265, -10013.961495633304, -31024.46717315521, 0.75, -0.518, 0.482, 192.0, 0.0, 0.0, 0.0, 0.0, 0.0, 0.0, 0.0, 0.0, 0.0, 1.663500670716166E9, 0.0, 2022-09-18 16:31:10.716
120.0, -32527.62198777461, -43090.162347574515, -49552.588111470715, -35809.86390231418, -43222.61878521667, -26311.937130920545, -9490.796564912387, -30802.559054202924, 0.75, -0.518, 0.482, 192.0, 0.0, 0.0, 0.0, 0.0, 0.0, 0.0, 0.0, 0.0, 0.0, 1.663500670720218E9, 0.0, 2022-09-18 16:31:10.720
121.0, -31484.24255660088, -41130.58491117775, -49954.38306979932, -34032.4308314837, -43518.26530912701, -26712.323929348462, -8879.9457406933, -30642.49821215847, 0.75, -0.518, 0.482, 192.0, 0.0, 0.0, 0.0, 0.0, 0.0, 0.0, 0.0, 0.0, 0.0, 1.6635006707241628E9, 0.0, 2022-09-18 16:31:10.724
122.0, -31910.713840808137, -40582.47543364471, -49825.27939382546, -33402.46926575533, -43505.39070432076, -26482.27977541444, -9063.520617904738, -31065.95201086426, 0.75, -0.518, 0.482, 192.0, 0.0, 0.0, 0.0, 0.0, 0.0, 0.0, 0.0, 0.0, 0.0, 1.6635006707281911E9, 0.0, 2022-09-18 16:31:10.728
123.0, -33490.53513890924, -42880.70415028383, -49247.39739267795, -35453.75590965222, -43077.57831544618, -25912.69027145985, -10012.21805956579, -31391.438113622444, 0.75, -0.518, 0.482, 192.0, 0.0, 0.0, 0.0, 0.0, 0.0, 0.0, 0.0, 0.0, 0.0, 1.6635006707332819E9, 0.0, 2022-09-18 16:31:10.733
124.0, -33392.075704583614, -43839.90691183888, -49282.89196287298, -36405.98492693721, -43013.629974559546, -26006.142915027493, -9999.589323948541, -31044.09200478697, 0.75, -0.518, 0.482, 192.0, 0.0, 0.0, 0.0, 0.0, 0.0, 0.0, 0.0, 0.0, 0.0, 1.6635006707362847E9, 0.0, 2022-09-18 16:31:10.736
125.0, -32489.869891389597, -43061.48505943836, -49582.33828334073, -35786.28281191383, -43237.259177834894, -26336.97108471049, -9463.30391923236, -30822.228589323593, 0.75, -0.518, 0.482, 192.0, 0.0, 0.0, 0.0, 0.0, 0.0, 0.0, 0.0, 0.0, 0.0, 1.663500670740213E9, 0.0, 2022-09-18 16:31:10.740
126.0, -31483.929632178504, -41086.17199494505, -49962.675566992235, -33992.95765077563, -43538.627748325795, -26726.8078597555, -8851.201397323775, -30654.098767530773, 0.754, -0.522, 0.484, 192.0, 23.0, 144.0, 239.0, 176.0, 15.0, 32.0, 0.0, 0.0, 0.0, 1.663500670744202E9, 0.0, 2022-09-18 16:31:10.744
127.0, -31990.978955147144, -40619.19934978478, -49778.43013744714, -33432.64412077, -43501.233279852066, -26463.437254838616, -9048.522597375226, -31046.036606554582, 0.754, -0.522, 0.484, 192.0, 0.0, 0.0, 0.0, 0.0, 0.0, 0.0, 0.0, 0.0, 0.0, 1.663500670748211E9, 0.0, 2022-09-18 16:31:10.748
128.0, -33541.27359882279, -42929.520360174225, -49249.00671827874, -35502.66152652044, -43062.066204794195, -25883.78946587914, -9996.616541935986, -31324.829915145627, 0.754, -0.522, 0.484, 192.0, 0.0, 0.0, 0.0, 0.0, 0.0, 0.0, 0.0, 0.0, 0.0, 1.663500670752213E9, 0.0, 2022-09-18 16:31:10.752
129.0, -33364.0242652922, -43826.42880993233, -49324.22033837084, -36409.94118570581, -43019.82140777366, -26004.064202793146, -9995.186030290846, -31008.306861914025, 0.754, -0.522, 0.484, 192.0, 0.0, 0.0, 0.0, 0.0, 0.0, 0.0, 0.0, 0.0, 0.0, 1.6635006707563171E9, 0.0, 2022-09-18 16:31:10.756
130.0, -32471.988495825353, -43026.75044855481, -49602.14192892813, -35776.55980307577, -43269.1104136837, -26365.69307633556, -9479.196009540083, -30846.726101246608, 0.754, -0.522, 0.484, 192.0, 0.0, 0.0, 0.0, 0.0, 0.0, 0.0, 0.0, 0.0, 0.0, 1.663500670761266E9, 0.0, 2022-09-18 16:31:10.761
131.0, -31462.40490226804, -41026.49283724938, -49960.61920650235, -33955.69729276864, -43562.119431748324, -26746.25387743162, -8847.960394377757, -30685.860596401766, 0.754, -0.522, 0.484, 192.0, 0.0, 0.0, 0.0, 0.0, 0.0, 0.0, 0.0, 0.0, 0.0, 1.663500670764263E9, 0.0, 2022-09-18 16:31:10.764
132.0, -32017.354013604407, -40641.34992853999, -49749.12700046623, -33467.53519386473, -43496.628820494276, -26450.42853956563, -9057.910330046456, -31087.16381635235, 0.754, -0.522, 0.484, 192.0, 0.0, 0.0, 0.0, 0.0, 0.0, 0.0, 0.0, 0.0, 0.0, 1.6635006707672367E9, 0.0, 2022-09-18 16:31:10.767
133.0, -33572.364875360116, -42969.06059611566, -49188.05351114911, -35555.94808530189, -43050.33153895516, -25889.89149211544, -9977.818724849072, -31340.2973223087, 0.754, -0.522, 0.484, 192.0, 0.0, 0.0, 0.0, 0.0, 0.0, 0.0, 0.0, 0.0, 0.0, 1.6635006707723663E9, 0.0, 2022-09-18 16:31:10.772
134.0, -33380.85512886705, -43808.837987046005, -49291.00564611026, -36406.02963042613, -43018.0556199617, -26021.409156490467, -9932.198814415791, -30985.75395175862, 0.754, -0.522, 0.484, 192.0, 0.0, 0.0, 0.0, 0.0, 0.0, 0.0, 0.0, 0.0, 0.0, 1.6635006707763233E9, 0.0, 2022-09-18 16:31:10.776
135.0, -32455.89523981753, -42965.4396135139, -49632.7638188319, -35726.53659898479, -43245.90930293909, -26351.052683717335, -9412.230183151984, -30780.52023416999, 0.754, -0.522, 0.484, 192.0, 0.0, 0.0, 0.0, 0.0, 0.0, 0.0, 0.0, 0.0, 0.0, 1.663500670780326E9, 0.0, 2022-09-18 16:31:10.780
136.0, -31441.997759580347, -40963.84089754116, -50053.66951866979, -33903.37185899876, -43554.296321188966, -26736.687330804747, -8823.664048154837, -30645.940380804586, 0.752, -0.524, 0.488, 192.0, 23.0, 128.0, 239.0, 160.0, 15.0, 64.0, 0.0, 0.0, 0.0, 1.6635006707843192E9, 0.0, 2022-09-18 16:31:10.784
137.0, -32040.353958648917, -40669.87075446496, -49805.945134871625, -33501.04045880323, -43491.08558786936, -26441.957228417068, -9083.257208258774, -31101.468932803746, 0.752, -0.524, 0.488, 192.0, 0.0, 0.0, 0.0, 0.0, 0.0, 0.0, 0.0, 0.0, 0.0, 1.6635006707893202E9, 0.0, 2022-09-18 16:31:10.789
138.0, -33577.41636960702, -43006.65623028949, -49202.895069467435, -35600.76333293478, -43043.670719107475, -25893.959509606306, -9985.798297619618, -31363.34197084212, 0.752, -0.524, 0.488, 192.0, 0.0, 0.0, 0.0, 0.0, 0.0, 0.0, 0.0, 0.0, 0.0, 1.6635006707923243E9, 0.0, 2022-09-18 16:31:10.792
139.0, -33360.15741350143, -43790.800129270574, -49312.15039636498, -36396.61954601044, -43004.77868375524, -26015.91062735446, -9912.641038017397, -30993.241786151146, 0.752, -0.524, 0.488, 192.0, 0.0, 0.0, 0.0, 0.0, 0.0, 0.0, 0.0, 0.0, 0.0, 1.6635006707963905E9, 0.0, 2022-09-18 16:31:10.796
140.0, -32432.515315117278, -42919.953813547356, -49652.54511267485, -35689.58916540017, -43242.24361684843, -26350.180965683576, -9398.327398100782, -30808.281100783483, 0.752, -0.524, 0.488, 192.0, 0.0, 0.0, 0.0, 0.0, 0.0, 0.0, 0.0, 0.0, 0.0, 1.6635006708003075E9, 0.0, 2022-09-18 16:31:10.800
141.0, -31431.671253641995, -40910.263766081785, -50037.93389057325, -33853.90744851917, -43551.72587057661, -26739.704816306214, -8805.447376423763, -30701.842093687308, 0.752, -0.524, 0.488, 192.0, 0.0, 0.0, 0.0, 0.0, 0.0, 0.0, 0.0, 0.0, 0.0, 1.6635006708044481E9, 0.0, 2022-09-18 16:31:10.804
142.0, -32092.902909863344, -40704.784179304144, -49719.91327046314, -33525.42621200397, -43451.92533158366, -26404.540408198885, -9077.959844822866, -31114.477648076732, 0.752, -0.524, 0.488, 192.0, 0.0, 0.0, 0.0, 0.0, 0.0, 0.0, 0.0, 0.0, 0.0, 1.663500670808374E9, 0.0, 2022-09-18 16:31:10.808
