%OpenBCI Raw EEG Data
%Number of channels = 8
%Sample Rate = 250 Hz
%Board = OpenBCI_GUI$BoardCytonSerial
Sample Index, EXG Channel 0, EXG Channel 1, EXG Channel 2, EXG Channel 3, EXG Channel 4, EXG Channel 5, EXG Channel 6, EXG Channel 7, Accel Channel 0, Accel Channel 1, Accel Channel 2, Other, Other, Other, Other, Other, Other, Other, Analog Channel 0, Analog Channel 1, Analog Channel 2, Timestamp, Other, Timestamp (Formatted)
249.0, -47200.53639418321, -22485.989032505637, -34662.90648733455, -50878.31477860389, -48508.58283145224, -187500.02235174447, -33898.29801300741, -28434.078804740766, 0.0, 0.0, 0.0, 192.0, 0.0, 0.0, 0.0, 0.0, 0.0, 0.0, 0.0, 0.0, 0.0, 1.6634989116826727E9, 0.0, 2022-09-18 16:01:51.682
250.0, -46969.77698442662, -22006.432355217024, -34740.66820629456, -50937.85982583283, -48462.761755318854, -187500.02235174447, -33968.32602838588, -28471.316811003308, 0.0, 0.0, 0.0, 192.0, 0.0, 0.0, 0.0, 0.0, 0.0, 0.0, 0.0, 0.0, 0.0, 1.6634989116827037E9, 0.0, 2022-09-18 16:01:51.682
251.0, -46866.109593642905, -21293.903445470747, -34990.69481977163, -51166.92050301081, -48781.02824461797, -187500.02235174447, -34189.98827814916, -28680.39502863825, 0.0, 0.0, 0.0, 192.0, 0.0, 0.0, 0.0, 0.0, 0.0, 0.0, 0.0, 0.0, 0.0, 1.6634989116827252E9, 0.0, 2022-09-18 16:01:51.682
0.0, 0.0, 0.0, 0.0, 0.0, 0.0, 0.0, 0.0, 0.0, 0.644, -0.684, 0.41400000000000003, 192.0, 20.0, 32.0, 234.0, 160.0, 12.0, 240.0, 0.0, 0.0, 0.0, 1.663498911762282E9, 0.0, 2022-09-18 16:01:51.762
1.0, -49005.976200816185, -21481.501636684137, -31724.07677460632, -49947.96811914064, -48238.841979365585, -187500.02235174447, -33511.97046184188, -26274.162682791077, 0.644, -0.684, 0.41400000000000003, 192.0, 0.0, 0.0, 0.0, 0.0, 0.0, 0.0, 0.0, 0.0, 0.0, 1.663498911779397E9, 0.0, 2022-09-18 16:01:51.779
2.0, -49198.89410720994, -22294.054602867916, -31507.734240023405, -49738.08523870531, -48250.64370043799, -187500.02235174447, -33348.48980289576, -26096.153389949013, 0.644, -0.684, 0.41400000000000003, 192.0, 0.0, 0.0, 0.0, 0.0, 0.0, 0.0, 0.0, 0.0, 0.0, 1.6634989117824893E9, 0.0, 2022-09-18 16:01:51.782
3.0, -49020.52718645659, -23240.02513170542, -31192.574643203578, -49433.609775735116, -48239.02079332123, -187500.02235174447, -33061.49340408962, -25804.172552129337, 0.644, -0.684, 0.41400000000000003, 192.0, 0.0, 0.0, 0.0, 0.0, 0.0, 0.0, 0.0, 0.0, 0.0, 1.663498911785389E9, 0.0, 2022-09-18 16:01:51.785
4.0, -48899.11251057536, -22887.314604200674, -31287.10017050507, -49516.713561619945, -47957.38881318436, -187500.02235174447, -33114.08705879296, -25869.819625594573, 0.644, -0.684, 0.41400000000000003, 192.0, 0.0, 0.0, 0.0, 0.0, 0.0, 0.0, 0.0, 0.0, 0.0, 1.6634989117893507E9, 0.0, 2022-09-18 16:01:51.789
5.0, -48899.693655931194, -22246.490090667023, -31504.94027196649, -49707.79862496837, -48166.10940290802, -187500.02235174447, -33291.135226623446, -26051.20403184939, 0.644, -0.684, 0.41400000000000003, 192.0, 0.0, 0.0, 0.0, 0.0, 0.0, 0.0, 0.0, 0.0, 0.0, 1.6634989117923417E9, 0.0, 2022-09-18 16:01:51.792
6.0, -49020.81775913451, -21479.28881398306, -31746.003835916978, -49954.58423549942, -48237.21030202035, -187500.02235174447, -33502.53802568174, -26283.72922941795, 0.644, -0.684, 0.41400000000000003, 192.0, 0.0, 0.0, 0.0, 0.0, 0.0, 0.0, 0.0, 0.0, 0.0, 1.6634989117964752E9, 0.0, 2022-09-18 16:01:51.796
7.0, -49168.74160393973, -22325.302341616436, -31469.66921921602, -49693.56056375034, -48262.60188372158, -187500.02235174447, -33284.07207537557, -26054.512090028777, 0.644, -0.684, 0.41400000000000003, 192.0, 0.0, 0.0, 0.0, 0.0, 0.0, 0.0, 0.0, 0.0, 0.0, 1.6634989118004005E9, 0.0, 2022-09-18 16:01:51.800
8.0, -49012.391151474854, -23240.82979450581, -31202.20824506381, -49434.41443853551, -48249.190837048394, -187500.02235174447, -33041.93562769123, -25803.881979451417, 0.642, -0.6880000000000001, 0.41400000000000003, 192.0, 20.0, 16.0, 234.0, 128.0, 12.0, 240.0, 0.0, 0.0, 0.0, 1.6634989118053772E9, 0.0, 2022-09-18 16:01:51.805
9.0, -48903.38169376632, -22874.10472322759, -31301.740563123294, -49527.643564658596, -47980.45581346224, -187500.02235174447, -33100.85482607542, -25878.201529765312, 0.642, -0.6880000000000001, 0.41400000000000003, 192.0, 0.0, 0.0, 0.0, 0.0, 0.0, 0.0, 0.0, 0.0, 0.0, 1.6634989118093529E9, 0.0, 2022-09-18 16:01:51.809
10.0, -48890.82001338244, -22215.421165874144, -31503.71092602145, -49717.96866869553, -48194.98785674428, -187500.02235174447, -33257.58525819603, -26055.897898185005, 0.642, -0.6880000000000001, 0.41400000000000003, 192.0, 0.0, 0.0, 0.0, 0.0, 0.0, 0.0, 0.0, 0.0, 0.0, 1.66349891181336E9, 0.0, 2022-09-18 16:01:51.813
11.0, -49020.90716611232, -21488.073049553997, -31760.443062835107, -49968.15174438379, -48254.242331295296, -187500.02235174447, -33474.844214301615, -26291.77585742186, 0.642, -0.6880000000000001, 0.41400000000000003, 192.0, 0.0, 0.0, 0.0, 0.0, 0.0, 0.0, 0.0, 0.0, 0.0, 1.6634989118173287E9, 0.0, 2022-09-18 16:01:51.817
12.0, -49176.52001101017, -22399.040746574494, -31485.538957779285, -49708.71504649104, -48285.66888399945, -187500.02235174447, -33270.52691823565, -26066.716142501373, 0.642, -0.6880000000000001, 0.41400000000000003, 192.0, 0.0, 0.0, 0.0, 0.0, 0.0, 0.0, 0.0, 0.0, 0.0, 1.663498911821498E9, 0.0, 2022-09-18 16:01:51.821
13.0, -49007.22789850568, -23250.441044621595, -31216.245140581745, -49456.43090682398, -48248.94496785939, -187500.02235174447, -33035.36421482137, -25822.903313982883, 0.642, -0.6880000000000001, 0.41400000000000003, 192.0, 0.0, 0.0, 0.0, 0.0, 0.0, 0.0, 0.0, 0.0, 0.0, 1.6634989118243635E9, 0.0, 2022-09-18 16:01:51.824
14.0, -48905.81803391195, -22867.1980341909, -31313.67639466243, -49546.642547445605, -47991.54227871207, -187500.02235174447, -33109.147323268335, -25890.293823515636, 0.642, -0.6880000000000001, 0.41400000000000003, 192.0, 0.0, 0.0, 0.0, 0.0, 0.0, 0.0, 0.0, 0.0, 0.0, 1.6634989118283324E9, 0.0, 2022-09-18 16:01:51.828
15.0, -48883.75686213456, -22179.680726490107, -31520.00534772937, -49734.240738659, -48217.76428434423, -187500.02235174447, -33274.3043630486, -26065.956183189894, 0.642, -0.6880000000000001, 0.41400000000000003, 192.0, 0.0, 0.0, 0.0, 0.0, 0.0, 0.0, 0.0, 0.0, 0.0, 1.6634989118334262E9, 0.0, 2022-09-18 16:01:51.833
16.0, -49028.953794116234, -21474.818465092, -31776.46926360956, -49981.00399744559, -48253.035337094705, -187500.02235174447, -33485.751865595805, -26298.950767392012, 0.642, -0.6880000000000001, 0.41400000000000003, 192.0, 0.0, 0.0, 0.0, 0.0, 0.0, 0.0, 0.0, 0.0, 0.0, 1.6634989118374197E9, 0.0, 2022-09-18 16:01:51.837
17.0, -49163.86892364847, -22443.140738384813, -31448.256248027832, -49679.747185676955, -48278.918657173956, -187500.02235174447, -33212.613548351954, -26029.29932228319, 0.642, -0.6880000000000001, 0.41400000000000003, 192.0, 0.0, 0.0, 0.0, 0.0, 0.0, 0.0, 0.0, 0.0, 0.0, 1.6634989118414135E9, 0.0, 2022-09-18 16:01:51.841
18.0, -48978.30474118051, -23236.471204337027, -31193.714582170796, -49440.2705955828, -48225.699153625865, -187500.02235174447, -32975.349780958866, -25796.751772970176, 0.636, -0.6880000000000001, 0.41200000000000003, 192.0, 19.0, 224.0, 234.0, 128.0, 12.0, 224.0, 0.0, 0.0, 0.0, 1.6634989118454204E9, 0.0, 2022-09-18 16:01:51.845
19.0, -48885.20972552416, -22822.136917369, -31308.580196926618, -49544.407373000075, -47978.220639016705, -187500.02235174447, -33052.955037707696, -25883.565948434585, 0.636, -0.6880000000000001, 0.41200000000000003, 192.0, 0.0, 0.0, 0.0, 0.0, 0.0, 0.0, 0.0, 0.0, 0.0, 1.663498911848429E9, 0.0, 2022-09-18 16:01:51.848
20.0, -48882.080481300414, -22126.75179561994, -31524.85567627617, -49743.60611958577, -48216.51258665474, -187500.02235174447, -33222.04598451209, -26068.660744268986, 0.636, -0.6880000000000001, 0.41200000000000003, 192.0, 0.0, 0.0, 0.0, 0.0, 0.0, 0.0, 0.0, 0.0, 0.0, 1.6634989118523908E9, 0.0, 2022-09-18 16:01:51.852
21.0, -49052.244311838665, -21468.336459199963, -31777.09511245431, -49981.36162535687, -48235.64567990848, -187500.02235174447, -33436.958007449866, -26291.507636488397, 0.636, -0.6880000000000001, 0.41200000000000003, 192.0, 0.0, 0.0, 0.0, 0.0, 0.0, 0.0, 0.0, 0.0, 0.0, 1.663498911856408E9, 0.0, 2022-09-18 16:01:51.856
22.0, -49179.22457208927, -22494.30388144301, -31447.675102671994, -49672.72873791799, -48277.77871820673, -187500.02235174447, -33184.74092301619, -26016.603531432575, 0.636, -0.6880000000000001, 0.41200000000000003, 192.0, 0.0, 0.0, 0.0, 0.0, 0.0, 0.0, 0.0, 0.0, 0.0, 1.6634989118614173E9, 0.0, 2022-09-18 16:01:51.861
23.0, -48995.53793615555, -23245.07662595232, -31220.71548947281, -49453.61458702262, -48214.031543020195, -187500.02235174447, -32973.315772213435, -25798.606967759966, 0.636, -0.6880000000000001, 0.41200000000000003, 192.0, 0.0, 0.0, 0.0, 0.0, 0.0, 0.0, 0.0, 0.0, 0.0, 1.6634989118653913E9, 0.0, 2022-09-18 16:01:51.865
24.0, -48912.568260737455, -22817.59951324457, -31339.626769975042, -49561.5511609973, -47979.31587449502, -187500.02235174447, -33045.176630637245, -25888.818608381585, 0.636, -0.6880000000000001, 0.41200000000000003, 192.0, 0.0, 0.0, 0.0, 0.0, 0.0, 0.0, 0.0, 0.0, 0.0, 1.6634989118694503E9, 0.0, 2022-09-18 16:01:51.869
25.0, -48896.02796984053, -22103.461277897513, -31549.509650410375, -49755.29608193589, -48213.85272906456, -187500.02235174447, -33207.584405849506, -26070.270069869766, 0.636, -0.6880000000000001, 0.41200000000000003, 192.0, 0.0, 0.0, 0.0, 0.0, 0.0, 0.0, 0.0, 0.0, 0.0, 1.6634989118734431E9, 0.0, 2022-09-18 16:01:51.873
26.0, -49052.82545719451, -21482.865093095912, -31776.91629849867, -49971.616264774355, -48234.81866536363, -187500.02235174447, -33401.23991981029, -26276.263746769877, 0.636, -0.6880000000000001, 0.41200000000000003, 192.0, 0.0, 0.0, 0.0, 0.0, 0.0, 0.0, 0.0, 0.0, 0.0, 1.6634989118765132E9, 0.0, 2022-09-18 16:01:51.876
27.0, -49182.57733375757, -22559.21334734122, -31464.237745313378, -49664.68210991408, -48291.25682011328, -187500.02235174447, -33148.017006876114, -26006.500542938775, 0.636, -0.6880000000000001, 0.41200000000000003, 192.0, 0.0, 0.0, 0.0, 0.0, 0.0, 0.0, 0.0, 0.0, 0.0, 1.6634989118804579E9, 0.0, 2022-09-18 16:01:51.880
28.0, -48964.513714851586, -23222.8813437082, -31226.102259886535, -49433.16274084601, -48182.40382461594, -187500.02235174447, -32917.01172793051, -25778.266880305637, 0.638, -0.6940000000000001, 0.41200000000000003, 192.0, 19.0, 240.0, 234.0, 80.0, 12.0, 224.0, 0.0, 0.0, 0.0, 1.6634989118844397E9, 0.0, 2022-09-18 16:01:51.884
29.0, -48871.41869919523, -22767.486902175773, -31327.40036575799, -49527.062419302754, -47924.330583134964, -187500.02235174447, -32969.873603567314, -25856.96737253277, 0.638, -0.6940000000000001, 0.41200000000000003, 192.0, 0.0, 0.0, 0.0, 0.0, 0.0, 0.0, 0.0, 0.0, 0.0, 1.663498911889522E9, 0.0, 2022-09-18 16:01:51.889
30.0, -48879.44297545469, -22066.402085590613, -31566.742845385415, -49749.81990454435, -48180.14629842595, -187500.02235174447, -33142.786698673575, -26064.235098866833, 0.638, -0.6940000000000001, 0.41200000000000003, 192.0, 0.0, 0.0, 0.0, 0.0, 0.0, 0.0, 0.0, 0.0, 0.0, 1.663498911893476E9, 0.0, 2022-09-18 16:01:51.893
31.0, -49065.70006200076, -21500.768840404613, -31803.760743589493, -49982.32275036845, -48174.0219204452, -187500.02235174447, -33345.874648794495, -26283.796284651315, 0.638, -0.6940000000000001, 0.41200000000000003, 192.0, 0.0, 0.0, 0.0, 0.0, 0.0, 0.0, 0.0, 0.0, 0.0, 1.6634989118974333E9, 0.0, 2022-09-18 16:01:51.897
32.0, -49182.39851980192, -22615.852667790972, -31466.048236614257, -49653.59564466425, -48211.952830785856, -187500.02235174447, -33067.99776172612, -25988.686202607896, 0.638, -0.6940000000000001, 0.41200000000000003, 192.0, 0.0, 0.0, 0.0, 0.0, 0.0, 0.0, 0.0, 0.0, 0.0, 1.6634989119016273E9, 0.0, 2022-09-18 16:01:51.901
33.0, -48970.794555043525, -23229.54216355588, -31254.936010233883, -49447.31139508622, -48079.07170999905, -187500.02235174447, -32852.25872424349, -25780.81497917354, 0.638, -0.6940000000000001, 0.41200000000000003, 192.0, 0.0, 0.0, 0.0, 0.0, 0.0, 0.0, 0.0, 0.0, 0.0, 1.6634989119044929E9, 0.0, 2022-09-18 16:01:51.904
34.0, -48898.84428964189, -22781.501445949252, -31385.380790875053, -49561.3499952972, -47857.5435707025, -187500.02235174447, -32920.20802738763, -25880.548462933122, 0.638, -0.6940000000000001, 0.41200000000000003, 192.0, 0.0, 0.0, 0.0, 0.0, 0.0, 0.0, 0.0, 0.0, 0.0, 1.663498911908508E9, 0.0, 2022-09-18 16:01:51.908
35.0, -48881.611094666856, -22036.182527087036, -31600.426924279564, -49768.77418384245, -48107.03374231264, -187500.02235174447, -33101.681840620266, -26074.516901316274, 0.638, -0.6940000000000001, 0.41200000000000003, 192.0, 0.0, 0.0, 0.0, 0.0, 0.0, 0.0, 0.0, 0.0, 0.0, 1.6634989119125097E9, 0.0, 2022-09-18 16:01:51.912
36.0, -49054.16656186182, -21487.15662803133, -31803.716040100582, -49958.831066945924, -48099.56825966457, -187500.02235174447, -33271.622153713965, -26257.756502360884, 0.638, -0.6940000000000001, 0.41200000000000003, 192.0, 0.0, 0.0, 0.0, 0.0, 0.0, 0.0, 0.0, 0.0, 0.0, 1.6634989119165423E9, 0.0, 2022-09-18 16:01:51.916
37.0, -49153.274196776656, -22637.131528512422, -31448.70328291694, -49620.71622857049, -48157.34751908154, -187500.02235174447, -32970.20887973415, -25956.2761731477, 0.638, -0.6940000000000001, 0.41200000000000003, 192.0, 0.0, 0.0, 0.0, 0.0, 0.0, 0.0, 0.0, 0.0, 0.0, 1.6634989119215035E9, 0.0, 2022-09-18 16:01:51.921
38.0, -48952.98021471265, -23211.101974380254, -31285.04381001518, -49451.424116065995, -48039.57617754653, -187500.02235174447, -32789.875005468726, -25782.424304774322, 0.646, -0.6960000000000001, 0.406, 192.0, 20.0, 48.0, 234.0, 64.0, 12.0, 176.0, 0.0, 0.0, 0.0, 1.6634989119255407E9, 0.0, 2022-09-18 16:01:51.925
39.0, -48883.46628945664, -22748.73378857777, -31396.02022123578, -49565.3509575547, -47840.042154794, -187500.02235174447, -32847.766023607976, -25880.88373909995, 0.646, -0.6960000000000001, 0.406, 192.0, 0.0, 0.0, 0.0, 0.0, 0.0, 0.0, 0.0, 0.0, 0.0, 1.6634989119296193E9, 0.0, 2022-09-18 16:01:51.929
40.0, -48864.31084445844, -21983.834741572708, -31611.468686040487, -49772.50692516648, -48100.5517364206, -187500.02235174447, -33003.781199906014, -26071.320601859166, 0.646, -0.6960000000000001, 0.406, 192.0, 0.0, 0.0, 0.0, 0.0, 0.0, 0.0, 0.0, 0.0, 0.0, 1.6634989119325523E9, 0.0, 2022-09-18 16:01:51.932
41.0, -49055.64177699587, -21502.087593327476, -31809.14751400322, -49959.9933576576, -48109.00069582471, -187500.02235174447, -33171.151062387355, -26253.464967425465, 0.646, -0.6960000000000001, 0.406, 192.0, 0.0, 0.0, 0.0, 0.0, 0.0, 0.0, 0.0, 0.0, 0.0, 1.6634989119365568E9, 0.0, 2022-09-18 16:01:51.936
42.0, -49142.52300769365, -22675.77769467565, -31440.813117124217, -49607.93103074205, -48192.73033055429, -187500.02235174447, -32869.67073317418, -25936.494879304755, 0.646, -0.6960000000000001, 0.406, 192.0, 0.0, 0.0, 0.0, 0.0, 0.0, 0.0, 0.0, 0.0, 0.0, 1.66349891194056E9, 0.0, 2022-09-18 16:01:51.940
43.0, -48939.300947106, -23192.438267760073, -31287.994240283282, -49449.36775557611, -48066.867657526454, -187500.02235174447, -32708.537007395866, -25773.4836069922, 0.646, -0.6960000000000001, 0.406, 192.0, 0.0, 0.0, 0.0, 0.0, 0.0, 0.0, 0.0, 0.0, 0.0, 1.663498911944577E9, 0.0, 2022-09-18 16:01:51.944
44.0, -48890.8423651269, -22737.155584949924, -31433.302930987233, -49583.92525719706, -47923.6600308013, -187500.02235174447, -32809.70100280059, -25892.394887494433, 0.646, -0.6960000000000001, 0.406, 192.0, 0.0, 0.0, 0.0, 0.0, 0.0, 0.0, 0.0, 0.0, 0.0, 1.6634989119495673E9, 0.0, 2022-09-18 16:01:51.949
45.0, -48877.02898705351, -21960.387761639093, -31665.157576222133, -49805.788672660434, -48185.801289773146, -187500.02235174447, -32983.4858159406, -26099.50615161731, 0.646, -0.6960000000000001, 0.406, 192.0, 0.0, 0.0, 0.0, 0.0, 0.0, 0.0, 0.0, 0.0, 0.0, 1.6634989119535887E9, 0.0, 2022-09-18 16:01:51.953
46.0, -49051.14907636036, -21513.978721377698, -31820.34573797533, -49956.238264589105, -48151.49136203425, -187500.02235174447, -33112.47773319217, -26245.53009814383, 0.646, -0.6960000000000001, 0.406, 192.0, 0.0, 0.0, 0.0, 0.0, 0.0, 0.0, 0.0, 0.0, 0.0, 1.6634989119565396E9, 0.0, 2022-09-18 16:01:51.956
47.0, -49131.41419069937, -22735.233334926765, -31455.945248120457, -49605.47233885197, -48240.89833985548, -187500.02235174447, -32814.57368309185, -25929.74465247925, 0.646, -0.6960000000000001, 0.406, 192.0, 0.0, 0.0, 0.0, 0.0, 0.0, 0.0, 0.0, 0.0, 0.0, 1.663498911960703E9, 0.0, 2022-09-18 16:01:51.960
48.0, -48923.6994294762, -23191.857122404235, -31320.538380210208, -49463.538761560776, -48093.66739912837, -187500.02235174447, -32663.967628951985, -25782.62547047442, 0.634, -0.6920000000000001, 0.41200000000000003, 192.0, 19.0, 208.0, 234.0, 96.0, 12.0, 224.0, 0.0, 0.0, 0.0, 1.6634989119646034E9, 0.0, 2022-09-18 16:01:51.964
49.0, -48869.00471079406, -22708.031261924658, -31466.56232673673, -49587.881515965644, -47933.897129761834, -187500.02235174447, -32761.644752221677, -25891.79139039414, 0.634, -0.6920000000000001, 0.41200000000000003, 192.0, 0.0, 0.0, 0.0, 0.0, 0.0, 0.0, 0.0, 0.0, 0.0, 1.6634989119686036E9, 0.0, 2022-09-18 16:01:51.968
50.0, -48858.8346670669, -21909.425784280993, -31701.188588284087, -49810.75075992951, -48175.43008034588, -187500.02235174447, -32962.31871394142, -26098.410916138997, 0.634, -0.6920000000000001, 0.41200000000000003, 192.0, 0.0, 0.0, 0.0, 0.0, 0.0, 0.0, 0.0, 0.0, 0.0, 1.6634989119725533E9, 0.0, 2022-09-18 16:01:51.972
51.0, -49059.08394564199, -21543.952410692265, -31846.02789235448, -49957.60172100088, -48140.494303762236, -187500.02235174447, -33089.54484338103, -26241.976170775437, 0.634, -0.6920000000000001, 0.41200000000000003, 192.0, 0.0, 0.0, 0.0, 0.0, 0.0, 0.0, 0.0, 0.0, 0.0, 1.663498911977586E9, 0.0, 2022-09-18 16:01:51.977
52.0, -49121.42296092784, -22790.486847220283, -31464.70713194694, -49586.96509444298, -48209.717656340326, -187500.02235174447, -32772.4853482825, -25904.531884733664, 0.634, -0.6920000000000001, 0.41200000000000003, 192.0, 0.0, 0.0, 0.0, 0.0, 0.0, 0.0, 0.0, 0.0, 0.0, 1.6634989119815912E9, 0.0, 2022-09-18 16:01:51.981
53.0, -48918.53617650702, -23187.9232153801, -31341.750185698296, -49461.92943595999, -48034.591738532996, -187500.02235174447, -32638.41958503957, -25774.95882212625, 0.634, -0.6920000000000001, 0.41200000000000003, 192.0, 0.0, 0.0, 0.0, 0.0, 0.0, 0.0, 0.0, 0.0, 0.0, 1.6634989119845753E9, 0.0, 2022-09-18 16:01:51.984
54.0, -48858.54409438898, -22691.513322772185, -31474.474844273907, -49577.10797513819, -47892.83697519743, -187500.02235174447, -32725.680795393087, -25878.112122787494, 0.634, -0.6920000000000001, 0.41200000000000003, 192.0, 0.0, 0.0, 0.0, 0.0, 0.0, 0.0, 0.0, 0.0, 0.0, 1.6634989119887004E9, 0.0, 2022-09-18 16:01:51.988
55.0, -48867.551847404466, -21898.205208564428, -31730.80464968737, -49813.343562286325, -48152.89952193493, -187500.02235174447, -32931.40625135973, -26098.433267883454, 0.634, -0.6920000000000001, 0.41200000000000003, 192.0, 0.0, 0.0, 0.0, 0.0, 0.0, 0.0, 0.0, 0.0, 0.0, 1.6634989119925764E9, 0.0, 2022-09-18 16:01:51.992
56.0, -49059.08394564199, -21580.497512876693, -31847.234886555063, -49929.37146775383, -48117.71787616228, -187500.02235174447, -33042.606180024886, -26212.248350649876, 0.634, -0.6920000000000001, 0.41200000000000003, 192.0, 0.0, 0.0, 0.0, 0.0, 0.0, 0.0, 0.0, 0.0, 0.0, 1.6634989119966693E9, 0.0, 2022-09-18 16:01:51.996
57.0, -49102.91571651885, -22836.598496031584, -31460.16972782251, -49557.23727431742, -48206.05197024965, -187500.02235174447, -32734.53208619739, -25873.46295994079, 0.634, -0.6920000000000001, 0.41200000000000003, 192.0, 0.0, 0.0, 0.0, 0.0, 0.0, 0.0, 0.0, 0.0, 0.0, 1.6634989120006297E9, 0.0, 2022-09-18 16:01:52.000
58.0, -48896.81028089646, -23163.693924390547, -31338.218610074357, -49451.64763351055, -48007.05438936406, -187500.02235174447, -32616.40311675109, -25759.71493240773, 0.634, -0.6880000000000001, 0.41400000000000003, 192.0, 19.0, 208.0, 234.0, 128.0, 12.0, 240.0, 0.0, 0.0, 0.0, 1.6634989120056856E9, 0.0, 2022-09-18 16:01:52.005
59.0, -48838.025192979, -22647.033351306123, -31459.968562122413, -49563.74163195391, -47869.25588479709, -187500.02235174447, -32688.12986470817, -25857.25794521069, 0.634, -0.6880000000000001, 0.41400000000000003, 192.0, 0.0, 0.0, 0.0, 0.0, 0.0, 0.0, 0.0, 0.0, 0.0, 1.663498912009688E9, 0.0, 2022-09-18 16:01:52.009
60.0, -48843.30020467046, -21824.287989650726, -31716.499533235972, -49812.494195997024, -48114.4545214718, -187500.02235174447, -32897.051620131926, -26086.072753199667, 0.634, -0.6880000000000001, 0.41400000000000003, 192.0, 0.0, 0.0, 0.0, 0.0, 0.0, 0.0, 0.0, 0.0, 0.0, 1.6634989120127218E9, 0.0, 2022-09-18 16:01:52.012
61.0, -49060.71562298723, -21592.723917093746, -31826.045432811432, -49930.64551718778, -48078.73643383222, -187500.02235174447, -33001.47897022712, -26208.113277925644, 0.634, -0.6880000000000001, 0.41400000000000003, 192.0, 0.0, 0.0, 0.0, 0.0, 0.0, 0.0, 0.0, 0.0, 0.0, 1.6634989120166616E9, 0.0, 2022-09-18 16:01:52.016
62.0, -49094.399701881375, -22885.81703732217, -31432.386509464566, -49552.588111470715, -48177.08410943558, -187500.02235174447, -32673.08714068975, -25866.489215670732, 0.634, -0.6880000000000001, 0.41400000000000003, 192.0, 0.0, 0.0, 0.0, 0.0, 0.0, 0.0, 0.0, 0.0, 0.0, 1.6634989120217185E9, 0.0, 2022-09-18 16:01:52.021
63.0, -48891.602324438376, -23163.559813923814, -31344.097118866102, -49461.81767723771, -47974.44319420376, -187500.02235174447, -32555.807537532753, -25763.00063884266, 0.634, -0.6880000000000001, 0.41400000000000003, 192.0, 0.0, 0.0, 0.0, 0.0, 0.0, 0.0, 0.0, 0.0, 0.0, 1.6634989120247092E9, 0.0, 2022-09-18 16:01:52.024
64.0, -48842.741411059076, -22634.896354066892, -31473.916050662527, -49585.91456245358, -47870.03819585302, -187500.02235174447, -32655.093986403226, -25876.74866637572, 0.634, -0.6880000000000001, 0.41400000000000003, 192.0, 0.0, 0.0, 0.0, 0.0, 0.0, 0.0, 0.0, 0.0, 0.0, 1.663498912028722E9, 0.0, 2022-09-18 16:01:52.028
65.0, -48851.43623965219, -21796.191846870406, -31730.357614798264, -49838.13164688726, -48107.79370162412, -187500.02235174447, -32886.81452117139, -26112.246645956835, 0.634, -0.6880000000000001, 0.41400000000000003, 192.0, 0.0, 0.0, 0.0, 0.0, 0.0, 0.0, 0.0, 0.0, 0.0, 1.6634989120326853E9, 0.0, 2022-09-18 16:01:52.032
66.0, -49068.5834370355, -21627.369120999472, -31821.44097345364, -49934.04298234499, -48066.08534647052, -187500.02235174447, -32961.46934765212, -26212.158943672057, 0.634, -0.6880000000000001, 0.41400000000000003, 192.0, 0.0, 0.0, 0.0, 0.0, 0.0, 0.0, 0.0, 0.0, 0.0, 1.6634989120377717E9, 0.0, 2022-09-18 16:01:52.037
67.0, -49072.40558533736, -22907.900560844013, -31416.3156052012, -49540.11583806465, -48155.179399869376, -187500.02235174447, -32624.31563428827, -25849.92657302935, 0.634, -0.6880000000000001, 0.41400000000000003, 192.0, 0.0, 0.0, 0.0, 0.0, 0.0, 0.0, 0.0, 0.0, 0.0, 1.6634989120407712E9, 0.0, 2022-09-18 16:01:52.040
68.0, -48867.261274726545, -23130.792156552336, -31337.92803739644, -49460.856552226134, -47944.40244965583, -187500.02235174447, -32526.862028463132, -25761.10074056396, 0.636, -0.6900000000000001, 0.40800000000000003, 192.0, 19.0, 224.0, 234.0, 112.0, 12.0, 192.0, 0.0, 0.0, 0.0, 1.663498912044704E9, 0.0, 2022-09-18 16:01:52.044
69.0, -48821.820178248905, -22607.3366531535, -31468.484576759885, -49583.2547048634, -47861.298663771, -187500.02235174447, -32623.242750554415, -25873.150035518414, 0.636, -0.6900000000000001, 0.40800000000000003, 192.0, 0.0, 0.0, 0.0, 0.0, 0.0, 0.0, 0.0, 0.0, 0.0, 1.6634989120487883E9, 0.0, 2022-09-18 16:01:52.048
70.0, -48842.40613489225, -21764.608831955058, -31744.8415452053, -49842.73610624506, -48104.15036727791, -187500.02235174447, -32842.62512238325, -26116.69464310344, 0.636, -0.6900000000000001, 0.40800000000000003, 192.0, 0.0, 0.0, 0.0, 0.0, 0.0, 0.0, 0.0, 0.0, 0.0, 1.6634989120526955E9, 0.0, 2022-09-18 16:01:52.052
71.0, -49064.51541954463, -21651.888984666944, -31817.797639107426, -49912.56295592344, -48065.124221458944, -187500.02235174447, -32927.114716424316, -26192.578815529207, 0.636, -0.6900000000000001, 0.40800000000000003, 192.0, 0.0, 0.0, 0.0, 0.0, 0.0, 0.0, 0.0, 0.0, 0.0, 1.6634989120567825E9, 0.0, 2022-09-18 16:01:52.056
72.0, -49069.34339634698, -22952.380532310075, -31414.30394820022, -49532.76211413886, -48166.0199959302, -187500.02235174447, -32585.11067451366, -25843.22104969276, 0.636, -0.6900000000000001, 0.40800000000000003, 192.0, 0.0, 0.0, 0.0, 0.0, 0.0, 0.0, 0.0, 0.0, 0.0, 1.6634989120608041E9, 0.0, 2022-09-18 16:01:52.060
73.0, -48870.412870694745, -23130.05454898531, -31351.652008491998, -49474.781689021795, -47948.35870842442, -187500.02235174447, -32511.662842233523, -25770.555528468554, 0.636, -0.6900000000000001, 0.40800000000000003, 192.0, 0.0, 0.0, 0.0, 0.0, 0.0, 0.0, 0.0, 0.0, 0.0, 1.6634989120657892E9, 0.0, 2022-09-18 16:01:52.065
74.0, -48823.56361431642, -22603.76037404065, -31490.344582837177, -49599.705588782504, -47884.075091370956, -187500.02235174447, -32623.063936598774, -25883.096561801027, 0.636, -0.6900000000000001, 0.40800000000000003, 192.0, 0.0, 0.0, 0.0, 0.0, 0.0, 0.0, 0.0, 0.0, 0.0, 1.6634989120687459E9, 0.0, 2022-09-18 16:01:52.068
75.0, -48856.86771355483, -21771.493169247293, -31768.10971118328, -49871.72631880359, -48122.79172215363, -187500.02235174447, -32839.428822926144, -26132.810250855717, 0.636, -0.6900000000000001, 0.40800000000000003, 192.0, 0.0, 0.0, 0.0, 0.0, 0.0, 0.0, 0.0, 0.0, 0.0, 1.6634989120718002E9, 0.0, 2022-09-18 16:01:52.071
76.0, -49070.505687058656, -21703.58856959207, -31800.922072043668, -49908.80786285495, -48096.12609101845, -187500.02235174447, -32872.04001808644, -26181.022963645813, 0.636, -0.6900000000000001, 0.40800000000000003, 192.0, 0.0, 0.0, 0.0, 0.0, 0.0, 0.0, 0.0, 0.0, 0.0, 1.6634989120768056E9, 0.0, 2022-09-18 16:01:52.076
77.0, -49034.56408197452, -22967.557366795227, -31385.425494363964, -49503.6824946025, -48200.30757192464, -187500.02235174447, -32514.23329284588, -25812.01801443315, 0.636, -0.6900000000000001, 0.40800000000000003, 192.0, 0.0, 0.0, 0.0, 0.0, 0.0, 0.0, 0.0, 0.0, 0.0, 1.6634989120808108E9, 0.0, 2022-09-18 16:01:52.080
78.0, -48850.966853018625, -23094.403516579096, -31357.083482394635, -49466.84681974016, -47971.49276393566, -187500.02235174447, -32458.800966596722, -25759.916098107828, 0.644, -0.6900000000000001, 0.40800000000000003, 192.0, 20.0, 32.0, 234.0, 112.0, 12.0, 192.0, 0.0, 0.0, 0.0, 1.6634989120848036E9, 0.0, 2022-09-18 16:01:52.084
79.0, -48836.03588772248, -22583.867321475427, -31526.688519321506, -49620.895042526136, -47937.83103678597, -187500.02235174447, -32599.214625264958, -25900.21799805379, 0.644, -0.6900000000000001, 0.40800000000000003, 192.0, 0.0, 0.0, 0.0, 0.0, 0.0, 0.0, 0.0, 0.0, 0.0, 1.6634989120889313E9, 0.0, 2022-09-18 16:01:52.088
80.0, -48849.98337626259, -21706.91897951591, -31778.19034793262, -49870.944007747654, -48138.43794327235, -187500.02235174447, -32802.92842423063, -26136.69945439094, 0.644, -0.6900000000000001, 0.40800000000000003, 192.0, 0.0, 0.0, 0.0, 0.0, 0.0, 0.0, 0.0, 0.0, 0.0, 1.6634989120927994E9, 0.0, 2022-09-18 16:01:52.092
81.0, -49061.8779136989, -21716.664340098425, -31784.873519524757, -49880.42114739671, -48118.92487036287, -187500.02235174447, -32822.374441906744, -26163.432140759487, 0.644, -0.6900000000000001, 0.40800000000000003, 192.0, 0.0, 0.0, 0.0, 0.0, 0.0, 0.0, 0.0, 0.0, 0.0, 1.663498912095866E9, 0.0, 2022-09-18 16:01:52.095
82.0, -49027.009192348625, -23011.255027205352, -31384.442017607933, -49486.35989264964, -48251.64952893848, -187500.02235174447, -32487.187682054962, -25803.34553758449, 0.644, -0.6900000000000001, 0.40800000000000003, 192.0, 0.0, 0.0, 0.0, 0.0, 0.0, 0.0, 0.0, 0.0, 0.0, 1.6634989121008732E9, 0.0, 2022-09-18 16:01:52.100
83.0, -48831.20791092014, -23064.921565642544, -31356.748206227807, -49450.08301139868, -47962.86499057591, -187500.02235174447, -32428.71551855988, -25751.690656148276, 0.644, -0.6900000000000001, 0.40800000000000003, 192.0, 0.0, 0.0, 0.0, 0.0, 0.0, 0.0, 0.0, 0.0, 0.0, 1.6634989121048598E9, 0.0, 2022-09-18 16:01:52.104
84.0, -48790.438329033655, -22526.445689969743, -31504.470885332932, -49580.21486761748, -47961.61329288642, -187500.02235174447, -32546.48686009489, -25874.960526819294, 0.644, -0.6900000000000001, 0.40800000000000003, 192.0, 0.0, 0.0, 0.0, 0.0, 0.0, 0.0, 0.0, 0.0, 0.0, 1.6634989121088836E9, 0.0, 2022-09-18 16:01:52.108
85.0, -48832.83958826537, -21659.53328127066, -31802.889025555734, -49862.20447566563, -48174.759528012226, -187500.02235174447, -32799.77682826243, -26138.04055905826, 0.644, -0.6900000000000001, 0.40800000000000003, 192.0, 0.0, 0.0, 0.0, 0.0, 0.0, 0.0, 0.0, 0.0, 0.0, 1.6634989121128693E9, 0.0, 2022-09-18 16:01:52.112
86.0, -49064.7836404781, -21768.49803549028, -31800.251519710007, -49868.55237109094, -48136.649803715925, -187500.02235174447, -32824.006119251986, -26151.56336445372, 0.644, -0.6900000000000001, 0.40800000000000003, 192.0, 0.0, 0.0, 0.0, 0.0, 0.0, 0.0, 0.0, 0.0, 0.0, 1.6634989121169484E9, 0.0, 2022-09-18 16:01:52.116
87.0, -48998.89069782385, -23048.51538521235, -31376.26127913729, -49466.243322639864, -48272.32489255964, -187500.02235174447, -32474.827167371175, -25775.115284337437, 0.644, -0.6900000000000001, 0.40800000000000003, 192.0, 0.0, 0.0, 0.0, 0.0, 0.0, 0.0, 0.0, 0.0, 0.0, 1.6634989121209097E9, 0.0, 2022-09-18 16:01:52.120
88.0, -48824.63649805028, -23056.27144053834, -31372.886165724536, -49462.97996794939, -47952.31496719301, -187500.02235174447, -32445.14405073453, -25755.266935261123, 0.644, -0.6900000000000001, 0.40800000000000003, 192.0, 0.0, 0.0, 0.0, 0.0, 0.0, 0.0, 0.0, 0.0, 0.0, 1.663498912123858E9, 0.0, 2022-09-18 16:01:52.123
89.0, -48807.38095133078, -22534.73818716266, -31534.981016514426, -49604.71237954049, -47964.00492954313, -187500.02235174447, -32574.337133686204, -25887.052820569614, 0.634, -0.6920000000000001, 0.40800000000000003, 192.0, 19.0, 208.0, 234.0, 96.0, 12.0, 192.0, 0.0, 0.0, 0.0, 1.663498912127949E9, 0.0, 2022-09-18 16:01:52.127
90.0, -48825.30705038393, -21702.448630624847, -31786.058161980887, -49850.112181915305, -48181.10742343753, -187500.02235174447, -32786.70105775607, -26114.146544235533, 0.634, -0.6920000000000001, 0.40800000000000003, 192.0, 0.0, 0.0, 0.0, 0.0, 0.0, 0.0, 0.0, 0.0, 0.0, 1.663498912132872E9, 0.0, 2022-09-18 16:01:52.132
91.0, -49060.53680903159, -21913.38204304958, -31778.078589210345, -49846.75942024701, -48159.82856271608, -187500.02235174447, -32821.480372128535, -26122.282579217266, 0.634, -0.6920000000000001, 0.40800000000000003, 192.0, 0.0, 0.0, 0.0, 0.0, 0.0, 0.0, 0.0, 0.0, 0.0, 1.6634989121368668E9, 0.0, 2022-09-18 16:01:52.136
92.0, -49019.02961957808, -23198.652052718648, -31416.58382613466, -49488.01392173934, -48296.19655563791, -187500.02235174447, -32516.177894613495, -25792.460238034757, 0.634, -0.6920000000000001, 0.40800000000000003, 192.0, 0.0, 0.0, 0.0, 0.0, 0.0, 0.0, 0.0, 0.0, 0.0, 1.6634989121410136E9, 0.0, 2022-09-18 16:01:52.141
93.0, -48840.215663935625, -23164.78915986886, -31426.195076250446, -49483.856497270644, -47965.18957199926, -187500.02235174447, -32501.09046710616, -25772.030743602605, 0.634, -0.6920000000000001, 0.40800000000000003, 192.0, 0.0, 0.0, 0.0, 0.0, 0.0, 0.0, 0.0, 0.0, 0.0, 1.6634989121448681E9, 0.0, 2022-09-18 16:01:52.144
94.0, -48775.350901526326, -22597.367775126433, -31507.04133594529, -49585.82515547576, -47990.40233974485, -187500.02235174447, -32536.093298923173, -25868.88085232745, 0.634, -0.6920000000000001, 0.40800000000000003, 192.0, 0.0, 0.0, 0.0, 0.0, 0.0, 0.0, 0.0, 0.0, 0.0, 1.6634989121479414E9, 0.0, 2022-09-18 16:01:52.147
95.0, -48824.412980605724, -21717.87133429901, -31792.406057406195, -49868.015929224006, -48178.42521410289, -187500.02235174447, -32789.517377557444, -26128.831640342672, 0.634, -0.6920000000000001, 0.40800000000000003, 192.0, 0.0, 0.0, 0.0, 0.0, 0.0, 0.0, 0.0, 0.0, 0.0, 1.663498912151899E9, 0.0, 2022-09-18 16:01:52.151
96.0, -49051.126724615904, -21952.765816779833, -31764.108748925777, -49829.32505957187, -48130.6595362019, -187500.02235174447, -32778.408560563155, -26105.138791220044, 0.634, -0.6920000000000001, 0.40800000000000003, 192.0, 0.0, 0.0, 0.0, 0.0, 0.0, 0.0, 0.0, 0.0, 0.0, 1.6634989121559398E9, 0.0, 2022-09-18 16:01:52.155
97.0, -48960.28923514953, -23193.421744516105, -31347.96397065687, -49432.80511293472, -48258.51151448626, -187500.02235174447, -32429.36371914908, -25736.58087689649, 0.634, -0.6920000000000001, 0.40800000000000003, 192.0, 0.0, 0.0, 0.0, 0.0, 0.0, 0.0, 0.0, 0.0, 0.0, 1.6634989121599207E9, 0.0, 2022-09-18 16:01:52.159
98.0, -48788.337265054855, -23113.491906343927, -31365.82301447666, -49454.06162191172, -47929.717353548695, -187500.02235174447, -32421.339442889624, -25738.86075483093, 0.634, -0.6920000000000001, 0.40800000000000003, 192.0, 0.0, 0.0, 0.0, 0.0, 0.0, 0.0, 0.0, 0.0, 0.0, 1.663498912164916E9, 0.0, 2022-09-18 16:01:52.164
99.0, -48775.77558467098, -22567.684658489783, -31526.37559489913, -49606.277001652365, -47993.93391536879, -187500.02235174447, -32554.06410146524, -25881.93427108935, 0.636, -0.6960000000000001, 0.40800000000000003, 192.0, 19.0, 224.0, 234.0, 64.0, 12.0, 192.0, 0.0, 0.0, 0.0, 1.6634989121689708E9, 0.0, 2022-09-18 16:01:52.168
100.0, -48845.06599248243, -21699.654662567933, -31832.81801138139, -49899.86716507282, -48164.43302207387, -187500.02235174447, -32824.67667158564, -26156.145472067055, 0.636, -0.6960000000000001, 0.40800000000000003, 192.0, 0.0, 0.0, 0.0, 0.0, 0.0, 0.0, 0.0, 0.0, 0.0, 1.6634989121729455E9, 0.0, 2022-09-18 16:01:52.172
101.0, -49070.88566671439, -22011.01446283036, -31750.585943530317, -49830.28618458345, -48131.19597806883, -187500.02235174447, -32783.12477864323, -26110.16793372249, 0.636, -0.6960000000000001, 0.40800000000000003, 192.0, 0.0, 0.0, 0.0, 0.0, 0.0, 0.0, 0.0, 0.0, 0.0, 1.6634989121759615E9, 0.0, 2022-09-18 16:01:52.175
102.0, -48972.40388064431, -23229.74332925598, -31345.952313655893, -49446.953767174935, -48228.94015657189, -187500.02235174447, -32434.41521339598, -25755.87043236142, 0.636, -0.6960000000000001, 0.40800000000000003, 192.0, 0.0, 0.0, 0.0, 0.0, 0.0, 0.0, 0.0, 0.0, 0.0, 1.663498912179955E9, 0.0, 2022-09-18 16:01:52.179
103.0, -48811.828948477385, -23119.638636069136, -31371.16508140148, -49472.814735509724, -47891.831146696946, -187500.02235174447, -32432.64942558401, -25763.894708620872, 0.636, -0.6960000000000001, 0.40800000000000003, 192.0, 0.0, 0.0, 0.0, 0.0, 0.0, 0.0, 0.0, 0.0, 0.0, 1.6634989121840296E9, 0.0, 2022-09-18 16:01:52.184
104.0, -48791.77943370098, -22561.359114808933, -31530.53301936782, -49617.944612258034, -47979.002950072645, -187500.02235174447, -32569.196232461483, -25902.900207388426, 0.636, -0.6960000000000001, 0.40800000000000003, 192.0, 0.0, 0.0, 0.0, 0.0, 0.0, 0.0, 0.0, 0.0, 0.0, 1.6634989121880171E9, 0.0, 2022-09-18 16:01:52.188
105.0, -48853.492600142075, -21687.852941495534, -31827.028909567467, -49900.69417961767, -48135.442809515334, -187500.02235174447, -32826.93419777563, -26165.93553613848, 0.636, -0.6960000000000001, 0.40800000000000003, 192.0, 0.0, 0.0, 0.0, 0.0, 0.0, 0.0, 0.0, 0.0, 0.0, 1.6634989121929653E9, 0.0, 2022-09-18 16:01:52.192
106.0, -49074.66311152734, -22061.641164021632, -31729.999986886978, -49806.705094183104, -48121.540024464135, -187500.02235174447, -32754.425138762614, -26095.125209704067, 0.636, -0.6960000000000001, 0.40800000000000003, 192.0, 0.0, 0.0, 0.0, 0.0, 0.0, 0.0, 0.0, 0.0, 0.0, 1.6634989121971009E9, 0.0, 2022-09-18 16:01:52.197
107.0, -48971.912142266294, -23258.442969136595, -31355.272991093756, -49441.41053455002, -48223.86631058053, -187500.02235174447, -32457.884545074052, -25756.85390911745, 0.636, -0.6960000000000001, 0.40800000000000003, 192.0, 0.0, 0.0, 0.0, 0.0, 0.0, 0.0, 0.0, 0.0, 0.0, 1.6634989122010405E9, 0.0, 2022-09-18 16:01:52.201
108.0, -48813.55003280044, -23096.214007879975, -31400.378811404564, -49478.26856115682, -47877.45897501218, -187500.02235174447, -32483.924327364486, -25777.52927273861, 0.636, -0.6960000000000001, 0.40800000000000003, 192.0, 0.0, 0.0, 0.0, 0.0, 0.0, 0.0, 0.0, 0.0, 0.0, 1.6634989122040508E9, 0.0, 2022-09-18 16:01:52.204
109.0, -48792.673503479185, -22516.677977642772, -31540.300731694788, -49617.29641166883, -47968.45292668974, -187500.02235174447, -32601.718020643955, -25910.388041780956, 0.634, -0.686, 0.40800000000000003, 192.0, 19.0, 208.0, 234.0, 144.0, 12.0, 192.0, 0.0, 0.0, 0.0, 1.66349891220805E9, 0.0, 2022-09-18 16:01:52.208
110.0, -48856.018347265526, -21639.886097894443, -31837.847153883835, -49896.80497608244, -48125.78685591064, -187500.02235174447, -32859.4559859581, -26171.299954807753, 0.634, -0.686, 0.40800000000000003, 192.0, 0.0, 0.0, 0.0, 0.0, 0.0, 0.0, 0.0, 0.0, 0.0, 1.6634989122120676E9, 0.0, 2022-09-18 16:01:52.212
111.0, -49058.90513168635, -22075.02985895036, -31715.85133264677, -49786.4544137066, -48092.16983224986, -187500.02235174447, -32782.76715073194, -26082.787046764737, 0.634, -0.686, 0.40800000000000003, 192.0, 0.0, 0.0, 0.0, 0.0, 0.0, 0.0, 0.0, 0.0, 0.0, 1.6634989122171066E9, 0.0, 2022-09-18 16:01:52.217
112.0, -48952.57788331246, -23257.571251102836, -31350.377959058045, -49442.30460432823, -48145.746963709236, -187500.02235174447, -32481.420931985493, -25758.351475995958, 0.634, -0.686, 0.40800000000000003, 192.0, 0.0, 0.0, 0.0, 0.0, 0.0, 0.0, 0.0, 0.0, 0.0, 1.6634989122210982E9, 0.0, 2022-09-18 16:01:52.221
113.0, -48798.28379133747, -23075.18101634753, -31400.892901527037, -49487.768052550324, -47824.50769239756, -187500.02235174447, -32499.682307205476, -25783.094857107983, 0.634, -0.686, 0.40800000000000003, 192.0, 0.0, 0.0, 0.0, 0.0, 0.0, 0.0, 0.0, 0.0, 0.0, 1.6634989122250524E9, 0.0, 2022-09-18 16:01:52.225
114.0, -48782.682273707665, -22491.97930001966, -31582.143197315123, -49647.62772889468, -47900.81654796798, -187500.02235174447, -32645.460384542992, -25930.683425746374, 0.634, -0.686, 0.40800000000000003, 192.0, 0.0, 0.0, 0.0, 0.0, 0.0, 0.0, 0.0, 0.0, 0.0, 1.663498912229066E9, 0.0, 2022-09-18 16:01:52.229
115.0, -48866.210742737145, -21644.848185163522, -31869.944258921656, -49927.248052030576, -48012.619973733425, -187500.02235174447, -32880.77955016846, -26191.684745750994, 0.634, -0.686, 0.40800000000000003, 192.0, 0.0, 0.0, 0.0, 0.0, 0.0, 0.0, 0.0, 0.0, 0.0, 1.6634989122320848E9, 0.0, 2022-09-18 16:01:52.232
116.0, -49071.77973649261, -22166.649659472663, -31714.46552449054, -49793.361102743285, -47980.96990358471, -187500.02235174447, -32772.01596164894, -26081.64710779752, 0.634, -0.686, 0.40800000000000003, 192.0, 0.0, 0.0, 0.0, 0.0, 0.0, 0.0, 0.0, 0.0, 0.0, 1.6634989122360935E9, 0.0, 2022-09-18 16:01:52.236
117.0, -48940.12796165085, -23290.093039285308, -31352.568430014664, -49449.52421778729, -47998.04663634857, -187500.02235174447, -32473.486062703858, -25757.680923662298, 0.634, -0.686, 0.40800000000000003, 192.0, 0.0, 0.0, 0.0, 0.0, 0.0, 0.0, 0.0, 0.0, 0.0, 1.663498912240085E9, 0.0, 2022-09-18 16:01:52.240
118.0, -48790.55008775593, -23056.02557134933, -31416.136791245557, -49505.15770973655, -47668.26899865497, -187500.02235174447, -32504.040897374263, -25796.282386336614, 0.634, -0.686, 0.40800000000000003, 192.0, 0.0, 0.0, 0.0, 0.0, 0.0, 0.0, 0.0, 0.0, 0.0, 1.6634989122440183E9, 0.0, 2022-09-18 16:01:52.244
119.0, -48765.1585060547, -22459.613974048374, -31582.903156626602, -49648.83472309527, -47758.1230113653, -187500.02235174447, -32629.434183768535, -25929.409376312422, 0.634, -0.676, 0.41000000000000003, 192.0, 19.0, 208.0, 234.0, 224.0, 12.0, 208.0, 0.0, 0.0, 0.0, 1.6634989122491713E9, 0.0, 2022-09-18 16:01:52.249
120.0, -48856.57714087691, -21614.695681893314, -31882.952974194646, -49927.31510726394, -47834.47657042463, -187500.02235174447, -32890.52491075097, -26188.913129438537, 0.634, -0.676, 0.41000000000000003, 192.0, 0.0, 0.0, 0.0, 0.0, 0.0, 0.0, 0.0, 0.0, 0.0, 1.663498912253136E9, 0.0, 2022-09-18 16:01:52.253
121.0, -49079.7369575187, -22220.852639776786, -31743.992178916, -49794.21046903259, -47784.587476800385, -187500.02235174447, -32804.627156809234, -26080.77538976376, 0.634, -0.676, 0.41000000000000003, 192.0, 0.0, 0.0, 0.0, 0.0, 0.0, 0.0, 0.0, 0.0, 0.0, 1.6634989122571301E9, 0.0, 2022-09-18 16:01:52.257
122.0, -48925.75578996608, -23298.541998689416, -31376.5071483263, -49446.171456119, -47731.63619418576, -187500.02235174447, -32468.94865857943, -25752.18239452629, 0.634, -0.676, 0.41000000000000003, 192.0, 0.0, 0.0, 0.0, 0.0, 0.0, 0.0, 0.0, 0.0, 0.0, 1.6634989122601154E9, 0.0, 2022-09-18 16:01:52.260
123.0, -48802.03888440596, -23067.648478466093, -31454.671198686505, -49517.94290756499, -47394.2366116329, -187500.02235174447, -32522.704603994443, -25807.48061030872, 0.634, -0.676, 0.41000000000000003, 192.0, 0.0, 0.0, 0.0, 0.0, 0.0, 0.0, 0.0, 0.0, 0.0, 1.6634989122642639E9, 0.0, 2022-09-18 16:01:52.264
124.0, -48792.42763429018, -22475.059029466993, -31645.532744590375, -49679.680130443594, -47529.17409290959, -187500.02235174447, -32694.94714676704, -25956.23146965879, 0.634, -0.676, 0.41000000000000003, 192.0, 0.0, 0.0, 0.0, 0.0, 0.0, 0.0, 0.0, 0.0, 0.0, 1.663498912268158E9, 0.0, 2022-09-18 16:01:52.268
125.0, -48887.71312090315, -21639.483766494246, -31937.625341132327, -49956.81940994495, -47646.721917000046, -187500.02235174447, -32943.02915847649, -26213.924731484025, 0.634, -0.676, 0.41000000000000003, 192.0, 0.0, 0.0, 0.0, 0.0, 0.0, 0.0, 0.0, 0.0, 0.0, 1.663498912272133E9, 0.0, 2022-09-18 16:01:52.272
126.0, -49054.74770721766, -22272.32870725736, -31701.613271428738, -49750.55751211137, -47637.87062619575, -187500.02235174447, -32729.167667528116, -26035.557810730676, 0.634, -0.676, 0.41000000000000003, 192.0, 0.0, 0.0, 0.0, 0.0, 0.0, 0.0, 0.0, 0.0, 0.0, 1.6634989122762315E9, 0.0, 2022-09-18 16:01:52.276
127.0, -48899.291324531005, -23321.47488850056, -31366.06888366567, -49426.1666448315, -47670.43711786713, -187500.02235174447, -32455.582315395157, -25729.160097737327, 0.634, -0.676, 0.41000000000000003, 192.0, 0.0, 0.0, 0.0, 0.0, 0.0, 0.0, 0.0, 0.0, 0.0, 1.6634989122811928E9, 0.0, 2022-09-18 16:01:52.281
128.0, -48784.917448153195, -23052.7398649144, -31452.816003896714, -49509.7845208388, -47394.01309418835, -187500.02235174447, -32523.218694116917, -25794.360136313455, 0.634, -0.676, 0.41000000000000003, 192.0, 0.0, 0.0, 0.0, 0.0, 0.0, 0.0, 0.0, 0.0, 0.0, 1.6634989122841506E9, 0.0, 2022-09-18 16:01:52.284
129.0, -48764.286788020945, -22452.59552628941, -31638.02255845339, -49667.2749122709, -47609.66272469315, -187500.02235174447, -32679.45738785951, -25942.015760185215, 0.632, -0.682, 0.41600000000000004, 192.0, 19.0, 192.0, 234.0, 176.0, 13.0, 0.0, 0.0, 0.0, 0.0, 1.6634989122881725E9, 0.0, 2022-09-18 16:01:52.288
130.0, -48868.602379393866, -21624.217525031272, -31925.197771215175, -49943.11779059384, -47725.28829876045, -187500.02235174447, -32917.5705215419, -26200.379574344108, 0.632, -0.682, 0.41600000000000004, 192.0, 0.0, 0.0, 0.0, 0.0, 0.0, 0.0, 0.0, 0.0, 0.0, 1.6634989122921708E9, 0.0, 2022-09-18 16:01:52.292
131.0, -49057.832247952494, -22331.784347508474, -31708.005870342957, -49744.969575997544, -47715.05119979992, -187500.02235174447, -32765.601010990267, -26032.048586851193, 0.632, -0.682, 0.41600000000000004, 192.0, 0.0, 0.0, 0.0, 0.0, 0.0, 0.0, 0.0, 0.0, 0.0, 1.6634989122961905E9, 0.0, 2022-09-18 16:01:52.296
132.0, -48900.475966987135, -23338.48456603105, -31381.335125128644, -49428.78179893277, -47713.754798621514, -187500.02235174447, -32482.918498863997, -25732.758728594632, 0.632, -0.682, 0.41600000000000004, 192.0, 0.0, 0.0, 0.0, 0.0, 0.0, 0.0, 0.0, 0.0, 0.0, 1.663498912300233E9, 0.0, 2022-09-18 16:01:52.300
133.0, -48763.54918045392, -23005.46592539143, -31454.80530915324, -49492.0819392302, -47372.84599218917, -187500.02235174447, -32523.19634237246, -25780.859682662453, 0.632, -0.682, 0.41600000000000004, 192.0, 0.0, 0.0, 0.0, 0.0, 0.0, 0.0, 0.0, 0.0, 0.0, 1.6634989123042073E9, 0.0, 2022-09-18 16:01:52.304
134.0, -48747.97001456857, -22374.587938140387, -31638.693110787048, -49659.09417380025, -47502.910793174604, -187500.02235174447, -32674.38354186816, -25937.500707805244, 0.632, -0.682, 0.41600000000000004, 192.0, 0.0, 0.0, 0.0, 0.0, 0.0, 0.0, 0.0, 0.0, 0.0, 1.6634989123092005E9, 0.0, 2022-09-18 16:01:52.309
135.0, -48889.54596394849, -21603.765678854666, -31934.853724819866, -49948.415154029746, -47555.39268915566, -187500.02235174447, -32933.19439091616, -26209.70025178197, 0.632, -0.682, 0.41600000000000004, 192.0, 0.0, 0.0, 0.0, 0.0, 0.0, 0.0, 0.0, 0.0, 0.0, 1.6634989123121896E9, 0.0, 2022-09-18 16:01:52.312
136.0, -49086.46483259974, -22404.271054777033, -31713.16912331213, -49740.67804106212, -47536.88544474667, -187500.02235174447, -32767.6350197357, -26033.836726407615, 0.632, -0.682, 0.41600000000000004, 192.0, 0.0, 0.0, 0.0, 0.0, 0.0, 0.0, 0.0, 0.0, 0.0, 1.6634989123162763E9, 0.0, 2022-09-18 16:01:52.316
137.0, -48910.2436793141, -23348.72166499158, -31396.668421824983, -49432.24631932334, -47504.58717400875, -187500.02235174447, -32477.978763339375, -25739.03956878657, 0.632, -0.682, 0.41600000000000004, 192.0, 0.0, 0.0, 0.0, 0.0, 0.0, 0.0, 0.0, 0.0, 0.0, 1.6634989123202295E9, 0.0, 2022-09-18 16:01:52.320
138.0, -48791.51121276751, -22994.670032819515, -31479.168710609523, -49510.72329410593, -47203.978562829325, -187500.02235174447, -32541.39066235908, -25798.741078226696, 0.632, -0.682, 0.41600000000000004, 192.0, 0.0, 0.0, 0.0, 0.0, 0.0, 0.0, 0.0, 0.0, 0.0, 1.663498912324232E9, 0.0, 2022-09-18 16:01:52.324
139.0, -48753.870875104774, -22334.064225442915, -31637.441413097553, -49663.318653502305, -47408.36291412865, -187500.02235174447, -32662.291248117835, -25943.267457874714, 0.63, -0.6960000000000001, 0.418, 192.0, 19.0, 176.0, 234.0, 64.0, 13.0, 16.0, 0.0, 0.0, 0.0, 1.663498912328246E9, 0.0, 2022-09-18 16:01:52.328
140.0, -48894.70921691766, -21575.624832585436, -31925.465992148638, -49945.71059295066, -47512.94672643504, -187500.02235174447, -32905.88055919177, -26206.83922849169, 0.63, -0.6960000000000001, 0.418, 192.0, 0.0, 0.0, 0.0, 0.0, 0.0, 0.0, 0.0, 0.0, 0.0, 1.663498912332326E9, 0.0, 2022-09-18 16:01:52.332
141.0, -49069.32104460252, -22421.28073230752, -31675.998172282958, -49712.045456414875, -47547.61428208522, -187500.02235174447, -32715.264882476913, -25998.14099051249, 0.63, -0.6960000000000001, 0.418, 192.0, 0.0, 0.0, 0.0, 0.0, 0.0, 0.0, 0.0, 0.0, 0.0, 1.663498912337253E9, 0.0, 2022-09-18 16:01:52.337
142.0, -48887.19903078068, -23345.145385878728, -31377.937659971438, -49427.61950822109, -47556.62203510071, -187500.02235174447, -32456.811661340198, -25727.573123881, 0.63, -0.6960000000000001, 0.418, 192.0, 0.0, 0.0, 0.0, 0.0, 0.0, 0.0, 0.0, 0.0, 0.0, 1.663498912340254E9, 0.0, 2022-09-18 16:01:52.340
143.0, -48781.87761090727, -23000.660300333537, -31477.782902453295, -49525.00605881287, -47318.575956651686, -187500.02235174447, -32546.06217695024, -25807.570017286544, 0.63, -0.6960000000000001, 0.418, 192.0, 0.0, 0.0, 0.0, 0.0, 0.0, 0.0, 0.0, 0.0, 0.0, 1.6634989123442402E9, 0.0, 2022-09-18 16:01:52.344
144.0, -48760.01760482998, -22337.171117922204, -31664.97876226649, -49700.40019755366, -47543.07687796079, -187500.02235174447, -32670.51669007739, -25973.71053382284, 0.63, -0.6960000000000001, 0.418, 192.0, 0.0, 0.0, 0.0, 0.0, 0.0, 0.0, 0.0, 0.0, 0.0, 1.6634989123482828E9, 0.0, 2022-09-18 16:01:52.348
145.0, -48908.232022313125, -21603.877437576943, -31943.36973945734, -49972.75620374158, -47635.680155239126, -187500.02235174447, -32909.94857668264, -26233.169583460043, 0.63, -0.6960000000000001, 0.418, 192.0, 0.0, 0.0, 0.0, 0.0, 0.0, 0.0, 0.0, 0.0, 0.0, 1.6634989123523552E9, 0.0, 2022-09-18 16:01:52.352
146.0, -49072.83026848201, -22494.348584931922, -31656.954486007035, -49706.27870634541, -47656.087297926824, -187500.02235174447, -32695.32712642278, -25996.95634805636, 0.63, -0.6960000000000001, 0.418, 192.0, 0.0, 0.0, 0.0, 0.0, 0.0, 0.0, 0.0, 0.0, 0.0, 1.663498912356325E9, 0.0, 2022-09-18 16:01:52.356
147.0, -48883.30982724546, -23359.85283373032, -31371.232136634844, -49434.03445887977, -47619.76571318695, -187500.02235174447, -32430.79423079422, -25733.80926058403, 0.63, -0.6960000000000001, 0.418, 192.0, 0.0, 0.0, 0.0, 0.0, 0.0, 0.0, 0.0, 0.0, 0.0, 1.6634989123604403E9, 0.0, 2022-09-18 16:01:52.360
148.0, -48779.57538122838, -22986.891625749067, -31485.181329868, -49533.96910833944, -47362.743003695374, -187500.02235174447, -32512.556912011736, -25817.650654035886, 0.63, -0.6960000000000001, 0.418, 192.0, 0.0, 0.0, 0.0, 0.0, 0.0, 0.0, 0.0, 0.0, 0.0, 1.66349891236433E9, 0.0, 2022-09-18 16:01:52.364
149.0, -48749.24406400252, -22300.60366399332, -31664.621134355206, -49706.63633425669, -47576.403328943656, -187500.02235174447, -32656.971532937474, -25979.298469936668, 0.634, -0.6920000000000001, 0.41600000000000004, 192.0, 19.0, 208.0, 234.0, 96.0, 13.0, 0.0, 0.0, 0.0, 0.0, 1.6634989123683584E9, 0.0, 2022-09-18 16:01:52.368
150.0, -48893.77044365054, -21586.018393757153, -31911.451448375163, -49947.90106390728, -47625.21953883404, -187500.02235174447, -32870.29658201893, -26205.788696502295, 0.634, -0.6920000000000001, 0.41600000000000004, 192.0, 0.0, 0.0, 0.0, 0.0, 0.0, 0.0, 0.0, 0.0, 0.0, 1.6634989123713193E9, 0.0, 2022-09-18 16:01:52.371
151.0, -49035.949890130745, -22526.490393458655, -31614.35206107522, -49665.59853143675, -47661.98815846302, -187500.02235174447, -32629.702404702, -25956.343228381065, 0.634, -0.6920000000000001, 0.41600000000000004, 192.0, 0.0, 0.0, 0.0, 0.0, 0.0, 0.0, 0.0, 0.0, 0.0, 1.6634989123764567E9, 0.0, 2022-09-18 16:01:52.376
152.0, -48848.64227159527, -23333.18720259514, -31368.5052238113, -49423.05975235221, -47598.822128632324, -187500.02235174447, -32421.786477778733, -25720.062937744016, 0.634, -0.6920000000000001, 0.41600000000000004, 192.0, 0.0, 0.0, 0.0, 0.0, 0.0, 0.0, 0.0, 0.0, 0.0, 1.6634989123803556E9, 0.0, 2022-09-18 16:01:52.380
153.0, -48774.16625907019, -22957.20850911242, -31497.85476897416, -49546.66489919006, -47343.22993078589, -187500.02235174447, -32516.423763802504, -25827.68658729632, 0.634, -0.6920000000000001, 0.41600000000000004, 192.0, 0.0, 0.0, 0.0, 0.0, 0.0, 0.0, 0.0, 0.0, 0.0, 1.663498912384306E9, 0.0, 2022-09-18 16:01:52.384
154.0, -48753.31208149339, -22271.300527012412, -31692.203187013056, -49726.21646239954, -47586.461613948544, -187500.02235174447, -32676.104626191216, -25996.263443978245, 0.634, -0.6920000000000001, 0.41600000000000004, 192.0, 0.0, 0.0, 0.0, 0.0, 0.0, 0.0, 0.0, 0.0, 0.0, 1.663498912388302E9, 0.0, 2022-09-18 16:01:52.388
155.0, -48901.97353386564, -21597.730707851733, -31918.067564733934, -49955.7912297, -47635.50134128348, -187500.02235174447, -32875.169262310184, -26215.824629762727, 0.634, -0.6920000000000001, 0.41600000000000004, 192.0, 0.0, 0.0, 0.0, 0.0, 0.0, 0.0, 0.0, 0.0, 0.0, 1.6634989123933592E9, 0.0, 2022-09-18 16:01:52.393
156.0, -49035.90518664184, -22599.871170505427, -31604.517293514884, -49660.01059532292, -47680.62951333875, -187500.02235174447, -32636.474983271957, -25953.3257428796, 0.634, -0.6920000000000001, 0.41600000000000004, 192.0, 0.0, 0.0, 0.0, 0.0, 0.0, 0.0, 0.0, 0.0, 0.0, 1.6634989123963404E9, 0.0, 2022-09-18 16:01:52.396
157.0, -48856.66654785473, -23359.964592452598, -31380.82103500617, -49442.30460432823, -47608.36632351474, -187500.02235174447, -32429.050794726707, -25736.93850480777, 0.634, -0.6920000000000001, 0.41600000000000004, 192.0, 0.0, 0.0, 0.0, 0.0, 0.0, 0.0, 0.0, 0.0, 0.0, 1.663498912399336E9, 0.0, 2022-09-18 16:01:52.399
158.0, -48770.925256124174, -22950.927668920478, -31491.909204949046, -49547.93894862401, -47368.621512487116, -187500.02235174447, -32493.557929224724, -25829.474726852743, 0.634, -0.6920000000000001, 0.41600000000000004, 192.0, 0.0, 0.0, 0.0, 0.0, 0.0, 0.0, 0.0, 0.0, 0.0, 1.6634989124043884E9, 0.0, 2022-09-18 16:01:52.404
159.0, -48756.240160017034, -22247.227698234048, -31697.299384748865, -49740.52157885094, -47608.478082237016, -187500.02235174447, -32660.301942861315, -26013.362528486556, 0.64, -0.6900000000000001, 0.41600000000000004, 192.0, 20.0, 0.0, 234.0, 112.0, 13.0, 0.0, 0.0, 0.0, 0.0, 1.66349891240841E9, 0.0, 2022-09-18 16:01:52.408
160.0, -48895.60328669588, -21603.005719543187, -31915.139486210286, -49945.59883422838, -47628.30407956887, -187500.02235174447, -32859.61244816929, -26209.297920381778, 0.64, -0.6900000000000001, 0.41600000000000004, 192.0, 0.0, 0.0, 0.0, 0.0, 0.0, 0.0, 0.0, 0.0, 0.0, 1.6634989124124272E9, 0.0, 2022-09-18 16:01:52.412
161.0, -49044.44355302377, -22674.34718303051, -31614.329709330766, -49656.83664761027, -47697.460376913594, -187500.02235174447, -32635.69267221602, -25954.890364991472, 0.64, -0.6900000000000001, 0.41600000000000004, 192.0, 0.0, 0.0, 0.0, 0.0, 0.0, 0.0, 0.0, 0.0, 0.0, 1.6634989124164104E9, 0.0, 2022-09-18 16:01:52.416
162.0, -48836.14764644476, -23369.06175244591, -31363.72195049786, -49431.48636001186, -47612.322582283334, -187500.02235174447, -32410.85647474009, -25732.825783827997, 0.64, -0.6900000000000001, 0.41600000000000004, 192.0, 0.0, 0.0, 0.0, 0.0, 0.0, 0.0, 0.0, 0.0, 0.0, 1.6634989124204874E9, 0.0, 2022-09-18 16:01:52.420
163.0, -48741.62211914326, -22928.44181399844, -31468.61868722662, -49530.504587948875, -47384.15597488356, -187500.02235174447, -32483.00790584182, -25818.00828194717, 0.64, -0.6900000000000001, 0.41600000000000004, 192.0, 0.0, 0.0, 0.0, 0.0, 0.0, 0.0, 0.0, 0.0, 0.0, 1.6634989124244232E9, 0.0, 2022-09-18 16:01:52.424
164.0, -48726.15471198019, -22197.986805199005, -31677.78631183938, -49728.31752637834, -47623.230233577524, -187500.02235174447, -32663.252373129413, -26003.125429526026, 0.64, -0.6900000000000001, 0.41600000000000004, 192.0, 0.0, 0.0, 0.0, 0.0, 0.0, 0.0, 0.0, 0.0, 0.0, 1.6634989124274287E9, 0.0, 2022-09-18 16:01:52.427
165.0, -48903.9404873777, -21619.769527884666, -31906.802285528458, -49952.41611628725, -47640.44107680811, -187500.02235174447, -32872.91173612019, -26218.909170497558, 0.64, -0.6900000000000001, 0.41600000000000004, 192.0, 0.0, 0.0, 0.0, 0.0, 0.0, 0.0, 0.0, 0.0, 0.0, 1.6634989124324195E9, 0.0, 2022-09-18 16:01:52.432
166.0, -49019.18608178927, -22721.934046975857, -31572.53194719934, -49629.32165018578, -47706.266964228984, -187500.02235174447, -32616.11254407317, -25931.331626335577, 0.64, -0.6900000000000001, 0.41600000000000004, 192.0, 0.0, 0.0, 0.0, 0.0, 0.0, 0.0, 0.0, 0.0, 0.0, 1.6634989124365487E9, 0.0, 2022-09-18 16:01:52.436
167.0, -48815.00289619004, -23344.206612611608, -31371.83563373514, -49431.79928443424, -47588.40621571615, -187500.02235174447, -32436.158649463494, -25733.541039650565, 0.64, -0.6900000000000001, 0.41600000000000004, 192.0, 0.0, 0.0, 0.0, 0.0, 0.0, 0.0, 0.0, 0.0, 0.0, 1.6634989124404433E9, 0.0, 2022-09-18 16:01:52.440
168.0, -48727.78638932543, -22893.550740903705, -31473.290201817777, -49529.588166426205, -47371.70605322195, -187500.02235174447, -32490.965126867908, -25814.58846504551, 0.64, -0.6900000000000001, 0.41600000000000004, 192.0, 0.0, 0.0, 0.0, 0.0, 0.0, 0.0, 0.0, 0.0, 0.0, 1.66349891244443E9, 0.0, 2022-09-18 16:01:52.444
169.0, -48733.3519736948, -22172.86344443124, -31721.75219318297, -49757.12892498123, -47651.28167286893, -187500.02235174447, -32683.883033261664, -26026.125374570536, 0.636, -0.6960000000000001, 0.41600000000000004, 192.0, 19.0, 224.0, 234.0, 64.0, 13.0, 0.0, 0.0, 0.0, 0.0, 1.663498912448476E9, 0.0, 2022-09-18 16:01:52.448
170.0, -48903.80637691097, -21617.62376041696, -31901.773143026014, -49945.129447594816, -47657.42840259414, -187500.02235174447, -32853.04103529943, -26205.56517905774, 0.636, -0.6960000000000001, 0.41600000000000004, 192.0, 0.0, 0.0, 0.0, 0.0, 0.0, 0.0, 0.0, 0.0, 0.0, 1.6634989124524257E9, 0.0, 2022-09-18 16:01:52.452
171.0, -49006.669104894296, -22754.54524213615, -31548.168545743058, -49614.39068488964, -47716.414656211695, -187500.02235174447, -32593.78315136232, -25910.79037318115, 0.636, -0.6960000000000001, 0.41600000000000004, 192.0, 0.0, 0.0, 0.0, 0.0, 0.0, 0.0, 0.0, 0.0, 0.0, 1.6634989124554844E9, 0.0, 2022-09-18 16:01:52.455
172.0, -48797.12150062579, -23333.72364446207, -31367.96878194437, -49434.77206644679, -47586.260448248446, -187500.02235174447, -32415.483285842336, -25730.43414717128, 0.636, -0.6960000000000001, 0.41600000000000004, 192.0, 0.0, 0.0, 0.0, 0.0, 0.0, 0.0, 0.0, 0.0, 0.0, 1.663498912459494E9, 0.0, 2022-09-18 16:01:52.459
173.0, -48720.9020520332, -22867.309792913176, -31477.89466117557, -49543.37919275513, -47382.121966138126, -187500.02235174447, -32481.487987218858, -25827.530125085133, 0.636, -0.6960000000000001, 0.41600000000000004, 192.0, 0.0, 0.0, 0.0, 0.0, 0.0, 0.0, 0.0, 0.0, 0.0, 1.6634989124644895E9, 0.0, 2022-09-18 16:01:52.464
174.0, -48719.337429921325, -22121.09680427275, -31714.84550414628, -49771.90342806619, -47643.95030068759, -187500.02235174447, -32667.27568713137, -26039.692883454907, 0.636, -0.6960000000000001, 0.41600000000000004, 192.0, 0.0, 0.0, 0.0, 0.0, 0.0, 0.0, 0.0, 0.0, 0.0, 1.6634989124684625E9, 0.0, 2022-09-18 16:01:52.468
175.0, -48933.35538308089, -21662.953098172322, -31916.32412866642, -49977.31595961046, -47650.834637979824, -187500.02235174447, -32853.17514576616, -26236.81291780626, 0.636, -0.6960000000000001, 0.41600000000000004, 192.0, 0.0, 0.0, 0.0, 0.0, 0.0, 0.0, 0.0, 0.0, 0.0, 1.6634989124724705E9, 0.0, 2022-09-18 16:01:52.472
176.0, -48995.00149428863, -22808.27883580671, -31514.775039526827, -49600.420844605076, -47698.041522269436, -187500.02235174447, -32540.76481351433, -25898.98865210875, 0.636, -0.6960000000000001, 0.41600000000000004, 192.0, 0.0, 0.0, 0.0, 0.0, 0.0, 0.0, 0.0, 0.0, 0.0, 1.6634989124755588E9, 0.0, 2022-09-18 16:01:52.475
177.0, -48790.66184647821, -23315.32815877535, -31363.029046419746, -49437.49897927034, -47547.03313672938, -187500.02235174447, -32403.301585114194, -25733.451632672746, 0.636, -0.6960000000000001, 0.41600000000000004, 192.0, 0.0, 0.0, 0.0, 0.0, 0.0, 0.0, 0.0, 0.0, 0.0, 1.6634989124795272E9, 0.0, 2022-09-18 16:01:52.479
178.0, -48707.28983965991, -22837.58197278762, -31458.381588266086, -49528.269413503345, -47367.079242119704, -187500.02235174447, -32456.766957851287, -25813.24736037819, 0.636, -0.6960000000000001, 0.41600000000000004, 192.0, 0.0, 0.0, 0.0, 0.0, 0.0, 0.0, 0.0, 0.0, 0.0, 1.663498912483497E9, 0.0, 2022-09-18 16:01:52.483
179.0, -48704.18294718063, -22067.340858857737, -31700.965070839535, -49753.642052846204, -47624.772503944936, -187500.02235174447, -32660.525460305867, -26024.806621647673, 0.632, -0.6960000000000001, 0.41000000000000003, 192.0, 19.0, 192.0, 234.0, 64.0, 12.0, 208.0, 0.0, 0.0, 0.0, 1.6634989124875607E9, 0.0, 2022-09-18 16:01:52.487
180.0, -48907.15913857927, -21648.737388698744, -31881.58951778287, -49927.44921773067, -47621.59855623228, -187500.02235174447, -32835.874895557754, -26193.383478329597, 0.632, -0.6960000000000001, 0.41000000000000003, 192.0, 0.0, 0.0, 0.0, 0.0, 0.0, 0.0, 0.0, 0.0, 0.0, 1.6634989124925056E9, 0.0, 2022-09-18 16:01:52.492
181.0, -48978.572962113976, -22866.035743479224, -31496.223091628923, -49564.90392266559, -47694.15231873421, -187500.02235174447, -32524.068060406218, -25868.992611049725, 0.632, -0.6960000000000001, 0.41000000000000003, 192.0, 0.0, 0.0, 0.0, 0.0, 0.0, 0.0, 0.0, 0.0, 0.0, 1.6634989124965248E9, 0.0, 2022-09-18 16:01:52.496
182.0, -48788.13609935476, -23333.70129271761, -31370.58393604564, -49436.895482170046, -47541.40049712664, -187500.02235174447, -32408.21896889436, -25738.838403086473, 0.632, -0.6960000000000001, 0.41000000000000003, 192.0, 0.0, 0.0, 0.0, 0.0, 0.0, 0.0, 0.0, 0.0, 0.0, 1.6634989125006945E9, 0.0, 2022-09-18 16:01:52.500
183.0, -48719.80681655488, -22835.03387391971, -31491.261004359843, -49544.18385555552, -47357.579750726196, -187500.02235174447, -32491.00983035682, -25833.073357710047, 0.632, -0.6960000000000001, 0.41000000000000003, 192.0, 0.0, 0.0, 0.0, 0.0, 0.0, 0.0, 0.0, 0.0, 0.0, 1.6634989125035696E9, 0.0, 2022-09-18 16:01:52.503
184.0, -48688.492022573, -22027.487698493922, -31703.80374238536, -49744.74605855299, -47605.4382449911, -187500.02235174447, -32663.632352785156, -26019.62101693404, 0.632, -0.6960000000000001, 0.41000000000000003, 192.0, 0.0, 0.0, 0.0, 0.0, 0.0, 0.0, 0.0, 0.0, 0.0, 1.6634989125076132E9, 0.0, 2022-09-18 16:01:52.507
185.0, -48880.71702488864, -21643.887060151945, -31856.44380527065, -49893.183993480685, -47589.188526772086, -187500.02235174447, -32811.4444388681, -26168.774207684306, 0.632, -0.6960000000000001, 0.41000000000000003, 192.0, 0.0, 0.0, 0.0, 0.0, 0.0, 0.0, 0.0, 0.0, 0.0, 1.6634989125115612E9, 0.0, 2022-09-18 16:01:52.511
186.0, -48954.991871713624, -22887.91810130097, -31475.257155329844, -49541.30048052079, -47678.61785633777, -187500.02235174447, -32513.38392655658, -25853.860480053485, 0.632, -0.6960000000000001, 0.41000000000000003, 192.0, 0.0, 0.0, 0.0, 0.0, 0.0, 0.0, 0.0, 0.0, 0.0, 1.6634989125156162E9, 0.0, 2022-09-18 16:01:52.515
187.0, -48773.451003247625, -23311.796583151412, -31362.470252808365, -49432.08985711216, -47510.331572333766, -187500.02235174447, -32391.79043671971, -25735.060958273527, 0.632, -0.6960000000000001, 0.41000000000000003, 192.0, 0.0, 0.0, 0.0, 0.0, 0.0, 0.0, 0.0, 0.0, 0.0, 1.6634989125206013E9, 0.0, 2022-09-18 16:01:52.520
188.0, -48722.51137763398, -22830.652932006473, -31497.206568384954, -49563.2498935759, -47353.53408497979, -187500.02235174447, -32490.741609423356, -25852.4523201528, 0.632, -0.6960000000000001, 0.41000000000000003, 192.0, 0.0, 0.0, 0.0, 0.0, 0.0, 0.0, 0.0, 0.0, 0.0, 1.663498912524638E9, 0.0, 2022-09-18 16:01:52.524
189.0, -48694.70580753157, -22009.695709907497, -31715.247835546477, -49768.5953698868, -47606.68994268059, -187500.02235174447, -32667.11922492018, -26044.63261897953, 0.632, -0.6960000000000001, 0.41000000000000003, 192.0, 0.0, 0.0, 0.0, 0.0, 0.0, 0.0, 0.0, 0.0, 0.0, 1.6634989125286522E9, 0.0, 2022-09-18 16:01:52.528
190.0, -48914.57991773843, -21700.504028857235, -31857.092005859853, -49914.06052280194, -47595.961105342045, -187500.02235174447, -32793.40658109267, -26189.80719921675, 0.64, -0.6900000000000001, 0.41400000000000003, 192.0, 20.0, 0.0, 234.0, 112.0, 12.0, 240.0, 0.0, 0.0, 0.0, 1.6634989125316386E9, 0.0, 2022-09-18 16:01:52.531
191.0, -48956.73530778114, -22959.44368355795, -31474.117216362625, -49545.1449805671, -47670.99591147851, -187500.02235174447, -32489.28874603376, -25854.955715531793, 0.64, -0.6900000000000001, 0.41400000000000003, 192.0, 0.0, 0.0, 0.0, 0.0, 0.0, 0.0, 0.0, 0.0, 0.0, 1.663498912535626E9, 0.0, 2022-09-18 16:01:52.535
192.0, -48751.54629368142, -23303.52643770295, -31363.319619097667, -49435.44261878045, -47466.36569099018, -187500.02235174447, -32365.236564306804, -25738.61488564192, 0.64, -0.6900000000000001, 0.41400000000000003, 192.0, 0.0, 0.0, 0.0, 0.0, 0.0, 0.0, 0.0, 0.0, 0.0, 1.663498912539658E9, 0.0, 2022-09-18 16:01:52.539
193.0, -48698.28208664442, -22807.36241428404, -31497.675955018516, -49552.297538792795, -47339.02780282829, -187500.02235174447, -32481.443283729946, -25840.53884035812, 0.64, -0.6900000000000001, 0.41400000000000003, 192.0, 0.0, 0.0, 0.0, 0.0, 0.0, 0.0, 0.0, 0.0, 0.0, 1.6634989125436387E9, 0.0, 2022-09-18 16:01:52.543
194.0, -48708.67564781614, -21992.17194225454, -31769.47316759505, -49800.37955050225, -47596.22932627551, -187500.02235174447, -32699.86453054721, -26071.38765709253, 0.64, -0.6900000000000001, 0.41400000000000003, 192.0, 0.0, 0.0, 0.0, 0.0, 0.0, 0.0, 0.0, 0.0, 0.0, 1.663498912548655E9, 0.0, 2022-09-18 16:01:52.548
195.0, -48917.82092068445, -21726.63321812549, -31877.096817147354, -49912.80882511244, -47557.73962232347, -187500.02235174447, -32812.4949708575, -26187.348507326664, 0.64, -0.6900000000000001, 0.41400000000000003, 192.0, 0.0, 0.0, 0.0, 0.0, 0.0, 0.0, 0.0, 0.0, 0.0, 1.6634989125526004E9, 0.0, 2022-09-18 16:01:52.552
196.0, -48948.5545693105, -23000.59324510017, -31452.54778296325, -49534.52790195083, -47635.03195464992, -187500.02235174447, -32454.285914216747, -25845.25505843819, 0.64, -0.6900000000000001, 0.41400000000000003, 192.0, 0.0, 0.0, 0.0, 0.0, 0.0, 0.0, 0.0, 0.0, 0.0, 1.663498912556698E9, 0.0, 2022-09-18 16:01:52.556
197.0, -48756.9107123507, -23301.939463846622, -31381.580994317654, -49460.00718593683, -47415.06843746525, -187500.02235174447, -32386.6942389839, -25759.75963589664, 0.64, -0.6900000000000001, 0.41400000000000003, 192.0, 0.0, 0.0, 0.0, 0.0, 0.0, 0.0, 0.0, 0.0, 0.0, 1.663498912559686E9, 0.0, 2022-09-18 16:01:52.559
198.0, -48706.10519720378, -22794.04077458868, -31520.541789596296, -49581.08658565123, -47299.88989828705, -187500.02235174447, -32493.155597824527, -25869.149073260913, 0.64, -0.6900000000000001, 0.41400000000000003, 192.0, 0.0, 0.0, 0.0, 0.0, 0.0, 0.0, 0.0, 0.0, 0.0, 1.6634989125636835E9, 0.0, 2022-09-18 16:01:52.563
199.0, -48705.836976270315, -21962.332363406702, -31787.712191070583, -49820.38436178975, -47575.44220393208, -187500.02235174447, -32725.09965003725, -26089.760791034794, 0.64, -0.6900000000000001, 0.41400000000000003, 192.0, 0.0, 0.0, 0.0, 0.0, 0.0, 0.0, 0.0, 0.0, 0.0, 1.663498912567638E9, 0.0, 2022-09-18 16:01:52.567
200.0, -48916.94920265069, -21763.804169154664, -31874.012276412523, -49915.893365847274, -47549.91651176412, -187500.02235174447, -32803.73308703102, -26189.047239905267, 0.634, -0.684, 0.42, 192.0, 19.0, 208.0, 234.0, 160.0, 13.0, 32.0, 0.0, 0.0, 0.0, 1.6634989125717688E9, 0.0, 2022-09-18 16:01:52.571
201.0, -48920.50313001909, -23038.077120551723, -31449.68675967297, -49523.21791925644, -47630.494550525495, -187500.02235174447, -32431.353024405606, -25831.128755942438, 0.634, -0.684, 0.42, 192.0, 0.0, 0.0, 0.0, 0.0, 0.0, 0.0, 0.0, 0.0, 0.0, 1.6634989125767105E9, 0.0, 2022-09-18 16:01:52.576
202.0, -48716.07407523085, -23270.80348382038, -31364.995999931816, -49444.0703921402, -47406.440664105496, -187500.02235174447, -32381.866262181553, -25738.86075483093, 0.634, -0.684, 0.42, 192.0, 0.0, 0.0, 0.0, 0.0, 0.0, 0.0, 0.0, 0.0, 0.0, 1.6634989125807152E9, 0.0, 2022-09-18 16:01:52.580
203.0, -48673.829278210316, -22756.042809014656, -31509.745897024382, -49568.05551863379, -47329.23773875687, -187500.02235174447, -32478.068170317194, -25850.798291063107, 0.634, -0.684, 0.42, 192.0, 0.0, 0.0, 0.0, 0.0, 0.0, 0.0, 0.0, 0.0, 0.0, 1.663498912584838E9, 0.0, 2022-09-18 16:01:52.584
204.0, -48692.22476389704, -21913.471450027402, -31759.638400034717, -49815.310515798395, -47586.14868952617, -187500.02235174447, -32683.57010883929, -26083.323488631668, 0.634, -0.684, 0.42, 192.0, 0.0, 0.0, 0.0, 0.0, 0.0, 0.0, 0.0, 0.0, 0.0, 1.6634989125877433E9, 0.0, 2022-09-18 16:01:52.587
205.0, -48905.81803391195, -21783.853683931076, -31820.34573797533, -49881.24816194155, -47550.78822979787, -187500.02235174447, -32759.4319295206, -26155.765492411316, 0.634, -0.684, 0.42, 192.0, 0.0, 0.0, 0.0, 0.0, 0.0, 0.0, 0.0, 0.0, 0.0, 1.663498912591708E9, 0.0, 2022-09-18 16:01:52.591
206.0, -48906.622696712344, -23071.22475757894, -31428.810230351715, -49498.899221289066, -47625.2418905785, -187500.02235174447, -32442.75241407781, -25804.239607362702, 0.634, -0.684, 0.42, 192.0, 0.0, 0.0, 0.0, 0.0, 0.0, 0.0, 0.0, 0.0, 0.0, 1.6634989125957038E9, 0.0, 2022-09-18 16:01:52.595
207.0, -48729.52982539294, -23275.251480966985, -31386.92306124247, -49458.84489522516, -47404.04902744878, -187500.02235174447, -32391.969250675353, -25751.981228826193, 0.634, -0.684, 0.42, 192.0, 0.0, 0.0, 0.0, 0.0, 0.0, 0.0, 0.0, 0.0, 0.0, 1.6634989125998163E9, 0.0, 2022-09-18 16:01:52.599
208.0, -48659.61356873674, -22732.081738958568, -31498.055934674256, -49558.444268518004, -47343.721669163904, -187500.02235174447, -32463.09250153214, -25843.31045667058, 0.634, -0.684, 0.42, 192.0, 0.0, 0.0, 0.0, 0.0, 0.0, 0.0, 0.0, 0.0, 0.0, 1.6634989126037345E9, 0.0, 2022-09-18 16:01:52.603
209.0, -48681.1382986472, -21875.652298409022, -31773.116501941266, -49814.9081843982, -47606.175852558124, -187500.02235174447, -32693.024896743882, -26085.648070055016, 0.634, -0.684, 0.42, 192.0, 0.0, 0.0, 0.0, 0.0, 0.0, 0.0, 0.0, 0.0, 0.0, 1.6634989126086977E9, 0.0, 2022-09-18 16:01:52.608
210.0, -48886.036740069, -21809.669948776955, -31813.0590692829, -49861.13159193177, -47591.982494829004, -187500.02235174447, -32750.357121271747, -26139.82869861468, 0.636, -0.686, 0.418, 192.0, 19.0, 224.0, 234.0, 144.0, 13.0, 16.0, 0.0, 0.0, 0.0, 1.663498912612834E9, 0.0, 2022-09-18 16:01:52.612
211.0, -48860.57810313441, -23098.493885814416, -31426.03861403926, -49500.24032595639, -47663.06104219688, -187500.02235174447, -32433.61055059559, -25810.431040576823, 0.636, -0.686, 0.418, 192.0, 0.0, 0.0, 0.0, 0.0, 0.0, 0.0, 0.0, 0.0, 0.0, 1.6634989126158729E9, 0.0, 2022-09-18 16:01:52.615
212.0, -48660.44058328159, -23244.49548059648, -31377.98236346035, -49451.580578277186, -47414.73316129842, -187500.02235174447, -32365.25891605126, -25747.734397379685, 0.636, -0.686, 0.418, 192.0, 0.0, 0.0, 0.0, 0.0, 0.0, 0.0, 0.0, 0.0, 0.0, 1.6634989126197236E9, 0.0, 2022-09-18 16:01:52.619
213.0, -48620.60977466223, -22725.286808644156, -31509.254158646367, -49567.80964944478, -47394.32601861072, -187500.02235174447, -32471.42970221397, -25852.854651552996, 0.636, -0.686, 0.418, 192.0, 0.0, 0.0, 0.0, 0.0, 0.0, 0.0, 0.0, 0.0, 0.0, 1.6634989126237073E9, 0.0, 2022-09-18 16:01:52.623
214.0, -48654.42796402311, -21859.603745890112, -31795.37883941875, -49838.57868177637, -47646.923082700145, -187500.02235174447, -32717.790629600364, -26108.22333195488, 0.636, -0.686, 0.418, 192.0, 0.0, 0.0, 0.0, 0.0, 0.0, 0.0, 0.0, 0.0, 0.0, 1.663498912627763E9, 0.0, 2022-09-18 16:01:52.627
215.0, -48864.98139679211, -21856.630963877556, -31802.799618577916, -49861.086888442864, -47604.007733345956, -187500.02235174447, -32753.62047596222, -26139.78399512577, 0.636, -0.686, 0.418, 192.0, 0.0, 0.0, 0.0, 0.0, 0.0, 0.0, 0.0, 0.0, 0.0, 1.6634989126318493E9, 0.0, 2022-09-18 16:01:52.631
216.0, -48841.556768602946, -23143.420892169583, -31402.613985850097, -49479.63201756859, -47682.26119068399, -187500.02235174447, -32427.486172614837, -25787.229929832214, 0.636, -0.686, 0.418, 192.0, 0.0, 0.0, 0.0, 0.0, 0.0, 0.0, 0.0, 0.0, 0.0, 1.663498912636776E9, 0.0, 2022-09-18 16:01:52.636
217.0, -48652.840990166784, -23217.181648872098, -31368.147595900013, -49445.52325552979, -47424.38911490311, -187500.02235174447, -32372.567936488147, -25738.01138854163, 0.636, -0.686, 0.418, 192.0, 0.0, 0.0, 0.0, 0.0, 0.0, 0.0, 0.0, 0.0, 0.0, 1.6634989126397982E9, 0.0, 2022-09-18 16:01:52.639
218.0, -48610.23856523497, -22682.9526046458, -31519.066574462246, -49573.19641985851, -47411.42510311903, -187500.02235174447, -32491.3674582681, -25855.559212632088, 0.636, -0.686, 0.418, 192.0, 0.0, 0.0, 0.0, 0.0, 0.0, 0.0, 0.0, 0.0, 0.0, 1.6634989126428316E9, 0.0, 2022-09-18 16:01:52.642
219.0, -48652.706879700054, -21822.969236727862, -31800.58679587684, -49853.53199881697, -47649.873512968246, -187500.02235174447, -32758.180231831102, -26117.141677992546, 0.636, -0.686, 0.418, 192.0, 0.0, 0.0, 0.0, 0.0, 0.0, 0.0, 0.0, 0.0, 0.0, 1.6634989126478333E9, 0.0, 2022-09-18 16:01:52.647
220.0, -48864.84728632537, -21903.10024060014, -31778.413865377173, -49848.72637375908, -47622.47027426604, -187500.02235174447, -32750.5806387163, -26125.523582163285, 0.636, -0.6880000000000001, 0.42, 192.0, 19.0, 224.0, 234.0, 128.0, 13.0, 32.0, 0.0, 0.0, 0.0, 1.663498912651791E9, 0.0, 2022-09-18 16:01:52.651
221.0, -48815.04759967895, -23167.650183159138, -31377.60238380461, -49461.03536618178, -47700.746083348524, -187500.02235174447, -32397.713649000365, -25767.538042967088, 0.636, -0.6880000000000001, 0.42, 192.0, 0.0, 0.0, 0.0, 0.0, 0.0, 0.0, 0.0, 0.0, 0.0, 1.663498912655917E9, 0.0, 2022-09-18 16:01:52.655
222.0, -48631.78564688989, -23190.20309331454, -31373.713180269384, -49445.836179952166, -47394.37072209963, -187500.02235174447, -32361.21325030485, -25736.826746085495, 0.636, -0.6880000000000001, 0.42, 192.0, 0.0, 0.0, 0.0, 0.0, 0.0, 0.0, 0.0, 0.0, 0.0, 1.6634989126598575E9, 0.0, 2022-09-18 16:01:52.659
223.0, -48593.005370259925, -22651.05666530808, -31504.9849754554, -49568.99429190091, -47399.71278902445, -187500.02235174447, -32475.542423193747, -25851.4017881634, 0.636, -0.6880000000000001, 0.42, 192.0, 0.0, 0.0, 0.0, 0.0, 0.0, 0.0, 0.0, 0.0, 0.0, 1.6634989126648662E9, 0.0, 2022-09-18 16:01:52.664
224.0, -48647.25305405296, -21799.79047772771, -31801.99495577752, -49855.45424884013, -47630.38279180322, -187500.02235174447, -32729.90527509514, -26117.342843692644, 0.636, -0.6880000000000001, 0.42, 192.0, 0.0, 0.0, 0.0, 0.0, 0.0, 0.0, 0.0, 0.0, 0.0, 1.6634989126679273E9, 0.0, 2022-09-18 16:01:52.667
225.0, -48866.27779797051, -21961.77356979532, -31778.77149328846, -49835.18121661917, -47631.63448949272, -187500.02235174447, -32727.6253971607, -26109.20680871091, 0.636, -0.6880000000000001, 0.42, 192.0, 0.0, 0.0, 0.0, 0.0, 0.0, 0.0, 0.0, 0.0, 0.0, 1.6634989126718361E9, 0.0, 2022-09-18 16:01:52.671
226.0, -48786.12444235378, -23199.523770752403, -31363.878412709048, -49444.31626132921, -47725.981202838564, -187500.02235174447, -32381.799206948188, -25747.3767694684, 0.636, -0.6880000000000001, 0.42, 192.0, 0.0, 0.0, 0.0, 0.0, 0.0, 0.0, 0.0, 0.0, 0.0, 1.6634989126759093E9, 0.0, 2022-09-18 16:01:52.675
227.0, -48608.94216405656, -23163.53746217936, -31360.033912662737, -49444.11509562911, -47387.30757085176, -187500.02235174447, -32368.298753297182, -25731.752900094143, 0.636, -0.6880000000000001, 0.42, 192.0, 0.0, 0.0, 0.0, 0.0, 0.0, 0.0, 0.0, 0.0, 0.0, 1.6634989126798694E9, 0.0, 2022-09-18 16:01:52.679
228.0, -48576.33096889627, -22618.80309805907, -31501.542806809284, -49567.74259421141, -47433.1957022185, -187500.02235174447, -32475.542423193747, -25846.48440438323, 0.636, -0.6880000000000001, 0.42, 192.0, 0.0, 0.0, 0.0, 0.0, 0.0, 0.0, 0.0, 0.0, 0.0, 1.6634989126838543E9, 0.0, 2022-09-18 16:01:52.683
229.0, -48643.52031272892, -21759.803206897166, -31823.922017088178, -49870.40756588073, -47646.83367572232, -187500.02235174447, -32757.77790043091, -26129.569247909698, 0.636, -0.6880000000000001, 0.42, 192.0, 0.0, 0.0, 0.0, 0.0, 0.0, 0.0, 0.0, 0.0, 0.0, 1.663498912687891E9, 0.0, 2022-09-18 16:01:52.687
230.0, -48868.22239973812, -21993.669509133044, -31774.90464149769, -49831.1131991283, -47622.42557077713, -187500.02235174447, -32733.638016419176, -26108.379794166067, 0.632, -0.6880000000000001, 0.41200000000000003, 192.0, 19.0, 192.0, 234.0, 128.0, 12.0, 224.0, 0.0, 0.0, 0.0, 1.6634989126918812E9, 0.0, 2022-09-18 16:01:52.691
231.0, -48795.86980293629, -23238.192288660084, -31367.991133688825, -49458.66608126952, -47720.8626533583, -187500.02235174447, -32391.902195441988, -25762.017162086628, 0.632, -0.6880000000000001, 0.41200000000000003, 192.0, 0.0, 0.0, 0.0, 0.0, 0.0, 0.0, 0.0, 0.0, 0.0, 1.6634989126959872E9, 0.0, 2022-09-18 16:01:52.695
232.0, -48612.2725739804, -23163.35864822372, -31359.363360329076, -49457.28027311328, -47384.37949232811, -187500.02235174447, -32343.085985551596, -25742.638199643876, 0.632, -0.6880000000000001, 0.41200000000000003, 192.0, 0.0, 0.0, 0.0, 0.0, 0.0, 0.0, 0.0, 0.0, 0.0, 1.663498912698978E9, 0.0, 2022-09-18 16:01:52.698
233.0, -48562.07055593378, -22591.89159773488, -31477.335867564187, -49567.36261455568, -47428.07715273824, -187500.02235174447, -32447.826260069167, -25844.293933426612, 0.632, -0.6880000000000001, 0.41200000000000003, 192.0, 0.0, 0.0, 0.0, 0.0, 0.0, 0.0, 0.0, 0.0, 0.0, 1.6634989127039049E9, 0.0, 2022-09-18 16:01:52.703
234.0, -48640.838103394286, -21739.12784327601, -31798.396324920217, -49871.927484503685, -47645.13494314372, -187500.02235174447, -32722.842123847262, -26131.55855316622, 0.632, -0.6880000000000001, 0.41200000000000003, 192.0, 0.0, 0.0, 0.0, 0.0, 0.0, 0.0, 0.0, 0.0, 0.0, 1.663498912707887E9, 0.0, 2022-09-18 16:01:52.707
235.0, -48863.707347358155, -22045.16792835807, -31740.840582947803, -49815.869309409776, -47643.03387916493, -187500.02235174447, -32697.271728190393, -26092.39829688052, 0.632, -0.6880000000000001, 0.41200000000000003, 192.0, 0.0, 0.0, 0.0, 0.0, 0.0, 0.0, 0.0, 0.0, 0.0, 1.6634989127120194E9, 0.0, 2022-09-18 16:01:52.712
236.0, -48784.068081863894, -23265.550823873382, -31348.72392996835, -49458.19669463595, -47730.58566219636, -187500.02235174447, -32377.105340612572, -25757.90444110685, 0.632, -0.6880000000000001, 0.41200000000000003, 192.0, 0.0, 0.0, 0.0, 0.0, 0.0, 0.0, 0.0, 0.0, 0.0, 1.6634989127159188E9, 0.0, 2022-09-18 16:01:52.715
237.0, -48611.959649558026, -23154.82028184179, -31374.07080818067, -49478.98381697939, -47379.32799808121, -187500.02235174447, -32371.78562543221, -25761.212499286237, 0.632, -0.6880000000000001, 0.41200000000000003, 192.0, 0.0, 0.0, 0.0, 0.0, 0.0, 0.0, 0.0, 0.0, 0.0, 1.6634989127199278E9, 0.0, 2022-09-18 16:01:52.719
238.0, -48580.17546894258, -22582.99560344167, -31522.62050183064, -49615.75414130141, -47452.239388494425, -187500.02235174447, -32476.66001041651, -25889.176236292868, 0.632, -0.6880000000000001, 0.41200000000000003, 192.0, 0.0, 0.0, 0.0, 0.0, 0.0, 0.0, 0.0, 0.0, 0.0, 1.663498912723926E9, 0.0, 2022-09-18 16:01:52.723
239.0, -48636.703030670054, -21700.25815966823, -31807.091153513335, -49898.9283918057, -47635.97072791705, -187500.02235174447, -32722.350385469246, -26152.74800690985, 0.632, -0.6880000000000001, 0.41200000000000003, 192.0, 0.0, 0.0, 0.0, 0.0, 0.0, 0.0, 0.0, 0.0, 0.0, 1.6634989127269335E9, 0.0, 2022-09-18 16:01:52.726
240.0, -48843.94840525966, -22057.282573852848, -31702.999079584966, -49800.558364457895, -47614.17777707312, -187500.02235174447, -32648.991960166928, -26076.819130995173, 0.644, -0.6920000000000001, 0.41400000000000003, 192.0, 20.0, 32.0, 234.0, 96.0, 12.0, 240.0, 0.0, 0.0, 0.0, 1.6634989127319572E9, 0.0, 2022-09-18 16:01:52.731
241.0, -48754.51907569398, -23259.918184270646, -31338.330368796633, -49447.33374683068, -47682.752929062, -187500.02235174447, -32344.740014641287, -25747.33206597949, 0.644, -0.6920000000000001, 0.41400000000000003, 192.0, 0.0, 0.0, 0.0, 0.0, 0.0, 0.0, 0.0, 0.0, 0.0, 1.6634989127359903E9, 0.0, 2022-09-18 16:01:52.735
242.0, -48591.77602431489, -23113.20133366601, -31381.26806989528, -49478.31326464573, -47372.890695678085, -187500.02235174447, -32356.631142691513, -25759.022028329615, 0.644, -0.6920000000000001, 0.41400000000000003, 192.0, 0.0, 0.0, 0.0, 0.0, 0.0, 0.0, 0.0, 0.0, 0.0, 1.6634989127399447E9, 0.0, 2022-09-18 16:01:52.739
243.0, -48565.73624202445, -22536.1686988078, -31530.398908901087, -49628.58404261876, -47463.61642642217, -187500.02235174447, -32467.47344344538, -25903.235483555258, 0.644, -0.6920000000000001, 0.41400000000000003, 192.0, 0.0, 0.0, 0.0, 0.0, 0.0, 0.0, 0.0, 0.0, 0.0, 1.6634989127439728E9, 0.0, 2022-09-18 16:01:52.743
244.0, -48648.84002790928, -21678.889891968953, -31823.027947309965, -49909.478415188605, -47639.81522796336, -187500.02235174447, -32719.19878950105, -26168.84126291767, 0.644, -0.6920000000000001, 0.41400000000000003, 192.0, 0.0, 0.0, 0.0, 0.0, 0.0, 0.0, 0.0, 0.0, 0.0, 1.66349891274797E9, 0.0, 2022-09-18 16:01:52.747
245.0, -48870.6363881393, -22132.56324917832, -31713.19147505659, -49803.46409123708, -47630.38279180322, -187500.02235174447, -32667.722722020477, -26088.754962534305, 0.644, -0.6920000000000001, 0.41400000000000003, 192.0, 0.0, 0.0, 0.0, 0.0, 0.0, 0.0, 0.0, 0.0, 0.0, 1.6634989127520208E9, 0.0, 2022-09-18 16:01:52.752
246.0, -48748.5064564355, -23288.237844495517, -31351.406139302988, -49443.35513631763, -47657.85308573879, -187500.02235174447, -32362.844927650087, -25751.847118359463, 0.644, -0.6920000000000001, 0.41400000000000003, 192.0, 0.0, 0.0, 0.0, 0.0, 0.0, 0.0, 0.0, 0.0, 0.0, 1.6634989127549968E9, 0.0, 2022-09-18 16:01:52.754
247.0, -48590.39021615866, -23096.303414857797, -31389.985250232847, -49485.35406414915, -47337.50788420533, -187500.02235174447, -32370.73509344281, -25777.350458782967, 0.644, -0.6920000000000001, 0.41400000000000003, 192.0, 0.0, 0.0, 0.0, 0.0, 0.0, 0.0, 0.0, 0.0, 0.0, 1.663498912758978E9, 0.0, 2022-09-18 16:01:52.758
248.0, -48568.10552693671, -22511.872352584884, -31550.694292866505, -49630.618051364196, -47444.84096107972, -187500.02235174447, -32500.24110081686, -25908.17521907988, 0.644, -0.6920000000000001, 0.41400000000000003, 192.0, 0.0, 0.0, 0.0, 0.0, 0.0, 0.0, 0.0, 0.0, 0.0, 1.6634989127640274E9, 0.0, 2022-09-18 16:01:52.764
249.0, -48625.035420064385, -21644.915240396887, -31818.311729229896, -49887.9760370226, -47623.05141962188, -187500.02235174447, -32733.660368163633, -26144.74608239485, 0.644, -0.6920000000000001, 0.41400000000000003, 192.0, 0.0, 0.0, 0.0, 0.0, 0.0, 0.0, 0.0, 0.0, 0.0, 1.6634989127680552E9, 0.0, 2022-09-18 16:01:52.768
250.0, -48832.12433244281, -22153.61859245522, -31689.498625933964, -49759.7440790825, -47626.47123652354, -187500.02235174447, -32663.878221974162, -26038.754110187783, 0.636, -0.7000000000000001, 0.40800000000000003, 192.0, 19.0, 224.0, 234.0, 32.0, 12.0, 192.0, 0.0, 0.0, 0.0, 1.6634989127720315E9, 0.0, 2022-09-18 16:01:52.772
251.0, -48718.912746776674, -23281.398210692194, -31349.64035149102, -49433.09568561264, -47644.062059409865, -187500.02235174447, -32393.623279765045, -25732.691673361263, 0.636, -0.7000000000000001, 0.40800000000000003, 192.0, 0.0, 0.0, 0.0, 0.0, 0.0, 0.0, 0.0, 0.0, 0.0, 1.6634989127760563E9, 0.0, 2022-09-18 16:01:52.776
252.0, -48572.262951405406, -23069.61543197816, -31402.725744572374, -49482.64950307006, -47349.42136400001, -187500.02235174447, -32397.55718678918, -25766.219290044224, 0.636, -0.7000000000000001, 0.40800000000000003, 192.0, 0.0, 0.0, 0.0, 0.0, 0.0, 0.0, 0.0, 0.0, 0.0, 1.6634989127790718E9, 0.0, 2022-09-18 16:01:52.779
253.0, -48553.17456164057, -22480.93753825874, -31543.47467940744, -49623.264327438395, -47499.558031506305, -187500.02235174447, -32526.01266217383, -25896.976995107772, 0.636, -0.7000000000000001, 0.40800000000000003, 192.0, 0.0, 0.0, 0.0, 0.0, 0.0, 0.0, 0.0, 0.0, 0.0, 1.6634989127830875E9, 0.0, 2022-09-18 16:01:52.783
254.0, -48651.05285061036, -21643.864708407487, -31838.249485284032, -49902.527022663, -47659.59652180631, -187500.02235174447, -32783.080075154314, -26157.441873245465, 0.636, -0.7000000000000001, 0.40800000000000003, 192.0, 0.0, 0.0, 0.0, 0.0, 0.0, 0.0, 0.0, 0.0, 0.0, 1.6634989127871308E9, 0.0, 2022-09-18 16:01:52.787
255.0, -48858.6335013668, -22233.05669224938, -31675.79700658286, -49755.83252380283, -47667.82196376586, -187500.02235174447, -32664.369960352178, -26036.027197364238, 0.636, -0.7000000000000001, 0.40800000000000003, 192.0, 0.0, 0.0, 0.0, 0.0, 0.0, 0.0, 0.0, 0.0, 0.0, 1.6634989127921128E9, 0.0, 2022-09-18 16:01:52.792
0.0, -48715.917613019665, -23309.248484283507, -31321.81242964416, -49420.39989476203, -47667.01730096547, -187500.02235174447, -32365.683599195912, -25719.682958088277, 0.636, -0.7000000000000001, 0.40800000000000003, 192.0, 0.0, 0.0, 0.0, 0.0, 0.0, 0.0, 0.0, 0.0, 0.0, 1.6634989127961254E9, 0.0, 2022-09-18 16:01:52.796
1.0, -48566.026814702374, -23049.9906003464, -31384.889052497037, -49473.105308187645, -47359.85962866064, -187500.02235174447, -32398.004221678286, -25755.825728872507, 0.636, -0.7000000000000001, 0.40800000000000003, 192.0, 0.0, 0.0, 0.0, 0.0, 0.0, 0.0, 0.0, 0.0, 0.0, 1.6634989128000915E9, 0.0, 2022-09-18 16:01:52.800
2.0, -48542.110448135194, -22443.140738384813, -31557.95860981448, -49627.332344929266, -47517.372371837184, -187500.02235174447, -32533.232275632894, -25903.88368414446, 0.636, -0.7000000000000001, 0.40800000000000003, 192.0, 0.0, 0.0, 0.0, 0.0, 0.0, 0.0, 0.0, 0.0, 0.0, 1.6634989128042295E9, 0.0, 2022-09-18 16:01:52.804
3.0, -48629.5281206999, -21609.08539403503, -31825.508990944505, -49888.95951377863, -47652.175742647145, -187500.02235174447, -32764.796348189873, -26148.791748141262, 0.636, -0.7000000000000001, 0.40800000000000003, 192.0, 0.0, 0.0, 0.0, 0.0, 0.0, 0.0, 0.0, 0.0, 0.0, 1.6634989128071256E9, 0.0, 2022-09-18 16:01:52.807
4.0, -48823.60831780533, -22252.59211690332, -31629.372433349185, -49709.519709291424, -47650.27584436844, -187500.02235174447, -32629.54594249081, -25993.156551498956, 0.638, -0.706, 0.40800000000000003, 192.0, 19.0, 240.0, 233.0, 240.0, 12.0, 192.0, 0.0, 0.0, 0.0, 1.6634989128111007E9, 0.0, 2022-09-18 16:01:52.811
5.0, -48691.53185981892, -23314.85877214179, -31318.280854020224, -49411.25803127981, -47671.264132411976, -187500.02235174447, -32359.44746249288, -25709.84819052794, 0.638, -0.706, 0.40800000000000003, 192.0, 0.0, 0.0, 0.0, 0.0, 0.0, 0.0, 0.0, 0.0, 0.0, 1.6634989128151639E9, 0.0, 2022-09-18 16:01:52.815
6.0, -48573.24642816144, -23036.46779495094, -31401.563453860697, -49495.524107876314, -47368.956788653944, -187500.02235174447, -32416.37735562055, -25775.964650626738, 0.638, -0.706, 0.40800000000000003, 192.0, 0.0, 0.0, 0.0, 0.0, 0.0, 0.0, 0.0, 0.0, 0.0, 1.663498912820093E9, 0.0, 2022-09-18 16:01:52.820
7.0, -48560.28241637736, -22424.1417555978, -31579.103360069203, -49656.34490923225, -47542.54043609386, -187500.02235174447, -32563.027150991817, -25927.80005071164, 0.638, -0.706, 0.40800000000000003, 192.0, 0.0, 0.0, 0.0, 0.0, 0.0, 0.0, 0.0, 0.0, 0.0, 1.6634989128242075E9, 0.0, 2022-09-18 16:01:52.824
8.0, -48648.504751742454, -21593.50622814968, -31833.10858405931, -49905.94683956466, -47642.72095474255, -187500.02235174447, -32770.83131919281, -26164.102693093148, 0.638, -0.706, 0.40800000000000003, 192.0, 0.0, 0.0, 0.0, 0.0, 0.0, 0.0, 0.0, 0.0, 0.0, 1.66349891282813E9, 0.0, 2022-09-18 16:01:52.828
9.0, -48838.09224821237, -22312.628902510274, -31613.05565989681, -49711.777235481415, -47668.91719924417, -187500.02235174447, -32622.79571566531, -26000.778496358216, 0.638, -0.706, 0.40800000000000003, 192.0, 0.0, 0.0, 0.0, 0.0, 0.0, 0.0, 0.0, 0.0, 0.0, 1.663498912831133E9, 0.0, 2022-09-18 16:01:52.831
10.0, -48696.31513313236, -23324.984112380043, -31303.707516635364, -49418.67881043897, -47678.327283659855, -187500.02235174447, -32362.97903811682, -25722.052243000537, 0.638, -0.706, 0.40800000000000003, 192.0, 0.0, 0.0, 0.0, 0.0, 0.0, 0.0, 0.0, 0.0, 0.0, 1.6634989128351865E9, 0.0, 2022-09-18 16:01:52.835
11.0, -48583.23765793296, -23022.185030244, -31398.098933470123, -49494.071244486724, -47379.35034982567, -187500.02235174447, -32429.833105782644, -25781.44082801829, 0.638, -0.706, 0.40800000000000003, 192.0, 0.0, 0.0, 0.0, 0.0, 0.0, 0.0, 0.0, 0.0, 0.0, 1.6634989128391569E9, 0.0, 2022-09-18 16:01:52.839
12.0, -48554.068631418784, -22397.364365740345, -31568.463929708476, -49648.097115528246, -47610.73560842701, -187500.02235174447, -32594.900738585085, -25929.38702456797, 0.638, -0.706, 0.40800000000000003, 192.0, 0.0, 0.0, 0.0, 0.0, 0.0, 0.0, 0.0, 0.0, 0.0, 1.6634989128431935E9, 0.0, 2022-09-18 16:01:52.843
13.0, -48656.10434485726, -21594.55676013908, -31818.57995016336, -49903.26463023003, -47718.515720190495, -187500.02235174447, -32805.38711612071, -26173.490425764376, 0.638, -0.706, 0.40800000000000003, 192.0, 0.0, 0.0, 0.0, 0.0, 0.0, 0.0, 0.0, 0.0, 0.0, 1.6634989128471909E9, 0.0, 2022-09-18 16:01:52.847
14.0, -48852.57617861941, -22382.008717299548, -31605.612528993195, -49699.50612777545, -47779.24540987556, -187500.02235174447, -32658.06676841578, -26003.639519648495, 0.636, -0.6900000000000001, 0.41400000000000003, 192.0, 19.0, 224.0, 234.0, 112.0, 12.0, 240.0, 0.0, 0.0, 0.0, 1.6634989128522148E9, 0.0, 2022-09-18 16:01:52.852
15.0, -48690.3919208517, -23327.867487414776, -31324.785211656716, -49416.77891216027, -47737.13472332177, -187500.02235174447, -32417.56199807668, -25731.059996016025, 0.636, -0.6900000000000001, 0.41400000000000003, 192.0, 0.0, 0.0, 0.0, 0.0, 0.0, 0.0, 0.0, 0.0, 0.0, 1.6634989128572645E9, 0.0, 2022-09-18 16:01:52.857
16.0, -48565.892704235644, -22991.093753706667, -31399.37298290408, -49492.193697952476, -47400.495100080385, -187500.02235174447, -32469.17217602398, -25790.24741533368, 0.636, -0.6900000000000001, 0.41400000000000003, 192.0, 0.0, 0.0, 0.0, 0.0, 0.0, 0.0, 0.0, 0.0, 0.0, 1.663498912860286E9, 0.0, 2022-09-18 16:01:52.860
17.0, -48537.39423005513, -22355.544251864463, -31565.982886073936, -49654.26619699791, -47624.32546905583, -187500.02235174447, -32625.388518022126, -25944.98854219777, 0.636, -0.6900000000000001, 0.41400000000000003, 192.0, 0.0, 0.0, 0.0, 0.0, 0.0, 0.0, 0.0, 0.0, 0.0, 1.6634989128642344E9, 0.0, 2022-09-18 16:01:52.864
18.0, -48676.04210091139, -21600.65878637538, -31859.371883794294, -49933.953575367166, -47692.34182743333, -187500.02235174447, -32883.774683925476, -26208.113277925644, 0.636, -0.6900000000000001, 0.41400000000000003, 192.0, 0.0, 0.0, 0.0, 0.0, 0.0, 0.0, 0.0, 0.0, 0.0, 1.6634989128673365E9, 0.0, 2022-09-18 16:01:52.867
19.0, -48813.46062582262, -22420.274903807032, -31572.353133243698, -49666.71611865951, -47698.75677809201, -187500.02235174447, -32655.339855592236, -25971.65417333295, 0.636, -0.6900000000000001, 0.41400000000000003, 192.0, 0.0, 0.0, 0.0, 0.0, 0.0, 0.0, 0.0, 0.0, 0.0, 1.6634989128712828E9, 0.0, 2022-09-18 16:01:52.871
20.0, -48640.50282722746, -23311.170734306663, -31299.460685188853, -49402.38438873105, -47602.9348496121, -187500.02235174447, -32427.061489470187, -25713.51387661861, 0.636, -0.6900000000000001, 0.41400000000000003, 192.0, 0.0, 0.0, 0.0, 0.0, 0.0, 0.0, 0.0, 0.0, 0.0, 1.6634989128761947E9, 0.0, 2022-09-18 16:01:52.876
21.0, -48543.94329118053, -22961.991782425855, -31400.244700937834, -49503.28016320231, -47212.11459781106, -187500.02235174447, -32503.72797295189, -25801.646805005887, 0.636, -0.6900000000000001, 0.41400000000000003, 192.0, 0.0, 0.0, 0.0, 0.0, 0.0, 0.0, 0.0, 0.0, 0.0, 1.6634989128803422E9, 0.0, 2022-09-18 16:01:52.880
22.0, -48520.13868333563, -22315.378167078277, -31577.11405481268, -49671.63350243968, -47386.97229468493, -187500.02235174447, -32642.912285675084, -25962.400551128456, 0.636, -0.6900000000000001, 0.41400000000000003, 192.0, 0.0, 0.0, 0.0, 0.0, 0.0, 0.0, 0.0, 0.0, 0.0, 1.66349891288438E9, 0.0, 2022-09-18 16:01:52.884
23.0, -48640.81575164983, -21575.31190816306, -31834.941427104644, -49914.373447224316, -47400.87507973613, -187500.02235174447, -32864.820404627375, -26189.181350372, 0.636, -0.6900000000000001, 0.41400000000000003, 192.0, 0.0, 0.0, 0.0, 0.0, 0.0, 0.0, 0.0, 0.0, 0.0, 1.663498912887251E9, 0.0, 2022-09-18 16:01:52.887
24.0, -48809.34790484285, -22465.11250318438, -31582.00908684839, -49668.45955472703, -47400.204527402464, -187500.02235174447, -32675.54583257983, -25971.676525077408, 0.626, -0.676, 0.41200000000000003, 192.0, 19.0, 144.0, 234.0, 224.0, 12.0, 224.0, 0.0, 0.0, 0.0, 1.66349891289131E9, 0.0, 2022-09-18 16:01:52.891
25.0, -48645.934301130095, -23323.91122864619, -31318.683185420417, -49424.78083667527, -47297.27474418578, -187500.02235174447, -32453.302437460716, -25732.557562894533, 0.626, -0.676, 0.41200000000000003, 192.0, 0.0, 0.0, 0.0, 0.0, 0.0, 0.0, 0.0, 0.0, 0.0, 1.6634989128954372E9, 0.0, 2022-09-18 16:01:52.895
26.0, -48533.03563988634, -22949.474805530885, -31406.12320972958, -49505.69415160348, -46976.92954265232, -187500.02235174447, -32510.14292361056, -25795.76829621414, 0.626, -0.676, 0.41200000000000003, 192.0, 0.0, 0.0, 0.0, 0.0, 0.0, 0.0, 0.0, 0.0, 0.0, 1.6634989128992932E9, 0.0, 2022-09-18 16:01:52.899
27.0, -48509.968639608465, -22286.27619579747, -31596.336555044243, -49676.21561005302, -47235.852150422594, -187500.02235174447, -32676.775178524877, -25956.745559781262, 0.626, -0.676, 0.41200000000000003, 192.0, 0.0, 0.0, 0.0, 0.0, 0.0, 0.0, 0.0, 0.0, 0.0, 1.6634989129034507E9, 0.0, 2022-09-18 16:01:52.903
28.0, -48650.65051921017, -21602.111649764975, -31843.1668690642, -49920.1849007827, -47341.93352960748, -187500.02235174447, -32902.46074229011, -26185.985050914893, 0.626, -0.676, 0.41200000000000003, 192.0, 0.0, 0.0, 0.0, 0.0, 0.0, 0.0, 0.0, 0.0, 0.0, 1.6634989129083896E9, 0.0, 2022-09-18 16:01:52.908
29.0, -48798.46260529311, -22535.900477874337, -31554.136461512622, -49657.730717388484, -47384.40184407256, -187500.02235174447, -32661.017198683883, -25956.544394081164, 0.626, -0.676, 0.41200000000000003, 192.0, 0.0, 0.0, 0.0, 0.0, 0.0, 0.0, 0.0, 0.0, 0.0, 1.6634989129124513E9, 0.0, 2022-09-18 16:01:52.912
30.0, -48629.7292864, -23334.57301075137, -31312.692917906395, -49417.13654007156, -47312.85391007113, -187500.02235174447, -32451.670760115478, -25721.225228455693, 0.626, -0.676, 0.41200000000000003, 192.0, 0.0, 0.0, 0.0, 0.0, 0.0, 0.0, 0.0, 0.0, 0.0, 1.6634989129153075E9, 0.0, 2022-09-18 16:01:52.915
31.0, -48534.846131187216, -22950.25711658682, -31431.760660619817, -49516.66885813104, -47087.4142154949, -187500.02235174447, -32532.606426788145, -25806.184209130315, 0.626, -0.676, 0.41200000000000003, 192.0, 0.0, 0.0, 0.0, 0.0, 0.0, 0.0, 0.0, 0.0, 0.0, 1.663498912919345E9, 0.0, 2022-09-18 16:01:52.919
32.0, -48534.9578899095, -22304.246998339535, -31622.55515129032, -49702.70242723256, -47412.27446940833, -187500.02235174447, -32692.17553045458, -25984.260557205744, 0.626, -0.676, 0.41200000000000003, 192.0, 0.0, 0.0, 0.0, 0.0, 0.0, 0.0, 0.0, 0.0, 0.0, 1.6634989129233236E9, 0.0, 2022-09-18 16:01:52.923
33.0, -48684.40165333768, -21643.14945258492, -31868.0220088985, -49937.865130646846, -47536.55016857984, -187500.02235174447, -32933.887294994274, -26210.013176204346, 0.626, -0.676, 0.41200000000000003, 192.0, 0.0, 0.0, 0.0, 0.0, 0.0, 0.0, 0.0, 0.0, 0.0, 1.6634989129274302E9, 0.0, 2022-09-18 16:01:52.927
34.0, -48806.91156469722, -22551.99373388216, -31575.68354316754, -49652.18748476356, -47473.33943526023, -187500.02235174447, -32702.926719537583, -25956.164414425424, 0.626, -0.676, 0.41200000000000003, 192.0, 0.0, 0.0, 0.0, 0.0, 0.0, 0.0, 0.0, 0.0, 0.0, 1.6634989129314015E9, 0.0, 2022-09-18 16:01:52.931
35.0, -48597.833347062275, -23266.75781807397, -31319.085516820614, -49398.74105438484, -47301.07454074318, -187500.02235174447, -32461.57258290918, -25710.09405971695, 0.628, -0.6900000000000001, 0.402, 192.0, 19.0, 160.0, 234.0, 112.0, 12.0, 144.0, 0.0, 0.0, 0.0, 1.663498912936426E9, 0.0, 2022-09-18 16:01:52.936
36.0, -48525.480750260445, -22906.559456176696, -31410.772372576284, -49499.50271838936, -47078.89820085743, -187500.02235174447, -32534.34986285566, -25797.39997355938, 0.628, -0.6900000000000001, 0.402, 192.0, 0.0, 0.0, 0.0, 0.0, 0.0, 0.0, 0.0, 0.0, 0.0, 1.663498912940425E9, 0.0, 2022-09-18 16:01:52.940
37.0, -48519.6022414687, -22308.762050719506, -31590.592156719227, -49655.696708643045, -47438.046030765305, -187500.02235174447, -32681.84902451623, -25944.22858288629, 0.628, -0.6900000000000001, 0.402, 192.0, 0.0, 0.0, 0.0, 0.0, 0.0, 0.0, 0.0, 0.0, 0.0, 1.663498912943348E9, 0.0, 2022-09-18 16:01:52.943
38.0, -48645.35315577426, -21710.897590028955, -31793.43423765114, -49855.923635473686, -47640.44107680811, -187500.02235174447, -32867.256744773, -26137.660579402516, 0.628, -0.6900000000000001, 0.402, 192.0, 0.0, 0.0, 0.0, 0.0, 0.0, 0.0, 0.0, 0.0, 0.0, 1.6634989129473543E9, 0.0, 2022-09-18 16:01:52.947
39.0, -48787.912581910205, -22512.58760840745, -31583.149025815612, -49668.839534382765, -47420.81283579026, -187500.02235174447, -32707.061792261815, -25979.007897258747, 0.628, -0.6900000000000001, 0.402, 192.0, 0.0, 0.0, 0.0, 0.0, 0.0, 0.0, 0.0, 0.0, 0.0, 1.6634989129515035E9, 0.0, 2022-09-18 16:01:52.951
40.0, -48662.653405982666, -23169.505377948928, -31397.67425032547, -49489.01975023982, -47036.139313714426, -187500.02235174447, -32548.09618569567, -25798.87518869343, 0.628, -0.6900000000000001, 0.402, 192.0, 0.0, 0.0, 0.0, 0.0, 0.0, 0.0, 0.0, 0.0, 0.0, 1.6634989129554384E9, 0.0, 2022-09-18 16:01:52.955
41.0, -48567.12205018068, -22874.70822032788, -31442.46714621391, -49525.07311404623, -46839.488665996636, -187500.02235174447, -32571.431406907013, -25822.903313982883, 0.628, -0.6900000000000001, 0.402, 192.0, 0.0, 0.0, 0.0, 0.0, 0.0, 0.0, 0.0, 0.0, 0.0, 1.66349891295947E9, 0.0, 2022-09-18 16:01:52.959
42.0, -48537.21541609948, -22416.363348527357, -31512.696327292484, -49589.31202761079, -47488.13629008964, -187500.02235174447, -32649.617809011677, -25885.331736246557, 0.628, -0.6900000000000001, 0.402, 192.0, 0.0, 0.0, 0.0, 0.0, 0.0, 0.0, 0.0, 0.0, 0.0, 1.663498912963444E9, 0.0, 2022-09-18 16:01:52.963
43.0, -48589.07146323579, -22128.56228692082, -31567.458101207987, -49645.10198177123, -48410.57043201571, -187500.02235174447, -32713.297928964847, -25939.579420039587, 0.628, -0.6900000000000001, 0.402, 192.0, 0.0, 0.0, 0.0, 0.0, 0.0, 0.0, 0.0, 0.0, 0.0, 1.6634989129674869E9, 0.0, 2022-09-18 16:01:52.967
44.0, -48665.20150485057, -22653.20243277579, -31481.649754244063, -49592.642437534625, -48323.309221662195, -187500.02235174447, -32609.384668992123, -25898.74278291974, 0.628, -0.6900000000000001, 0.402, 192.0, 0.0, 0.0, 0.0, 0.0, 0.0, 0.0, 0.0, 0.0, 0.0, 1.6634989129704912E9, 0.0, 2022-09-18 16:01:52.970
45.0, -48629.796341633366, -22880.85495005309, -31480.46511178793, -49595.07877768025, -47427.987745760416, -187500.02235174447, -32569.039770250296, -25894.630061939963, 0.628, -0.6980000000000001, 0.40800000000000003, 192.0, 19.0, 160.0, 234.0, 48.0, 12.0, 192.0, 0.0, 0.0, 0.0, 1.663498912975428E9, 0.0, 2022-09-18 16:01:52.975
46.0, -48609.99269604596, -22640.99838030319, -31539.406661916575, -49631.936804287056, -47010.50186282419, -187500.02235174447, -32638.151364106106, -25926.481297788778, 0.628, -0.6980000000000001, 0.40800000000000003, 192.0, 0.0, 0.0, 0.0, 0.0, 0.0, 0.0, 0.0, 0.0, 0.0, 1.663498912979497E9, 0.0, 2022-09-18 16:01:52.979
47.0, -48583.88585852216, -22343.384902880778, -31586.747656672916, -49652.433353952576, -47702.66833337168, -187500.02235174447, -32703.99960327144, -25946.910792220926, 0.628, -0.6980000000000001, 0.40800000000000003, 192.0, 0.0, 0.0, 0.0, 0.0, 0.0, 0.0, 0.0, 0.0, 0.0, 1.6634989129834585E9, 0.0, 2022-09-18 16:01:52.983
48.0, -48638.938205115584, -22160.458226258546, -31619.001223921925, -49691.146575349165, -48614.15012051465, -187500.02235174447, -32755.52037424092, -25981.310126937646, 0.628, -0.6980000000000001, 0.40800000000000003, 192.0, 0.0, 0.0, 0.0, 0.0, 0.0, 0.0, 0.0, 0.0, 0.0, 1.663498912987479E9, 0.0, 2022-09-18 16:01:52.987
49.0, -48663.34631006078, -22657.829243878037, -31492.110370649145, -49601.78430101684, -48406.211841846925, -187500.02235174447, -32598.477017697936, -25906.14121033445, 0.628, -0.6980000000000001, 0.40800000000000003, 192.0, 0.0, 0.0, 0.0, 0.0, 0.0, 0.0, 0.0, 0.0, 0.0, 1.663498912991496E9, 0.0, 2022-09-18 16:01:52.991
50.0, -48627.09178055427, -22841.89585946749, -31496.536016051297, -49607.260478408396, -47419.35997240066, -187500.02235174447, -32595.236014751914, -25905.828285912074, 0.628, -0.6980000000000001, 0.40800000000000003, 192.0, 0.0, 0.0, 0.0, 0.0, 0.0, 0.0, 0.0, 0.0, 0.0, 1.6634989129955745E9, 0.0, 2022-09-18 16:01:52.995
51.0, -48616.42999844909, -22631.677702865327, -31548.414414932064, -49635.11075199971, -47012.96055471427, -187500.02235174447, -32631.579951236243, -25929.476431545787, 0.628, -0.6980000000000001, 0.40800000000000003, 192.0, 0.0, 0.0, 0.0, 0.0, 0.0, 0.0, 0.0, 0.0, 0.0, 1.663498912998512E9, 0.0, 2022-09-18 16:01:52.998
52.0, -48588.31150392431, -22349.33046690589, -31573.515423955374, -49641.05631602482, -47716.43700795615, -187500.02235174447, -32681.670210560587, -25932.02453041369, 0.628, -0.6980000000000001, 0.40800000000000003, 192.0, 0.0, 0.0, 0.0, 0.0, 0.0, 0.0, 0.0, 0.0, 0.0, 1.663498913003463E9, 0.0, 2022-09-18 16:01:53.003
53.0, -48623.627260163696, -22194.410526086158, -31586.83706365074, -49657.01546156591, -48592.178355715085, -187500.02235174447, -32719.19878950105, -25946.731978265285, 0.628, -0.6980000000000001, 0.40800000000000003, 192.0, 0.0, 0.0, 0.0, 0.0, 0.0, 0.0, 0.0, 0.0, 0.0, 1.6634989130074797E9, 0.0, 2022-09-18 16:01:53.007
54.0, -48655.992586134984, -22679.890415655427, -31495.217263128434, -49593.29063812383, -48341.414134670995, -187500.02235174447, -32609.83170388123, -25895.613538695998, 0.628, -0.6980000000000001, 0.40800000000000003, 192.0, 0.0, 0.0, 0.0, 0.0, 0.0, 0.0, 0.0, 0.0, 0.0, 1.6634989130114748E9, 0.0, 2022-09-18 16:01:53.011
55.0, -48633.9314143576, -22819.27589407872, -31526.174429199033, -49616.44704537953, -47311.89278505955, -187500.02235174447, -32629.99297737992, -25906.54354173464, 0.628, -0.676, 0.40800000000000003, 192.0, 19.0, 160.0, 234.0, 224.0, 12.0, 192.0, 0.0, 0.0, 0.0, 1.663498913015493E9, 0.0, 2022-09-18 16:01:53.015
56.0, -48613.41251294762, -22609.258903176655, -31574.945935600514, -49635.87071131119, -46939.937405578785, -187500.02235174447, -32684.79945478433, -25920.89336167495, 0.628, -0.676, 0.40800000000000003, 192.0, 0.0, 0.0, 0.0, 0.0, 0.0, 0.0, 0.0, 0.0, 0.0, 1.6634989130195398E9, 0.0, 2022-09-18 16:01:53.019
57.0, -48573.38053862817, -22332.007864953026, -31580.086836825234, -49637.54709214534, -47715.855862600314, -187500.02235174447, -32710.034574274374, -25922.860315187016, 0.628, -0.676, 0.40800000000000003, 192.0, 0.0, 0.0, 0.0, 0.0, 0.0, 0.0, 0.0, 0.0, 0.0, 1.6634989130235562E9, 0.0, 2022-09-18 16:01:53.023
58.0, -48608.15985300062, -22201.987767456507, -31585.33949677223, -49653.41683070861, -48601.78960583086, -187500.02235174447, -32721.210446502027, -25939.4229578284, 0.628, -0.676, 0.40800000000000003, 192.0, 0.0, 0.0, 0.0, 0.0, 0.0, 0.0, 0.0, 0.0, 0.0, 1.6634989130265808E9, 0.0, 2022-09-18 16:01:53.026
59.0, -48646.76131567494, -22691.982709405747, -31520.452382618474, -49607.327533641765, -48324.002125740306, -187500.02235174447, -32629.590645979722, -25906.92352139038, 0.628, -0.676, 0.40800000000000003, 192.0, 0.0, 0.0, 0.0, 0.0, 0.0, 0.0, 0.0, 0.0, 0.0, 1.6634989130315568E9, 0.0, 2022-09-18 16:01:53.031
60.0, -48621.30267874035, -22799.718117680328, -31537.66322584906, -49632.5179496429, -47296.827709296675, -187500.02235174447, -32640.8559251852, -25920.33456806357, 0.628, -0.676, 0.40800000000000003, 192.0, 0.0, 0.0, 0.0, 0.0, 0.0, 0.0, 0.0, 0.0, 0.0, 1.6634989130355587E9, 0.0, 2022-09-18 16:01:53.035
61.0, -48599.4203209186, -22596.47370534822, -31573.850700122202, -49641.19042649155, -46980.416414787345, -187500.02235174447, -32686.364076896203, -25926.995387911247, 0.628, -0.676, 0.40800000000000003, 192.0, 0.0, 0.0, 0.0, 0.0, 0.0, 0.0, 0.0, 0.0, 0.0, 1.6634989130395207E9, 0.0, 2022-09-18 16:01:53.039
62.0, -48564.17161991258, -22331.538478319464, -31584.1548543161, -49638.239996223456, -47811.78954980249, -187500.02235174447, -32706.301832950336, -25922.726204720286, 0.628, -0.676, 0.40800000000000003, 192.0, 0.0, 0.0, 0.0, 0.0, 0.0, 0.0, 0.0, 0.0, 0.0, 1.6634989130436895E9, 0.0, 2022-09-18 16:01:53.043
63.0, -48602.68367560908, -22238.10818649628, -31580.511519969885, -49650.0193655514, -48716.65522058669, -187500.02235174447, -32703.37375442669, -25930.906943190927, 0.628, -0.676, 0.40800000000000003, 192.0, 0.0, 0.0, 0.0, 0.0, 0.0, 0.0, 0.0, 0.0, 0.0, 1.6634989130476184E9, 0.0, 2022-09-18 16:01:53.047
64.0, -48660.95467340406, -22721.509363831206, -31535.606865359172, -49637.815313078805, -48369.778498384774, -187500.02235174447, -32644.208686853493, -25931.935123435873, 0.628, -0.676, 0.40800000000000003, 192.0, 0.0, 0.0, 0.0, 0.0, 0.0, 0.0, 0.0, 0.0, 0.0, 1.6634989130516112E9, 0.0, 2022-09-18 16:01:53.051
65.0, -48623.51550144142, -22787.201140785353, -31546.29099920881, -49649.52762717338, -47290.70333131592, -187500.02235174447, -32636.94436990552, -25936.249010115745, 0.63, -0.686, 0.406, 192.0, 19.0, 176.0, 234.0, 144.0, 12.0, 176.0, 0.0, 0.0, 0.0, 1.6634989130545967E9, 0.0, 2022-09-18 16:01:53.054
66.0, -48592.29011443736, -22569.964536424224, -31555.76813885786, -49634.373144432684, -46987.9936561577, -187500.02235174447, -32674.025913956873, -25918.814649440606, 0.63, -0.686, 0.406, 192.0, 0.0, 0.0, 0.0, 0.0, 0.0, 0.0, 0.0, 0.0, 0.0, 1.6634989130586493E9, 0.0, 2022-09-18 16:01:53.058
67.0, -48570.7653845269, -22322.061338670414, -31580.466816480974, -49640.56457764681, -47873.435661010226, -187500.02235174447, -32704.42428641609, -25922.256818086724, 0.63, -0.686, 0.406, 192.0, 0.0, 0.0, 0.0, 0.0, 0.0, 0.0, 0.0, 0.0, 0.0, 1.663498913063635E9, 0.0, 2022-09-18 16:01:53.063
68.0, -48599.75559708543, -22243.271439465458, -31558.00331330339, -49645.280795726874, -48749.42287795817, -187500.02235174447, -32690.074466475784, -25932.09158564706, 0.63, -0.686, 0.406, 192.0, 0.0, 0.0, 0.0, 0.0, 0.0, 0.0, 0.0, 0.0, 0.0, 1.66349891306766E9, 0.0, 2022-09-18 16:01:53.067
69.0, -48646.33663253029, -22722.06815744259, -31507.689536534494, -49620.045676236834, -48348.18671324095, -187500.02235174447, -32621.11933483116, -25922.480335531276, 0.63, -0.686, 0.406, 192.0, 0.0, 0.0, 0.0, 0.0, 0.0, 0.0, 0.0, 0.0, 0.0, 1.663498913071646E9, 0.0, 2022-09-18 16:01:53.071
70.0, -48637.418286492626, -22794.331347266598, -31552.773005100848, -49659.138877289166, -47292.89380227254, -187500.02235174447, -32638.441936784024, -25953.772777768707, 0.63, -0.686, 0.406, 192.0, 0.0, 0.0, 0.0, 0.0, 0.0, 0.0, 0.0, 0.0, 0.0, 1.663498913075609E9, 0.0, 2022-09-18 16:01:53.075
71.0, -48587.01510274591, -22593.14329542438, -31535.785679314817, -49636.09422875574, -47049.43860166533, -187500.02235174447, -32661.17366089507, -25930.482260046276, 0.63, -0.686, 0.406, 192.0, 0.0, 0.0, 0.0, 0.0, 0.0, 0.0, 0.0, 0.0, 0.0, 1.6634989130786326E9, 0.0, 2022-09-18 16:01:53.078
72.0, -48541.059916145794, -22311.55601877642, -31546.805089331283, -49621.655001837615, -47947.53169387957, -187500.02235174447, -32694.94714676704, -25914.970149394292, 0.63, -0.686, 0.406, 192.0, 0.0, 0.0, 0.0, 0.0, 0.0, 0.0, 0.0, 0.0, 0.0, 1.6634989130825963E9, 0.0, 2022-09-18 16:01:53.082
73.0, -48565.78094551336, -22234.464852150068, -31528.09667922219, -49614.27892616736, -48776.02145385998, -187500.02235174447, -32680.194995426536, -25911.349166792534, 0.63, -0.686, 0.406, 192.0, 0.0, 0.0, 0.0, 0.0, 0.0, 0.0, 0.0, 0.0, 0.0, 1.6634989130866911E9, 0.0, 2022-09-18 16:01:53.086
74.0, -48619.782760117385, -22714.982654450258, -31495.66429801754, -49605.38293187415, -48291.88266895803, -187500.02235174447, -32620.202913308494, -25909.60573072502, 0.63, -0.686, 0.406, 192.0, 0.0, 0.0, 0.0, 0.0, 0.0, 0.0, 0.0, 0.0, 0.0, 1.6634989130916827E9, 0.0, 2022-09-18 16:01:53.091
75.0, -48602.795434331354, -22767.68806787587, -31529.795411800795, -49635.2672142109, -47274.76653751928, -187500.02235174447, -32630.574122735754, -25925.967207666305, 0.636, -0.6900000000000001, 0.404, 192.0, 19.0, 224.0, 234.0, 112.0, 12.0, 160.0, 0.0, 0.0, 0.0, 1.6634989130957468E9, 0.0, 2022-09-18 16:01:53.095
76.0, -48589.83142254727, -22586.035440687592, -31546.11218525317, -49636.49656015594, -47097.96423887781, -187500.02235174447, -32666.716893519988, -25926.66011174442, 0.636, -0.6900000000000001, 0.404, 192.0, 0.0, 0.0, 0.0, 0.0, 0.0, 0.0, 0.0, 0.0, 0.0, 1.6634989130996218E9, 0.0, 2022-09-18 16:01:53.099
77.0, -48561.22118964448, -22332.454899842134, -31563.278324994844, -49632.22737696498, -48036.62574727843, -187500.02235174447, -32706.480646905977, -25921.027472141683, 0.636, -0.6900000000000001, 0.404, 192.0, 0.0, 0.0, 0.0, 0.0, 0.0, 0.0, 0.0, 0.0, 0.0, 1.6634989131037843E9, 0.0, 2022-09-18 16:01:53.103
78.0, -48599.26385870742, -22294.434582523656, -31563.0995110392, -49634.97664153298, -48861.606283379355, -187500.02235174447, -32719.534065667878, -25927.26360884471, 0.636, -0.6900000000000001, 0.404, 192.0, 0.0, 0.0, 0.0, 0.0, 0.0, 0.0, 0.0, 0.0, 0.0, 1.6634989131066785E9, 0.0, 2022-09-18 16:01:53.106
79.0, -48623.40374271914, -22726.560858078108, -31480.219242598923, -49599.146795171124, -48279.70096822989, -187500.02235174447, -32587.41290419256, -25904.800105667127, 0.636, -0.6900000000000001, 0.404, 192.0, 0.0, 0.0, 0.0, 0.0, 0.0, 0.0, 0.0, 0.0, 0.0, 1.6634989131106918E9, 0.0, 2022-09-18 16:01:53.110
80.0, -48594.43588190507, -22745.73865482076, -31520.944120996493, -49619.57628960327, -47238.1990835904, -187500.02235174447, -32597.918224086552, -25914.299597060635, 0.636, -0.6900000000000001, 0.404, 192.0, 0.0, 0.0, 0.0, 0.0, 0.0, 0.0, 0.0, 0.0, 0.0, 1.6634989131147463E9, 0.0, 2022-09-18 16:01:53.114
81.0, -48591.060768492316, -22580.80513248505, -31553.95764755698, -49635.87071131119, -47103.4180645249, -187500.02235174447, -32648.433166555547, -25927.397719311444, 0.636, -0.6900000000000001, 0.404, 192.0, 0.0, 0.0, 0.0, 0.0, 0.0, 0.0, 0.0, 0.0, 0.0, 1.66349891311876E9, 0.0, 2022-09-18 16:01:53.118
82.0, -48556.41556458659, -22307.64446349674, -31565.222926762453, -49628.29346994084, -48045.07470668253, -187500.02235174447, -32681.916079749597, -25919.216980840803, 0.636, -0.6900000000000001, 0.404, 192.0, 0.0, 0.0, 0.0, 0.0, 0.0, 0.0, 0.0, 0.0, 0.0, 1.6634989131237004E9, 0.0, 2022-09-18 16:01:53.123
83.0, -48585.69634982304, -22281.69408818413, -31545.86631606416, -49628.47228389648, -48802.105939639325, -187500.02235174447, -32657.150346893115, -25923.97790240978, 0.636, -0.6900000000000001, 0.404, 192.0, 0.0, 0.0, 0.0, 0.0, 0.0, 0.0, 0.0, 0.0, 0.0, 1.6634989131277046E9, 0.0, 2022-09-18 16:01:53.127
84.0, -48616.6758676381, -22726.270285400187, -31501.676917276018, -49610.97086798798, -48161.21437087231, -187500.02235174447, -32604.40022997859, -25916.22184708379, 0.636, -0.6900000000000001, 0.404, 192.0, 0.0, 0.0, 0.0, 0.0, 0.0, 0.0, 0.0, 0.0, 0.0, 1.663498913131709E9, 0.0, 2022-09-18 16:01:53.131
85.0, -48613.5242716699, -22743.39172165295, -31553.309446967778, -49650.466400440506, -47144.81349525613, -187500.02235174447, -32652.657646257598, -25944.027417186193, 0.636, -0.6980000000000001, 0.4, 192.0, 19.0, 224.0, 234.0, 48.0, 12.0, 128.0, 0.0, 0.0, 0.0, 1.6634989131348348E9, 0.0, 2022-09-18 16:01:53.134
86.0, -48577.40385263012, -22553.424245527298, -31552.370673700654, -49635.714249100005, -47028.78558978863, -187500.02235174447, -32628.51776224587, -25927.26360884471, 0.636, -0.6980000000000001, 0.4, 192.0, 0.0, 0.0, 0.0, 0.0, 0.0, 0.0, 0.0, 0.0, 0.0, 1.663498913138785E9, 0.0, 2022-09-18 16:01:53.138
87.0, -48547.631329015654, -22299.866056426294, -31570.408531476085, -49632.29443219834, -48014.430465034304, -187500.02235174447, -32683.167777439092, -25921.228637841778, 0.636, -0.6980000000000001, 0.4, 192.0, 0.0, 0.0, 0.0, 0.0, 0.0, 0.0, 0.0, 0.0, 0.0, 1.6634989131426907E9, 0.0, 2022-09-18 16:01:53.142
88.0, -48599.55443138533, -22318.216838624103, -31550.716644610962, -49636.65302236713, -48769.20417180112, -187500.02235174447, -32663.31942836278, -25931.644550757952, 0.636, -0.6980000000000001, 0.4, 192.0, 0.0, 0.0, 0.0, 0.0, 0.0, 0.0, 0.0, 0.0, 0.0, 1.6634989131477785E9, 0.0, 2022-09-18 16:01:53.147
89.0, -48617.5252339274, -22737.669675072393, -31501.22988238691, -49623.0631617383, -48120.847120386024, -187500.02235174447, -32579.29922095528, -25933.3209315921, 0.636, -0.6980000000000001, 0.4, 192.0, 0.0, 0.0, 0.0, 0.0, 0.0, 0.0, 0.0, 0.0, 0.0, 1.663498913151719E9, 0.0, 2022-09-18 16:01:53.151
90.0, -48600.493204652455, -22709.841753225537, -31555.0975865242, -49652.25453999693, -47145.3275853786, -187500.02235174447, -32628.093079101218, -25949.637705044475, 0.636, -0.6980000000000001, 0.4, 192.0, 0.0, 0.0, 0.0, 0.0, 0.0, 0.0, 0.0, 0.0, 0.0, 1.6634989131558137E9, 0.0, 2022-09-18 16:01:53.155
91.0, -48582.85767827722, -22528.993788837648, -31556.10341502469, -49642.0174410364, -47109.29657331665, -187500.02235174447, -32631.22232332496, -25934.617332770507, 0.636, -0.6980000000000001, 0.4, 192.0, 0.0, 0.0, 0.0, 0.0, 0.0, 0.0, 0.0, 0.0, 0.0, 1.6634989131587875E9, 0.0, 2022-09-18 16:01:53.158
92.0, -48521.52449149186, -22251.765102358473, -31524.252179175877, -49599.705588782504, -48145.07641137557, -187500.02235174447, -32626.483753500434, -25888.908015359404, 0.636, -0.6980000000000001, 0.4, 192.0, 0.0, 0.0, 0.0, 0.0, 0.0, 0.0, 0.0, 0.0, 0.0, 1.663498913162754E9, 0.0, 2022-09-18 16:01:53.162
93.0, -48575.816878773796, -22306.16924836269, -31531.136516468112, -49623.93487977206, -48884.00273132357, -187500.02235174447, -32649.908381689595, -25917.920579662394, 0.636, -0.6980000000000001, 0.4, 192.0, 0.0, 0.0, 0.0, 0.0, 0.0, 0.0, 0.0, 0.0, 0.0, 1.6634989131668053E9, 0.0, 2022-09-18 16:01:53.166
94.0, -48605.79056808836, -22741.78239605217, -31503.688574276995, -49623.95723151651, -48182.0238449602, -187500.02235174447, -32604.02025032285, -25926.3695390665, 0.636, -0.6980000000000001, 0.4, 192.0, 0.0, 0.0, 0.0, 0.0, 0.0, 0.0, 0.0, 0.0, 0.0, 1.663498913170827E9, 0.0, 2022-09-18 16:01:53.170
95.0, -48585.673998078586, -22710.244084625734, -31541.86535380666, -49652.03102255238, -47210.37116174355, -187500.02235174447, -32629.434183768535, -25943.915658463917, 0.642, -0.6960000000000001, 0.404, 192.0, 20.0, 16.0, 234.0, 64.0, 12.0, 160.0, 0.0, 0.0, 0.0, 1.663498913174818E9, 0.0, 2022-09-18 16:01:53.174
96.0, -48558.62838728767, -22526.021006825093, -31545.70985385297, -49639.692859613046, -47207.756007642274, -187500.02235174447, -32644.92394267606, -25933.298579847644, 0.642, -0.6960000000000001, 0.404, 192.0, 0.0, 0.0, 0.0, 0.0, 0.0, 0.0, 0.0, 0.0, 0.0, 1.663498913179836E9, 0.0, 2022-09-18 16:01:53.179
97.0, -48510.90741287559, -22251.74275061402, -31536.456231648473, -49616.000010490425, -48246.08394456911, -187500.02235174447, -32659.966666694483, -25906.722355690286, 0.642, -0.6960000000000001, 0.404, 192.0, 0.0, 0.0, 0.0, 0.0, 0.0, 0.0, 0.0, 0.0, 0.0, 1.6634989131838691E9, 0.0, 2022-09-18 16:01:53.183
98.0, -48564.059861190304, -22314.573504277887, -31538.2443712049, -49627.5111588849, -48904.29811528899, -187500.02235174447, -32651.56241077929, -25922.860315187016, 0.642, -0.6960000000000001, 0.404, 192.0, 0.0, 0.0, 0.0, 0.0, 0.0, 0.0, 0.0, 0.0, 0.0, 1.663498913186854E9, 0.0, 2022-09-18 16:01:53.186
99.0, -48591.93248652607, -22737.244991927742, -31494.412600328043, -49620.09037972574, -48125.07160008808, -187500.02235174447, -32585.267136724848, -25923.933198920873, 0.642, -0.6960000000000001, 0.404, 192.0, 0.0, 0.0, 0.0, 0.0, 0.0, 0.0, 0.0, 0.0, 0.0, 1.6634989131918485E9, 0.0, 2022-09-18 16:01:53.191
100.0, -48579.12493695318, -22693.659090239897, -31532.879952535626, -49646.10781027172, -47137.83975098607, -187500.02235174447, -32613.899721372098, -25940.495841562253, 0.642, -0.6960000000000001, 0.404, 192.0, 0.0, 0.0, 0.0, 0.0, 0.0, 0.0, 0.0, 0.0, 0.0, 1.663498913194862E9, 0.0, 2022-09-18 16:01:53.194
101.0, -48557.42139308708, -22526.423338225286, -31536.299769437286, -49625.25363269492, -47187.348864954576, -187500.02235174447, -32633.23398032594, -25920.580437252574, 0.642, -0.6960000000000001, 0.404, 192.0, 0.0, 0.0, 0.0, 0.0, 0.0, 0.0, 0.0, 0.0, 0.0, 1.663498913198884E9, 0.0, 2022-09-18 16:01:53.198
102.0, -48507.33113376274, -22246.266573222467, -31537.551467126785, -49598.6103533042, -48256.09752608508, -187500.02235174447, -32662.93944870704, -25889.623271181976, 0.642, -0.6960000000000001, 0.404, 192.0, 0.0, 0.0, 0.0, 0.0, 0.0, 0.0, 0.0, 0.0, 0.0, 1.6634989132028458E9, 0.0, 2022-09-18 16:01:53.202
103.0, -48557.75666925391, -22322.396614837246, -31522.329929152722, -49611.68612381055, -48878.68301614321, -187500.02235174447, -32640.27477982936, -25908.13051559097, 0.642, -0.6960000000000001, 0.404, 192.0, 0.0, 0.0, 0.0, 0.0, 0.0, 0.0, 0.0, 0.0, 0.0, 1.6634989132079127E9, 0.0, 2022-09-18 16:01:53.207
104.0, -48589.719663824995, -22735.948590749336, -31502.347469609675, -49619.24101343644, -48090.26993397116, -187500.02235174447, -32583.389590190603, -25922.435632042365, 0.642, -0.6960000000000001, 0.404, 192.0, 0.0, 0.0, 0.0, 0.0, 0.0, 0.0, 0.0, 0.0, 0.0, 1.6634989132119336E9, 0.0, 2022-09-18 16:01:53.211
105.0, -48571.6147508162, -22676.314136542576, -31536.1433072261, -49638.508217156916, -47144.94760572286, -187500.02235174447, -32609.40702073658, -25931.532792035676, 0.642, -0.686, 0.41000000000000003, 192.0, 20.0, 16.0, 234.0, 144.0, 12.0, 208.0, 0.0, 0.0, 0.0, 1.6634989132149043E9, 0.0, 2022-09-18 16:01:53.214
106.0, -48544.72560223647, -22510.575951406474, -31537.57381887124, -49616.64821107963, -47265.714081014885, -187500.02235174447, -32626.193180822516, -25913.673748215886, 0.642, -0.686, 0.41000000000000003, 192.0, 0.0, 0.0, 0.0, 0.0, 0.0, 0.0, 0.0, 0.0, 0.0, 1.6634989132189E9, 0.0, 2022-09-18 16:01:53.218
107.0, -48523.06676185927, -22251.899212825207, -31558.87503133715, -49614.591850589735, -48379.09917582264, -187500.02235174447, -32672.461291845, -25906.521189990188, 0.642, -0.686, 0.41000000000000003, 192.0, 0.0, 0.0, 0.0, 0.0, 0.0, 0.0, 0.0, 0.0, 0.0, 1.663498913222901E9, 0.0, 2022-09-18 16:01:53.222
108.0, -48574.38636712866, -22368.597670626365, -31542.737071840416, -49620.06802798129, -48952.93551122374, -187500.02235174447, -32665.33108536376, -25916.378309294978, 0.642, -0.686, 0.41000000000000003, 192.0, 0.0, 0.0, 0.0, 0.0, 0.0, 0.0, 0.0, 0.0, 0.0, 1.6634989132268767E9, 0.0, 2022-09-18 16:01:53.226
109.0, -48579.8178410313, -22766.50342541974, -31495.53018755081, -49612.53549009985, -48104.843271356025, -187500.02235174447, -32564.569421359232, -25915.059556372114, 0.642, -0.686, 0.41000000000000003, 192.0, 0.0, 0.0, 0.0, 0.0, 0.0, 0.0, 0.0, 0.0, 0.0, 1.6634989132308812E9, 0.0, 2022-09-18 16:01:53.230
110.0, -48556.862599475695, -22673.631927207938, -31528.38725190011, -49639.67050786859, -47182.520888152234, -187500.02235174447, -32596.01832580785, -25930.705777490828, 0.642, -0.686, 0.41000000000000003, 192.0, 0.0, 0.0, 0.0, 0.0, 0.0, 0.0, 0.0, 0.0, 0.0, 1.6634989132359045E9, 0.0, 2022-09-18 16:01:53.235
111.0, -48525.27958456035, -22492.02400350857, -31526.844981532693, -49617.00583899091, -47331.18234052448, -187500.02235174447, -32604.668450912053, -25910.65626271442, 0.642, -0.686, 0.41000000000000003, 192.0, 0.0, 0.0, 0.0, 0.0, 0.0, 0.0, 0.0, 0.0, 0.0, 1.663498913239946E9, 0.0, 2022-09-18 16:01:53.239
112.0, -48502.905488360586, -22235.582439372833, -31539.96545552796, -49613.65307732261, -48453.463429625444, -187500.02235174447, -32646.5556200213, -25901.134419576458, 0.642, -0.686, 0.41000000000000003, 192.0, 0.0, 0.0, 0.0, 0.0, 0.0, 0.0, 0.0, 0.0, 0.0, 1.6634989132429235E9, 0.0, 2022-09-18 16:01:53.242
113.0, -48540.143494623124, -22364.19437696867, -31509.56708306874, -49612.37902788866, -48989.12298549688, -187500.02235174447, -32600.891006099107, -25907.07998360157, 0.642, -0.686, 0.41000000000000003, 192.0, 0.0, 0.0, 0.0, 0.0, 0.0, 0.0, 0.0, 0.0, 0.0, 1.6634989132468855E9, 0.0, 2022-09-18 16:01:53.246
114.0, -48554.359204096705, -22746.07393098759, -31489.74108573688, -49616.827025035265, -48090.582858393536, -187500.02235174447, -32554.86876426563, -25917.674710473384, 0.642, -0.686, 0.41000000000000003, 192.0, 0.0, 0.0, 0.0, 0.0, 0.0, 0.0, 0.0, 0.0, 0.0, 1.663498913250891E9, 0.0, 2022-09-18 16:01:53.250
115.0, -48541.55165452381, -22675.53182548664, -31520.027699473823, -49637.323574700786, -47197.205984259366, -187500.02235174447, -32589.223395493438, -25928.202382111835, 0.64, -0.6900000000000001, 0.406, 192.0, 20.0, 0.0, 234.0, 112.0, 12.0, 176.0, 0.0, 0.0, 0.0, 1.6634989132549703E9, 0.0, 2022-09-18 16:01:53.254
116.0, -48520.69747694701, -22500.69648035723, -31518.217208172944, -49618.72692331397, -47401.16565241405, -187500.02235174447, -32601.60626192168, -25911.304463303622, 0.64, -0.6900000000000001, 0.406, 192.0, 0.0, 0.0, 0.0, 0.0, 0.0, 0.0, 0.0, 0.0, 0.0, 1.6634989132589269E9, 0.0, 2022-09-18 16:01:53.258
117.0, -48492.80249986679, -22218.550410097887, -31533.036414746814, -49612.37902788866, -48532.92388116406, -187500.02235174447, -32639.000730395408, -25901.626157954473, 0.64, -0.6900000000000001, 0.406, 192.0, 0.0, 0.0, 0.0, 0.0, 0.0, 0.0, 0.0, 0.0, 0.0, 1.6634989132630205E9, 0.0, 2022-09-18 16:01:53.263
118.0, -48573.00055897243, -22408.674348434728, -31539.227847960934, -49643.02326953689, -49021.84593937945, -187500.02235174447, -32639.6042274957, -25939.04297817266, 0.64, -0.6900000000000001, 0.406, 192.0, 0.0, 0.0, 0.0, 0.0, 0.0, 0.0, 0.0, 0.0, 0.0, 1.6634989132680097E9, 0.0, 2022-09-18 16:01:53.268
119.0, -48582.00831198792, -22786.59764368506, -31508.784772012805, -49637.36827818969, -48095.96962880727, -187500.02235174447, -32569.285639439302, -25937.61246652752, 0.64, -0.6900000000000001, 0.406, 192.0, 0.0, 0.0, 0.0, 0.0, 0.0, 0.0, 0.0, 0.0, 0.0, 1.66349891327097E9, 0.0, 2022-09-18 16:01:53.270
120.0, -48548.0113086714, -22662.031371835634, -31536.947970026493, -49646.04075503835, -47206.81723437515, -187500.02235174447, -32591.950308316984, -25934.52792579269, 0.64, -0.6900000000000001, 0.406, 192.0, 0.0, 0.0, 0.0, 0.0, 0.0, 0.0, 0.0, 0.0, 0.0, 1.663498913274942E9, 0.0, 2022-09-18 16:01:53.274
