%OpenBCI Raw EEG Data
%Number of channels = 8
%Sample Rate = 250 Hz
%Board = OpenBCI_GUI$BoardCytonSerial
Sample Index, EXG Channel 0, EXG Channel 1, EXG Channel 2, EXG Channel 3, EXG Channel 4, EXG Channel 5, EXG Channel 6, EXG Channel 7, Accel Channel 0, Accel Channel 1, Accel Channel 2, Other, Other, Other, Other, Other, Other, Other, Analog Channel 0, Analog Channel 1, Analog Channel 2, Timestamp, Other, Timestamp (Formatted)
230.0, -13242.536871735678, -5733.624784186457, -39906.11164642712, -15883.686051808127, -12000.942170732282, -187500.02235174447, -6428.27229836849, 4164.197047257072, 0.0, 0.0, 0.0, 192.0, 0.0, 0.0, 0.0, 0.0, 0.0, 0.0, 0.0, 0.0, 0.0, 1.663496653058082E9, 0.0, 2022-09-18 15:24:13.058
231.0, -13730.408397961664, -6290.540849034888, -39621.350422066505, -15556.836492638171, -11796.177839777212, -187500.02235174447, -6059.289700900281, 4535.928909293283, 0.0, 0.0, 0.0, 192.0, 0.0, 0.0, 0.0, 0.0, 0.0, 0.0, 0.0, 0.0, 0.0, 1.6634966530581083E9, 0.0, 2022-09-18 15:24:13.058
232.0, -11987.665234525828, -4929.476073917875, -39903.04945743674, -15319.148042100436, -11173.637053208, -187500.02235174447, -5848.423343708914, 4770.286949907178, 0.0, 0.0, 0.0, 192.0, 0.0, 0.0, 0.0, 0.0, 0.0, 0.0, 0.0, 0.0, 0.0, 1.6634966530581245E9, 0.0, 2022-09-18 15:24:13.058
233.0, -8921.743502824726, -2185.933552495665, -40454.48934489362, -15158.930737844794, -10218.032922510258, -187500.02235174447, -5886.242495327294, 4962.444896989453, 0.0, 0.0, 0.0, 192.0, 0.0, 0.0, 0.0, 0.0, 0.0, 0.0, 0.0, 0.0, 0.0, 1.6634966530581405E9, 0.0, 2022-09-18 15:24:13.058
234.0, -9392.851220709232, -2382.5171449800905, -40628.1400475669, -15583.859751684637, -10551.386839316707, -187500.02235174447, -6359.11600102377, 4518.114568962404, 0.0, 0.0, 0.0, 192.0, 0.0, 0.0, 0.0, 0.0, 0.0, 0.0, 0.0, 0.0, 0.0, 1.6634966530581555E9, 0.0, 2022-09-18 15:24:13.058
235.0, -13142.289297853626, -5641.267376097128, -39943.59552187866, -15903.199124717608, -11927.874318107883, -187500.02235174447, -6456.256682426534, 4146.449762159558, 0.0, 0.0, 0.0, 192.0, 0.0, 0.0, 0.0, 0.0, 0.0, 0.0, 0.0, 0.0, 0.0, 1.6634966530581715E9, 0.0, 2022-09-18 15:24:13.058
236.0, -13775.022479894458, -6335.11022747877, -39632.727459994254, -15594.007443667346, -11825.123348846835, -187500.02235174447, -6080.9708930219285, 4498.065054185993, 0.0, 0.0, 0.0, 192.0, 0.0, 0.0, 0.0, 0.0, 0.0, 0.0, 0.0, 0.0, 0.0, 1.6634966530581863E9, 0.0, 2022-09-18 15:24:13.058
237.0, -12099.938046924835, -5045.23575845191, -39890.10779739712, -15348.585289548075, -11233.830301026142, -187500.02235174447, -5859.219236280827, 4746.527045551186, 0.0, 0.0, 0.0, 192.0, 0.0, 0.0, 0.0, 0.0, 0.0, 0.0, 0.0, 0.0, 0.0, 1.663496653058201E9, 0.0, 2022-09-18 15:24:13.058
238.0, -9039.291326915185, -2317.920603504253, -40437.81494352996, -15172.274729284612, -10277.935597650481, -187500.02235174447, -5889.103518617573, 4952.096039306645, 0.5660000000000001, -0.622, 0.5660000000000001, 192.0, 17.0, 176.0, 236.0, 144.0, 17.0, 176.0, 0.0, 0.0, 0.0, 1.663496653058216E9, 0.0, 2022-09-18 15:24:13.058
239.0, -9252.92930041901, -2284.2588763545605, -40661.37709157194, -15562.759704918828, -10521.860184891246, -187500.02235174447, -6354.980928299538, 4533.3808104253785, 0.5660000000000001, -0.622, 0.5660000000000001, 192.0, 0.0, 0.0, 0.0, 0.0, 0.0, 0.0, 0.0, 0.0, 0.0, 1.6634966530582333E9, 0.0, 2022-09-18 15:24:13.058
240.0, -13012.425662568292, -5544.640784816836, -39989.66246720105, -15904.696691596115, -11956.328088799488, -187500.02235174447, -6476.28384545849, 4119.717075791011, 0.5660000000000001, -0.622, 0.5660000000000001, 192.0, 0.0, 0.0, 0.0, 0.0, 0.0, 0.0, 0.0, 0.0, 0.0, 1.6634966530582488E9, 0.0, 2022-09-18 15:24:13.058
241.0, -13817.870774015282, -6370.671852907164, -39643.88098047745, -15592.487525044386, -11877.851114016905, -187500.02235174447, -6107.927096835029, 4480.809507466496, 0.5660000000000001, -0.622, 0.5660000000000001, 192.0, 0.0, 0.0, 0.0, 0.0, 0.0, 0.0, 0.0, 0.0, 0.0, 1.663496653058264E9, 0.0, 2022-09-18 15:24:13.058
242.0, -12226.493624030785, -5147.740858523948, -39893.70642825442, -15337.923507442894, -11275.583359668655, -187500.02235174447, -5873.077317843118, 4737.005202413226, 0.5660000000000001, -0.622, 0.5660000000000001, 192.0, 0.0, 0.0, 0.0, 0.0, 0.0, 0.0, 0.0, 0.0, 0.0, 1.6634966530582793E9, 0.0, 2022-09-18 15:24:13.058
243.0, -9168.327947655673, -2435.826055505998, -40424.47095209014, -15154.348630231456, -10321.074464449222, -187500.02235174447, -5881.1015941025735, 4949.994975327847, 0.5660000000000001, -0.622, 0.5660000000000001, 192.0, 0.0, 0.0, 0.0, 0.0, 0.0, 0.0, 0.0, 0.0, 0.0, 1.6634966530582943E9, 0.0, 2022-09-18 15:24:13.058
244.0, -9118.036522631231, -2172.4330988446595, -40678.00678944669, -15530.528489414275, -10460.571701594794, -187500.02235174447, -6337.211291457569, 4559.889979349373, 0.5660000000000001, -0.622, 0.5660000000000001, 192.0, 0.0, 0.0, 0.0, 0.0, 0.0, 0.0, 0.0, 0.0, 0.0, 1.6634966530583096E9, 0.0, 2022-09-18 15:24:13.058
245.0, -12873.59897775638, -5415.850033265357, -40018.138589637114, -15903.489697395527, -11904.136765496347, -187500.02235174447, -6487.035034541493, 4112.497462331947, 0.5660000000000001, -0.622, 0.5660000000000001, 192.0, 0.0, 0.0, 0.0, 0.0, 0.0, 0.0, 0.0, 0.0, 0.0, 1.6634966530583248E9, 0.0, 2022-09-18 15:24:13.058
246.0, -13843.150596994234, -6381.177172801158, -39628.950015181304, -15608.536077563296, -11885.45070713171, -187500.02235174447, -6122.679248175532, 4454.210931564681, 0.5660000000000001, -0.622, 0.5660000000000001, 192.0, 0.0, 0.0, 0.0, 0.0, 0.0, 0.0, 0.0, 0.0, 0.0, 1.6634966530584655E9, 0.0, 2022-09-18 15:24:13.058
247.0, -12328.775206658269, -5231.470493253529, -39845.91839860897, -15356.296641385155, -11287.250970274326, -187500.02235174447, -5883.292065059193, 4715.6369347139525, 0.5660000000000001, -0.622, 0.5660000000000001, 192.0, 0.0, 0.0, 0.0, 0.0, 0.0, 0.0, 0.0, 0.0, 0.0, 1.6634966530584815E9, 0.0, 2022-09-18 15:24:13.058
248.0, -9284.489963589904, -2548.3447370940135, -40371.20674505315, -15165.435095481289, -10342.2415664484, -187500.02235174447, -5872.742041676288, 4937.008611799313, 0.5720000000000001, -0.62, 0.5720000000000001, 192.0, 17.0, 224.0, 236.0, 160.0, 17.0, 224.0, 0.0, 0.0, 0.0, 1.6634966530584989E9, 0.0, 2022-09-18 15:24:13.058
249.0, -8978.405175018928, -2061.613149835247, -40668.641408519914, -15502.074718722668, -10371.254130751387, -187500.02235174447, -6307.863450987751, 4599.787843202096, 0.5720000000000001, -0.62, 0.5720000000000001, 192.0, 0.0, 0.0, 0.0, 0.0, 0.0, 0.0, 0.0, 0.0, 0.0, 1.6634966530585215E9, 0.0, 2022-09-18 15:24:13.058
250.0, -12732.827691176855, -5289.629732326238, -40044.200723672, -15909.167040487177, -11801.47520321312, -187500.02235174447, -6498.1438515357795, 4126.95904099453, 0.5720000000000001, -0.62, 0.5720000000000001, 192.0, 0.0, 0.0, 0.0, 0.0, 0.0, 0.0, 0.0, 0.0, 0.0, 1.6634966530585372E9, 0.0, 2022-09-18 15:24:13.058
251.0, -13865.949376338647, -6401.293742810934, -39631.29694834912, -15653.373676940642, -11877.649948316806, -187500.02235174447, -6144.695716464009, 4431.054524308983, 0.5720000000000001, -0.62, 0.5720000000000001, 192.0, 0.0, 0.0, 0.0, 0.0, 0.0, 0.0, 0.0, 0.0, 0.0, 1.6634966530585525E9, 0.0, 2022-09-18 15:24:13.058
252.0, -12432.353190464162, -5324.207880998598, -39837.4023839715, -15401.983607051803, -11289.799069142231, -187500.02235174447, -5895.585524509612, 4704.863393886494, 0.5720000000000001, -0.62, 0.5720000000000001, 192.0, 0.0, 0.0, 0.0, 0.0, 0.0, 0.0, 0.0, 0.0, 0.0, 1.6634966530585716E9, 0.0, 2022-09-18 15:24:13.058
253.0, -9420.232107666983, -2685.6515032829648, -40352.63244541078, -15206.919933190338, -10366.515560926862, -187500.02235174447, -5867.35527126256, 4931.4206756854865, 0.5720000000000001, -0.62, 0.5720000000000001, 192.0, 0.0, 0.0, 0.0, 0.0, 0.0, 0.0, 0.0, 0.0, 0.0, 1.6634966530585868E9, 0.0, 2022-09-18 15:24:13.058
254.0, -8861.013813139656, -1978.3305499947728, -40681.71717902627, -15508.914352525993, -10310.36797885513, -187500.02235174447, -6292.15017463567, 4625.5370528146095, 0.5720000000000001, -0.62, 0.5720000000000001, 192.0, 0.0, 0.0, 0.0, 0.0, 0.0, 0.0, 0.0, 0.0, 0.0, 1.663496653058602E9, 0.0, 2022-09-18 15:24:13.058
255.0, -12588.54718071785, -5168.662091334116, -40084.769139858385, -15933.597497176826, -11737.482158837576, -187500.02235174447, -6514.505328477065, 4123.516872348413, 0.5720000000000001, -0.62, 0.5720000000000001, 192.0, 0.0, 0.0, 0.0, 0.0, 0.0, 0.0, 0.0, 0.0, 0.0, 1.663496653058617E9, 0.0, 2022-09-18 15:24:13.058
0.0, -13889.776335928003, -6422.147920387736, -39633.26390186118, -15676.351270240697, -11893.653797346808, -187500.02235174447, -6158.866722448674, 4409.842718820896, 0.5720000000000001, -0.62, 0.5720000000000001, 192.0, 0.0, 0.0, 0.0, 0.0, 0.0, 0.0, 0.0, 0.0, 0.0, 1.6634966530586324E9, 0.0, 2022-09-18 15:24:13.058
1.0, -12523.369493886174, -5404.7635680155245, -39816.50350290579, -15402.944732063383, -11321.985581157873, -187500.02235174447, -5893.26094308626, 4695.900344359916, 0.5720000000000001, -0.62, 0.5720000000000001, 192.0, 0.0, 0.0, 0.0, 0.0, 0.0, 0.0, 0.0, 0.0, 0.0, 1.663496653058648E9, 0.0, 2022-09-18 15:24:13.058
2.0, -9549.447542363114, -2810.0836646656594, -40315.72971531507, -15193.91121791735, -10410.459090525996, -187500.02235174447, -5848.266881497727, 4928.984335539858, 0.56, -0.618, 0.5740000000000001, 192.0, 17.0, 128.0, 236.0, 176.0, 17.0, 240.0, 0.0, 0.0, 0.0, 1.6634966530586631E9, 0.0, 2022-09-18 15:24:13.058
3.0, -8754.977137443679, -1893.8409559537122, -40682.16421391538, -15468.100067150603, -10263.652832943539, -187500.02235174447, -6261.371822520712, 4651.353317660489, 0.56, -0.618, 0.5740000000000001, 192.0, 0.0, 0.0, 0.0, 0.0, 0.0, 0.0, 0.0, 0.0, 0.0, 1.6634966530586796E9, 0.0, 2022-09-18 15:24:13.058
4.0, -12420.193841480475, -5023.6886767969945, -40112.70882042752, -15915.134956256743, -11725.255754620524, -187500.02235174447, -6509.498537719076, 4122.9580787370305, 0.56, -0.618, 0.5740000000000001, 192.0, 0.0, 0.0, 0.0, 0.0, 0.0, 0.0, 0.0, 0.0, 0.0, 1.6634966530586948E9, 0.0, 2022-09-18 15:24:13.058
5.0, -13903.27678957901, -6420.337429086856, -39632.99568092772, -15666.471799191451, -11923.40396921682, -187500.02235174447, -6172.702452266509, 4413.73192235612, 0.56, -0.618, 0.5740000000000001, 192.0, 0.0, 0.0, 0.0, 0.0, 0.0, 0.0, 0.0, 0.0, 0.0, 1.6634966530587635E9, 0.0, 2022-09-18 15:24:13.058
6.0, -12633.563594050836, -5481.117127074853, -39808.903909790984, -15387.969063278326, -11340.783398244786, -187500.02235174447, -5902.5816205241235, 4712.820614912584, 0.56, -0.618, 0.5740000000000001, 192.0, 0.0, 0.0, 0.0, 0.0, 0.0, 0.0, 0.0, 0.0, 0.0, 1.663496653058784E9, 0.0, 2022-09-18 15:24:13.058
7.0, -9701.059425003461, -2938.695602261496, -40298.72003778458, -15174.398145007866, -10451.273375901386, -187500.02235174447, -5844.310622729137, 4938.908510078015, 0.56, -0.618, 0.5740000000000001, 192.0, 0.0, 0.0, 0.0, 0.0, 0.0, 0.0, 0.0, 0.0, 0.0, 1.6634966530587993E9, 0.0, 2022-09-18 15:24:13.058
8.0, -8665.9948427671, -1816.459216649439, -40705.25356593771, -15422.726025906328, -10214.121367230578, -187500.02235174447, -6239.154188532137, 4696.235620526746, 0.56, -0.618, 0.5740000000000001, 192.0, 0.0, 0.0, 0.0, 0.0, 0.0, 0.0, 0.0, 0.0, 0.0, 1.6634966530588143E9, 0.0, 2022-09-18 15:24:13.058
9.0, -12259.976537224835, -4876.524791303253, -40158.39578609417, -15894.61605484677, -11665.710707391585, -187500.02235174447, -6513.186575554201, 4138.671355089111, 0.56, -0.618, 0.5740000000000001, 192.0, 0.0, 0.0, 0.0, 0.0, 0.0, 0.0, 0.0, 0.0, 0.0, 1.6634966530588295E9, 0.0, 2022-09-18 15:24:13.058
10.0, -13914.139737384288, -6422.974934932582, -39635.34261409553, -15668.86343584817, -11940.74892291414, -187500.02235174447, -6185.800574517319, 4398.175108215226, 0.56, -0.618, 0.5740000000000001, 192.0, 0.0, 0.0, 0.0, 0.0, 0.0, 0.0, 0.0, 0.0, 0.0, 1.6634966530588446E9, 0.0, 2022-09-18 15:24:13.058
11.0, -12718.679036936646, -5551.323956408973, -39777.07502568663, -15389.421926667921, -11356.899005997064, -187500.02235174447, -5905.889678703508, 4702.091777574036, 0.56, -0.618, 0.5740000000000001, 192.0, 0.0, 0.0, 0.0, 0.0, 0.0, 0.0, 0.0, 0.0, 0.0, 1.6634966530588598E9, 0.0, 2022-09-18 15:24:13.058
12.0, -9839.148502248348, -3071.6214265372073, -40254.39652852971, -15181.282482300101, -10490.523039164906, -187500.02235174447, -5837.247471481261, 4921.429445913965, 0.554, -0.618, 0.5760000000000001, 192.0, 17.0, 80.0, 236.0, 176.0, 18.0, 0.0, 0.0, 0.0, 0.0, 1.663496653058875E9, 0.0, 2022-09-18 15:24:13.058
13.0, -8576.006719590036, -1756.6459484870375, -40693.31773439857, -15400.575447151119, -10167.987366674824, -187500.02235174447, -6218.568231888799, 4718.140330092947, 0.554, -0.618, 0.5760000000000001, 192.0, 0.0, 0.0, 0.0, 0.0, 0.0, 0.0, 0.0, 0.0, 0.0, 1.663496653058891E9, 0.0, 2022-09-18 15:24:13.058
14.0, -12083.263645561177, -4729.383257553966, -40187.69892307508, -15899.444031649118, -11589.737127987997, -187500.02235174447, -6523.982468126115, 4149.936634294586, 0.554, -0.618, 0.5760000000000001, 192.0, 0.0, 0.0, 0.0, 0.0, 0.0, 0.0, 0.0, 0.0, 0.0, 1.6634966530589063E9, 0.0, 2022-09-18 15:24:13.058
15.0, -13919.146528142277, -6426.327696600878, -39634.04621291712, -15703.39688103162, -11935.965649600703, -187500.02235174447, -6211.616839363199, 4382.1712591852265, 0.554, -0.618, 0.5760000000000001, 192.0, 0.0, 0.0, 0.0, 0.0, 0.0, 0.0, 0.0, 0.0, 0.0, 1.663496653058921E9, 0.0, 2022-09-18 15:24:13.058
16.0, -12805.560267634424, -5627.006963134642, -39755.080909142605, -15414.165307779946, -11365.191503189983, -187500.02235174447, -5923.055818445185, 4694.492184459232, 0.554, -0.618, 0.5760000000000001, 192.0, 0.0, 0.0, 0.0, 0.0, 0.0, 0.0, 0.0, 0.0, 0.0, 1.6634966530589364E9, 0.0, 2022-09-18 15:24:13.058
17.0, -9987.564085431586, -3209.911669482192, -40216.95735656707, -15201.331997076511, -10513.098301064767, -187500.02235174447, -5840.935509316387, 4917.897870290026, 0.554, -0.618, 0.5760000000000001, 192.0, 0.0, 0.0, 0.0, 0.0, 0.0, 0.0, 0.0, 0.0, 0.0, 1.6634966530589547E9, 0.0, 2022-09-18 15:24:13.058
18.0, -8503.520012321474, -1704.3428664616188, -40677.13507141293, -15386.225627210812, -10115.416063715944, -187500.02235174447, -6201.111519469205, 4746.5717490400975, 0.554, -0.618, 0.5760000000000001, 192.0, 0.0, 0.0, 0.0, 0.0, 0.0, 0.0, 0.0, 0.0, 0.0, 1.6634966530589702E9, 0.0, 2022-09-18 15:24:13.058
19.0, -11910.842288832939, -4572.1834387997915, -40210.94473730859, -15885.876522764745, -11483.65574880311, -187500.02235174447, -6534.465436275654, 4171.483715949502, 0.554, -0.618, 0.5760000000000001, 192.0, 0.0, 0.0, 0.0, 0.0, 0.0, 0.0, 0.0, 0.0, 0.0, 1.6634966530589857E9, 0.0, 2022-09-18 15:24:13.058
20.0, -13922.678103766217, -6424.3160395999, -39638.94124495283, -15717.836107949748, -11940.994792103147, -187500.02235174447, -6231.509891928422, 4354.522151294012, 0.554, -0.618, 0.5760000000000001, 192.0, 0.0, 0.0, 0.0, 0.0, 0.0, 0.0, 0.0, 0.0, 0.0, 1.6634966530590007E9, 0.0, 2022-09-18 15:24:13.059
21.0, -12892.575608798936, -5700.231277970229, -39741.66986246942, -15420.200278782879, -11404.329407731226, -187500.02235174447, -5930.051914459696, 4667.245407968212, 0.554, -0.618, 0.5760000000000001, 192.0, 0.0, 0.0, 0.0, 0.0, 0.0, 0.0, 0.0, 0.0, 0.0, 1.6634966530590403E9, 0.0, 2022-09-18 15:24:13.059
22.0, -10137.566642471153, -3350.61590082835, -40184.99436199598, -15194.335901062, -10577.448973351595, -187500.02235174447, -5833.760599346233, 4896.015512468281, 0.5640000000000001, -0.626, 0.58, 192.0, 17.0, 160.0, 236.0, 112.0, 18.0, 32.0, 0.0, 0.0, 0.0, 1.663496653059056E9, 0.0, 2022-09-18 15:24:13.059
23.0, -8449.249976783989, -1672.469278868351, -40662.47232705025, -15340.203385377336, -10089.957426781348, -187500.02235174447, -6168.4332690755455, 4765.146048682457, 0.5640000000000001, -0.626, 0.58, 192.0, 0.0, 0.0, 0.0, 0.0, 0.0, 0.0, 0.0, 0.0, 0.0, 1.6634966530590723E9, 0.0, 2022-09-18 15:24:13.059
24.0, -11718.885507450761, -4420.0351142925165, -40242.840676646316, -15865.75995275497, -11454.307908333292, -187500.02235174447, -6523.96011638166, 4153.8928930631755, 0.5640000000000001, -0.626, 0.58, 192.0, 0.0, 0.0, 0.0, 0.0, 0.0, 0.0, 0.0, 0.0, 0.0, 1.6634966530590875E9, 0.0, 2022-09-18 15:24:13.059
25.0, -13907.836545447892, -6418.102254641325, -39639.857666475495, -15730.800119733825, -11983.37369959041, -187500.02235174447, -6252.967566605516, 4304.5660024364, 0.5640000000000001, -0.626, 0.58, 192.0, 0.0, 0.0, 0.0, 0.0, 0.0, 0.0, 0.0, 0.0, 0.0, 1.6634966530591028E9, 0.0, 2022-09-18 15:24:13.059
26.0, -12971.879598126365, -5766.861828191499, -39715.89830111245, -15422.927191606426, -11422.903707373585, -187500.02235174447, -5947.46392339038, 4642.144398944903, 0.5640000000000001, -0.626, 0.58, 192.0, 0.0, 0.0, 0.0, 0.0, 0.0, 0.0, 0.0, 0.0, 0.0, 1.663496653059118E9, 0.0, 2022-09-18 15:24:13.059
27.0, -10285.691652976473, -3485.4639751272175, -40149.365681334224, -15199.275636586624, -10612.027122023956, -187500.02235174447, -5836.085180769584, 4874.803706980194, 0.5640000000000001, -0.626, 0.58, 192.0, 0.0, 0.0, 0.0, 0.0, 0.0, 0.0, 0.0, 0.0, 0.0, 1.6634966530591338E9, 0.0, 2022-09-18 15:24:13.059
28.0, -8403.42890065061, -1640.4615808083513, -40654.98449265772, -15321.137347356958, -10050.283080373178, -187500.02235174447, -6152.07179213426, 4785.530839625698, 0.5640000000000001, -0.626, 0.58, 192.0, 0.0, 0.0, 0.0, 0.0, 0.0, 0.0, 0.0, 0.0, 0.0, 1.663496653059149E9, 0.0, 2022-09-18 15:24:13.059
29.0, -11534.751836627942, -4254.8557227677975, -40279.54224104193, -15863.413019587162, -11375.406250406057, -187500.02235174447, -6531.805578685472, 4169.427355459614, 0.5640000000000001, -0.626, 0.58, 192.0, 0.0, 0.0, 0.0, 0.0, 0.0, 0.0, 0.0, 0.0, 0.0, 1.6634966530591643E9, 0.0, 2022-09-18 15:24:13.059
30.0, -13897.085356364889, -6400.086748610348, -39661.06947196359, -15756.996364235445, -11992.068528183525, -187500.02235174447, -6280.214343096536, 4283.957694048607, 0.5640000000000001, -0.626, 0.58, 192.0, 0.0, 0.0, 0.0, 0.0, 0.0, 0.0, 0.0, 0.0, 0.0, 1.6634966530591803E9, 0.0, 2022-09-18 15:24:13.059
31.0, -13053.731686321698, -5828.239718465772, -39722.26854828221, -15445.10012210609, -11443.780236694842, -187500.02235174447, -5968.005176544807, 4636.109427941969, 0.5640000000000001, -0.626, 0.58, 192.0, 0.0, 0.0, 0.0, 0.0, 0.0, 0.0, 0.0, 0.0, 0.0, 1.6634966530591955E9, 0.0, 2022-09-18 15:24:13.059
32.0, -10438.309364117309, -3623.5307006276494, -40144.44829755405, -15226.67887528883, -10658.9657853801, -187500.02235174447, -5846.769314619221, 4863.4490207968975, 0.5640000000000001, -0.626, 0.58, 192.0, 0.0, 0.0, 0.0, 0.0, 0.0, 0.0, 0.0, 0.0, 0.0, 1.6634966530592113E9, 0.0, 2022-09-18 15:24:13.059
33.0, -8378.104374182747, -1630.0903713810887, -40660.818297960555, -15319.013931633704, -10031.664077241907, -187500.02235174447, -6135.531501237333, 4803.14401425648, 0.5680000000000001, -0.624, 0.5700000000000001, 192.0, 17.0, 192.0, 236.0, 128.0, 17.0, 208.0, 0.0, 0.0, 0.0, 1.6634966530592265E9, 0.0, 2022-09-18 15:24:13.059
34.0, -11349.858206493642, -4091.3974155661367, -40324.558654374916, -15863.301260864886, -11297.71158667941, -187500.02235174447, -6532.900814163782, 4183.754823655466, 0.5680000000000001, -0.624, 0.5700000000000001, 192.0, 0.0, 0.0, 0.0, 0.0, 0.0, 0.0, 0.0, 0.0, 0.0, 1.6634966530592425E9, 0.0, 2022-09-18 15:24:13.059
35.0, -13889.195190572167, -6381.177172801158, -39677.29683843814, -15782.946739548057, -11983.396051334865, -187500.02235174447, -6299.794471239385, 4273.2288567100595, 0.5680000000000001, -0.624, 0.5700000000000001, 192.0, 0.0, 0.0, 0.0, 0.0, 0.0, 0.0, 0.0, 0.0, 0.0, 1.6634966530592575E9, 0.0, 2022-09-18 15:24:13.059
36.0, -13148.480731067746, -5897.194850110394, -39710.15390278744, -15469.843503218115, -11449.435228042035, -187500.02235174447, -5981.3044644957145, 4625.380590603422, 0.5680000000000001, -0.624, 0.5700000000000001, 192.0, 0.0, 0.0, 0.0, 0.0, 0.0, 0.0, 0.0, 0.0, 0.0, 1.6634966530593197E9, 0.0, 2022-09-18 15:24:13.059
37.0, -10619.470252927573, -3775.6343216460136, -40120.80015192034, -15250.125855222448, -10681.049308901944, -187500.02235174447, -5856.849951368565, 4845.858197910571, 0.5680000000000001, -0.624, 0.5700000000000001, 192.0, 0.0, 0.0, 0.0, 0.0, 0.0, 0.0, 0.0, 0.0, 0.0, 1.6634966530593352E9, 0.0, 2022-09-18 15:24:13.059
38.0, -8381.010100961936, -1636.6394325064937, -40646.17790534233, -15302.764213414695, -10003.769100161684, -187500.02235174447, -6114.386750982613, 4815.5492324291745, 0.5680000000000001, -0.624, 0.5700000000000001, 192.0, 0.0, 0.0, 0.0, 0.0, 0.0, 0.0, 0.0, 0.0, 0.0, 1.6634966530593534E9, 0.0, 2022-09-18 15:24:13.059
39.0, -11178.465030010348, -3929.4143234985263, -40356.49929720155, -15847.029190901423, -11175.916931142441, -187500.02235174447, -6534.040753131003, 4204.698408210088, 0.5680000000000001, -0.624, 0.5700000000000001, 192.0, 0.0, 0.0, 0.0, 0.0, 0.0, 0.0, 0.0, 0.0, 0.0, 1.6634966530593684E9, 0.0, 2022-09-18 15:24:13.059
40.0, -13873.817190386915, -6353.773934098952, -39692.85365257903, -15812.65220792916, -11959.45733302323, -187500.02235174447, -6315.798320269385, 4242.539911572923, 0.5680000000000001, -0.624, 0.5700000000000001, 192.0, 0.0, 0.0, 0.0, 0.0, 0.0, 0.0, 0.0, 0.0, 0.0, 1.6634966530593836E9, 0.0, 2022-09-18 15:24:13.059
41.0, -13216.362978978514, -5949.386173413536, -39693.99359154625, -15492.016433717781, -11486.382661626658, -187500.02235174447, -5975.4930109373345, 4610.226107862724, 0.5680000000000001, -0.624, 0.5700000000000001, 192.0, 0.0, 0.0, 0.0, 0.0, 0.0, 0.0, 0.0, 0.0, 0.0, 1.663496653059399E9, 0.0, 2022-09-18 15:24:13.059
42.0, -10757.402867961273, -3902.0110847963197, -40084.18799450254, -15267.604919386498, -10755.681783638214, -187500.02235174447, -5841.91898607242, 4843.53361648722, 0.5680000000000001, -0.624, 0.5700000000000001, 192.0, 0.0, 0.0, 0.0, 0.0, 0.0, 0.0, 0.0, 0.0, 0.0, 1.663496653059414E9, 0.0, 2022-09-18 15:24:13.059
43.0, -8377.903208482649, -1645.4013163329741, -40626.910701621855, -15294.136440054946, -10011.771024676684, -187500.02235174447, -6088.078747758716, 4847.378116533532, 0.5720000000000001, -0.616, 0.5720000000000001, 192.0, 17.0, 224.0, 236.0, 192.0, 17.0, 224.0, 0.0, 0.0, 0.0, 1.6634966530594294E9, 0.0, 2022-09-18 15:24:13.059
44.0, -10982.976673004232, -3766.9618447973544, -40389.356361550854, -15838.535528008406, -11154.97334658782, -187500.02235174447, -6523.557784981464, 4225.887861953719, 0.5720000000000001, -0.616, 0.5720000000000001, 192.0, 0.0, 0.0, 0.0, 0.0, 0.0, 0.0, 0.0, 0.0, 0.0, 1.6634966530594456E9, 0.0, 2022-09-18 15:24:13.059
45.0, -13835.036913756958, -6318.949916237583, -39700.78852186067, -15820.296504532875, -12017.907144773859, -187500.02235174447, -6330.058733231871, 4235.476760325046, 0.5720000000000001, -0.616, 0.5720000000000001, 192.0, 0.0, 0.0, 0.0, 0.0, 0.0, 0.0, 0.0, 0.0, 0.0, 1.6634966530594652E9, 0.0, 2022-09-18 15:24:13.059
46.0, -13291.017805459238, -6002.829194406176, -39673.85466979202, -15478.605387044596, -11517.652752119631, -187500.02235174447, -5986.557124442712, 4615.165843387347, 0.5720000000000001, -0.616, 0.5720000000000001, 192.0, 0.0, 0.0, 0.0, 0.0, 0.0, 0.0, 0.0, 0.0, 0.0, 1.6634966530594804E9, 0.0, 2022-09-18 15:24:13.059
47.0, -10913.619209959414, -4038.4237812070587, -40063.60203785921, -15257.345468681511, -10801.52521151605, -187500.02235174447, -5840.711991871834, 4834.86113963856, 0.5720000000000001, -0.616, 0.5720000000000001, 192.0, 0.0, 0.0, 0.0, 0.0, 0.0, 0.0, 0.0, 0.0, 0.0, 1.6634966530594954E9, 0.0, 2022-09-18 15:24:13.059
48.0, -8395.963418002537, -1673.9668457468565, -40617.1876927838, -15254.104465735492, -10009.871126397984, -187500.02235174447, -6054.640538053577, 4870.132192389035, 0.5720000000000001, -0.616, 0.5720000000000001, 192.0, 0.0, 0.0, 0.0, 0.0, 0.0, 0.0, 0.0, 0.0, 0.0, 1.6634966530595105E9, 0.0, 2022-09-18 15:24:13.059
49.0, -10790.639911966315, -3602.900040495401, -40424.85093174588, -15794.614350153728, -11078.19510438384, -187500.02235174447, -6498.121499791325, 4254.788667534432, 0.5720000000000001, -0.616, 0.5720000000000001, 192.0, 0.0, 0.0, 0.0, 0.0, 0.0, 0.0, 0.0, 0.0, 0.0, 1.663496653059526E9, 0.0, 2022-09-18 15:24:13.059
50.0, -13787.785325978439, -6276.079270372305, -39724.10139132755, -15821.257629544454, -12016.655447084362, -187500.02235174447, -6338.306526935879, 4207.581783244823, 0.5720000000000001, -0.616, 0.5720000000000001, 192.0, 0.0, 0.0, 0.0, 0.0, 0.0, 0.0, 0.0, 0.0, 0.0, 1.6634966530595412E9, 0.0, 2022-09-18 15:24:13.059
51.0, -13355.323774257156, -6057.300395643759, -39666.34448365503, -15485.690890036929, -11539.222185519004, -187500.02235174447, -5995.341360013647, 4583.739290683186, 0.5720000000000001, -0.616, 0.5720000000000001, 192.0, 0.0, 0.0, 0.0, 0.0, 0.0, 0.0, 0.0, 0.0, 0.0, 1.6634966530595713E9, 0.0, 2022-09-18 15:24:13.059
52.0, -11054.166979094385, -4170.902570593664, -40034.298900878304, -15268.4542856758, -10839.187900923242, -187500.02235174447, -5840.399067449459, 4804.105139268057, 0.5720000000000001, -0.616, 0.5720000000000001, 192.0, 0.0, 0.0, 0.0, 0.0, 0.0, 0.0, 0.0, 0.0, 0.0, 1.6634966530595863E9, 0.0, 2022-09-18 15:24:13.059
53.0, -8412.816633321838, -1711.1601485204874, -40590.499709904165, -15245.20847144228, -10005.55723971811, -187500.02235174447, -6036.960308189429, 4869.349881333099, 0.5660000000000001, -0.618, 0.5740000000000001, 192.0, 17.0, 176.0, 236.0, 176.0, 17.0, 240.0, 0.0, 0.0, 0.0, 1.6634966530596015E9, 0.0, 2022-09-18 15:24:13.059
54.0, -10598.14668871721, -3449.0753351539774, -40450.756603569585, -15790.926312318601, -11003.137946502919, -187500.02235174447, -6503.284752760501, 4267.4174031516795, 0.5660000000000001, -0.618, 0.5740000000000001, 192.0, 0.0, 0.0, 0.0, 0.0, 0.0, 0.0, 0.0, 0.0, 0.0, 1.6634966530596175E9, 0.0, 2022-09-18 15:24:13.059
55.0, -13738.946764343593, -6238.014249564916, -39748.934179417396, -15847.208004857064, -12011.80511853756, -187500.02235174447, -6376.528009954454, 4194.528364482923, 0.5660000000000001, -0.618, 0.5740000000000001, 192.0, 0.0, 0.0, 0.0, 0.0, 0.0, 0.0, 0.0, 0.0, 0.0, 1.6634966530596328E9, 0.0, 2022-09-18 15:24:13.059
56.0, -13420.009722710816, -6111.346913736691, -39665.383358643456, -15500.331282655156, -11558.489389239478, -187500.02235174447, -6020.464720781412, 4593.797575688073, 0.5660000000000001, -0.618, 0.5740000000000001, 192.0, 0.0, 0.0, 0.0, 0.0, 0.0, 0.0, 0.0, 0.0, 0.0, 1.6634966530596483E9, 0.0, 2022-09-18 15:24:13.059
57.0, -11200.50385004328, -4300.162708778705, -40009.0414296438, -15276.746782868719, -10860.645575600336, -187500.02235174447, -5855.5088467012465, 4816.979744074314, 0.5660000000000001, -0.618, 0.5740000000000001, 192.0, 0.0, 0.0, 0.0, 0.0, 0.0, 0.0, 0.0, 0.0, 0.0, 1.6634966530596635E9, 0.0, 2022-09-18 15:24:13.059
58.0, -8449.406438995176, -1761.3398148226518, -40576.68633183078, -15238.681762061331, -10010.362864776, -187500.02235174447, -6032.087627898172, 4890.405224609998, 0.5660000000000001, -0.618, 0.5740000000000001, 192.0, 0.0, 0.0, 0.0, 0.0, 0.0, 0.0, 0.0, 0.0, 0.0, 1.663496653059679E9, 0.0, 2022-09-18 15:24:13.059
59.0, -10405.742872445926, -3284.2088680516326, -40472.77307185806, -15759.633870081172, -10892.876791104889, -187500.02235174447, -6504.8940783612825, 4310.288049016958, 0.5660000000000001, -0.618, 0.5740000000000001, 192.0, 0.0, 0.0, 0.0, 0.0, 0.0, 0.0, 0.0, 0.0, 0.0, 1.663496653059694E9, 0.0, 2022-09-18 15:24:13.059
60.0, -13679.535827581387, -6179.497382580922, -39761.093528401085, -15859.546167796394, -11970.007356406137, -187500.02235174447, -6397.3598357868, 4178.9044951086635, 0.5660000000000001, -0.618, 0.5740000000000001, 192.0, 0.0, 0.0, 0.0, 0.0, 0.0, 0.0, 0.0, 0.0, 0.0, 1.663496653059712E9, 0.0, 2022-09-18 15:24:13.059
61.0, -13473.363336725633, -6160.721917238465, -39649.49126833573, -15525.722864356383, -11599.750709503975, -187500.02235174447, -6029.673639496999, 4560.493476449666, 0.5660000000000001, -0.618, 0.5740000000000001, 192.0, 0.0, 0.0, 0.0, 0.0, 0.0, 0.0, 0.0, 0.0, 0.0, 1.6634966530597272E9, 0.0, 2022-09-18 15:24:13.059
62.0, -11332.133273140584, -4428.551128929988, -39988.74604567839, -15299.679672679864, -10943.056457407052, -187500.02235174447, -5855.844122868076, 4786.46961289282, 0.5660000000000001, -0.618, 0.5740000000000001, 192.0, 0.0, 0.0, 0.0, 0.0, 0.0, 0.0, 0.0, 0.0, 0.0, 1.6634966530597432E9, 0.0, 2022-09-18 15:24:13.059
63.0, -8495.696901762116, -1820.5495858847603, -40557.08385194348, -15226.611820055465, -10035.620336010497, -187500.02235174447, -6009.646476465044, 4895.4343671124425, 0.5660000000000001, -0.616, 0.5720000000000001, 192.0, 17.0, 176.0, 236.0, 192.0, 17.0, 224.0, 0.0, 0.0, 0.0, 1.6634966530597584E9, 0.0, 2022-09-18 15:24:13.059
64.0, -10209.53925961724, -3128.685430131606, -40506.77007517458, -15747.519224586396, -10848.665040572292, -187500.02235174447, -6484.889267073783, 4320.592203210856, 0.5660000000000001, -0.616, 0.5720000000000001, 192.0, 0.0, 0.0, 0.0, 0.0, 0.0, 0.0, 0.0, 0.0, 0.0, 1.6634966530597744E9, 0.0, 2022-09-18 15:24:13.059
65.0, -13591.112326516191, -6110.631657914121, -39782.50649958927, -15883.686051808127, -12002.484441099698, -187500.02235174447, -6407.88750742525, 4153.736430851988, 0.5660000000000001, -0.616, 0.5720000000000001, 192.0, 0.0, 0.0, 0.0, 0.0, 0.0, 0.0, 0.0, 0.0, 0.0, 1.66349665305979E9, 0.0, 2022-09-18 15:24:13.059
66.0, -13523.453596049976, -6196.5517636003215, -39639.94707345332, -15543.716018642906, -11619.06261671336, -187500.02235174447, -6042.280023369793, 4552.603310656942, 0.5660000000000001, -0.616, 0.5720000000000001, 192.0, 0.0, 0.0, 0.0, 0.0, 0.0, 0.0, 0.0, 0.0, 0.0, 1.6634966530598059E9, 0.0, 2022-09-18 15:24:13.059
67.0, -11467.428382328557, -4542.500322163144, -39977.033731583804, -15323.707797969319, -10966.79401001859, -187500.02235174447, -5862.616701438034, 4772.142144696969, 0.5660000000000001, -0.616, 0.5720000000000001, 192.0, 0.0, 0.0, 0.0, 0.0, 0.0, 0.0, 0.0, 0.0, 0.0, 1.6634966530598357E9, 0.0, 2022-09-18 15:24:13.059
68.0, -8557.79004785896, -1880.1616883470642, -40540.20828487972, -15230.858651501972, -10039.755408734729, -187500.02235174447, -5991.429804733969, 4904.7103410613945, 0.5660000000000001, -0.616, 0.5720000000000001, 192.0, 0.0, 0.0, 0.0, 0.0, 0.0, 0.0, 0.0, 0.0, 0.0, 1.6634966530598512E9, 0.0, 2022-09-18 15:24:13.059
69.0, -10032.848719698039, -2974.950131768004, -40540.74472674665, -15738.042084937346, -10766.567083187949, -187500.02235174447, -6470.628854111297, 4348.911863435729, 0.5660000000000001, -0.616, 0.5720000000000001, 192.0, 0.0, 0.0, 0.0, 0.0, 0.0, 0.0, 0.0, 0.0, 0.0, 1.6634966530598664E9, 0.0, 2022-09-18 15:24:13.059
70.0, -13521.263125093357, -6044.850473982153, -39822.650232631, -15912.251581222008, -11987.374661847909, -187500.02235174447, -6429.568699546898, 4137.218491699516, 0.5660000000000001, -0.616, 0.5720000000000001, 192.0, 0.0, 0.0, 0.0, 0.0, 0.0, 0.0, 0.0, 0.0, 0.0, 1.6634966530598915E9, 0.0, 2022-09-18 15:24:13.059
71.0, -13585.010300279893, -6241.076438555293, -39633.48741930573, -15570.247539311355, -11640.944974535105, -187500.02235174447, -6059.222645666915, 4542.343859951957, 0.5660000000000001, -0.616, 0.5720000000000001, 192.0, 0.0, 0.0, 0.0, 0.0, 0.0, 0.0, 0.0, 0.0, 0.0, 1.6634966530599072E9, 0.0, 2022-09-18 15:24:13.059
72.0, -11611.306561387368, -4663.199742221802, -39948.177629492006, -15343.84671972355, -11002.51209765817, -187500.02235174447, -5869.1881143078945, 4768.051775461648, 0.5660000000000001, -0.616, 0.5720000000000001, 192.0, 0.0, 0.0, 0.0, 0.0, 0.0, 0.0, 0.0, 0.0, 0.0, 1.6634966530599225E9, 0.0, 2022-09-18 15:24:13.059
73.0, -8640.71501978815, -1958.3480904517282, -40513.63206072236, -15228.042331700604, -10056.340403120566, -187500.02235174447, -5972.252007991316, 4924.044600015235, 0.5680000000000001, -0.618, 0.5660000000000001, 192.0, 17.0, 192.0, 236.0, 176.0, 17.0, 176.0, 0.0, 0.0, 0.0, 1.6634966530599377E9, 0.0, 2022-09-18 15:24:13.059
74.0, -9864.629490927398, -2825.193443917447, -40565.42105262531, -15720.808889962304, -10685.698471748647, -187500.02235174447, -6453.529769602987, 4388.139174954793, 0.5680000000000001, -0.618, 0.5660000000000001, 192.0, 0.0, 0.0, 0.0, 0.0, 0.0, 0.0, 0.0, 0.0, 0.0, 1.663496653059954E9, 0.0, 2022-09-18 15:24:13.059
75.0, -13443.479054388888, -5964.250083476315, -39847.34891025411, -15931.29526749793, -11952.572995730996, -187500.02235174447, -6445.438438110165, 4131.585852096779, 0.5680000000000001, -0.618, 0.5660000000000001, 192.0, 0.0, 0.0, 0.0, 0.0, 0.0, 0.0, 0.0, 0.0, 0.0, 1.6634966530599697E9, 0.0, 2022-09-18 15:24:13.059
76.0, -13647.617536499207, -6278.560314006843, -39621.41747729987, -15584.351490062654, -11649.192768239114, -187500.02235174447, -6069.705613816454, 4528.910461534317, 0.5680000000000001, -0.618, 0.5660000000000001, 192.0, 0.0, 0.0, 0.0, 0.0, 0.0, 0.0, 0.0, 0.0, 0.0, 1.6634966530599847E9, 0.0, 2022-09-18 15:24:13.059
77.0, -11749.976783988093, -4770.063432462625, -39919.58974833367, -15347.199481391846, -11007.60829539398, -187500.02235174447, -5867.087050329095, 4763.492019592764, 0.5680000000000001, -0.618, 0.5660000000000001, 192.0, 0.0, 0.0, 0.0, 0.0, 0.0, 0.0, 0.0, 0.0, 0.0, 1.6634966530600002E9, 0.0, 2022-09-18 15:24:13.060
78.0, -8731.463102276695, -2043.865864737733, -40482.92076384077, -15218.453433329278, -10069.729098049296, -187500.02235174447, -5943.105333221595, 4922.4352744144535, 0.5680000000000001, -0.618, 0.5660000000000001, 192.0, 0.0, 0.0, 0.0, 0.0, 0.0, 0.0, 0.0, 0.0, 0.0, 1.6634966530600195E9, 0.0, 2022-09-18 15:24:13.060
79.0, -9691.96226501015, -2677.448413067867, -40570.919581761314, -15678.38527898613, -10586.233208922531, -187500.02235174447, -6423.131397143769, 4424.036076550016, 0.5680000000000001, -0.618, 0.5660000000000001, 192.0, 0.0, 0.0, 0.0, 0.0, 0.0, 0.0, 0.0, 0.0, 0.0, 1.663496653060048E9, 0.0, 2022-09-18 15:24:13.060
80.0, -13346.606593919587, -5872.406765509459, -39861.54226798323, -15921.43814819314, -11889.205800200201, -187500.02235174447, -6451.763981791018, 4124.43329387108, 0.5680000000000001, -0.618, 0.5660000000000001, 192.0, 0.0, 0.0, 0.0, 0.0, 0.0, 0.0, 0.0, 0.0, 0.0, 1.6634966530600712E9, 0.0, 2022-09-18 15:24:13.060
81.0, -13687.001310229458, -6316.021837713938, -39606.397105025906, -15597.42726056901, -11688.755355925006, -187500.02235174447, -6078.15457322056, 4491.426586082767, 0.5680000000000001, -0.618, 0.5660000000000001, 192.0, 0.0, 0.0, 0.0, 0.0, 0.0, 0.0, 0.0, 0.0, 0.0, 1.6634966530600922E9, 0.0, 2022-09-18 15:24:13.060
82.0, -11859.209759141178, -4883.878515229048, -39888.5655270297, -15362.644536810463, -11081.57021779659, -187500.02235174447, -5871.557399220157, 4727.684524975362, 0.5680000000000001, -0.618, 0.5660000000000001, 192.0, 0.0, 0.0, 0.0, 0.0, 0.0, 0.0, 0.0, 0.0, 0.0, 1.6634966530601385E9, 0.0, 2022-09-18 15:24:13.060
83.0, -8809.31422821453, -2140.514807762481, -40452.231818703636, -15216.665293772852, -10117.248906761279, -187500.02235174447, -5933.427027872447, 4916.8026348117155, 0.5660000000000001, -0.61, 0.5740000000000001, 192.0, 17.0, 176.0, 236.0, 240.0, 17.0, 240.0, 0.0, 0.0, 0.0, 1.663496653060155E9, 0.0, 2022-09-18 15:24:13.060
84.0, -9517.50689953648, -2547.6071295269885, -40592.26549771613, -15664.683659635028, -10552.32561258383, -187500.02235174447, -6411.508490027009, 4436.150722044793, 0.5660000000000001, -0.61, 0.5740000000000001, 192.0, 0.0, 0.0, 0.0, 0.0, 0.0, 0.0, 0.0, 0.0, 0.0, 1.6634966530601723E9, 0.0, 2022-09-18 15:24:13.060
85.0, -13222.979095337283, -5777.210685874305, -39892.90176545403, -15950.853043896324, -11921.973457571681, -187500.02235174447, -6474.674519857707, 4088.0446538978404, 0.5660000000000001, -0.61, 0.5740000000000001, 192.0, 0.0, 0.0, 0.0, 0.0, 0.0, 0.0, 0.0, 0.0, 0.0, 1.6634966530601888E9, 0.0, 2022-09-18 15:24:13.060
86.0, -13726.407435704165, -6343.693297349608, -39610.06279111657, -15620.002522468869, -11724.920478453694, -187500.02235174447, -6103.121471777138, 4467.778440449052, 0.5660000000000001, -0.61, 0.5740000000000001, 192.0, 0.0, 0.0, 0.0, 0.0, 0.0, 0.0, 0.0, 0.0, 0.0, 1.6634966530602047E9, 0.0, 2022-09-18 15:24:13.060
87.0, -11985.027728680103, -4985.333083311687, -39882.4635007934, -15378.581330607098, -11108.459366376324, -187500.02235174447, -5892.188059352406, 4702.807033396606, 0.5660000000000001, -0.61, 0.5740000000000001, 192.0, 0.0, 0.0, 0.0, 0.0, 0.0, 0.0, 0.0, 0.0, 0.0, 1.6634966530602207E9, 0.0, 2022-09-18 15:24:13.060
88.0, -8916.04380798862, -2239.398925232759, -40432.67404230524, -15213.424290826833, -10140.226500061333, -187500.02235174447, -5939.193777941916, 4895.948457234915, 0.5660000000000001, -0.61, 0.5740000000000001, 192.0, 0.0, 0.0, 0.0, 0.0, 0.0, 0.0, 0.0, 0.0, 0.0, 1.6634966530602372E9, 0.0, 2022-09-18 15:24:13.060
89.0, -9356.820208647277, -2410.3227150824923, -40620.22753002972, -15628.540888850795, -10471.658166844627, -187500.02235174447, -6410.279144081967, 4450.299376285002, 0.5660000000000001, -0.61, 0.5740000000000001, 192.0, 0.0, 0.0, 0.0, 0.0, 0.0, 0.0, 0.0, 0.0, 0.0, 1.6634966530602524E9, 0.0, 2022-09-18 15:24:13.060
90.0, -13098.25636127667, -5663.999100208175, -39935.63830085257, -15939.00661933501, -11878.521666350563, -187500.02235174447, -6499.753177136562, 4075.8629531696984, 0.5660000000000001, -0.61, 0.5740000000000001, 192.0, 0.0, 0.0, 0.0, 0.0, 0.0, 0.0, 0.0, 0.0, 0.0, 1.6634966530602689E9, 0.0, 2022-09-18 15:24:13.060
91.0, -13757.319898285854, -6365.732117382541, -39618.13177086494, -15624.294057404288, -11741.974859473094, -187500.02235174447, -6133.966879125462, 4443.437390737223, 0.5660000000000001, -0.61, 0.5740000000000001, 192.0, 0.0, 0.0, 0.0, 0.0, 0.0, 0.0, 0.0, 0.0, 0.0, 1.663496653060286E9, 0.0, 2022-09-18 15:24:13.060
92.0, -12100.809764958592, -5081.847915869703, -39876.60734374611, -15390.51716214623, -11133.761541099733, -187500.02235174447, -5915.478577074836, 4685.506783188198, 0.5660000000000001, -0.61, 0.5740000000000001, 192.0, 0.0, 0.0, 0.0, 0.0, 0.0, 0.0, 0.0, 0.0, 0.0, 1.6634966530603073E9, 0.0, 2022-09-18 15:24:13.060
93.0, -9034.418646623928, -2352.409345198792, -40421.162893910754, -15225.24836364369, -10173.307081855188, -187500.02235174447, -5940.289013420226, 4885.934875718936, 0.5740000000000001, -0.612, 0.5720000000000001, 192.0, 17.0, 240.0, 236.0, 224.0, 17.0, 224.0, 0.0, 0.0, 0.0, 1.6634966530603244E9, 0.0, 2022-09-18 15:24:13.060
94.0, -9216.563012190225, -2294.78654799301, -40650.08946062201, -15618.683769546005, -10405.54170674583, -187500.02235174447, -6401.3607980443, 4468.35958580489, 0.5740000000000001, -0.612, 0.5720000000000001, 192.0, 0.0, 0.0, 0.0, 0.0, 0.0, 0.0, 0.0, 0.0, 0.0, 1.6634966530603414E9, 0.0, 2022-09-18 15:24:13.060
95.0, -12986.944673889242, -5558.1412384678415, -39990.64594395709, -15968.309756315919, -11832.164148350257, -187500.02235174447, -6538.265232833056, 4054.584092448246, 0.5740000000000001, -0.612, 0.5720000000000001, 192.0, 0.0, 0.0, 0.0, 0.0, 0.0, 0.0, 0.0, 0.0, 0.0, 1.6634966530603569E9, 0.0, 2022-09-18 15:24:13.060
96.0, -13815.613247825295, -6400.556135243909, -39643.32218686607, -15667.947014325502, -11757.554025358442, -187500.02235174447, -6183.297179138324, 4408.792186831497, 0.5740000000000001, -0.612, 0.5720000000000001, 192.0, 0.0, 0.0, 0.0, 0.0, 0.0, 0.0, 0.0, 0.0, 0.0, 1.6634966530603776E9, 0.0, 2022-09-18 15:24:13.060
0.0, 0.0, 0.0, 0.0, 0.0, 0.0, 0.0, 0.0, 0.0, 0.5740000000000001, -0.612, 0.5720000000000001, 192.0, 0.0, 0.0, 0.0, 0.0, 0.0, 0.0, 0.0, 0.0, 0.0, 1.663496653162124E9, 0.0, 2022-09-18 15:24:13.162
1.0, -17155.701477015195, 10657.356459779317, -34979.54129928843, -15776.330623189286, -42027.42630570249, -187500.02235174447, -9924.040427689604, 2303.280210886027, 0.5700000000000001, -0.592, 0.5640000000000001, 192.0, 17.0, 208.0, 237.0, 128.0, 17.0, 160.0, 0.0, 0.0, 0.0, 1.6634966536469865E9, 0.0, 2022-09-18 15:24:13.646
2.0, -15611.598266553674, 11696.310245550902, -35146.70999606967, -15616.672112545028, -41496.25945046657, -187500.02235174447, -9731.010762573573, 2461.508209885146, 0.5700000000000001, -0.592, 0.5640000000000001, 192.0, 0.0, 0.0, 0.0, 0.0, 0.0, 0.0, 0.0, 0.0, 0.0, 1.6634966536470664E9, 0.0, 2022-09-18 15:24:13.647
3.0, -12212.009693623746, 14406.503964245792, -35588.42516999545, -15581.579873750195, -40727.314737715096, -187500.02235174447, -9776.943597429228, 2521.9696786367513, 0.5700000000000001, -0.592, 0.5640000000000001, 192.0, 0.0, 0.0, 0.0, 0.0, 0.0, 0.0, 0.0, 0.0, 0.0, 1.6634966536471035E9, 0.0, 2022-09-18 15:24:13.647
4.0, -11620.873108014239, 15105.08538545196, -35877.343818824746, -15890.503333866995, -40746.336072246566, -187500.02235174447, -10190.249704152311, 2231.4193524622146, 0.5700000000000001, -0.592, 0.5640000000000001, 192.0, 0.0, 0.0, 0.0, 0.0, 0.0, 0.0, 0.0, 0.0, 0.0, 1.6634966536471388E9, 0.0, 2022-09-18 15:24:13.647
5.0, -15718.104328883212, 11918.151309269824, -35380.933926216836, -16084.292958294507, -41964.774365994264, -187500.02235174447, -10299.505031049852, 1961.834962586756, 0.5700000000000001, -0.592, 0.5640000000000001, 192.0, 0.0, 0.0, 0.0, 0.0, 0.0, 0.0, 0.0, 0.0, 0.0, 1.663496653647208E9, 0.0, 2022-09-18 15:24:13.647
6.0, -17158.629555538842, 10650.114494575799, -34992.438255839144, -15791.529809418895, -42012.9647270399, -187500.02235174447, -9939.01609647466, 2252.6311579503013, 0.5700000000000001, -0.592, 0.5640000000000001, 192.0, 0.0, 0.0, 0.0, 0.0, 0.0, 0.0, 0.0, 0.0, 0.0, 1.6634966536472394E9, 0.0, 2022-09-18 15:24:13.647
7.0, -15724.318113841788, 11598.364901347746, -35121.497228324086, -15625.85867951616, -41529.60825319389, -187500.02235174447, -9726.74157938261, 2414.5024912956346, 0.5700000000000001, -0.592, 0.5640000000000001, 192.0, 0.0, 0.0, 0.0, 0.0, 0.0, 0.0, 0.0, 0.0, 0.0, 1.6634966536472704E9, 0.0, 2022-09-18 15:24:13.647
8.0, -12382.084117184177, 14255.29441300564, -35529.818896033634, -15568.101771843645, -40771.25826731423, -187500.02235174447, -9746.813445903474, 2515.845300655997, 0.582, -0.606, 0.5760000000000001, 192.0, 18.0, 48.0, 237.0, 16.0, 18.0, 0.0, 0.0, 0.0, 0.0, 1.6634966536473029E9, 0.0, 2022-09-18 15:24:13.647
9.0, -11495.36806289769, 15191.43017428281, -35890.46429282001, -15887.351737898796, -40705.231214193256, -187500.02235174447, -10204.286599670244, 2218.410637189226, 0.582, -0.606, 0.5760000000000001, 192.0, 0.0, 0.0, 0.0, 0.0, 0.0, 0.0, 0.0, 0.0, 0.0, 1.6634966536473353E9, 0.0, 2022-09-18 15:24:13.647
10.0, -15527.466300423897, 12067.416258742363, -35430.130115762964, -16111.13740338533, -41965.42256658347, -187500.02235174447, -10353.104514253679, 1911.3200201177622, 0.582, -0.606, 0.5760000000000001, 192.0, 0.0, 0.0, 0.0, 0.0, 0.0, 0.0, 0.0, 0.0, 0.0, 1.6634966536473665E9, 0.0, 2022-09-18 15:24:13.647
11.0, -17178.63436682634, 10648.348706763829, -34968.655999738694, -15793.832039097791, -42047.811096645724, -187500.02235174447, -9965.324099698557, 2249.6807276822005, 0.582, -0.606, 0.5760000000000001, 192.0, 0.0, 0.0, 0.0, 0.0, 0.0, 0.0, 0.0, 0.0, 0.0, 1.6634966536473987E9, 0.0, 2022-09-18 15:24:13.647
12.0, -15860.507292807973, 11503.347635668235, -35096.06094313395, -15625.813976027248, -41546.61793072438, -187500.02235174447, -9766.907664168795, 2417.1176453969056, 0.582, -0.606, 0.5760000000000001, 192.0, 0.0, 0.0, 0.0, 0.0, 0.0, 0.0, 0.0, 0.0, 0.0, 1.6634966536474335E9, 0.0, 2022-09-18 15:24:13.647
13.0, -12584.747384160446, 14090.852629047946, -35496.067761906124, -15564.257271797333, -40806.998706698265, -187500.02235174447, -9766.192408346225, 2506.5916784515, 0.582, -0.606, 0.5760000000000001, 192.0, 0.0, 0.0, 0.0, 0.0, 0.0, 0.0, 0.0, 0.0, 0.0, 1.66349665364747E9, 0.0, 2022-09-18 15:24:13.647
14.0, -11386.179791233515, 15277.774963113663, -35858.14367033764, -15845.911603678656, -40641.37228028444, -187500.02235174447, -10177.084526668135, 2256.5427132299797, 0.582, -0.606, 0.5760000000000001, 192.0, 0.0, 0.0, 0.0, 0.0, 0.0, 0.0, 0.0, 0.0, 0.0, 1.6634966536475163E9, 0.0, 2022-09-18 15:24:13.647
15.0, -15326.680579981874, 12240.955202693369, -35437.908522833415, -16101.168525358264, -41899.95430707387, -187500.02235174447, -10362.939281814013, 1917.1091219316868, 0.582, -0.606, 0.5760000000000001, 192.0, 0.0, 0.0, 0.0, 0.0, 0.0, 0.0, 0.0, 0.0, 0.0, 1.6634966536475592E9, 0.0, 2022-09-18 15:24:13.647
16.0, -17203.221285727177, 10646.672325929681, -34985.73273250255, -15811.489917217485, -42070.475765523406, -187500.02235174447, -10014.319123544588, 2208.5535178844357, 0.582, -0.606, 0.5760000000000001, 192.0, 0.0, 0.0, 0.0, 0.0, 0.0, 0.0, 0.0, 0.0, 0.0, 1.6634966536476948E9, 0.0, 2022-09-18 15:24:13.647
17.0, -15990.817962982414, 11422.25550678438, -35090.89769016477, -15628.272667917332, -41567.62857051237, -187500.02235174447, -9785.07963241096, 2401.583183000467, 0.582, -0.606, 0.5760000000000001, 192.0, 0.0, 0.0, 0.0, 0.0, 0.0, 0.0, 0.0, 0.0, 0.0, 1.6634966536477332E9, 0.0, 2022-09-18 15:24:13.647
18.0, -12797.558343119425, 13928.75777825806, -35486.7247327238, -15572.616824223618, -40859.570009657145, -187500.02235174447, -9764.851303678906, 2487.011550308651, 0.584, -0.61, 0.5740000000000001, 192.0, 18.0, 64.0, 236.0, 240.0, 17.0, 240.0, 0.0, 0.0, 0.0, 1.6634966536477673E9, 0.0, 2022-09-18 15:24:13.647
19.0, -11308.507479251324, 15344.114940657013, -35882.95410668303, -15843.65407748867, -40611.80092237007, -187500.02235174447, -10157.77261945875, 2259.180219075706, 0.584, -0.61, 0.5740000000000001, 192.0, 0.0, 0.0, 0.0, 0.0, 0.0, 0.0, 0.0, 0.0, 0.0, 1.6634966536478E9, 0.0, 2022-09-18 15:24:13.647
20.0, -15126.855984551428, 12416.59521062317, -35487.127064124, -16117.261781366085, -41836.74357375426, -187500.02235174447, -10361.084087024223, 1914.2257468969522, 0.584, -0.61, 0.5740000000000001, 192.0, 0.0, 0.0, 0.0, 0.0, 0.0, 0.0, 0.0, 0.0, 0.0, 1.6634966536478305E9, 0.0, 2022-09-18 15:24:13.647
21.0, -17226.198879027233, 10655.814189411902, -35000.73075303206, -15833.28286806141, -42073.1803266025, -187500.02235174447, -10007.703007185819, 2204.1278724822846, 0.584, -0.61, 0.5740000000000001, 192.0, 0.0, 0.0, 0.0, 0.0, 0.0, 0.0, 0.0, 0.0, 0.0, 1.6634966536478596E9, 0.0, 2022-09-18 15:24:13.647
22.0, -16113.059653408487, 11350.305241382748, -35080.861756904334, -15628.205612683967, -41569.2602478576, -187500.02235174447, -9760.090382109927, 2424.2255001336935, 0.584, -0.61, 0.5740000000000001, 192.0, 0.0, 0.0, 0.0, 0.0, 0.0, 0.0, 0.0, 0.0, 0.0, 1.6634966536478903E9, 0.0, 2022-09-18 15:24:13.647
23.0, -13003.596723508444, 13763.757200688982, -35476.44293027436, -15574.27085331331, -40883.66519017997, -187500.02235174447, -9747.729867426142, 2487.9279718313187, 0.584, -0.61, 0.5740000000000001, 192.0, 0.0, 0.0, 0.0, 0.0, 0.0, 0.0, 0.0, 0.0, 0.0, 1.6634966536479237E9, 0.0, 2022-09-18 15:24:13.647
24.0, -11218.206431651883, 15394.562827892642, -35886.77625498489, -15811.042882328378, -40559.14021243337, -187500.02235174447, -10107.011807800747, 2284.4600420546585, 0.584, -0.61, 0.5740000000000001, 192.0, 0.0, 0.0, 0.0, 0.0, 0.0, 0.0, 0.0, 0.0, 0.0, 1.663496653647957E9, 0.0, 2022-09-18 15:24:13.647
25.0, -14888.876961335774, 12598.11372734472, -35539.340739171595, -16111.450327807705, -41719.12869443044, -187500.02235174447, -10352.411610175564, 1920.9312702335442, 0.584, -0.61, 0.5740000000000001, 192.0, 0.0, 0.0, 0.0, 0.0, 0.0, 0.0, 0.0, 0.0, 0.0, 1.663496653647998E9, 0.0, 2022-09-18 15:24:13.647
26.0, -17203.35539619391, 10663.033802870967, -35039.08634651737, -15869.023307445445, -42067.45828002194, -187500.02235174447, -10017.448367768333, 2160.318453349883, 0.584, -0.61, 0.5740000000000001, 192.0, 0.0, 0.0, 0.0, 0.0, 0.0, 0.0, 0.0, 0.0, 0.0, 1.6634966536480455E9, 0.0, 2022-09-18 15:24:13.648
27.0, -16194.956445092732, 11274.599882912622, -35074.6256202013, -15645.371752425643, -41571.60718102541, -187500.02235174447, -9752.31197503948, 2391.7707671845874, 0.584, -0.61, 0.5740000000000001, 192.0, 0.0, 0.0, 0.0, 0.0, 0.0, 0.0, 0.0, 0.0, 0.0, 1.6634966536481128E9, 0.0, 2022-09-18 15:24:13.648
28.0, -13170.474847611767, 13613.50877446041, -35436.76858386619, -15570.359298033633, -40891.309486783684, -187500.02235174447, -9705.97680878363, 2492.9571143337625, 0.578, -0.592, 0.5760000000000001, 192.0, 18.0, 16.0, 237.0, 128.0, 18.0, 0.0, 0.0, 0.0, 0.0, 1.6634966536481433E9, 0.0, 2022-09-18 15:24:13.648
29.0, -11132.44278817687, 15439.735703436818, -35870.39242629915, -15788.042937283868, -40504.53490072905, -187500.02235174447, -10059.89433048896, 2328.0682954869626, 0.578, -0.592, 0.5760000000000001, 192.0, 0.0, 0.0, 0.0, 0.0, 0.0, 0.0, 0.0, 0.0, 0.0, 1.6634966536481752E9, 0.0, 2022-09-18 15:24:13.648
30.0, -14629.015580298375, 12785.108421457819, -35557.40094869148, -16107.158792872286, -41677.26387706565, -187500.02235174447, -10325.053074962269, 1947.5745496242703, 0.578, -0.592, 0.5760000000000001, 192.0, 0.0, 0.0, 0.0, 0.0, 0.0, 0.0, 0.0, 0.0, 0.0, 1.6634966536482067E9, 0.0, 2022-09-18 15:24:13.648
31.0, -17160.59650905091, 10687.665425260715, -35023.17190446519, -15871.146723168698, -42090.8382047222, -187500.02235174447, -10006.160736818401, 2167.2921976199386, 0.578, -0.592, 0.5760000000000001, 192.0, 0.0, 0.0, 0.0, 0.0, 0.0, 0.0, 0.0, 0.0, 0.0, 1.663496653648329E9, 0.0, 2022-09-18 15:24:13.648
32.0, -16287.425611904338, 11194.379472062526, -35065.57316369691, -15651.697296106495, -41592.148434179835, -187500.02235174447, -9758.235187320137, 2425.141921656361, 0.578, -0.592, 0.5760000000000001, 192.0, 0.0, 0.0, 0.0, 0.0, 0.0, 0.0, 0.0, 0.0, 0.0, 1.6634966536483595E9, 0.0, 2022-09-18 15:24:13.648
33.0, -13375.038012866738, 13427.27403965879, -35420.8094383251, -15589.447687798463, -40952.95559799142, -187500.02235174447, -9711.430634430722, 2507.2622307851593, 0.578, -0.592, 0.5760000000000001, 192.0, 0.0, 0.0, 0.0, 0.0, 0.0, 0.0, 0.0, 0.0, 0.0, 1.66349665364839E9, 0.0, 2022-09-18 15:24:13.648
34.0, -11092.522572579692, 15446.754151195784, -35851.72871967897, -15777.224692967498, -40465.39699618781, -187500.02235174447, -10037.766103478207, 2368.9049326068084, 0.578, -0.592, 0.5760000000000001, 192.0, 0.0, 0.0, 0.0, 0.0, 0.0, 0.0, 0.0, 0.0, 0.0, 1.6634966536484218E9, 0.0, 2022-09-18 15:24:13.648
35.0, -14380.37477497754, 12972.036060337552, -35589.252184540295, -16122.693255268725, -41585.934649221264, -187500.02235174447, -10348.52240664034, 1953.0730787602758, 0.578, -0.592, 0.5760000000000001, 192.0, 0.0, 0.0, 0.0, 0.0, 0.0, 0.0, 0.0, 0.0, 0.0, 1.6634966536484551E9, 0.0, 2022-09-18 15:24:13.648
36.0, -17131.62864823683, 10710.710073794136, -35058.06297755992, -15913.123299255765, -42092.60399253416, -187500.02235174447, -10067.784496281683, 2138.3019850614055, 0.578, -0.592, 0.5760000000000001, 192.0, 0.0, 0.0, 0.0, 0.0, 0.0, 0.0, 0.0, 0.0, 0.0, 1.6634966536485088E9, 0.0, 2022-09-18 15:24:13.648
37.0, -16379.313633360105, 11127.63716311898, -35064.03089332949, -15684.822581389259, -41598.13870169386, -187500.02235174447, -9796.434318594256, 2379.410252500803, 0.578, -0.592, 0.5760000000000001, 192.0, 0.0, 0.0, 0.0, 0.0, 0.0, 0.0, 0.0, 0.0, 0.0, 1.66349665364854E9, 0.0, 2022-09-18 15:24:13.648
38.0, -13563.73143955844, 13272.711726750342, -35388.86879549847, -15605.85386822866, -40971.26167670032, -187500.02235174447, -9714.895154821295, 2482.2282769952153, 0.588, -0.588, 0.5720000000000001, 192.0, 18.0, 96.0, 237.0, 160.0, 17.0, 224.0, 0.0, 0.0, 0.0, 1.66349665364857E9, 0.0, 2022-09-18 15:24:13.648
39.0, -11071.400174069426, 15452.00681114278, -35848.04068184384, -15771.256777197932, -40424.53800732351, -187500.02235174447, -10022.097530615036, 2386.1381275818503, 0.588, -0.588, 0.5720000000000001, 192.0, 0.0, 0.0, 0.0, 0.0, 0.0, 0.0, 0.0, 0.0, 0.0, 1.663496653648608E9, 0.0, 2022-09-18 15:24:13.648
40.0, -14140.831129650012, 13164.12695218646, -35619.53879827724, -16129.175261160764, -41491.49852889759, -187500.02235174447, -10349.841159563204, 1956.9846340399545, 0.588, -0.588, 0.5720000000000001, 192.0, 0.0, 0.0, 0.0, 0.0, 0.0, 0.0, 0.0, 0.0, 0.0, 1.6634966536486375E9, 0.0, 2022-09-18 15:24:13.648
41.0, -17101.252627522066, 10740.437893919694, -35059.29232350497, -15944.751017660024, -42091.62051577813, -187500.02235174447, -10083.028386000204, 2109.0211998249533, 0.588, -0.588, 0.5720000000000001, 192.0, 0.0, 0.0, 0.0, 0.0, 0.0, 0.0, 0.0, 0.0, 0.0, 1.663496653648668E9, 0.0, 2022-09-18 15:24:13.648
42.0, -16464.11615182354, 11073.814162470599, -35023.03779399846, -15679.569921442262, -41590.539108579054, -187500.02235174447, -9779.111716641393, 2407.6852092367662, 0.588, -0.588, 0.5720000000000001, 192.0, 0.0, 0.0, 0.0, 0.0, 0.0, 0.0, 0.0, 0.0, 0.0, 1.6634966536486971E9, 0.0, 2022-09-18 15:24:13.648
43.0, -13757.319898285854, 13117.970599886252, -35345.193486832795, -15589.09005988718, -40969.920572033, -187500.02235174447, -9698.913657535752, 2503.887117372408, 0.588, -0.588, 0.5720000000000001, 192.0, 0.0, 0.0, 0.0, 0.0, 0.0, 0.0, 0.0, 0.0, 0.0, 1.6634966536487257E9, 0.0, 2022-09-18 15:24:13.648
44.0, -11073.85886595951, 15431.890241133004, -35832.21564676948, -15749.93321298757, -40383.924887648216, -187500.02235174447, -10001.332760016056, 2397.04577887604, 0.588, -0.588, 0.5720000000000001, 192.0, 0.0, 0.0, 0.0, 0.0, 0.0, 0.0, 0.0, 0.0, 0.0, 1.6634966536487541E9, 0.0, 2022-09-18 15:24:13.648
45.0, -13908.171821614722, 13357.26837602477, -35640.147106665034, -16108.27638009505, -41350.8613527848, -187500.02235174447, -10353.462142164963, 1974.843677859745, 0.588, -0.588, 0.5720000000000001, 192.0, 0.0, 0.0, 0.0, 0.0, 0.0, 0.0, 0.0, 0.0, 0.0, 1.6634966536487837E9, 0.0, 2022-09-18 15:24:13.648
46.0, -17066.406257916246, 10791.712795700168, -35059.24762001605, -15945.48862522705, -42031.02493655979, -187500.02235174447, -10101.468575175832, 2085.1048332577748, 0.588, -0.588, 0.5720000000000001, 192.0, 0.0, 0.0, 0.0, 0.0, 0.0, 0.0, 0.0, 0.0, 0.0, 1.6634966536488476E9, 0.0, 2022-09-18 15:24:13.648
47.0, -16569.571682163678, 11007.585943649525, -35025.585892866366, -15679.994604586913, -41597.736370293664, -187500.02235174447, -9815.299190914535, 2381.2877990350485, 0.588, -0.588, 0.5720000000000001, 192.0, 0.0, 0.0, 0.0, 0.0, 0.0, 0.0, 0.0, 0.0, 0.0, 1.6634966536488771E9, 0.0, 2022-09-18 15:24:13.648
48.0, -13976.679918370239, 12952.098304283418, -35338.39855651838, -15585.938463918981, -41001.414179970525, -187500.02235174447, -9730.54137594001, 2474.226352480215, 0.59, -0.602, 0.5740000000000001, 192.0, 18.0, 112.0, 237.0, 48.0, 17.0, 240.0, 0.0, 0.0, 0.0, 1.6634966536489117E9, 0.0, 2022-09-18 15:24:13.648
49.0, -11119.322314181605, 15399.055528528159, -35827.27591124486, -15711.957599158002, -40369.66447468573, -187500.02235174447, -10000.662207682397, 2385.177002570272, 0.59, -0.602, 0.5740000000000001, 192.0, 0.0, 0.0, 0.0, 0.0, 0.0, 0.0, 0.0, 0.0, 0.0, 1.6634966536489425E9, 0.0, 2022-09-18 15:24:13.648
50.0, -13682.598016571763, 13540.91030846957, -35696.58526141468, -16089.880894408334, -41304.190910362115, -187500.02235174447, -10366.33674697122, 1956.805820084312, 0.59, -0.602, 0.5740000000000001, 192.0, 0.0, 0.0, 0.0, 0.0, 0.0, 0.0, 0.0, 0.0, 0.0, 1.6634966536489718E9, 0.0, 2022-09-18 15:24:13.648
51.0, -17018.640580015253, 10841.735999791146, -35078.33600978089, -15941.197090291631, -42065.22310557641, -187500.02235174447, -10121.451034718875, 2075.8288593088223, 0.59, -0.602, 0.5740000000000001, 192.0, 0.0, 0.0, 0.0, 0.0, 0.0, 0.0, 0.0, 0.0, 0.0, 1.6634966536490004E9, 0.0, 2022-09-18 15:24:13.649
52.0, -16662.554939097758, 10956.40044884687, -35002.988279222045, -15655.362982197164, -41613.203777456736, -187500.02235174447, -9813.980437991671, 2382.718310680188, 0.59, -0.602, 0.5740000000000001, 192.0, 0.0, 0.0, 0.0, 0.0, 0.0, 0.0, 0.0, 0.0, 0.0, 1.6634966536490295E9, 0.0, 2022-09-18 15:24:13.649
53.0, -14180.594883036005, 12798.63122685328, -35303.17220725682, -15567.185350320979, -41045.31300608075, -187500.02235174447, -9720.058407790471, 2463.944550030774, 0.59, -0.602, 0.5740000000000001, 192.0, 0.0, 0.0, 0.0, 0.0, 0.0, 0.0, 0.0, 0.0, 0.0, 1.6634966536490579E9, 0.0, 2022-09-18 15:24:13.649
54.0, -11173.16766657444, 15355.067295440114, -35782.84064326771, -15675.792476629314, -40352.096003543855, -187500.02235174447, -9961.412544418878, 2421.05155242104, 0.59, -0.602, 0.5740000000000001, 192.0, 0.0, 0.0, 0.0, 0.0, 0.0, 0.0, 0.0, 0.0, 0.0, 1.6634966536490865E9, 0.0, 2022-09-18 15:24:13.649
55.0, -13461.539263908777, 13726.787415359906, -35706.08475280819, -16078.727373925136, -41216.86264477523, -187500.02235174447, -10360.391182946109, 1969.8815905906667, 0.59, -0.602, 0.5740000000000001, 192.0, 0.0, 0.0, 0.0, 0.0, 0.0, 0.0, 0.0, 0.0, 0.0, 1.663496653649115E9, 0.0, 2022-09-18 15:24:13.649
56.0, -16968.79618987992, 10899.001169085643, -35101.1347891253, -15983.30777684543, -42061.35625378564, -187500.02235174447, -10155.67155547995, 2016.9543644135433, 0.59, -0.602, 0.5740000000000001, 192.0, 0.0, 0.0, 0.0, 0.0, 0.0, 0.0, 0.0, 0.0, 0.0, 1.6634966536491504E9, 0.0, 2022-09-18 15:24:13.649
57.0, -16755.784065220843, 10900.006997586132, -34988.43729358164, -15692.288064037331, -41633.45445793324, -187500.02235174447, -9829.201975965736, 2346.955519551697, 0.59, -0.602, 0.5740000000000001, 192.0, 0.0, 0.0, 0.0, 0.0, 0.0, 0.0, 0.0, 0.0, 0.0, 1.6634966536491797E9, 0.0, 2022-09-18 15:24:13.649
58.0, -14371.970519062343, 12648.606318069258, -35265.80009052755, -15584.642062740573, -41074.70555003948, -187500.02235174447, -9709.307218707469, 2445.616119577422, 0.596, -0.602, 0.5720000000000001, 192.0, 18.0, 160.0, 237.0, 48.0, 17.0, 224.0, 0.0, 0.0, 0.0, 1.6634966536492083E9, 0.0, 2022-09-18 15:24:13.649
59.0, -11236.490158616323, 15289.3084632526, -35751.95053243048, -15662.962575311969, -40345.23401799608, -187500.02235174447, -9927.169671913347, 2424.359610600425, 0.596, -0.602, 0.5720000000000001, 192.0, 0.0, 0.0, 0.0, 0.0, 0.0, 0.0, 0.0, 0.0, 0.0, 1.6634966536492417E9, 0.0, 2022-09-18 15:24:13.649
60.0, -13225.884822116474, 13906.718958225127, -35726.894226896075, -16058.052010303976, -41126.963928575984, -187500.02235174447, -10343.493264137896, 1983.4938029639488, 0.596, -0.602, 0.5720000000000001, 192.0, 0.0, 0.0, 0.0, 0.0, 0.0, 0.0, 0.0, 0.0, 0.0, 1.66349665364927E9, 0.0, 2022-09-18 15:24:13.649
61.0, -16881.5349795264, 10969.275053653128, -35121.340766112895, -15985.565303035415, -42046.73821291187, -187500.02235174447, -10173.307081855188, 2023.4363703055824, 0.596, -0.602, 0.5720000000000001, 192.0, 0.0, 0.0, 0.0, 0.0, 0.0, 0.0, 0.0, 0.0, 0.0, 1.6634966536492984E9, 0.0, 2022-09-18 15:24:13.649
62.0, -16821.118214263704, 10854.029459241565, -34973.126348629754, -15679.860494120181, -41643.468039449224, -187500.02235174447, -9834.678153357287, 2366.021557572074, 0.596, -0.602, 0.5720000000000001, 192.0, 0.0, 0.0, 0.0, 0.0, 0.0, 0.0, 0.0, 0.0, 0.0, 1.6634966536493516E9, 0.0, 2022-09-18 15:24:13.649
63.0, -14561.870939954631, 12499.09549940771, -35237.01104366911, -15577.355394048143, -41100.52181488536, -187500.02235174447, -9710.134233252315, 2459.9882912621847, 0.596, -0.602, 0.5720000000000001, 192.0, 0.0, 0.0, 0.0, 0.0, 0.0, 0.0, 0.0, 0.0, 0.0, 1.66349665364938E9, 0.0, 2022-09-18 15:24:13.649
64.0, -11325.561860270724, 15203.611875010953, -35735.723165955926, -15656.391162442109, -40346.59747440785, -187500.02235174447, -9922.699323022285, 2433.501474082646, 0.596, -0.602, 0.5720000000000001, 192.0, 0.0, 0.0, 0.0, 0.0, 0.0, 0.0, 0.0, 0.0, 0.0, 1.6634966536494083E9, 0.0, 2022-09-18 15:24:13.649
65.0, -12988.822220423488, 14092.081974992989, -35744.01566314884, -16047.434931687705, -40997.54732817976, -187500.02235174447, -10335.42428438953, 2027.8843674521886, 0.596, -0.602, 0.5720000000000001, 192.0, 0.0, 0.0, 0.0, 0.0, 0.0, 0.0, 0.0, 0.0, 0.0, 1.6634966536494367E9, 0.0, 2022-09-18 15:24:13.649
66.0, -16784.6625190571, 11054.926938405864, -35131.15318192878, -16012.946189993167, -41970.07172943017, -187500.02235174447, -10191.076718697157, 2024.35279182825, 0.596, -0.602, 0.5720000000000001, 192.0, 0.0, 0.0, 0.0, 0.0, 0.0, 0.0, 0.0, 0.0, 0.0, 1.663496653649465E9, 0.0, 2022-09-18 15:24:13.649
67.0, -16888.642834263188, 10808.208383108185, -34951.24399080801, -15722.0605876518, -41649.74887964116, -187500.02235174447, -9848.200958752746, 2345.0332695285406, 0.596, -0.602, 0.5720000000000001, 192.0, 0.0, 0.0, 0.0, 0.0, 0.0, 0.0, 0.0, 0.0, 0.0, 1.6634966536494954E9, 0.0, 2022-09-18 15:24:13.649
68.0, -14731.72184607051, 12366.840227465658, -35198.320174016975, -15610.145403164079, -41103.002858519896, -187500.02235174447, -9716.437425188711, 2461.0611749960394, 0.596, -0.602, 0.5720000000000001, 192.0, 0.0, 0.0, 0.0, 0.0, 0.0, 0.0, 0.0, 0.0, 0.0, 1.6634966536495235E9, 0.0, 2022-09-18 15:24:13.649
69.0, -11409.179736278027, 15124.531403128078, -35693.63483114658, -15662.426133445042, -40343.31176797292, -187500.02235174447, -9888.09882260547, 2469.4430791667796, 0.596, -0.594, 0.5720000000000001, 192.0, 18.0, 160.0, 237.0, 112.0, 17.0, 224.0, 0.0, 0.0, 0.0, 1.6634966536495564E9, 0.0, 2022-09-18 15:24:13.649
70.0, -12754.95591818761, 14268.280776534175, -35765.562744803756, -16062.388248728306, -40946.38418512156, -187500.02235174447, -10328.897575008581, 2042.6812222816018, 0.596, -0.594, 0.5720000000000001, 192.0, 0.0, 0.0, 0.0, 0.0, 0.0, 0.0, 0.0, 0.0, 0.0, 1.6634966536495872E9, 0.0, 2022-09-18 15:24:13.649
71.0, -16659.29158440728, 11154.481608209802, -35178.78474936304, -16067.640908675303, -42001.09595073413, -187500.02235174447, -10230.259326727311, 1978.777584883879, 0.596, -0.594, 0.5720000000000001, 192.0, 0.0, 0.0, 0.0, 0.0, 0.0, 0.0, 0.0, 0.0, 0.0, 1.663496653649616E9, 0.0, 2022-09-18 15:24:13.649
72.0, -16938.5989831208, 10777.698251926691, -34963.984485147535, -15755.051762467834, -41671.519478740636, -187500.02235174447, -9871.446772986266, 2322.815635539965, 0.596, -0.594, 0.5720000000000001, 192.0, 0.0, 0.0, 0.0, 0.0, 0.0, 0.0, 0.0, 0.0, 0.0, 1.6634966536496449E9, 0.0, 2022-09-18 15:24:13.649
73.0, -14899.561095185412, 12230.427531054918, -35194.78859839304, -15639.605002356173, -41150.65677769861, -187500.02235174447, -9721.310105479968, 2431.3780583593916, 0.596, -0.594, 0.5720000000000001, 192.0, 0.0, 0.0, 0.0, 0.0, 0.0, 0.0, 0.0, 0.0, 0.0, 1.6634966536496732E9, 0.0, 2022-09-18 15:24:13.649
74.0, -11526.414635946112, 15014.985503552618, -35679.173252484, -15665.756543368881, -40364.09889031636, -187500.02235174447, -9877.794668411574, 2475.9921402921846, 0.596, -0.594, 0.5720000000000001, 192.0, 0.0, 0.0, 0.0, 0.0, 0.0, 0.0, 0.0, 0.0, 0.0, 1.6634966536497009E9, 0.0, 2022-09-18 15:24:13.649
75.0, -12542.748456328924, 14428.56513602318, -35778.88438449912, -16050.787693356002, -40859.59236140161, -187500.02235174447, -10318.883993492604, 2080.3886151777047, 0.596, -0.594, 0.5720000000000001, 192.0, 0.0, 0.0, 0.0, 0.0, 0.0, 0.0, 0.0, 0.0, 0.0, 1.6634966536497297E9, 0.0, 2022-09-18 15:24:13.649
76.0, -16533.40655963499, 11256.696135603921, -35180.88581334184, -16074.525245967538, -41964.97553169436, -187500.02235174447, -10237.657754142017, 1976.8776866051778, 0.596, -0.594, 0.5720000000000001, 192.0, 0.0, 0.0, 0.0, 0.0, 0.0, 0.0, 0.0, 0.0, 0.0, 1.6634966536497588E9, 0.0, 2022-09-18 15:24:13.649
77.0, -16997.473478016076, 10734.358219427852, -34953.92620014265, -15760.013849736912, -41689.266763838146, -187500.02235174447, -9889.886962161894, 2319.664039571767, 0.596, -0.594, 0.5720000000000001, 192.0, 0.0, 0.0, 0.0, 0.0, 0.0, 0.0, 0.0, 0.0, 0.0, 1.6634966536498168E9, 0.0, 2022-09-18 15:24:13.649
78.0, -15065.053411132505, 12091.578494498552, -35184.618554665874, -15643.76242682486, -41175.89189718865, -187500.02235174447, -9734.810559130974, 2439.3129276410255, 0.596, -0.594, 0.5720000000000001, 192.0, 0.0, 0.0, 0.0, 0.0, 0.0, 0.0, 0.0, 0.0, 0.0, 1.6634966536498456E9, 0.0, 2022-09-18 15:24:13.649
79.0, -11651.11501826227, 14892.252074748527, -35665.78455755527, -15647.070485004246, -40372.860774142835, -187500.02235174447, -9851.754886121142, 2488.3750067204246, 0.592, -0.6, 0.5740000000000001, 192.0, 18.0, 128.0, 237.0, 64.0, 17.0, 240.0, 0.0, 0.0, 0.0, 1.6634966536498744E9, 0.0, 2022-09-18 15:24:13.649
80.0, -12339.571099230183, 14573.963233704953, -35822.49263793143, -16019.450547629662, -40774.49927026025, -187500.02235174447, -10293.358301324643, 2099.9240398316433, 0.592, -0.6, 0.5740000000000001, 192.0, 0.0, 0.0, 0.0, 0.0, 0.0, 0.0, 0.0, 0.0, 0.0, 1.663496653649905E9, 0.0, 2022-09-18 15:24:13.649
81.0, -16398.62554056949, 11355.043811207273, -35237.614540769406, -16078.727373925136, -41934.26423481277, -187500.02235174447, -10250.957042092925, 1951.5308083928596, 0.592, -0.6, 0.5740000000000001, 192.0, 0.0, 0.0, 0.0, 0.0, 0.0, 0.0, 0.0, 0.0, 0.0, 1.663496653649933E9, 0.0, 2022-09-18 15:24:13.649
82.0, -17051.18471994218, 10686.726651993591, -34967.605467749294, -15759.320945658797, -41709.673906525844, -187500.02235174447, -9889.551685995066, 2288.7739287345325, 0.592, -0.6, 0.5740000000000001, 192.0, 0.0, 0.0, 0.0, 0.0, 0.0, 0.0, 0.0, 0.0, 0.0, 1.6634966536499624E9, 0.0, 2022-09-18 15:24:13.649
83.0, -15219.3922065964, 11963.45829528073, -35179.947040074716, -15630.820766785237, -41193.05803693033, -187500.02235174447, -9723.031189803027, 2423.689058266766, 0.592, -0.6, 0.5740000000000001, 192.0, 0.0, 0.0, 0.0, 0.0, 0.0, 0.0, 0.0, 0.0, 0.0, 1.6634966536499908E9, 0.0, 2022-09-18 15:24:13.649
84.0, -11790.90282808576, 14761.337907473793, -35648.50665909131, -15612.00059795387, -40388.64110572828, -187500.02235174447, -9828.553775376533, 2497.1815940358156, 0.592, -0.6, 0.5740000000000001, 192.0, 0.0, 0.0, 0.0, 0.0, 0.0, 0.0, 0.0, 0.0, 0.0, 1.66349665365002E9, 0.0, 2022-09-18 15:24:13.650
85.0, -12144.105093968523, 14717.506136596936, -35852.15340282362, -15974.25532034103, -40663.99224567321, -187500.02235174447, -10282.160077352533, 2135.6868309601346, 0.592, -0.6, 0.5740000000000001, 192.0, 0.0, 0.0, 0.0, 0.0, 0.0, 0.0, 0.0, 0.0, 0.0, 1.6634966536500487E9, 0.0, 2022-09-18 15:24:13.650
86.0, -16251.97574519822, 11482.22523715797, -35291.77281758461, -16079.822609403445, -41828.62989051699, -187500.02235174447, -10282.964740152926, 1953.229540971463, 0.592, -0.6, 0.5740000000000001, 192.0, 0.0, 0.0, 0.0, 0.0, 0.0, 0.0, 0.0, 0.0, 0.0, 1.6634966536500778E9, 0.0, 2022-09-18 15:24:13.650
87.0, -17096.62581641982, 10660.955090636622, -34987.02913368096, -15778.297576701354, -41703.01308667816, -187500.02235174447, -9903.990912913194, 2272.859486682354, 0.592, -0.6, 0.5740000000000001, 192.0, 0.0, 0.0, 0.0, 0.0, 0.0, 0.0, 0.0, 0.0, 0.0, 1.6634966536501067E9, 0.0, 2022-09-18 15:24:13.650
88.0, -15375.60854859454, 11843.049447899992, -35184.52914768805, -15650.62441237264, -41188.58768803927, -187500.02235174447, -9748.69099243772, 2399.750339955132, 0.592, -0.6, 0.5740000000000001, 192.0, 0.0, 0.0, 0.0, 0.0, 0.0, 0.0, 0.0, 0.0, 0.0, 1.6634966536501353E9, 0.0, 2022-09-18 15:24:13.650
89.0, -11953.131789342378, 14618.46555691547, -35625.01497566879, -15627.915040006048, -40398.252355844066, -187500.02235174447, -9822.205879951225, 2473.242875724182, 0.588, -0.606, 0.5720000000000001, 192.0, 18.0, 96.0, 237.0, 16.0, 17.0, 224.0, 0.0, 0.0, 0.0, 1.663496653650164E9, 0.0, 2022-09-18 15:24:13.650
90.0, -11974.723574486206, 14837.959687466586, -35859.68594070506, -15970.16495110571, -40602.92727982131, -187500.02235174447, -10263.518722476807, 2143.085258374841, 0.588, -0.606, 0.5720000000000001, 192.0, 0.0, 0.0, 0.0, 0.0, 0.0, 0.0, 0.0, 0.0, 0.0, 1.663496653650195E9, 0.0, 2022-09-18 15:24:13.650
91.0, -16091.713737453669, 11602.768195005441, -35308.89425383738, -16104.431880048738, -41820.78442821317, -187500.02235174447, -10286.809240199238, 1926.1392266916307, 0.588, -0.606, 0.5720000000000001, 192.0, 0.0, 0.0, 0.0, 0.0, 0.0, 0.0, 0.0, 0.0, 0.0, 1.6634966536502275E9, 0.0, 2022-09-18 15:24:13.650
92.0, -17139.541165774008, 10639.29625025943, -34973.08164514085, -15776.464733656017, -41722.481456098736, -187500.02235174447, -9915.30089560758, 2263.0694226109295, 0.588, -0.606, 0.5720000000000001, 192.0, 0.0, 0.0, 0.0, 0.0, 0.0, 0.0, 0.0, 0.0, 0.0, 1.663496653650282E9, 0.0, 2022-09-18 15:24:13.650
93.0, -15523.331227699666, 11739.046780949448, -35155.315417684964, -15632.094816219189, -41228.753772825454, -187500.02235174447, -9741.873710378852, 2403.013694645607, 0.588, -0.606, 0.5720000000000001, 192.0, 0.0, 0.0, 0.0, 0.0, 0.0, 0.0, 0.0, 0.0, 0.0, 1.6634966536503105E9, 0.0, 2022-09-18 15:24:13.650
94.0, -12126.938954226847, 14479.191837214452, -35580.445597224905, -15587.011347652835, -40440.16187669777, -187500.02235174447, -9778.463516052188, 2514.3700855219467, 0.588, -0.606, 0.5720000000000001, 192.0, 0.0, 0.0, 0.0, 0.0, 0.0, 0.0, 0.0, 0.0, 0.0, 1.663496653650339E9, 0.0, 2022-09-18 15:24:13.650
95.0, -11819.133081332813, 14963.241215138582, -35857.94250463754, -15927.584877918349, -40539.470677312696, -187500.02235174447, -10225.006666780313, 2189.4874798640585, 0.588, -0.606, 0.5720000000000001, 192.0, 0.0, 0.0, 0.0, 0.0, 0.0, 0.0, 0.0, 0.0, 0.0, 1.663496653650367E9, 0.0, 2022-09-18 15:24:13.650
96.0, -15923.20393600511, 11747.808664775928, -35330.8883703814, -16110.288037096028, -41793.22472729978, -187500.02235174447, -10283.903513420048, 1916.7961975093124, 0.588, -0.606, 0.5720000000000001, 192.0, 0.0, 0.0, 0.0, 0.0, 0.0, 0.0, 0.0, 0.0, 0.0, 1.663496653650395E9, 0.0, 2022-09-18 15:24:13.650
97.0, -17180.02017498257, 10621.280744228452, -34956.96603738857, -15794.770812364915, -41750.3540814345, -187500.02235174447, -9906.896639692384, 2253.9722626176194, 0.588, -0.606, 0.5720000000000001, 192.0, 0.0, 0.0, 0.0, 0.0, 0.0, 0.0, 0.0, 0.0, 0.0, 1.6634966536504228E9, 0.0, 2022-09-18 15:24:13.650
98.0, -15664.750714868393, 11639.313297189869, -35109.673155507226, -15638.599173855684, -41238.11915375223, -187500.02235174447, -9715.029265288027, 2420.33629659847, 0.588, -0.606, 0.5720000000000001, 192.0, 0.0, 0.0, 0.0, 0.0, 0.0, 0.0, 0.0, 0.0, 0.0, 1.663496653650456E9, 0.0, 2022-09-18 15:24:13.650
99.0, -12306.423462202962, 14329.278687152708, -35528.52249485523, -15591.995786666368, -40467.743929355616, -187500.02235174447, -9754.569501229465, 2512.649001198888, 0.588, -0.6, 0.578, 192.0, 18.0, 96.0, 237.0, 64.0, 18.0, 16.0, 0.0, 0.0, 0.0, 1.663496653650484E9, 0.0, 2022-09-18 15:24:13.650
100.0, -11673.3550039953, 15068.987318156638, -35838.65294917261, -15914.419700434173, -40471.499022424105, -187500.02235174447, -10185.309968627687, 2212.062741763919, 0.588, -0.6, 0.578, 192.0, 0.0, 0.0, 0.0, 0.0, 0.0, 0.0, 0.0, 0.0, 0.0, 1.6634966536505167E9, 0.0, 2022-09-18 15:24:13.650
101.0, -15729.59312553324, 11903.823841073972, -35355.02825439313, -16127.588287304437, -41736.00426149419, -187500.02235174447, -10293.51476353583, 1908.101368916198, 0.588, -0.6, 0.578, 192.0, 0.0, 0.0, 0.0, 0.0, 0.0, 0.0, 0.0, 0.0, 0.0, 1.6634966536505485E9, 0.0, 2022-09-18 15:24:13.650
102.0, -17198.192143224733, 10613.234116224541, -34965.794976448415, -15833.327571550319, -41770.31418923309, -187500.02235174447, -9946.928614011838, 2201.691532336656, 0.588, -0.6, 0.578, 192.0, 0.0, 0.0, 0.0, 0.0, 0.0, 0.0, 0.0, 0.0, 0.0, 1.6634966536505764E9, 0.0, 2022-09-18 15:24:13.650
103.0, -15791.708623374538, 11541.5244151979, -35103.48172229311, -15660.593290399705, -41258.6380551622, -187500.02235174447, -9749.316841282469, 2398.8339184324645, 0.588, -0.6, 0.578, 192.0, 0.0, 0.0, 0.0, 0.0, 0.0, 0.0, 0.0, 0.0, 0.0, 1.6634966536506047E9, 0.0, 2022-09-18 15:24:13.650
104.0, -12493.686377249525, 14166.51328402916, -35529.79654428918, -15603.931618205503, -40507.55238623052, -187500.02235174447, -9780.765745731085, 2501.3837219934135, 0.588, -0.6, 0.578, 192.0, 0.0, 0.0, 0.0, 0.0, 0.0, 0.0, 0.0, 0.0, 0.0, 1.6634966536506333E9, 0.0, 2022-09-18 15:24:13.650
105.0, -11544.988935588472, 15156.76261863263, -35848.93475162205, -15901.232171205542, -40413.22802462912, -187500.02235174447, -10164.589901517618, 2226.9490035711533, 0.588, -0.6, 0.578, 192.0, 0.0, 0.0, 0.0, 0.0, 0.0, 0.0, 0.0, 0.0, 0.0, 1.663496653650662E9, 0.0, 2022-09-18 15:24:13.650
106.0, -15521.654846865518, 12067.729183164738, -35388.28765014263, -16127.320066370972, -41664.47867923721, -187500.02235174447, -10299.013292671836, 1925.1781016800526, 0.588, -0.6, 0.578, 192.0, 0.0, 0.0, 0.0, 0.0, 0.0, 0.0, 0.0, 0.0, 0.0, 1.66349665365069E9, 0.0, 2022-09-18 15:24:13.650
107.0, -17205.389404939342, 10614.262296469486, -34948.00298786199, -15825.303295290863, -41758.1548402494, -187500.02235174447, -9941.92182325385, 2239.8683118663207, 0.588, -0.6, 0.578, 192.0, 0.0, 0.0, 0.0, 0.0, 0.0, 0.0, 0.0, 0.0, 0.0, 1.663496653650718E9, 0.0, 2022-09-18 15:24:13.650
108.0, -15909.412909676184, 11454.352611822202, -35071.429320744195, -15643.941240780503, -41241.22604623152, -187500.02235174447, -9723.500576436589, 2426.4159710903136, 0.588, -0.6, 0.578, 192.0, 0.0, 0.0, 0.0, 0.0, 0.0, 0.0, 0.0, 0.0, 0.0, 1.6634966536507697E9, 0.0, 2022-09-18 15:24:13.650
109.0, -12686.000786542987, 14001.57976169345, -35490.88215719249, -15587.190161608478, -40516.44838052373, -187500.02235174447, -9736.397532987301, 2504.2447452836927, 0.582, -0.608, 0.58, 192.0, 18.0, 48.0, 237.0, 0.0, 18.0, 32.0, 0.0, 0.0, 0.0, 1.6634966536507988E9, 0.0, 2022-09-18 15:24:13.650
110.0, -11446.238928584926, 15223.415520598355, -35869.72187396549, -15862.787170742415, -40345.59164590736, -187500.02235174447, -10148.742514698806, 2256.6544719522562, 0.582, -0.608, 0.58, 192.0, 0.0, 0.0, 0.0, 0.0, 0.0, 0.0, 0.0, 0.0, 0.0, 1.663496653650829E9, 0.0, 2022-09-18 15:24:13.650
111.0, -15340.695123755351, 12225.152519363466, -35448.77147063869, -16119.89928721181, -41552.04940462702, -187500.02235174447, -10334.530214611319, 1919.5901655662258, 0.582, -0.608, 0.58, 192.0, 0.0, 0.0, 0.0, 0.0, 0.0, 0.0, 0.0, 0.0, 0.0, 1.66349665365086E9, 0.0, 2022-09-18 15:24:13.650
112.0, -17235.676018676284, 10604.114604486776, -34989.80074999342, -15847.811501957358, -41762.71459611828, -187500.02235174447, -9984.658358652398, 2181.731424538067, 0.582, -0.608, 0.58, 192.0, 0.0, 0.0, 0.0, 0.0, 0.0, 0.0, 0.0, 0.0, 0.0, 1.6634966536508908E9, 0.0, 2022-09-18 15:24:13.650
113.0, -16026.26782968853, 11368.499561369368, -35064.05324507395, -15642.354266924176, -41277.10059608229, -187500.02235174447, -9710.245991974592, 2391.9942846291406, 0.582, -0.608, 0.58, 192.0, 0.0, 0.0, 0.0, 0.0, 0.0, 0.0, 0.0, 0.0, 0.0, 1.663496653650918E9, 0.0, 2022-09-18 15:24:13.650
114.0, -12878.941044681198, 13834.321657934388, -35459.38854925496, -15584.664414485029, -40572.75242480665, -187500.02235174447, -9707.5414308955, 2495.013474823651, 0.582, -0.608, 0.58, 192.0, 0.0, 0.0, 0.0, 0.0, 0.0, 0.0, 0.0, 0.0, 0.0, 1.663496653650946E9, 0.0, 2022-09-18 15:24:13.650
115.0, -11345.499616324856, 15283.876989349961, -35854.366225524696, -15840.27896407592, -40304.79971227643, -187500.02235174447, -10105.201316499868, 2287.924562445231, 0.582, -0.608, 0.58, 192.0, 0.0, 0.0, 0.0, 0.0, 0.0, 0.0, 0.0, 0.0, 0.0, 1.6634966536509745E9, 0.0, 2022-09-18 15:24:13.650
116.0, -15100.771498772086, 12403.40768139454, -35476.375875041, -16124.503746569604, -41530.99406135012, -187500.02235174447, -10317.028798702813, 1910.9176887175668, 0.582, -0.608, 0.58, 192.0, 0.0, 0.0, 0.0, 0.0, 0.0, 0.0, 0.0, 0.0, 0.0, 1.6634966536510024E9, 0.0, 2022-09-18 15:24:13.651
117.0, -17218.241658001145, 10616.76569184848, -34993.19821515062, -15864.016516687456, -41798.47738724678, -187500.02235174447, -9981.93144582885, 2170.421441843682, 0.582, -0.608, 0.58, 192.0, 0.0, 0.0, 0.0, 0.0, 0.0, 0.0, 0.0, 0.0, 0.0, 1.6634966536510308E9, 0.0, 2022-09-18 15:24:13.651
118.0, -16136.86426125339, 11286.558066196212, -35075.45263474615, -15661.33089796673, -41293.149148601195, -187500.02235174447, -9745.11471332487, 2391.502546251124, 0.582, -0.608, 0.58, 192.0, 0.0, 0.0, 0.0, 0.0, 0.0, 0.0, 0.0, 0.0, 0.0, 1.6634966536510584E9, 0.0, 2022-09-18 15:24:13.651
119.0, -13069.579073140512, 13675.244292645966, -35441.08247054607, -15584.932635418492, -40607.57644266802, -187500.02235174447, -9707.139099495304, 2488.844393353986, 0.5740000000000001, -0.604, 0.586, 192.0, 17.0, 240.0, 237.0, 32.0, 18.0, 80.0, 0.0, 0.0, 0.0, 1.663496653651091E9, 0.0, 2022-09-18 15:24:13.651
120.0, -11263.379307196059, 15334.257821352223, -35861.38467328366, -15821.771719666925, -40258.084566364836, -187500.02235174447, -10077.328691164099, 2305.269516142549, 0.5740000000000001, -0.604, 0.586, 192.0, 0.0, 0.0, 0.0, 0.0, 0.0, 0.0, 0.0, 0.0, 0.0, 1.663496653651121E9, 0.0, 2022-09-18 15:24:13.651
121.0, -14866.838141302842, 12585.484991727471, -35519.53709358419, -16137.601868820415, -41455.46751683563, -187500.02235174447, -10309.764481754837, 1904.010999680877, 0.5740000000000001, -0.604, 0.586, 192.0, 0.0, 0.0, 0.0, 0.0, 0.0, 0.0, 0.0, 0.0, 0.0, 1.6634966541268854E9, 0.0, 2022-09-18 15:24:14.126
122.0, -17198.505067647107, 10639.743285148536, -35010.07378221438, -15894.750165313502, -41800.93607913686, -187500.02235174447, -9984.747765630218, 2140.1348281067408, 0.5740000000000001, -0.604, 0.586, 192.0, 0.0, 0.0, 0.0, 0.0, 0.0, 0.0, 0.0, 0.0, 0.0, 1.6634966541270757E9, 0.0, 2022-09-18 15:24:14.127
123.0, -16226.561811752537, 11226.655391055989, -35052.40798621273, -15672.372659727653, -41287.85178516529, -187500.02235174447, -9734.296469008503, 2404.5783167574787, 0.5740000000000001, -0.604, 0.586, 192.0, 0.0, 0.0, 0.0, 0.0, 0.0, 0.0, 0.0, 0.0, 0.0, 1.6634966541272547E9, 0.0, 2022-09-18 15:24:14.127
124.0, -13263.458104545845, 13517.686845980508, -35412.56164462109, -15593.783926222794, -40633.10213483598, -187500.02235174447, -9688.475392875123, 2502.613067938455, 0.5740000000000001, -0.604, 0.586, 192.0, 0.0, 0.0, 0.0, 0.0, 0.0, 0.0, 0.0, 0.0, 0.0, 1.6634966541272745E9, 0.0, 2022-09-18 15:24:14.127
125.0, -11211.724425759843, 15368.120714202014, -35842.72096666348, -15800.157582778644, -40212.62111814274, -187500.02235174447, -10042.951708191838, 2345.0332695285406, 0.5740000000000001, -0.604, 0.586, 192.0, 0.0, 0.0, 0.0, 0.0, 0.0, 0.0, 0.0, 0.0, 0.0, 1.6634966541273043E9, 0.0, 2022-09-18 15:24:14.127
126.0, -14635.89991759061, 12774.24547365254, -35543.386404918005, -16134.606735063404, -41364.92060004719, -187500.02235174447, -10310.65855153305, 1925.9827644804436, 0.5740000000000001, -0.604, 0.586, 192.0, 0.0, 0.0, 0.0, 0.0, 0.0, 0.0, 0.0, 0.0, 0.0, 1.6634966541273384E9, 0.0, 2022-09-18 15:24:14.127
127.0, -17178.366145892876, 10662.9667476376, -35024.69182308815, -15910.508145154494, -41784.6640091734, -187500.02235174447, -10001.332760016056, 2143.4652380305815, 0.5740000000000001, -0.604, 0.586, 192.0, 0.0, 0.0, 0.0, 0.0, 0.0, 0.0, 0.0, 0.0, 0.0, 1.6634966541273584E9, 0.0, 2022-09-18 15:24:14.127
128.0, -16322.517850699169, 11157.29792801117, -35058.13003279329, -15681.67098542106, -41281.50388973998, -187500.02235174447, -9740.130274311337, 2405.42768304678, 0.5740000000000001, -0.604, 0.586, 192.0, 0.0, 0.0, 0.0, 0.0, 0.0, 0.0, 0.0, 0.0, 0.0, 1.6634966541273756E9, 0.0, 2022-09-18 15:24:14.127
129.0, -13462.61214764263, 13358.251852780802, -35412.82986555456, -15599.058937914246, -40637.058393604566, -187500.02235174447, -9695.87382028983, 2488.553820676067, 0.5760000000000001, -0.592, 0.588, 192.0, 18.0, 0.0, 237.0, 128.0, 18.0, 96.0, 0.0, 0.0, 0.0, 1.6634966541273932E9, 0.0, 2022-09-18 15:24:14.127
130.0, -11177.705070698867, 15390.830086568605, -35847.459536488, -15774.564835377318, -40160.85447798425, -187500.02235174447, -10017.582478235065, 2367.787345384043, 0.5760000000000001, -0.592, 0.588, 192.0, 0.0, 0.0, 0.0, 0.0, 0.0, 0.0, 0.0, 0.0, 0.0, 1.6634966541274223E9, 0.0, 2022-09-18 15:24:14.127
131.0, -14410.124946847553, 12972.080763826461, -35579.57387919115, -16119.608714533892, -41229.06669724783, -187500.02235174447, -10315.79945275777, 1960.3373957082506, 0.5760000000000001, -0.592, 0.588, 192.0, 0.0, 0.0, 0.0, 0.0, 0.0, 0.0, 0.0, 0.0, 0.0, 1.663496654127442E9, 0.0, 2022-09-18 15:24:14.127
132.0, -17171.21358766718, 10691.800497984947, -35041.54503840745, -15925.997904062022, -41761.86522982898, -187500.02235174447, -10028.534833018164, 2118.0066010959868, 0.5760000000000001, -0.592, 0.588, 192.0, 0.0, 0.0, 0.0, 0.0, 0.0, 0.0, 0.0, 0.0, 0.0, 1.6634966541274648E9, 0.0, 2022-09-18 15:24:14.127
133.0, -16436.936430565886, 11089.505087078225, -35055.783099625485, -15688.085936079735, -41311.43287556564, -187500.02235174447, -9766.058297879494, 2366.9603308391966, 0.5760000000000001, -0.592, 0.588, 192.0, 0.0, 0.0, 0.0, 0.0, 0.0, 0.0, 0.0, 0.0, 0.0, 1.66349665412749E9, 0.0, 2022-09-18 15:24:14.127
134.0, -13687.80597302985, 13188.646815853932, -35382.96793496227, -15604.244542627877, -40703.21955719228, -187500.02235174447, -9716.862108333364, 2462.9387215302854, 0.5760000000000001, -0.592, 0.588, 192.0, 0.0, 0.0, 0.0, 0.0, 0.0, 0.0, 0.0, 0.0, 0.0, 1.6634966541275067E9, 0.0, 2022-09-18 15:24:14.127
135.0, -11194.73709997381, 15382.247016697767, -35831.03100431335, -15755.588204334761, -40142.68250974209, -187500.02235174447, -9998.292922770133, 2363.3840517263475, 0.5760000000000001, -0.592, 0.588, 192.0, 0.0, 0.0, 0.0, 0.0, 0.0, 0.0, 0.0, 0.0, 0.0, 1.663496654127524E9, 0.0, 2022-09-18 15:24:14.127
136.0, -14194.497668087206, 13149.17363514586, -35621.39399306703, -16115.965380187678, -41191.38165609618, -187500.02235174447, -10309.116281165634, 1927.9050145036001, 0.5760000000000001, -0.592, 0.588, 192.0, 0.0, 0.0, 0.0, 0.0, 0.0, 0.0, 0.0, 0.0, 0.0, 1.6634966541275413E9, 0.0, 2022-09-18 15:24:14.127
137.0, -17140.3458285744, 10728.636172847293, -35059.35937873833, -15933.463386710095, -41788.91084061991, -187500.02235174447, -10040.493016301754, 2100.683999143124, 0.5760000000000001, -0.592, 0.588, 192.0, 0.0, 0.0, 0.0, 0.0, 0.0, 0.0, 0.0, 0.0, 0.0, 1.663496654127558E9, 0.0, 2022-09-18 15:24:14.127
138.0, -16534.52414685776, 11030.80940613859, -35047.28943673246, -15688.801191902305, -41303.83328245083, -187500.02235174447, -9768.941672914229, 2392.0166363735957, 0.5760000000000001, -0.592, 0.588, 192.0, 0.0, 0.0, 0.0, 0.0, 0.0, 0.0, 0.0, 0.0, 0.0, 1.6634966541275969E9, 0.0, 2022-09-18 15:24:14.127
139.0, -13897.867667420825, 13027.356627864436, -35360.10210038449, -15609.094871174679, -40718.284632955154, -187500.02235174447, -9693.660997588755, 2476.103899014461, 0.5720000000000001, -0.6, 0.584, 192.0, 17.0, 224.0, 237.0, 64.0, 18.0, 64.0, 0.0, 0.0, 0.0, 1.6634966541276143E9, 0.0, 2022-09-18 15:24:14.127
140.0, -11220.955696219886, 15359.09060944207, -35830.51691419088, -15749.486178098463, -40107.1655878026, -187500.02235174447, -9981.283245239645, 2380.013749601096, 0.5720000000000001, -0.6, 0.584, 192.0, 0.0, 0.0, 0.0, 0.0, 0.0, 0.0, 0.0, 0.0, 0.0, 1.6634966541276324E9, 0.0, 2022-09-18 15:24:14.127
141.0, -13977.641043381816, 13335.944811814406, -35678.390941428064, -16132.796243762523, -41094.5986026047, -187500.02235174447, -10337.547700112784, 1924.6640115575806, 0.5720000000000001, -0.6, 0.584, 192.0, 0.0, 0.0, 0.0, 0.0, 0.0, 0.0, 0.0, 0.0, 0.0, 1.6634966541276495E9, 0.0, 2022-09-18 15:24:14.127
142.0, -17113.702549183672, 10771.730336157125, -35088.148425596766, -15970.92491041719, -41777.80202362562, -187500.02235174447, -10083.386013911488, 2084.1437082461966, 0.5720000000000001, -0.6, 0.584, 192.0, 0.0, 0.0, 0.0, 0.0, 0.0, 0.0, 0.0, 0.0, 0.0, 1.6634966541276665E9, 0.0, 2022-09-18 15:24:14.127
143.0, -16636.537508551777, 10973.678347310824, -35027.97752952308, -15698.01011061789, -41308.191872619616, -187500.02235174447, -9777.50239104061, 2383.7688426695877, 0.5720000000000001, -0.6, 0.584, 192.0, 0.0, 0.0, 0.0, 0.0, 0.0, 0.0, 0.0, 0.0, 0.0, 1.6634966541276834E9, 0.0, 2022-09-18 15:24:14.127
144.0, -14096.485268650684, 12878.225788858628, -35329.07787908052, -15607.664359529539, -40731.852141839525, -187500.02235174447, -9683.49095386159, 2476.9309135593076, 0.5720000000000001, -0.6, 0.584, 192.0, 0.0, 0.0, 0.0, 0.0, 0.0, 0.0, 0.0, 0.0, 0.0, 1.6634966541277003E9, 0.0, 2022-09-18 15:24:14.127
145.0, -11255.980879781351, 15325.138309614458, -35821.03977454183, -15728.1626138881, -40077.50482291041, -187500.02235174447, -9958.149189728403, 2417.519976797101, 0.5720000000000001, -0.6, 0.584, 192.0, 0.0, 0.0, 0.0, 0.0, 0.0, 0.0, 0.0, 0.0, 0.0, 1.6634966541277175E9, 0.0, 2022-09-18 15:24:14.127
146.0, -13752.067238338857, 13521.799566960284, -35705.01186907433, -16120.502784312104, -40998.150825280056, -187500.02235174447, -10328.294077908287, 1968.4287272010718, 0.5720000000000001, -0.6, 0.584, 192.0, 0.0, 0.0, 0.0, 0.0, 0.0, 0.0, 0.0, 0.0, 0.0, 1.663496654127735E9, 0.0, 2022-09-18 15:24:14.127
147.0, -17069.826074817905, 10824.033418182544, -35116.64689977728, -15995.333015362385, -41755.31616870358, -187500.02235174447, -10100.19452574188, 2047.7103647840459, 0.5720000000000001, -0.6, 0.584, 192.0, 0.0, 0.0, 0.0, 0.0, 0.0, 0.0, 0.0, 0.0, 0.0, 1.663496654127752E9, 0.0, 2022-09-18 15:24:14.127
148.0, -16728.73845442992, 10913.820375659512, -35044.22724774209, -15719.333674828253, -41307.18604411913, -187500.02235174447, -9797.41779535029, 2339.422981670258, 0.5720000000000001, -0.6, 0.584, 192.0, 0.0, 0.0, 0.0, 0.0, 0.0, 0.0, 0.0, 0.0, 0.0, 1.6634966541277688E9, 0.0, 2022-09-18 15:24:14.127
149.0, -14298.075651893098, 12720.333066026338, -35317.41026847485, -15614.347531121675, -40731.33805171705, -187500.02235174447, -9684.161506195249, 2458.334262172492, 0.58, -0.604, 0.582, 192.0, 18.0, 32.0, 237.0, 32.0, 18.0, 48.0, 0.0, 0.0, 0.0, 1.663496654127786E9, 0.0, 2022-09-18 15:24:14.127
150.0, -11312.419034531002, 15265.101524007503, -35795.134102718126, -15711.979950902458, -40055.37659589966, -187500.02235174447, -9923.258116633668, 2436.1836834172827, 0.58, -0.604, 0.582, 192.0, 0.0, 0.0, 0.0, 0.0, 0.0, 0.0, 0.0, 0.0, 0.0, 1.6634966541278038E9, 0.0, 2022-09-18 15:24:14.127
151.0, -13519.67615123703, 13705.866182549738, -35732.19159033198, -16104.767156215568, -40860.24056199081, -187500.02235174447, -10324.47192960643, 1994.9155443806108, 0.58, -0.604, 0.582, 192.0, 0.0, 0.0, 0.0, 0.0, 0.0, 0.0, 0.0, 0.0, 0.0, 1.6634966541278207E9, 0.0, 2022-09-18 15:24:14.127
152.0, -17005.497754275533, 10882.304415977529, -35132.71780404065, -16015.382530138795, -41699.21329012076, -187500.02235174447, -10119.439377717898, 2016.864957435722, 0.58, -0.604, 0.582, 192.0, 0.0, 0.0, 0.0, 0.0, 0.0, 0.0, 0.0, 0.0, 0.0, 1.663496654127853E9, 0.0, 2022-09-18 15:24:14.127
153.0, -16806.321359434292, 10861.226720956174, -35019.39445965224, -15719.691302739539, -41316.86434946828, -187500.02235174447, -9795.69671102723, 2358.556074924001, 0.58, -0.604, 0.582, 192.0, 0.0, 0.0, 0.0, 0.0, 0.0, 0.0, 0.0, 0.0, 0.0, 1.6634966541278703E9, 0.0, 2022-09-18 15:24:14.127
154.0, -14487.305520451728, 12569.369383975194, -35297.02547753161, -15619.644894557583, -40759.99298810876, -187500.02235174447, -9701.953494781674, 2463.0504802525616, 0.58, -0.604, 0.582, 192.0, 0.0, 0.0, 0.0, 0.0, 0.0, 0.0, 0.0, 0.0, 0.0, 1.6634966541279037E9, 0.0, 2022-09-18 15:24:14.127
155.0, -11377.77553531832, 15199.76737496464, -35796.76578006337, -15694.679700694049, -40049.40868013009, -187500.02235174447, -9939.217262174758, 2443.6268143209, 0.58, -0.604, 0.582, 192.0, 0.0, 0.0, 0.0, 0.0, 0.0, 0.0, 0.0, 0.0, 0.0, 1.6634966541279256E9, 0.0, 2022-09-18 15:24:14.127
156.0, -13291.129564181516, 13886.84825740436, -35765.98742794841, -16084.51647573906, -40779.953095907345, -187500.02235174447, -10332.675019821527, 2023.8834051946885, 0.58, -0.604, 0.582, 192.0, 0.0, 0.0, 0.0, 0.0, 0.0, 0.0, 0.0, 0.0, 0.0, 1.6634966541279435E9, 0.0, 2022-09-18 15:24:14.127
157.0, -16934.195689463104, 10948.97966968771, -35169.039388780526, -16037.309591449452, -41696.12874938593, -187500.02235174447, -10153.145808356501, 2016.5967365022584, 0.58, -0.604, 0.582, 192.0, 0.0, 0.0, 0.0, 0.0, 0.0, 0.0, 0.0, 0.0, 0.0, 1.6634966541279612E9, 0.0, 2022-09-18 15:24:14.127
158.0, -16888.955758685563, 10804.319179572962, -35027.798715567435, -15744.904070485125, -41341.36186139129, -187500.02235174447, -9830.163100977314, 2334.147969978806, 0.58, -0.604, 0.582, 192.0, 0.0, 0.0, 0.0, 0.0, 0.0, 0.0, 0.0, 0.0, 0.0, 1.6634966541279788E9, 0.0, 2022-09-18 15:24:14.127
159.0, -14674.054345375818, 12421.825518825714, -35277.55710811104, -15634.642915087095, -40792.00068616876, -187500.02235174447, -9714.962210054662, 2436.407200861836, 0.582, -0.594, 0.58, 192.0, 18.0, 48.0, 237.0, 112.0, 18.0, 32.0, 0.0, 0.0, 0.0, 1.6634966541279964E9, 0.0, 2022-09-18 15:24:14.127
160.0, -11461.192245625525, 15120.508089126122, -35748.68717774, -15683.392069744119, -40050.63802607513, -187500.02235174447, -9893.15031685237, 2475.232180980704, 0.582, -0.594, 0.58, 192.0, 0.0, 0.0, 0.0, 0.0, 0.0, 0.0, 0.0, 0.0, 0.0, 1.6634966541280153E9, 0.0, 2022-09-18 15:24:14.128
161.0, -13052.368229909926, 14068.322070636998, -35775.73278853092, -16073.318251766952, -40706.48291188275, -187500.02235174447, -10304.645932274572, 2057.992167233487, 0.582, -0.594, 0.58, 192.0, 0.0, 0.0, 0.0, 0.0, 0.0, 0.0, 0.0, 0.0, 0.0, 1.6634966541280332E9, 0.0, 2022-09-18 15:24:14.128
162.0, -16817.787804339863, 11041.247670799217, -35180.23761275263, -16055.548614924983, -41698.207461620266, -187500.02235174447, -10166.243930607312, 2007.5442799978591, 0.582, -0.594, 0.58, 192.0, 0.0, 0.0, 0.0, 0.0, 0.0, 0.0, 0.0, 0.0, 0.0, 1.6634966541280508E9, 0.0, 2022-09-18 15:24:14.128
163.0, -16943.046980267405, 10774.121972813842, -35006.87748275727, -15754.314154900809, -41351.531905118456, -187500.02235174447, -9825.066903241504, 2335.3102606904818, 0.582, -0.594, 0.58, 192.0, 0.0, 0.0, 0.0, 0.0, 0.0, 0.0, 0.0, 0.0, 0.0, 1.6634966541280684E9, 0.0, 2022-09-18 15:24:14.128
164.0, -14843.122940435762, 12280.473086890352, -35267.63293357288, -15649.864453061158, -40841.71096583736, -187500.02235174447, -9703.093433748894, 2437.3236223845033, 0.582, -0.594, 0.58, 192.0, 0.0, 0.0, 0.0, 0.0, 0.0, 0.0, 0.0, 0.0, 0.0, 1.6634966541280863E9, 0.0, 2022-09-18 15:24:14.128
165.0, -11564.122028842216, 15012.392701195802, -35751.8387737082, -15682.050965076802, -40070.77694782936, -187500.02235174447, -9867.535217706587, 2465.039785509084, 0.582, -0.594, 0.58, 192.0, 0.0, 0.0, 0.0, 0.0, 0.0, 0.0, 0.0, 0.0, 0.0, 1.663496654128104E9, 0.0, 2022-09-18 15:24:14.128
166.0, -12829.163709779228, 14225.901869046911, -35811.47322791496, -16064.064629562454, -40633.415059258354, -187500.02235174447, -10285.356376809643, 2054.5276468429147, 0.582, -0.594, 0.58, 192.0, 0.0, 0.0, 0.0, 0.0, 0.0, 0.0, 0.0, 0.0, 0.0, 1.663496654128122E9, 0.0, 2022-09-18 15:24:14.128
167.0, -16698.36243371516, 11130.229965475794, -35208.91490088879, -16076.089868079409, -41688.707970226766, -187500.02235174447, -10166.623910263052, 1958.5716078962814, 0.582, -0.594, 0.58, 192.0, 0.0, 0.0, 0.0, 0.0, 0.0, 0.0, 0.0, 0.0, 0.0, 1.6634966541281395E9, 0.0, 2022-09-18 15:24:14.128
168.0, -17004.17900135267, 10723.159995455742, -35002.18361642166, -15777.068230756311, -41377.4152251977, -187500.02235174447, -9834.767560335107, 2275.944027417186, 0.582, -0.594, 0.58, 192.0, 0.0, 0.0, 0.0, 0.0, 0.0, 0.0, 0.0, 0.0, 0.0, 1.663496654128157E9, 0.0, 2022-09-18 15:24:14.128
169.0, -15011.789204095508, 12138.40539913242, -35243.269532116596, -15652.81488332926, -40864.80031785969, -187500.02235174447, -9716.839756588908, 2419.151654142339, 0.59, -0.6, 0.578, 192.0, 18.0, 112.0, 237.0, 64.0, 18.0, 16.0, 0.0, 0.0, 0.0, 1.6634966541281908E9, 0.0, 2022-09-18 15:24:14.128
170.0, -11672.080954561348, 14905.23843827706, -35702.30730799524, -15662.917871823058, -40076.811918832296, -187500.02235174447, -9841.718952860709, 2480.5071926721566, 0.59, -0.6, 0.578, 192.0, 0.0, 0.0, 0.0, 0.0, 0.0, 0.0, 0.0, 0.0, 0.0, 1.6634966541282146E9, 0.0, 2022-09-18 15:24:14.128
171.0, -12616.822137453812, 14381.000623822287, -35820.57038790827, -16045.467978175639, -40551.60767455193, -187500.02235174447, -10280.595455240662, 2084.054301268375, 0.59, -0.6, 0.578, 192.0, 0.0, 0.0, 0.0, 0.0, 0.0, 0.0, 0.0, 0.0, 0.0, 1.6634966541282327E9, 0.0, 2022-09-18 15:24:14.128
172.0, -16573.259719998805, 11227.929440489941, -35223.756459207114, -16093.457173521183, -41663.40579550336, -187500.02235174447, -10197.536372844741, 1955.8446950727339, 0.59, -0.6, 0.578, 192.0, 0.0, 0.0, 0.0, 0.0, 0.0, 0.0, 0.0, 0.0, 0.0, 1.6634966541282501E9, 0.0, 2022-09-18 15:24:14.128
173.0, -17058.694906079163, 10684.111497892321, -34988.01261043699, -15785.494838415962, -41396.14598705125, -187500.02235174447, -9855.018240811616, 2291.3667310913484, 0.59, -0.6, 0.578, 192.0, 0.0, 0.0, 0.0, 0.0, 0.0, 0.0, 0.0, 0.0, 0.0, 1.663496654128268E9, 0.0, 2022-09-18 15:24:14.128
174.0, -15170.732458917197, 12010.464013870242, -35219.19670333823, -15671.500941693896, -40889.74486467181, -187500.02235174447, -9726.607468915876, 2407.595802258945, 0.59, -0.6, 0.578, 192.0, 0.0, 0.0, 0.0, 0.0, 0.0, 0.0, 0.0, 0.0, 0.0, 1.6634966541282856E9, 0.0, 2022-09-18 15:24:14.128
175.0, -11801.877534613317, 14782.661471684156, -35685.163519998016, -15664.840121846215, -40100.25889876591, -187500.02235174447, -9853.498322188654, 2467.364366932436, 0.59, -0.6, 0.578, 192.0, 0.0, 0.0, 0.0, 0.0, 0.0, 0.0, 0.0, 0.0, 0.0, 1.6634966541283033E9, 0.0, 2022-09-18 15:24:14.128
176.0, -12412.16956522102, 14534.132425085596, -35836.5071817049, -16037.421350171728, -40471.11904276837, -187500.02235174447, -10274.135801093078, 2082.7579000899673, 0.59, -0.6, 0.578, 192.0, 0.0, 0.0, 0.0, 0.0, 0.0, 0.0, 0.0, 0.0, 0.0, 1.6634966541283233E9, 0.0, 2022-09-18 15:24:14.128
177.0, -16431.43790142988, 11344.136159913083, -35268.571706840004, -16123.408511091295, -41628.76059159763, -187500.02235174447, -10235.601393652129, 1920.9312702335442, 0.59, -0.6, 0.578, 192.0, 0.0, 0.0, 0.0, 0.0, 0.0, 0.0, 0.0, 0.0, 0.0, 1.663496654128342E9, 0.0, 2022-09-18 15:24:14.128
178.0, -17104.203057790168, 10655.143637078243, -34990.69481977163, -15793.496762930961, -41412.01572561452, -187500.02235174447, -9876.47591548871, 2277.866277440343, 0.59, -0.6, 0.578, 192.0, 0.0, 0.0, 0.0, 0.0, 0.0, 0.0, 0.0, 0.0, 0.0, 1.6634966541283596E9, 0.0, 2022-09-18 15:24:14.128
179.0, -15321.249106079234, 11893.966721769182, -35201.896453129826, -15661.353249711186, -40904.80994043469, -187500.02235174447, -9727.054503804982, 2412.2002616167383, 0.59, -0.6, 0.578, 192.0, 0.0, 0.0, 0.0, 0.0, 0.0, 0.0, 0.0, 0.0, 0.0, 1.6634966541283774E9, 0.0, 2022-09-18 15:24:14.128
180.0, -11953.55647248703, 14650.987345097941, -35653.13347019356, -15660.10155202169, -40119.19082631956, -187500.02235174447, -9825.938621275262, 2443.7832765320873, 0.586, -0.6, 0.578, 192.0, 18.0, 80.0, 237.0, 64.0, 18.0, 16.0, 0.0, 0.0, 0.0, 1.6634966541283953E9, 0.0, 2022-09-18 15:24:14.128
181.0, -12237.267164858242, 14670.299252307326, -35845.894914376135, -16026.826623299912, -40385.377751037806, -187500.02235174447, -10250.286489759266, 2083.383748934716, 0.586, -0.6, 0.578, 192.0, 0.0, 0.0, 0.0, 0.0, 0.0, 0.0, 0.0, 0.0, 0.0, 1.6634966541284149E9, 0.0, 2022-09-18 15:24:14.128
182.0, -16293.17001022935, 11466.847236972719, -35293.31508795203, -16126.448348337217, -41552.13881160484, -187500.02235174447, -10244.117408289601, 1954.3024247053177, 0.586, -0.6, 0.578, 192.0, 0.0, 0.0, 0.0, 0.0, 0.0, 0.0, 0.0, 0.0, 0.0, 1.6634966541284325E9, 0.0, 2022-09-18 15:24:14.128
183.0, -17161.803503251496, 10624.275877985463, -34992.92999421716, -15806.572533437316, -41412.39570527026, -187500.02235174447, -9883.740232436685, 2272.7700797045327, 0.586, -0.6, 0.578, 192.0, 0.0, 0.0, 0.0, 0.0, 0.0, 0.0, 0.0, 0.0, 0.0, 1.6634966541284657E9, 0.0, 2022-09-18 15:24:14.128
184.0, -15474.716183509372, 11785.85133383886, -35175.029656294544, -15662.917871823058, -40899.75844618779, -187500.02235174447, -9724.327590981435, 2414.8377674624644, 0.586, -0.6, 0.578, 192.0, 0.0, 0.0, 0.0, 0.0, 0.0, 0.0, 0.0, 0.0, 0.0, 1.6634966541285267E9, 0.0, 2022-09-18 15:24:14.128
185.0, -12110.555125541106, 14524.521174969814, -35618.756487221304, -15638.442711644497, -40121.24718680944, -187500.02235174447, -9803.296304142035, 2485.5139834301453, 0.586, -0.6, 0.578, 192.0, 0.0, 0.0, 0.0, 0.0, 0.0, 0.0, 0.0, 0.0, 0.0, 1.663496654128572E9, 0.0, 2022-09-18 15:24:14.128
186.0, -12074.926444879347, 14805.303788817382, -35866.43616753056, -15986.481724558083, -40291.768645258984, -187500.02235174447, -10242.485730944363, 2136.9385286496317, 0.586, -0.6, 0.578, 192.0, 0.0, 0.0, 0.0, 0.0, 0.0, 0.0, 0.0, 0.0, 0.0, 1.6634966541286151E9, 0.0, 2022-09-18 15:24:14.128
187.0, -16155.930299273767, 11599.527192059422, -35336.96804487325, -16135.81372926399, -41483.63071484932, -187500.02235174447, -10272.481772003386, 1912.2140898959744, 0.586, -0.6, 0.578, 192.0, 0.0, 0.0, 0.0, 0.0, 0.0, 0.0, 0.0, 0.0, 0.0, 1.6634966541286476E9, 0.0, 2022-09-18 15:24:14.128
188.0, -17227.964666839205, 10597.207915450086, -34999.45670359811, -15829.840699415292, -41428.39955430026, -187500.02235174447, -9904.974389669227, 2227.8877768382763, 0.586, -0.6, 0.578, 192.0, 0.0, 0.0, 0.0, 0.0, 0.0, 0.0, 0.0, 0.0, 0.0, 1.663496654128677E9, 0.0, 2022-09-18 15:24:14.128
189.0, -15651.67494436204, 11665.576596924853, -35183.210394765185, -15683.43677323303, -40926.133504645055, -187500.02235174447, -9743.527739468544, 2385.7804996705654, 0.586, -0.6, 0.578, 192.0, 0.0, 0.0, 0.0, 0.0, 0.0, 0.0, 0.0, 0.0, 0.0, 1.6634966541287136E9, 0.0, 2022-09-18 15:24:14.128
190.0, -12308.837450604136, 14369.55653066117, -35613.07914412965, -15643.360095424665, -40155.82533548181, -187500.02235174447, -9783.157382387804, 2466.716166343232, 0.5700000000000001, -0.602, 0.5680000000000001, 192.0, 17.0, 208.0, 237.0, 48.0, 17.0, 192.0, 0.0, 0.0, 0.0, 1.6634966541287477E9, 0.0, 2022-09-18 15:24:14.128
191.0, -11933.395198988343, 14918.00128436104, -35878.93079268107, -15969.360288305317, -40222.23236825853, -187500.02235174447, -10200.464451368387, 2165.9510929526205, 0.5700000000000001, -0.602, 0.5680000000000001, 192.0, 0.0, 0.0, 0.0, 0.0, 0.0, 0.0, 0.0, 0.0, 0.0, 1.6634966541287832E9, 0.0, 2022-09-18 15:24:14.128
192.0, -15994.103669417344, 11737.817435004406, -35391.57335657756, -16161.540587132049, -41436.87086544882, -187500.02235174447, -10287.70330997745, 1885.1237756161424, 0.5700000000000001, -0.602, 0.5680000000000001, 192.0, 0.0, 0.0, 0.0, 0.0, 0.0, 0.0, 0.0, 0.0, 0.0, 1.6634966541288323E9, 0.0, 2022-09-18 15:24:14.128
193.0, -17264.50976902363, 10580.935845486623, -35025.83176205537, -15854.628784016228, -41446.459763820145, -187500.02235174447, -9920.039465432104, 2212.0403900194633, 0.5700000000000001, -0.602, 0.5680000000000001, 192.0, 0.0, 0.0, 0.0, 0.0, 0.0, 0.0, 0.0, 0.0, 0.0, 1.6634966541288564E9, 0.0, 2022-09-18 15:24:14.128
194.0, -15772.664937098616, 11576.035508636895, -35149.593371104405, -15676.44067721852, -40936.683528027956, -187500.02235174447, -9715.051617032483, 2404.913592924308, 0.5700000000000001, -0.602, 0.5680000000000001, 192.0, 0.0, 0.0, 0.0, 0.0, 0.0, 0.0, 0.0, 0.0, 0.0, 1.6634966541288805E9, 0.0, 2022-09-18 15:24:14.128
195.0, -12462.773914667836, 14231.020418527178, -35563.3465127166, -15623.80231902627, -40176.12071944722, -187500.02235174447, -9754.010707618083, 2488.8667450984412, 0.5700000000000001, -0.602, 0.5680000000000001, 192.0, 0.0, 0.0, 0.0, 0.0, 0.0, 0.0, 0.0, 0.0, 0.0, 1.6634966541289134E9, 0.0, 2022-09-18 15:24:14.128
196.0, -11778.89994131326, 15018.628837898832, -35884.5187287949, -15938.336067001352, -40158.79811749436, -187500.02235174447, -10179.565570302675, 2196.3941689007484, 0.5700000000000001, -0.602, 0.5680000000000001, 192.0, 0.0, 0.0, 0.0, 0.0, 0.0, 0.0, 0.0, 0.0, 0.0, 1.6634966541289413E9, 0.0, 2022-09-18 15:24:14.128
197.0, -15789.31698671782, 11894.346701424922, -35410.66174634239, -16146.117883457886, -41370.530887905465, -187500.02235174447, -10284.708176220438, 1899.6971130010027, 0.5700000000000001, -0.602, 0.5680000000000001, 192.0, 0.0, 0.0, 0.0, 0.0, 0.0, 0.0, 0.0, 0.0, 0.0, 1.663496654128965E9, 0.0, 2022-09-18 15:24:14.128
198.0, -17274.4786470507, 10572.285720382419, -35007.480979857566, -15856.260461361464, -41449.79017374399, -187500.02235174447, -9916.194965385792, 2185.9112007512094, 0.5700000000000001, -0.602, 0.5680000000000001, 192.0, 0.0, 0.0, 0.0, 0.0, 0.0, 0.0, 0.0, 0.0, 0.0, 1.663496654128988E9, 0.0, 2022-09-18 15:24:14.128
199.0, -15891.687976323126, 11472.658690531098, -35141.65850182277, -15681.67098542106, -40967.372473165095, -187500.02235174447, -9720.863070590864, 2377.532705966557, 0.5700000000000001, -0.602, 0.5680000000000001, 192.0, 0.0, 0.0, 0.0, 0.0, 0.0, 0.0, 0.0, 0.0, 0.0, 1.6634966541290553E9, 0.0, 2022-09-18 15:24:14.129
200.0, -12645.767646523434, 14060.588367055461, -35554.294056212195, -15614.079310188212, -40223.30525199238, -187500.02235174447, -9755.485922752134, 2483.748195618176, 0.5720000000000001, -0.6, 0.5700000000000001, 192.0, 17.0, 224.0, 237.0, 64.0, 17.0, 208.0, 0.0, 0.0, 0.0, 1.6634966541290932E9, 0.0, 2022-09-18 15:24:14.129
201.0, -11650.198596739603, 15100.74914702763, -35892.11832190971, -15906.462479408085, -40105.109227312714, -187500.02235174447, -10159.560759015174, 2226.859596593332, 0.5720000000000001, -0.6, 0.5700000000000001, 192.0, 0.0, 0.0, 0.0, 0.0, 0.0, 0.0, 0.0, 0.0, 0.0, 1.6634966541291275E9, 0.0, 2022-09-18 15:24:14.129
202.0, -15583.993862151368, 12044.840996842504, -35451.1184038065, -16155.550319618025, -41358.81857381089, -187500.02235174447, -10302.455461317953, 1898.646581011603, 0.5720000000000001, -0.6, 0.5700000000000001, 192.0, 0.0, 0.0, 0.0, 0.0, 0.0, 0.0, 0.0, 0.0, 0.0, 1.6634966541291635E9, 0.0, 2022-09-18 15:24:14.129
203.0, -17293.254112393155, 10559.031135920422, -35008.576215335874, -15860.61905153025, -41479.65210433627, -187500.02235174447, -9946.43687563382, 2195.3659886558044, 0.5720000000000001, -0.6, 0.5700000000000001, 192.0, 0.0, 0.0, 0.0, 0.0, 0.0, 0.0, 0.0, 0.0, 0.0, 1.6634966541291993E9, 0.0, 2022-09-18 15:24:14.129
204.0, -16018.377663895806, 11379.474267896923, -35119.66438527875, -15676.798305129803, -40966.880734787075, -187500.02235174447, -9723.321762480946, 2380.371377512381, 0.5720000000000001, -0.6, 0.5700000000000001, 192.0, 0.0, 0.0, 0.0, 0.0, 0.0, 0.0, 0.0, 0.0, 0.0, 1.6634966541292355E9, 0.0, 2022-09-18 15:24:14.129
205.0, -12841.211300040639, 13893.374966785308, -35532.03171873471, -15614.392234610586, -40247.91452263767, -187500.02235174447, -9735.726980653642, 2476.148602503372, 0.5720000000000001, -0.6, 0.5700000000000001, 192.0, 0.0, 0.0, 0.0, 0.0, 0.0, 0.0, 0.0, 0.0, 0.0, 1.6634966541292708E9, 0.0, 2022-09-18 15:24:14.129
206.0, -11554.71194442653, 15164.451618725256, -35923.6789850806, -15884.714232053071, -40043.239598660424, -187500.02235174447, -10149.278956565733, 2229.2959367389603, 0.5720000000000001, -0.6, 0.5700000000000001, 192.0, 0.0, 0.0, 0.0, 0.0, 0.0, 0.0, 0.0, 0.0, 0.0, 1.6634966541293068E9, 0.0, 2022-09-18 15:24:14.129
207.0, -15389.28781620119, 12207.874620899514, -35490.14454962547, -16135.634915308347, -41283.157918829675, -187500.02235174447, -10324.181356928511, 1894.8244327097457, 0.5720000000000001, -0.6, 0.5700000000000001, 192.0, 0.0, 0.0, 0.0, 0.0, 0.0, 0.0, 0.0, 0.0, 0.0, 1.663496654129342E9, 0.0, 2022-09-18 15:24:14.129
208.0, -17308.85563002296, 10562.830932477824, -35000.57429082088, -15854.114693893755, -41478.73568281361, -187500.02235174447, -9952.740067570217, 2169.996758699031, 0.5720000000000001, -0.6, 0.5700000000000001, 192.0, 0.0, 0.0, 0.0, 0.0, 0.0, 0.0, 0.0, 0.0, 0.0, 1.6634966541293828E9, 0.0, 2022-09-18 15:24:14.129
209.0, -16142.206328178208, 11294.180011055472, -35097.87143443483, -15662.895520078602, -40968.847688299145, -187500.02235174447, -9737.850396376896, 2391.1002148509283, 0.5720000000000001, -0.6, 0.5700000000000001, 192.0, 0.0, 0.0, 0.0, 0.0, 0.0, 0.0, 0.0, 0.0, 0.0, 1.6634966541294217E9, 0.0, 2022-09-18 15:24:14.129
210.0, -13047.875529274408, 13727.793243860395, -35489.58575601408, -15600.42239432602, -40272.07675839386, -187500.02235174447, -9742.320745267958, 2488.1514892758714, 0.58, -0.604, 0.5680000000000001, 192.0, 18.0, 32.0, 237.0, 32.0, 17.0, 192.0, 0.0, 0.0, 0.0, 1.6634966541294527E9, 0.0, 2022-09-18 15:24:14.129
211.0, -11474.89386497663, 15222.320285120046, -35893.59353704376, -15857.310993350864, -39978.75481590686, -187500.02235174447, -10135.197357558889, 2260.409565020748, 0.58, -0.604, 0.5680000000000001, 192.0, 0.0, 0.0, 0.0, 0.0, 0.0, 0.0, 0.0, 0.0, 0.0, 1.6634966541294885E9, 0.0, 2022-09-18 15:24:14.129
212.0, -15175.962767119738, 12383.000538706845, -35512.071610936124, -16150.610584093403, -41198.15423466614, -187500.02235174447, -10325.969496484935, 1880.2063918359747, 0.58, -0.604, 0.5680000000000001, 192.0, 0.0, 0.0, 0.0, 0.0, 0.0, 0.0, 0.0, 0.0, 0.0, 1.6634966541295235E9, 0.0, 2022-09-18 15:24:14.129
213.0, -17320.90322028437, 10562.719173755548, -35012.53247410446, -15886.81529603187, -41487.11758698435, -187500.02235174447, -9980.858562094994, 2146.1474473652183, 0.58, -0.604, 0.5680000000000001, 192.0, 0.0, 0.0, 0.0, 0.0, 0.0, 0.0, 0.0, 0.0, 0.0, 1.66349665412956E9, 0.0, 2022-09-18 15:24:14.129
214.0, -16263.397486614882, 11207.41053907997, -35100.71010598065, -15685.29196802282, -40981.09644426066, -187500.02235174447, -9757.11760009737, 2379.142031567339, 0.58, -0.604, 0.5680000000000001, 192.0, 0.0, 0.0, 0.0, 0.0, 0.0, 0.0, 0.0, 0.0, 0.0, 1.663496654129602E9, 0.0, 2022-09-18 15:24:14.129
215.0, -13243.967383380817, 13563.01618373587, -35479.46041577583, -15614.638103799594, -40300.79875001893, -187500.02235174447, -9732.150701540793, 2473.8687245689302, 0.58, -0.604, 0.5680000000000001, 192.0, 0.0, 0.0, 0.0, 0.0, 0.0, 0.0, 0.0, 0.0, 0.0, 1.663496654129668E9, 0.0, 2022-09-18 15:24:14.129
216.0, -11409.783233378319, 15263.73806759573, -35898.71208652402, -15848.012667657456, -39929.40216414954, -187500.02235174447, -10093.913685549938, 2294.7194927596443, 0.58, -0.604, 0.5680000000000001, 192.0, 0.0, 0.0, 0.0, 0.0, 0.0, 0.0, 0.0, 0.0, 0.0, 1.6634966541297016E9, 0.0, 2022-09-18 15:24:14.129
217.0, -14958.524997058512, 12560.696907126536, -35572.01898956525, -16175.689241372258, -41118.55967266079, -187500.02235174447, -10343.515615882352, 1878.1947348349972, 0.58, -0.604, 0.5680000000000001, 192.0, 0.0, 0.0, 0.0, 0.0, 0.0, 0.0, 0.0, 0.0, 0.0, 1.6634966541297357E9, 0.0, 2022-09-18 15:24:14.129
218.0, -17315.76231905965, 10581.896970498201, -35039.019291284, -15918.264200480486, -41485.59766836139, -187500.02235174447, -10002.651512938919, 2129.763618679478, 0.58, -0.604, 0.5680000000000001, 192.0, 0.0, 0.0, 0.0, 0.0, 0.0, 0.0, 0.0, 0.0, 0.0, 1.6634966541297672E9, 0.0, 2022-09-18 15:24:14.129
219.0, -16371.267005356194, 11140.981154558796, -35094.496321022074, -15699.082994351746, -40966.09842373114, -187500.02235174447, -9767.64527173582, 2391.368435784392, 0.58, -0.604, 0.5680000000000001, 192.0, 0.0, 0.0, 0.0, 0.0, 0.0, 0.0, 0.0, 0.0, 0.0, 1.6634966541297948E9, 0.0, 2022-09-18 15:24:14.129
220.0, -13454.967851038917, 13397.233295110858, -35465.26705804671, -15627.892688261592, -40306.945479744136, -187500.02235174447, -9731.144873040304, 2486.0280735526176, 0.58, -0.604, 0.5640000000000001, 192.0, 18.0, 32.0, 237.0, 32.0, 17.0, 160.0, 0.0, 0.0, 0.0, 1.6634966541298263E9, 0.0, 2022-09-18 15:24:14.129
221.0, -11365.34796540117, 15287.07328880707, -35888.40793233013, -15831.159452338154, -39876.94261991294, -187500.02235174447, -10063.738830535272, 2327.733019320133, 0.58, -0.604, 0.5640000000000001, 192.0, 0.0, 0.0, 0.0, 0.0, 0.0, 0.0, 0.0, 0.0, 0.0, 1.6634966541298735E9, 0.0, 2022-09-18 15:24:14.129
222.0, -14742.361276431237, 12741.8577959368, -35601.99267887982, -16177.879712328877, -40986.818490841215, -187500.02235174447, -10343.85089204918, 1906.5590985487818, 0.58, -0.604, 0.5640000000000001, 192.0, 0.0, 0.0, 0.0, 0.0, 0.0, 0.0, 0.0, 0.0, 0.0, 1.6634966541299088E9, 0.0, 2022-09-18 15:24:14.129
223.0, -17319.830336550516, 10590.323578157851, -35067.80833814244, -15961.82775042388, -41457.81445000344, -187500.02235174447, -10036.60381276653, 2110.5858219368247, 0.58, -0.604, 0.5640000000000001, 192.0, 0.0, 0.0, 0.0, 0.0, 0.0, 0.0, 0.0, 0.0, 0.0, 1.6634966541299424E9, 0.0, 2022-09-18 15:24:14.129
224.0, -16475.627300218024, 11062.101848376018, -35085.913251151236, -15715.690340482039, -40984.91859256251, -187500.02235174447, -9768.852265936406, 2384.4617467477024, 0.58, -0.604, 0.5640000000000001, 192.0, 0.0, 0.0, 0.0, 0.0, 0.0, 0.0, 0.0, 0.0, 0.0, 1.6634966541299725E9, 0.0, 2022-09-18 15:24:14.129
225.0, -13651.015001656415, 13227.181223294881, -35435.449830943326, -15635.179356954022, -40352.16305877722, -187500.02235174447, -9723.075893291938, 2475.813326336542, 0.58, -0.604, 0.5640000000000001, 192.0, 0.0, 0.0, 0.0, 0.0, 0.0, 0.0, 0.0, 0.0, 0.0, 1.6634966541300128E9, 0.0, 2022-09-18 15:24:14.130
226.0, -11335.776607486798, 15285.531018439653, -35896.54396731186, -15827.694931947583, -39856.311959780694, -187500.02235174447, -10054.976946708794, 2334.1032664898953, 0.58, -0.604, 0.5640000000000001, 192.0, 0.0, 0.0, 0.0, 0.0, 0.0, 0.0, 0.0, 0.0, 0.0, 1.6634966541300344E9, 0.0, 2022-09-18 15:24:14.130
227.0, -14501.387119458572, 12917.877783522343, -35663.147051709544, -16181.634805397369, -40955.59310383715, -187500.02235174447, -10362.872226580648, 1918.7407992769242, 0.58, -0.604, 0.5640000000000001, 192.0, 0.0, 0.0, 0.0, 0.0, 0.0, 0.0, 0.0, 0.0, 0.0, 1.663496654130067E9, 0.0, 2022-09-18 15:24:14.130
228.0, -17283.687565766282, 10617.950334304613, -35084.19216682818, -15972.534236017971, -41496.862947566864, -187500.02235174447, -10046.03624892667, 2103.32150498885, 0.58, -0.604, 0.5640000000000001, 192.0, 0.0, 0.0, 0.0, 0.0, 0.0, 0.0, 0.0, 0.0, 0.0, 1.6634966541301007E9, 0.0, 2022-09-18 15:24:14.130
229.0, -16571.94096707594, 10991.537391130614, -35075.31852427942, -15718.931343428058, -41005.750418394855, -187500.02235174447, -9777.904722440806, 2382.2265723021715, 0.58, -0.604, 0.5640000000000001, 192.0, 0.0, 0.0, 0.0, 0.0, 0.0, 0.0, 0.0, 0.0, 0.0, 1.6634966541301277E9, 0.0, 2022-09-18 15:24:14.130
230.0, -13839.149634736734, 13067.455657417257, -35408.76184806369, -15634.732322064916, -40389.915155162234, -187500.02235174447, -9724.819329359452, 2471.7453088456764, 0.586, -0.604, 0.562, 192.0, 18.0, 80.0, 237.0, 32.0, 17.0, 144.0, 0.0, 0.0, 0.0, 1.6634966541301925E9, 0.0, 2022-09-18 15:24:14.130
231.0, -11310.787357185765, 15289.576684186064, -35867.53140300887, -15790.367518707219, -39816.25763371678, -187500.02235174447, -10018.275382313179, 2379.2761420340707, 0.586, -0.604, 0.562, 192.0, 0.0, 0.0, 0.0, 0.0, 0.0, 0.0, 0.0, 0.0, 0.0, 1.6634966541302364E9, 0.0, 2022-09-18 15:24:14.130
232.0, -14248.208910013309, 13114.953114384785, -35673.63001985908, -16163.48518889966, -40858.51947766775, -187500.02235174447, -10342.688601337506, 1937.873892530667, 0.586, -0.604, 0.562, 192.0, 0.0, 0.0, 0.0, 0.0, 0.0, 0.0, 0.0, 0.0, 0.0, 1.663496654130267E9, 0.0, 2022-09-18 15:24:14.130
233.0, -17227.852908116925, 10664.509018005016, -35092.86464367684, -15991.041480426966, -41485.4412061502, -187500.02235174447, -10068.075068959603, 2080.0533390108753, 0.586, -0.604, 0.562, 192.0, 0.0, 0.0, 0.0, 0.0, 0.0, 0.0, 0.0, 0.0, 0.0, 1.6634966541303074E9, 0.0, 2022-09-18 15:24:14.130
234.0, -16646.931069723498, 10935.501567781159, -35071.20580329964, -15740.456073338519, -41007.65031667356, -187500.02235174447, -9794.400309848823, 2361.0594703029956, 0.586, -0.604, 0.562, 192.0, 0.0, 0.0, 0.0, 0.0, 0.0, 0.0, 0.0, 0.0, 0.0, 1.6634966541303363E9, 0.0, 2022-09-18 15:24:14.130
235.0, -14032.268706830588, 12901.98569321462, -35378.832862238036, -15644.343572180698, -40418.011297942554, -187500.02235174447, -9708.927239051729, 2476.439175181291, 0.586, -0.604, 0.562, 192.0, 0.0, 0.0, 0.0, 0.0, 0.0, 0.0, 0.0, 0.0, 0.0, 1.6634966541303625E9, 0.0, 2022-09-18 15:24:14.130
236.0, -11322.76789221381, 15257.032544259137, -35849.71706267799, -15774.855408055237, -39794.95642125087, -187500.02235174447, -9983.697233640818, 2400.7785202000764, 0.586, -0.604, 0.562, 192.0, 0.0, 0.0, 0.0, 0.0, 0.0, 0.0, 0.0, 0.0, 0.0, 1.6634966541303887E9, 0.0, 2022-09-18 15:24:14.130
237.0, -14006.497145473617, 13300.360834641557, -35697.50168293735, -16149.113017214897, -40767.41376726792, -187500.02235174447, -10333.434979133008, 1977.034148816365, 0.586, -0.604, 0.562, 192.0, 0.0, 0.0, 0.0, 0.0, 0.0, 0.0, 0.0, 0.0, 0.0, 1.6634966541304193E9, 0.0, 2022-09-18 15:24:14.130
238.0, -17185.69751807422, 10698.617780043814, -35104.353440326864, -16000.920951476211, -41486.26822069505, -187500.02235174447, -10088.817487814127, 2076.0523767533755, 0.586, -0.604, 0.562, 192.0, 0.0, 0.0, 0.0, 0.0, 0.0, 0.0, 0.0, 0.0, 0.0, 1.6634966541304488E9, 0.0, 2022-09-18 15:24:14.130
239.0, -16731.867698653663, 10873.25195947313, -35047.35649196583, -15726.262715609399, -41020.41316275754, -187500.02235174447, -9795.741414516142, 2371.8777146193643, 0.586, -0.604, 0.562, 192.0, 0.0, 0.0, 0.0, 0.0, 0.0, 0.0, 0.0, 0.0, 0.0, 1.6634966541304753E9, 0.0, 2022-09-18 15:24:14.130
240.0, -14218.81636605458, 12746.7081244836, -35359.96798991776, -15633.793548797794, -40445.68275757823, -187500.02235174447, -9714.984561799118, 2472.818192579531, 0.58, -0.602, 0.5680000000000001, 192.0, 18.0, 32.0, 237.0, 48.0, 17.0, 192.0, 0.0, 0.0, 0.0, 1.6634966541305065E9, 0.0, 2022-09-18 15:24:14.130
241.0, -11342.772703501309, 15222.052064186582, -35822.49263793143, -15750.35789613222, -39768.89428721598, -187500.02235174447, -9964.899416553906, 2413.4519593062355, 0.58, -0.602, 0.5680000000000001, 192.0, 0.0, 0.0, 0.0, 0.0, 0.0, 0.0, 0.0, 0.0, 0.0, 1.663496654606934E9, 0.0, 2022-09-18 15:24:14.606
242.0, -13761.186750076622, 13496.452688747966, -35716.16538955753, -16130.359903616894, -40628.63178594492, -187500.02235174447, -10332.56326109925, 1981.906829107622, 0.58, -0.602, 0.5680000000000001, 192.0, 0.0, 0.0, 0.0, 0.0, 0.0, 0.0, 0.0, 0.0, 0.0, 1.6634966546071131E9, 0.0, 2022-09-18 15:24:14.607
243.0, -17124.654903966773, 10759.593338917892, -35130.773202273034, -16018.310608662441, -41423.392763542266, -187500.02235174447, -10116.600706172074, 2046.3692601167274, 0.58, -0.602, 0.5680000000000001, 192.0, 0.0, 0.0, 0.0, 0.0, 0.0, 0.0, 0.0, 0.0, 0.0, 1.6634966546071455E9, 0.0, 2022-09-18 15:24:14.607
244.0, -16807.304836190324, 10820.367732091872, -35041.90266631874, -15735.315172113798, -41020.18964531299, -187500.02235174447, -9807.587839077454, 2362.512333692591, 0.58, -0.602, 0.5680000000000001, 192.0, 0.0, 0.0, 0.0, 0.0, 0.0, 0.0, 0.0, 0.0, 0.0, 1.6634966546071763E9, 0.0, 2022-09-18 15:24:14.607
245.0, -14406.90629564599, 12595.54327673236, -35334.37524251643, -15632.675961575027, -40451.091879736414, -187500.02235174447, -9706.4908989061, 2466.403241920858, 0.58, -0.602, 0.5680000000000001, 192.0, 0.0, 0.0, 0.0, 0.0, 0.0, 0.0, 0.0, 0.0, 0.0, 1.6634966546072724E9, 0.0, 2022-09-18 15:24:14.607
246.0, -11396.394538449591, 15160.495359956665, -35819.16222800758, -15723.647561508127, -39764.46864181384, -187500.02235174447, -9944.961660499772, 2430.953375214741, 0.58, -0.602, 0.5680000000000001, 192.0, 0.0, 0.0, 0.0, 0.0, 0.0, 0.0, 0.0, 0.0, 0.0, 1.663496654607306E9, 0.0, 2022-09-18 15:24:14.607
247.0, -13527.074578651736, 13672.763249011428, -35742.920427670535, -16105.817688204968, -40564.03524446908, -187500.02235174447, -10322.013237716346, 2001.4422537615603, 0.58, -0.602, 0.5680000000000001, 192.0, 0.0, 0.0, 0.0, 0.0, 0.0, 0.0, 0.0, 0.0, 0.0, 1.6634966546073365E9, 0.0, 2022-09-18 15:24:14.607
248.0, -17046.08852220637, 10823.966362949177, -35144.832449535425, -16026.580754110904, -41431.7299642241, -187500.02235174447, -10127.731874910818, 2030.2089488755405, 0.58, -0.602, 0.5680000000000001, 192.0, 0.0, 0.0, 0.0, 0.0, 0.0, 0.0, 0.0, 0.0, 0.0, 1.663496654607365E9, 0.0, 2022-09-18 15:24:14.607
249.0, -16879.791543458887, 10770.545693700993, -35034.79481158195, -15746.35693387472, -41043.34605256868, -187500.02235174447, -9815.589763592454, 2328.2247576981495, 0.58, -0.602, 0.5680000000000001, 192.0, 0.0, 0.0, 0.0, 0.0, 0.0, 0.0, 0.0, 0.0, 0.0, 1.6634966546073825E9, 0.0, 2022-09-18 15:24:14.607
250.0, -14578.545341318291, 12452.693277918492, -35300.22177698872, -15645.081179747724, -40503.99845886212, -187500.02235174447, -9704.546297138488, 2416.3800378298806, 0.58, -0.598, 0.5720000000000001, 192.0, 18.0, 32.0, 237.0, 80.0, 17.0, 224.0, 0.0, 0.0, 0.0, 1.663496654607402E9, 0.0, 2022-09-18 15:24:14.607
251.0, -11450.686925731532, 15098.916303982294, -35787.91448925906, -15694.322072782765, -39759.551258033665, -187500.02235174447, -9921.089997421503, 2456.4120121493356, 0.58, -0.598, 0.5720000000000001, 192.0, 0.0, 0.0, 0.0, 0.0, 0.0, 0.0, 0.0, 0.0, 0.0, 1.6634966546074204E9, 0.0, 2022-09-18 15:24:14.607
252.0, -13280.333671609602, 13855.958146567125, -35770.591887306204, -16089.947949641699, -40490.92268835577, -187500.02235174447, -10317.252316147365, 2021.4023615601495, 0.58, -0.598, 0.5720000000000001, 192.0, 0.0, 0.0, 0.0, 0.0, 0.0, 0.0, 0.0, 0.0, 0.0, 1.663496654607438E9, 0.0, 2022-09-18 15:24:14.607
253.0, -16947.6514396252, 10899.627017930392, -35170.715769614675, -16047.725504365624, -41448.20319988766, -187500.02235174447, -10148.67545946544, 1998.2459543044515, 0.58, -0.598, 0.5720000000000001, 192.0, 0.0, 0.0, 0.0, 0.0, 0.0, 0.0, 0.0, 0.0, 0.0, 1.6634966546074543E9, 0.0, 2022-09-18 15:24:14.607
254.0, -16945.706837857586, 10724.45639663415, -35029.67626210168, -15751.766056032904, -41067.329474369224, -187500.02235174447, -9824.910441030317, 2317.920603504253, 0.58, -0.598, 0.5720000000000001, 192.0, 0.0, 0.0, 0.0, 0.0, 0.0, 0.0, 0.0, 0.0, 0.0, 1.663496654607471E9, 0.0, 2022-09-18 15:24:14.607
255.0, -14761.673183640622, 12302.891886579024, -35292.37631468491, -15639.090912233702, -40536.49789530014, -187500.02235174447, -9710.78243384152, 2435.915462483819, 0.58, -0.598, 0.5720000000000001, 192.0, 0.0, 0.0, 0.0, 0.0, 0.0, 0.0, 0.0, 0.0, 0.0, 1.663496654607488E9, 0.0, 2022-09-18 15:24:14.607
0.0, -11538.99866807445, 15010.78337559502, -35777.453872853985, -15682.743869154916, -39766.0332639257, -187500.02235174447, -9897.397148298878, 2456.970805760718, 0.58, -0.598, 0.5720000000000001, 192.0, 0.0, 0.0, 0.0, 0.0, 0.0, 0.0, 0.0, 0.0, 0.0, 1.6634966546075048E9, 0.0, 2022-09-18 15:24:14.607
1.0, -13057.643241601378, 14022.076311358967, -35829.91341709059, -16093.635987476826, -40406.924832692726, -187500.02235174447, -10327.891746508092, 2011.612297488725, 0.58, -0.598, 0.5720000000000001, 192.0, 0.0, 0.0, 0.0, 0.0, 0.0, 0.0, 0.0, 0.0, 0.0, 1.663496654607521E9, 0.0, 2022-09-18 15:24:14.607
2.0, -16851.114255322726, 10971.912559498855, -35235.35701457942, -16086.595187973404, -41432.7804962135, -187500.02235174447, -10201.045596724225, 1951.4861049039491, 0.58, -0.598, 0.5720000000000001, 192.0, 0.0, 0.0, 0.0, 0.0, 0.0, 0.0, 0.0, 0.0, 0.0, 1.6634966546075375E9, 0.0, 2022-09-18 15:24:14.607
3.0, -17011.89035318975, 10671.125134363787, -35029.25157895703, -15778.029355767889, -41084.830890277735, -187500.02235174447, -9847.418647696812, 2283.387158320804, 0.58, -0.598, 0.5720000000000001, 192.0, 0.0, 0.0, 0.0, 0.0, 0.0, 0.0, 0.0, 0.0, 0.0, 1.663496654607554E9, 0.0, 2022-09-18 15:24:14.607
4.0, -14927.545479243456, 12161.31593719911, -35259.31808463551, -15652.412551929065, -40556.94974147675, -187500.02235174447, -9714.15754725427, 2402.879584178875, 0.584, -0.608, 0.5740000000000001, 192.0, 18.0, 64.0, 237.0, 0.0, 17.0, 240.0, 0.0, 0.0, 0.0, 1.6634966546075704E9, 0.0, 2022-09-18 15:24:14.607
5.0, -11633.546547120399, 14905.6184179328, -35737.06427062324, -15670.38335447113, -39766.16737439244, -187500.02235174447, -9883.181438825302, 2464.0339570085953, 0.584, -0.608, 0.5740000000000001, 192.0, 0.0, 0.0, 0.0, 0.0, 0.0, 0.0, 0.0, 0.0, 0.0, 1.6634966546076183E9, 0.0, 2022-09-18 15:24:14.607
6.0, -12834.438721470682, 14184.797010993601, -35827.14180077813, -16059.929556838222, -40311.57229084639, -187500.02235174447, -10318.973400470424, 2033.6511175216579, 0.584, -0.608, 0.5740000000000001, 192.0, 0.0, 0.0, 0.0, 0.0, 0.0, 0.0, 0.0, 0.0, 0.0, 1.6634966546076353E9, 0.0, 2022-09-18 15:24:14.607
7.0, -16737.477986511945, 11067.868598445488, -35244.74474725065, -16081.364879770861, -41392.27913526048, -187500.02235174447, -10226.414826680997, 1933.515302361882, 0.584, -0.608, 0.5740000000000001, 192.0, 0.0, 0.0, 0.0, 0.0, 0.0, 0.0, 0.0, 0.0, 0.0, 1.6634966546076517E9, 0.0, 2022-09-18 15:24:14.607
8.0, -17077.112743510337, 10634.088293801344, -35026.1670382222, -15764.417143394609, -41079.287657652814, -187500.02235174447, -9877.593502711476, 2293.2666293700495, 0.584, -0.608, 0.5740000000000001, 192.0, 0.0, 0.0, 0.0, 0.0, 0.0, 0.0, 0.0, 0.0, 0.0, 1.663496654607668E9, 0.0, 2022-09-18 15:24:14.607
