%OpenBCI Raw EEG Data
%Number of channels = 8
%Sample Rate = 250 Hz
%Board = OpenBCI_GUI$BoardCytonSerial
Sample Index, EXG Channel 0, EXG Channel 1, EXG Channel 2, EXG Channel 3, EXG Channel 4, EXG Channel 5, EXG Channel 6, EXG Channel 7, Accel Channel 0, Accel Channel 1, Accel Channel 2, Other, Other, Other, Other, Other, Other, Other, Analog Channel 0, Analog Channel 1, Analog Channel 2, Timestamp, Other, Timestamp (Formatted)
232.0, -8844.94290887629, 11090.041528945152, -39623.49618953421, -15774.87775979969, 388.8756500334323, -187500.02235174447, -13222.532060448179, -849.343937557213, 0.0, 0.0, 0.0, 192.0, 0.0, 0.0, 0.0, 0.0, 0.0, 0.0, 0.0, 0.0, 0.0, 1.6634968231567688E9, 0.0, 2022-09-18 15:27:03.156
233.0, -6461.263473184523, 13111.6450562054, -39921.75786754583, -15938.358418745807, 318.57941372149156, -187500.02235174447, -13475.397345471067, -987.8576979467509, 0.0, 0.0, 0.0, 192.0, 0.0, 0.0, 0.0, 0.0, 0.0, 0.0, 0.0, 0.0, 0.0, 1.6634968231568096E9, 0.0, 2022-09-18 15:27:03.156
234.0, -9396.874534711187, 10474.318024434808, -39698.06160903712, -16167.19557847924, -545.8519513430538, -187500.02235174447, -13631.524280491387, -1389.6973597642614, 0.0, 0.0, 0.0, 192.0, 0.0, 0.0, 0.0, 0.0, 0.0, 0.0, 0.0, 0.0, 0.0, 1.663496823156834E9, 0.0, 2022-09-18 15:27:03.156
235.0, -11947.65561195083, 8345.180254600078, -39279.21226968912, -15914.017369033978, -316.03131485358654, -187500.02235174447, -13343.20912876238, -1105.561984248398, 0.0, 0.0, 0.0, 192.0, 0.0, 0.0, 0.0, 0.0, 0.0, 0.0, 0.0, 0.0, 0.0, 1.663496823156858E9, 0.0, 2022-09-18 15:27:03.156
236.0, -11435.063056357272, 8846.574586221526, -39328.05083132396, -15771.815570809315, 336.86314068593276, -187500.02235174447, -13193.765365334197, -886.9842752199502, 0.0, 0.0, 0.0, 192.0, 0.0, 0.0, 0.0, 0.0, 0.0, 0.0, 0.0, 0.0, 0.0, 1.6634968231568823E9, 0.0, 2022-09-18 15:27:03.156
237.0, -9032.138768689487, 10934.942774169776, -39605.63714571442, -15766.495855628951, 379.66673131784574, -187500.02235174447, -13214.552487677633, -853.1437341146153, 0.0, 0.0, 0.0, 192.0, 0.0, 0.0, 0.0, 0.0, 0.0, 0.0, 0.0, 0.0, 0.0, 1.6634968231569078E9, 0.0, 2022-09-18 15:27:03.156
238.0, -6459.631795839286, 13124.586716245023, -39917.15340818804, -15912.452746922107, 347.10023964646336, -187500.02235174447, -13462.589795898175, -951.2231887845027, 0.598, -0.636, 0.53, 192.0, 18.0, 176.0, 236.0, 32.0, 16.0, 144.0, 0.0, 0.0, 0.0, 1.6634968231569324E9, 0.0, 2022-09-18 15:27:03.156
239.0, -9175.927540770477, 10668.889959918257, -39727.4765047403, -16152.599889349925, -509.66447706991164, -187500.02235174447, -13639.950888151037, -1368.3961472983538, 0.598, -0.636, 0.53, 192.0, 0.0, 0.0, 0.0, 0.0, 0.0, 0.0, 0.0, 0.0, 0.0, 1.6634968231569605E9, 0.0, 2022-09-18 15:27:03.156
240.0, -11913.055111534013, 8369.856580478738, -39292.89153729576, -15925.930848828657, -360.466582830737, -187500.02235174447, -13359.16827430347, -1129.5007025600319, 0.598, -0.636, 0.53, 192.0, 0.0, 0.0, 0.0, 0.0, 0.0, 0.0, 0.0, 0.0, 0.0, 1.6634968231569872E9, 0.0, 2022-09-18 15:27:03.156
241.0, -11497.826754787775, 8792.148088472853, -39319.51246494204, -15774.274262699399, 329.6658789713239, -187500.02235174447, -13194.838249068052, -884.4808798409558, 0.598, -0.636, 0.53, 192.0, 0.0, 0.0, 0.0, 0.0, 0.0, 0.0, 0.0, 0.0, 0.0, 1.6634968231570125E9, 0.0, 2022-09-18 15:27:03.157
242.0, -9209.34339873116, 10775.820705392445, -39590.03562808462, -15768.082829485278, 378.37033013943795, -187500.02235174447, -13205.745900362243, -847.6005014896991, 0.598, -0.636, 0.53, 192.0, 0.0, 0.0, 0.0, 0.0, 0.0, 0.0, 0.0, 0.0, 0.0, 1.6634968231570387E9, 0.0, 2022-09-18 15:27:03.157
243.0, -6474.048671012959, 13112.40501551688, -39912.07956219668, -15908.988226531534, 375.24108591569495, -187500.02235174447, -13441.489749132366, -932.3359647197682, 0.598, -0.636, 0.53, 192.0, 0.0, 0.0, 0.0, 0.0, 0.0, 0.0, 0.0, 0.0, 0.0, 1.6634968231570623E9, 0.0, 2022-09-18 15:27:03.157
244.0, -8957.282776508662, 10856.152874964819, -39751.8846096855, -16174.035212282564, -472.33706382954887, -187500.02235174447, -13645.672934731596, -1372.0841851334794, 0.598, -0.636, 0.53, 192.0, 0.0, 0.0, 0.0, 0.0, 0.0, 0.0, 0.0, 0.0, 0.0, 1.663496823157081E9, 0.0, 2022-09-18 15:27:03.157
245.0, -11863.098962676402, 8405.619371607228, -39305.699086868655, -15961.470122512595, -385.3887778984044, -187500.02235174447, -13375.641509967032, -1162.201304698146, 0.598, -0.636, 0.53, 192.0, 0.0, 0.0, 0.0, 0.0, 0.0, 0.0, 0.0, 0.0, 0.0, 1.663496823157102E9, 0.0, 2022-09-18 15:27:03.157
246.0, -11544.81012163283, 8750.976175186179, -39308.87303458131, -15790.434573940585, 349.3801175809047, -187500.02235174447, -13192.558371133611, -897.6237055806763, 0.598, -0.636, 0.53, 192.0, 0.0, 0.0, 0.0, 0.0, 0.0, 0.0, 0.0, 0.0, 0.0, 1.6634968231571176E9, 0.0, 2022-09-18 15:27:03.157
247.0, -9368.33135704176, 10637.329296747363, -39569.337912719006, -15777.716431345516, 425.51015919568056, -187500.02235174447, -13197.90043805843, -857.2341033499365, 0.598, -0.636, 0.53, 192.0, 0.0, 0.0, 0.0, 0.0, 0.0, 0.0, 0.0, 0.0, 0.0, 1.663496823157133E9, 0.0, 2022-09-18 15:27:03.157
248.0, -6498.501479447064, 13094.724785652732, -39895.89689921104, -15889.542208855417, 415.6753916353454, -187500.02235174447, -13416.165222664504, -905.0444847398383, 0.598, -0.634, 0.534, 192.0, 18.0, 176.0, 236.0, 48.0, 16.0, 176.0, 0.0, 0.0, 0.0, 1.6634968231572945E9, 0.0, 2022-09-18 15:27:03.157
249.0, -8690.24648550111, 11092.075537690585, -39766.547354048176, -16147.10136021392, -331.0516871275529, -187500.02235174447, -13631.300763046833, -1320.675172886273, 0.598, -0.634, 0.534, 192.0, 0.0, 0.0, 0.0, 0.0, 0.0, 0.0, 0.0, 0.0, 0.0, 1.6634968231573117E9, 0.0, 2022-09-18 15:27:03.157
250.0, -11777.223560479113, 8473.00988113998, -39325.18980803368, -15961.44777076814, -343.0769256445081, -187500.02235174447, -13388.538466517743, -1168.526848378998, 0.598, -0.634, 0.534, 192.0, 0.0, 0.0, 0.0, 0.0, 0.0, 0.0, 0.0, 0.0, 0.0, 1.6634968231573272E9, 0.0, 2022-09-18 15:27:03.157
251.0, -11618.325009146334, 8683.898590075802, -39303.64272637877, -15780.823323824803, 309.5493089615475, -187500.02235174447, -13197.118127002494, -900.0376939818495, 0.598, -0.634, 0.534, 192.0, 0.0, 0.0, 0.0, 0.0, 0.0, 0.0, 0.0, 0.0, 0.0, 1.6634968231573424E9, 0.0, 2022-09-18 15:27:03.157
252.0, -9566.971310016073, 10465.377326652686, -39546.5838368635, -15764.908881772624, 367.66384454534585, -187500.02235174447, -13189.22796120977, -856.9435306720175, 0.598, -0.634, 0.534, 192.0, 0.0, 0.0, 0.0, 0.0, 0.0, 0.0, 0.0, 0.0, 0.0, 1.6634968231573577E9, 0.0, 2022-09-18 15:27:03.157
253.0, -6556.481904564132, 13053.82109329952, -39881.07769263717, -15863.055391675878, 423.9902405727197, -187500.02235174447, -13388.203190350914, -875.473126825467, 0.598, -0.634, 0.534, 192.0, 0.0, 0.0, 0.0, 0.0, 0.0, 0.0, 0.0, 0.0, 0.0, 1.6634968231573727E9, 0.0, 2022-09-18 15:27:03.157
254.0, -8507.29745713442, 11257.41139142649, -39794.41997938394, -16147.414284636294, -373.7211672927341, -187500.02235174447, -13632.574812480785, -1320.004620552614, 0.598, -0.634, 0.534, 192.0, 0.0, 0.0, 0.0, 0.0, 0.0, 0.0, 0.0, 0.0, 0.0, 1.6634968231573925E9, 0.0, 2022-09-18 15:27:03.157
255.0, -11754.46948462361, 8493.841706972325, -39338.9361308737, -15977.742192476058, -483.3341221015599, -187500.02235174447, -13404.609370781109, -1198.2546685045563, 0.598, -0.634, 0.534, 192.0, 0.0, 0.0, 0.0, 0.0, 0.0, 0.0, 0.0, 0.0, 0.0, 1.6634968231574075E9, 0.0, 2022-09-18 15:27:03.157
0.0, -11679.367623253778, 8638.524548831529, -39292.08687449538, -15774.900111544146, 283.84480283794437, -187500.02235174447, -13200.22501948178, -893.309818900802, 0.598, -0.634, 0.534, 192.0, 0.0, 0.0, 0.0, 0.0, 0.0, 0.0, 0.0, 0.0, 0.0, 1.6634968231574228E9, 0.0, 2022-09-18 15:27:03.157
1.0, -9737.939803354717, 10318.816938259237, -39532.72575530121, -15766.048820739845, 366.0768706890191, -187500.02235174447, -13194.100641501027, -863.9843301754393, 0.598, -0.634, 0.534, 192.0, 0.0, 0.0, 0.0, 0.0, 0.0, 0.0, 0.0, 0.0, 0.0, 1.6634968231574378E9, 0.0, 2022-09-18 15:27:03.157
2.0, -6634.042457824047, 12989.291607057048, -39872.874602422075, -15860.261423618964, 434.4732087222587, -187500.02235174447, -13387.443231039433, -889.085339198749, 0.598, -0.634, 0.534, 192.0, 0.0, 0.0, 0.0, 0.0, 0.0, 0.0, 0.0, 0.0, 0.0, 1.6634968231574528E9, 0.0, 2022-09-18 15:27:03.157
3.0, -8293.145393508124, 11445.300155317802, -39811.004973769785, -16144.061522967999, -325.82137892501106, -187500.02235174447, -13637.805120683328, -1328.3418212344434, 0.598, -0.632, 0.536, 192.0, 18.0, 176.0, 236.0, 64.0, 16.0, 192.0, 0.0, 0.0, 0.0, 1.663496823157468E9, 0.0, 2022-09-18 15:27:03.157
4.0, -11678.540608708932, 8555.018431546501, -39342.80298266446, -15992.40493683874, -515.0288957391854, -187500.02235174447, -13417.79690000974, -1217.7006861806735, 0.598, -0.632, 0.536, 192.0, 0.0, 0.0, 0.0, 0.0, 0.0, 0.0, 0.0, 0.0, 0.0, 1.6634968231574876E9, 0.0, 2022-09-18 15:27:03.157
5.0, -11725.3675133428, 8600.392472790774, -39270.83036551838, -15776.55414063384, 269.40557591981604, -187500.02235174447, -13200.292074715147, -892.1028247002155, 0.598, -0.632, 0.536, 192.0, 0.0, 0.0, 0.0, 0.0, 0.0, 0.0, 0.0, 0.0, 0.0, 1.663496823157503E9, 0.0, 2022-09-18 15:27:03.157
6.0, -9899.967598911238, 10180.750212758805, -39514.240862636674, -15771.145018475656, 365.29455963308334, -187500.02235174447, -13191.932522288862, -868.3876238331347, 0.598, -0.632, 0.536, 192.0, 0.0, 0.0, 0.0, 0.0, 0.0, 0.0, 0.0, 0.0, 0.0, 1.6634968231575177E9, 0.0, 2022-09-18 15:27:03.157
7.0, -6709.501947105164, 12928.159585971784, -39850.12052656657, -15836.56857449634, 456.6014357330127, -187500.02235174447, -13364.26447203928, -849.410992790579, 0.598, -0.632, 0.536, 192.0, 0.0, 0.0, 0.0, 0.0, 0.0, 0.0, 0.0, 0.0, 0.0, 1.6634968231576164E9, 0.0, 2022-09-18 15:27:03.157
8.0, -8068.935044876939, 11639.000372767494, -39828.39463095601, -16131.8574704954, -267.88565729685513, -187500.02235174447, -13635.726408448983, -1286.298189914011, 0.598, -0.632, 0.536, 192.0, 0.0, 0.0, 0.0, 0.0, 0.0, 0.0, 0.0, 0.0, 0.0, 1.6634968231576424E9, 0.0, 2022-09-18 15:27:03.157
9.0, -11574.493238269477, 8631.595508050385, -39373.424872568234, -16021.775129053012, -518.9180992744087, -187500.02235174447, -13448.508196891333, -1239.8512649358827, 0.598, -0.632, 0.536, 192.0, 0.0, 0.0, 0.0, 0.0, 0.0, 0.0, 0.0, 0.0, 0.0, 1.663496823157668E9, 0.0, 2022-09-18 15:27:03.157
10.0, -11761.42087714921, 8559.712297882115, -39281.82742379039, -15789.026414039901, 269.45027940872666, -187500.02235174447, -13216.85471735653, -906.2738306848802, 0.598, -0.632, 0.536, 192.0, 0.0, 0.0, 0.0, 0.0, 0.0, 0.0, 0.0, 0.0, 0.0, 1.6634968231576936E9, 0.0, 2022-09-18 15:27:03.157
11.0, -10028.98186790727, 10060.698993289352, -39500.896871196855, -15764.685364328072, 423.1855777723286, -187500.02235174447, -13192.714833344799, -865.7724697318638, 0.598, -0.632, 0.536, 192.0, 0.0, 0.0, 0.0, 0.0, 0.0, 0.0, 0.0, 0.0, 0.0, 1.6634968231577196E9, 0.0, 2022-09-18 15:27:03.157
12.0, -6807.804919219604, 12836.11510230483, -39840.12929679505, -15827.538469736395, 479.42256682188116, -187500.02235174447, -13355.860216124085, -858.21758010597, 0.598, -0.632, 0.536, 192.0, 0.0, 0.0, 0.0, 0.0, 0.0, 0.0, 0.0, 0.0, 0.0, 1.6634968231577458E9, 0.0, 2022-09-18 15:27:03.157
13.0, -7838.130931631438, 11837.014476897059, -39842.118602051574, -16108.47754579515, -151.41071694025004, -187500.02235174447, -13630.853728157726, -1264.5275908145418, 0.596, -0.636, 0.53, 192.0, 18.0, 160.0, 236.0, 32.0, 16.0, 144.0, 0.0, 0.0, 0.0, 1.6634968231577716E9, 0.0, 2022-09-18 15:27:03.157
14.0, -11439.667515715066, 8736.626355245871, -39384.95837270717, -16018.9811609961, -455.9532351438088, -187500.02235174447, -13463.349755209656, -1264.3711286033547, 0.596, -0.636, 0.53, 192.0, 0.0, 0.0, 0.0, 0.0, 0.0, 0.0, 0.0, 0.0, 0.0, 1.663496823157799E9, 0.0, 2022-09-18 15:27:03.157
15.0, -11807.57722944942, 8510.225535658066, -39262.24729564754, -15785.673652371604, 232.3016801240063, -187500.02235174447, -13218.396987723945, -926.1221797611928, 0.596, -0.636, 0.53, 192.0, 0.0, 0.0, 0.0, 0.0, 0.0, 0.0, 0.0, 0.0, 0.0, 1.663496823157827E9, 0.0, 2022-09-18 15:27:03.157
16.0, -10197.73753854484, 9911.635209516908, -39472.95719062772, -15759.745628803448, 361.3159491200387, -187500.02235174447, -13184.645853596432, -883.3185891292798, 0.596, -0.636, 0.53, 192.0, 0.0, 0.0, 0.0, 0.0, 0.0, 0.0, 0.0, 0.0, 0.0, 1.663496823157853E9, 0.0, 2022-09-18 15:27:03.157
17.0, -6924.883356676502, 12740.76256045849, -39808.7474475798, -15800.805783367847, 472.7617469741997, -187500.02235174447, -13328.59108788861, -834.9941176169059, 0.596, -0.636, 0.53, 192.0, 0.0, 0.0, 0.0, 0.0, 0.0, 0.0, 0.0, 0.0, 0.0, 1.663496823157884E9, 0.0, 2022-09-18 15:27:03.157
18.0, -7659.518141689079, 11997.56705731953, -39854.59087545763, -16095.42412703325, -161.58076066741475, -187500.02235174447, -13626.36102752221, -1247.4508580506872, 0.596, -0.636, 0.53, 192.0, 0.0, 0.0, 0.0, 0.0, 0.0, 0.0, 0.0, 0.0, 0.0, 1.66349682315791E9, 0.0, 2022-09-18 15:27:03.157
19.0, -11364.364488645137, 8796.59608561946, -39399.93404149223, -16031.520489635526, -598.4903095353019, -187500.02235174447, -13481.834647874195, -1293.5401551175303, 0.596, -0.636, 0.53, 192.0, 0.0, 0.0, 0.0, 0.0, 0.0, 0.0, 0.0, 0.0, 0.0, 1.6634968231579397E9, 0.0, 2022-09-18 15:27:03.157
20.0, -11857.622785284851, 8470.461782272076, -39257.19580140064, -15783.773754092903, 179.1045283203755, -187500.02235174447, -13233.283249531181, -923.0376390263605, 0.596, -0.636, 0.53, 192.0, 0.0, 0.0, 0.0, 0.0, 0.0, 0.0, 0.0, 0.0, 0.0, 1.6634968231579657E9, 0.0, 2022-09-18 15:27:03.157
21.0, -10345.370810672142, 9790.578161546966, -39456.349844497425, -15763.277204427386, 362.85821948745485, -187500.02235174447, -13188.982092020762, -879.3399786162352, 0.596, -0.636, 0.53, 192.0, 0.0, 0.0, 0.0, 0.0, 0.0, 0.0, 0.0, 0.0, 0.0, 1.6634968231579912E9, 0.0, 2022-09-18 15:27:03.157
22.0, -7060.6478524980375, 12634.122387662219, -39783.98171472332, -15798.12357403321, 477.880296454465, -187500.02235174447, -13311.737872569309, -823.5053209668781, 0.596, -0.636, 0.53, 192.0, 0.0, 0.0, 0.0, 0.0, 0.0, 0.0, 0.0, 0.0, 0.0, 1.663496823158018E9, 0.0, 2022-09-18 15:27:03.158
23.0, -7477.23966565605, 12166.74741110175, -39866.102023852116, -16096.273493322551, -107.55659431893758, -187500.02235174447, -13619.722559418984, -1220.293488537489, 0.596, -0.644, 0.532, 192.0, 18.0, 160.0, 235.0, 224.0, 16.0, 160.0, 0.0, 0.0, 0.0, 1.6634968231580684E9, 0.0, 2022-09-18 15:27:03.158
24.0, -11242.011039496785, 8902.14102293742, -39421.7046405917, -16058.722562637635, -616.3046498661816, -187500.02235174447, -13502.331197539712, -1303.5760883779633, 0.596, -0.644, 0.532, 192.0, 0.0, 0.0, 0.0, 0.0, 0.0, 0.0, 0.0, 0.0, 0.0, 1.6634968231580963E9, 0.0, 2022-09-18 15:27:03.158
25.0, -11886.791811799028, 8448.735886661516, -39239.80614421441, -15790.523980918406, 153.95881580815504, -187500.02235174447, -13227.784720395175, -930.3466594632458, 0.596, -0.644, 0.532, 192.0, 0.0, 0.0, 0.0, 0.0, 0.0, 0.0, 0.0, 0.0, 0.0, 1.6634968231581218E9, 0.0, 2022-09-18 15:27:03.158
26.0, -10472.507533133929, 9683.178029439216, -39436.59090239894, -15756.683439813072, 371.79891726957766, -187500.02235174447, -13182.343623917535, -874.5567053027994, 0.596, -0.644, 0.532, 192.0, 0.0, 0.0, 0.0, 0.0, 0.0, 0.0, 0.0, 0.0, 0.0, 1.66349682315815E9, 0.0, 2022-09-18 15:27:03.158
27.0, -7205.733025757436, 12512.126566425153, -39770.01187443875, -15774.87775979969, 480.9424854448421, -187500.02235174447, -13296.87396250653, -807.4344167035123, 0.596, -0.644, 0.532, 192.0, 0.0, 0.0, 0.0, 0.0, 0.0, 0.0, 0.0, 0.0, 0.0, 1.6634968231581757E9, 0.0, 2022-09-18 15:27:03.158
28.0, -7305.108881605731, 12324.751892656315, -39881.90470718202, -16069.98784184311, -52.839523892345895, -187500.02235174447, -13608.211411024502, -1197.8076336154502, 0.596, -0.644, 0.532, 192.0, 0.0, 0.0, 0.0, 0.0, 0.0, 0.0, 0.0, 0.0, 0.0, 1.6634968231582017E9, 0.0, 2022-09-18 15:27:03.158
29.0, -11101.306808150626, 9025.321486630617, -39440.30129197852, -16057.537920181505, -612.7954259866984, -187500.02235174447, -13511.204840088469, -1325.9948880666361, 0.596, -0.644, 0.532, 192.0, 0.0, 0.0, 0.0, 0.0, 0.0, 0.0, 0.0, 0.0, 0.0, 1.663496823158229E9, 0.0, 2022-09-18 15:27:03.158
30.0, -11905.790794586039, 8437.42590396713, -39231.82657144387, -15772.93315803208, 156.86454258734497, -187500.02235174447, -13226.890650616962, -928.3797059511788, 0.596, -0.644, 0.532, 192.0, 0.0, 0.0, 0.0, 0.0, 0.0, 0.0, 0.0, 0.0, 0.0, 1.6634968231582549E9, 0.0, 2022-09-18 15:27:03.158
31.0, -10574.543246572406, 9599.47074645409, -39432.99227154163, -15745.507567585419, 436.50721746769165, -187500.02235174447, -13189.071498998583, -877.9318187155508, 0.596, -0.644, 0.532, 192.0, 0.0, 0.0, 0.0, 0.0, 0.0, 0.0, 0.0, 0.0, 0.0, 1.66349682315828E9, 0.0, 2022-09-18 15:27:03.158
32.0, -7350.5052745944595, 12389.415489365518, -39767.62023778203, -15770.40741090863, 511.76554104871053, -187500.02235174447, -13291.956578726362, -824.4664459784564, 0.596, -0.644, 0.532, 192.0, 0.0, 0.0, 0.0, 0.0, 0.0, 0.0, 0.0, 0.0, 0.0, 1.6634968231582983E9, 0.0, 2022-09-18 15:27:03.158
33.0, -7117.465986903428, 12494.826316216746, -39894.10875965461, -16040.55059439547, 57.75690767251345, -187500.02235174447, -13593.593370150731, -1154.2887871609673, 0.598, -0.64, 0.534, 192.0, 18.0, 176.0, 236.0, 0.0, 16.0, 176.0, 0.0, 0.0, 0.0, 1.6634968231583147E9, 0.0, 2022-09-18 15:27:03.158
34.0, -10898.330616751984, 9196.468793924903, -39477.69576045225, -16070.233711032119, -494.21942165129445, -187500.02235174447, -13533.713046754963, -1313.9249460607705, 0.598, -0.64, 0.534, 192.0, 0.0, 0.0, 0.0, 0.0, 0.0, 0.0, 0.0, 0.0, 0.0, 1.6634968231583312E9, 0.0, 2022-09-18 15:27:03.158
35.0, -11935.183338544768, 8402.37836866121, -39254.22301938808, -15806.639588670683, 124.47686487160503, -187500.02235174447, -13249.309450305636, -963.2260755570026, 0.598, -0.64, 0.534, 192.0, 0.0, 0.0, 0.0, 0.0, 0.0, 0.0, 0.0, 0.0, 0.0, 1.6634968231583464E9, 0.0, 2022-09-18 15:27:03.158
36.0, -10723.785844300492, 9467.662509401145, -39421.52582663606, -15758.181006691577, 375.6657690603458, -187500.02235174447, -13184.399984407424, -891.8122520222965, 0.598, -0.64, 0.534, 192.0, 0.0, 0.0, 0.0, 0.0, 0.0, 0.0, 0.0, 0.0, 0.0, 1.6634968231583617E9, 0.0, 2022-09-18 15:27:03.158
37.0, -7533.566061683424, 12235.411970068451, -39742.34041480308, -15766.898187029146, 474.7287004862667, -187500.02235174447, -13273.762258739742, -815.1681202850485, 0.598, -0.64, 0.534, 192.0, 0.0, 0.0, 0.0, 0.0, 0.0, 0.0, 0.0, 0.0, 0.0, 1.6634968231583765E9, 0.0, 2022-09-18 15:27:03.158
38.0, -6999.806404090692, 12604.908657659133, -39909.4197046065, -16044.663315375248, 53.4877244815498, -187500.02235174447, -13584.987948535438, -1148.6337958137747, 0.598, -0.64, 0.534, 192.0, 0.0, 0.0, 0.0, 0.0, 0.0, 0.0, 0.0, 0.0, 0.0, 1.6634968231584425E9, 0.0, 2022-09-18 15:27:03.158
39.0, -10793.61269397887, 9280.846629243688, -39502.66265900882, -16104.141307370819, -634.7001355528994, -187500.02235174447, -13550.745076029907, -1360.5283332500856, 0.598, -0.64, 0.534, 192.0, 0.0, 0.0, 0.0, 0.0, 0.0, 0.0, 0.0, 0.0, 0.0, 1.663496823158458E9, 0.0, 2022-09-18 15:27:03.158
40.0, -11971.281405840089, 8365.788562987873, -39245.59524602834, -15821.592905711283, 44.65878542170351, -187500.02235174447, -13263.011069656739, -960.3203487778127, 0.598, -0.64, 0.534, 192.0, 0.0, 0.0, 0.0, 0.0, 0.0, 0.0, 0.0, 0.0, 0.0, 1.6634968231584764E9, 0.0, 2022-09-18 15:27:03.158
41.0, -10830.00133395211, 9371.32649079877, -39408.42770438525, -15774.542483632862, 385.7017023207787, -187500.02235174447, -13193.98888277875, -878.2223913934698, 0.598, -0.64, 0.534, 192.0, 0.0, 0.0, 0.0, 0.0, 0.0, 0.0, 0.0, 0.0, 0.0, 1.6634968231584916E9, 0.0, 2022-09-18 15:27:03.158
42.0, -7701.651179987333, 12080.62613971545, -39723.564949460626, -15783.952568048546, 472.5382295296466, -187500.02235174447, -13267.012031914239, -821.4713122214451, 0.598, -0.64, 0.534, 192.0, 0.0, 0.0, 0.0, 0.0, 0.0, 0.0, 0.0, 0.0, 0.0, 1.6634968231585066E9, 0.0, 2022-09-18 15:27:03.158
43.0, -6861.292643701154, 12719.573106714859, -39918.4721611109, -16040.684704862202, 105.29906812895157, -187500.02235174447, -13576.270768197868, -1117.6766297431743, 0.598, -0.63, 0.53, 192.0, 18.0, 176.0, 236.0, 80.0, 16.0, 144.0, 0.0, 0.0, 0.0, 1.663496823158522E9, 0.0, 2022-09-18 15:27:03.158
44.0, -10616.184546492643, 9425.842395525266, -39529.9317872443, -16118.33466509994, -629.2686616502598, -187500.02235174447, -13564.401991892099, -1357.0414611150577, 0.598, -0.63, 0.53, 192.0, 0.0, 0.0, 0.0, 0.0, 0.0, 0.0, 0.0, 0.0, 0.0, 1.6634968231585426E9, 0.0, 2022-09-18 15:27:03.158
45.0, -11988.961635704236, 8347.41542904561, -39245.61759777279, -15832.925240150123, 4.425645402150798, -187500.02235174447, -13268.800171470664, -982.6050379997538, 0.598, -0.63, 0.53, 192.0, 0.0, 0.0, 0.0, 0.0, 0.0, 0.0, 0.0, 0.0, 0.0, 1.663496823158558E9, 0.0, 2022-09-18 15:27:03.158
46.0, -10931.187681101284, 9288.088594447207, -39401.02927697054, -15770.45211439754, 393.81538555805514, -187500.02235174447, -13194.592379879045, -886.0678536972825, 0.598, -0.63, 0.53, 192.0, 0.0, 0.0, 0.0, 0.0, 0.0, 0.0, 0.0, 0.0, 0.0, 1.6634968231585732E9, 0.0, 2022-09-18 15:27:03.158
47.0, -7875.100716960516, 11938.826672890982, -39701.41437070541, -15764.238329438966, 477.45561330981417, -187500.02235174447, -13247.610717727033, -815.3022307517804, 0.598, -0.63, 0.53, 192.0, 0.0, 0.0, 0.0, 0.0, 0.0, 0.0, 0.0, 0.0, 0.0, 1.6634968231585882E9, 0.0, 2022-09-18 15:27:03.158
48.0, -6744.013040544158, 12836.405674982749, -39915.722896542895, -16011.493326603571, 163.07832754592033, -187500.02235174447, -13546.520596327853, -1099.7505306900182, 0.598, -0.63, 0.53, 192.0, 0.0, 0.0, 0.0, 0.0, 0.0, 0.0, 0.0, 0.0, 0.0, 1.6634968231586032E9, 0.0, 2022-09-18 15:27:03.158
49.0, -10422.707846487505, 9595.670949896688, -39553.64698811138, -16106.778813216546, -601.8207194591427, -187500.02235174447, -13566.97244250446, -1356.9744058816918, 0.598, -0.63, 0.53, 192.0, 0.0, 0.0, 0.0, 0.0, 0.0, 0.0, 0.0, 0.0, 0.0, 1.6634968231586185E9, 0.0, 2022-09-18 15:27:03.158
50.0, -11978.925702443803, 8354.41152506012, -39244.96939718359, -15819.871821388224, 3.2186512015642172, -187500.02235174447, -13269.180151126404, -979.7440147094745, 0.598, -0.63, 0.53, 192.0, 0.0, 0.0, 0.0, 0.0, 0.0, 0.0, 0.0, 0.0, 0.0, 1.6634968231586337E9, 0.0, 2022-09-18 15:27:03.158
51.0, -11009.955228561786, 9220.631029681092, -39389.16050066477, -15759.902091014636, 443.01157510418597, -187500.02235174447, -13188.982092020762, -879.7870135053413, 0.598, -0.63, 0.53, 192.0, 0.0, 0.0, 0.0, 0.0, 0.0, 0.0, 0.0, 0.0, 0.0, 1.6634968231586485E9, 0.0, 2022-09-18 15:27:03.158
52.0, -8053.132361547037, 11782.833848337395, -39707.85167310854, -15768.283995185377, 501.5507938326352, -187500.02235174447, -13253.556281752144, -833.7647716718641, 0.598, -0.63, 0.53, 192.0, 0.0, 0.0, 0.0, 0.0, 0.0, 0.0, 0.0, 0.0, 0.0, 1.6634968231586635E9, 0.0, 2022-09-18 15:27:03.158
53.0, -6645.93358587427, 12926.930240026742, -39946.16597249103, -16004.720748033615, 227.18313064374098, -187500.02235174447, -13557.830579022238, -1086.4065392501998, 0.602, -0.626, 0.528, 192.0, 18.0, 208.0, 236.0, 112.0, 16.0, 128.0, 0.0, 0.0, 0.0, 1.6634968231586788E9, 0.0, 2022-09-18 15:27:03.158
54.0, -10198.743367045328, 9790.868734224885, -39609.50399750519, -16136.439578108739, -481.2777616116717, -187500.02235174447, -13612.36883549319, -1381.5389730380743, 0.602, -0.626, 0.528, 192.0, 0.0, 0.0, 0.0, 0.0, 0.0, 0.0, 0.0, 0.0, 0.0, 1.6634968231587093E9, 0.0, 2022-09-18 15:27:03.158
55.0, -11983.150182145857, 8344.979088899981, -39281.96153425712, -15865.871711477246, -19.02133453146631, -187500.02235174447, -13309.05566323467, -1051.2919487109125, 0.602, -0.626, 0.528, 192.0, 0.0, 0.0, 0.0, 0.0, 0.0, 0.0, 0.0, 0.0, 0.0, 1.6634968231587453E9, 0.0, 2022-09-18 15:27:03.158
56.0, -11129.738227097778, 9113.297952806706, -39402.593899082414, -15783.393774437163, 385.7017023207787, -187500.02235174447, -13208.539868419155, -932.6041856532319, 0.602, -0.626, 0.528, 192.0, 0.0, 0.0, 0.0, 0.0, 0.0, 0.0, 0.0, 0.0, 0.0, 1.6634968231587608E9, 0.0, 2022-09-18 15:27:03.158
57.0, -8257.650823313097, 11601.963532205049, -39694.50768166872, -15771.994384764957, 449.89591239642056, -187500.02235174447, -13252.23752882928, -862.9114464415844, 0.602, -0.626, 0.528, 192.0, 0.0, 0.0, 0.0, 0.0, 0.0, 0.0, 0.0, 0.0, 0.0, 1.6634968231587763E9, 0.0, 2022-09-18 15:27:03.158
58.0, -6566.517837824565, 12995.594798993445, -39953.564399905736, -15993.656634528237, 245.8468372639224, -187500.02235174447, -13543.950145715493, -1084.7078066715965, 0.602, -0.626, 0.528, 192.0, 0.0, 0.0, 0.0, 0.0, 0.0, 0.0, 0.0, 0.0, 0.0, 1.663496823158792E9, 0.0, 2022-09-18 15:27:03.158
59.0, -10029.942992918848, 9922.565212555553, -39641.91402696539, -16151.817578293989, -585.8839256625088, -187500.02235174447, -13621.801271653329, -1425.191929959289, 0.602, -0.626, 0.528, 192.0, 0.0, 0.0, 0.0, 0.0, 0.0, 0.0, 0.0, 0.0, 0.0, 1.6634968231588078E9, 0.0, 2022-09-18 15:27:03.158
60.0, -11993.588446806485, 8325.264850290401, -39286.20836570363, -15874.275967392441, -128.768399807024, -187500.02235174447, -13322.153785485481, -1090.8098329078953, 0.602, -0.626, 0.528, 192.0, 0.0, 0.0, 0.0, 0.0, 0.0, 0.0, 0.0, 0.0, 0.0, 1.6634968231588235E9, 0.0, 2022-09-18 15:27:03.158
61.0, -11201.26380935476, 9050.17662646492, -39397.22948041314, -15783.639643626171, 391.9378390238093, -187500.02235174447, -13216.18416502287, -934.8840635876732, 0.602, -0.626, 0.528, 192.0, 0.0, 0.0, 0.0, 0.0, 0.0, 0.0, 0.0, 0.0, 0.0, 1.6634968231588392E9, 0.0, 2022-09-18 15:27:03.158
62.0, -8438.498787700986, 11441.589765738221, -39689.5679461441, -15780.152771491144, 441.4916564812251, -187500.02235174447, -13254.830331186096, -868.6558447665984, 0.602, -0.626, 0.528, 192.0, 0.0, 0.0, 0.0, 0.0, 0.0, 0.0, 0.0, 0.0, 0.0, 1.6634968231588583E9, 0.0, 2022-09-18 15:27:03.158
63.0, -6500.535488192498, 13056.659764845344, -39961.29810348727, -15986.459372813628, 280.469689425193, -187500.02235174447, -13534.785930488817, -1063.8312773503396, 0.598, -0.632, 0.532, 192.0, 18.0, 176.0, 236.0, 64.0, 16.0, 160.0, 0.0, 0.0, 0.0, 1.6634968231588738E9, 0.0, 2022-09-18 15:27:03.158
64.0, -9823.502281129633, 10099.971008297325, -39680.24726870624, -16172.470590170693, -572.070547589129, -187500.02235174447, -13642.02960038538, -1429.8857962949035, 0.598, -0.632, 0.532, 192.0, 0.0, 0.0, 0.0, 0.0, 0.0, 0.0, 0.0, 0.0, 0.0, 1.6634968231588905E9, 0.0, 2022-09-18 15:27:03.158
65.0, -11987.866400225927, 8322.493233977943, -39303.5756711454, -15908.38472943124, -184.4912987341045, -187500.02235174447, -13345.310192741179, -1108.7806354499621, 0.598, -0.632, 0.532, 192.0, 0.0, 0.0, 0.0, 0.0, 0.0, 0.0, 0.0, 0.0, 0.0, 1.6634968231589065E9, 0.0, 2022-09-18 15:27:03.158
66.0, -11289.70966216441, 8969.509180725716, -39393.40733211128, -15807.578361937805, 376.2022109272732, -187500.02235174447, -13226.577726194588, -940.114371790215, 0.598, -0.632, 0.532, 192.0, 0.0, 0.0, 0.0, 0.0, 0.0, 0.0, 0.0, 0.0, 0.0, 1.6634968231589224E9, 0.0, 2022-09-18 15:27:03.158
67.0, -8634.56829006294, 11270.576568910667, -39672.7147308248, -15794.055556542346, 426.3371737405269, -187500.02235174447, -13247.409552026935, -886.2243159084697, 0.598, -0.632, 0.532, 192.0, 0.0, 0.0, 0.0, 0.0, 0.0, 0.0, 0.0, 0.0, 0.0, 1.663496823158938E9, 0.0, 2022-09-18 15:27:03.158
68.0, -6466.51613313152, 13093.49543970769, -39962.370987221126, -15978.569207020904, 312.8350153964777, -187500.02235174447, -13515.474023279432, -1049.012070776471, 0.598, -0.632, 0.532, 192.0, 0.0, 0.0, 0.0, 0.0, 0.0, 0.0, 0.0, 0.0, 0.0, 1.6634968231589544E9, 0.0, 2022-09-18 15:27:03.158
69.0, -9613.462938483113, 10281.98126339689, -39707.20347251934, -16174.191674493752, -534.1396372484729, -187500.02235174447, -13648.444551044055, -1416.8547292774595, 0.598, -0.632, 0.532, 192.0, 0.0, 0.0, 0.0, 0.0, 0.0, 0.0, 0.0, 0.0, 0.0, 1.6634968231589856E9, 0.0, 2022-09-18 15:27:03.158
70.0, -11957.199806833245, 8342.855673176728, -39309.0294967925, -15912.34098819983, -181.0491300879872, -187500.02235174447, -13358.877701625552, -1108.9370976611492, 0.598, -0.632, 0.532, 192.0, 0.0, 0.0, 0.0, 0.0, 0.0, 0.0, 0.0, 0.0, 0.0, 1.6634968231590025E9, 0.0, 2022-09-18 15:27:03.159
71.0, -11347.220700647915, 8920.33534292404, -39379.92923020473, -15786.12068726071, 420.72688588224486, -187500.02235174447, -13224.99075233826, -918.4108279241119, 0.598, -0.632, 0.532, 192.0, 0.0, 0.0, 0.0, 0.0, 0.0, 0.0, 0.0, 0.0, 0.0, 1.6634968231590197E9, 0.0, 2022-09-18 15:27:03.159
72.0, -8810.185946248288, 11117.288305436172, -39665.5621725991, -15784.64547212666, 474.4828312972583, -187500.02235174447, -13252.170473595916, -888.7947665208301, 0.598, -0.632, 0.532, 192.0, 0.0, 0.0, 0.0, 0.0, 0.0, 0.0, 0.0, 0.0, 0.0, 1.6634968231590388E9, 0.0, 2022-09-18 15:27:03.159
73.0, -6444.030278209481, 13116.808309174576, -39958.593542408176, -15950.741285174046, 368.3791003679157, -187500.02235174447, -13506.958008641961, -1011.5728988138318, 0.588, -0.636, 0.528, 192.0, 18.0, 96.0, 236.0, 32.0, 16.0, 128.0, 0.0, 0.0, 0.0, 1.6634968231590552E9, 0.0, 2022-09-18 15:27:03.159
74.0, -9359.345955770727, 10501.073062547812, -39721.26271978173, -16155.192691706741, -392.7425018242004, -187500.02235174447, -13658.167559882113, -1369.8490106879487, 0.588, -0.636, 0.528, 192.0, 0.0, 0.0, 0.0, 0.0, 0.0, 0.0, 0.0, 0.0, 0.0, 1.663496823159073E9, 0.0, 2022-09-18 15:27:03.159
75.0, -11926.846137862938, 8358.188969873068, -39321.39001147628, -15919.67236038117, -178.23281028661853, -187500.02235174447, -13379.88834141354, -1121.1858536226575, 0.588, -0.636, 0.528, 192.0, 0.0, 0.0, 0.0, 0.0, 0.0, 0.0, 0.0, 0.0, 0.0, 1.6634968231590912E9, 0.0, 2022-09-18 15:27:03.159
76.0, -11432.939640634018, 8844.160597820353, -39369.110985888365, -15780.376288935697, 413.14964451189576, -187500.02235174447, -13226.063636072116, -911.0794557427712, 0.588, -0.636, 0.528, 192.0, 0.0, 0.0, 0.0, 0.0, 0.0, 0.0, 0.0, 0.0, 0.0, 1.663496823159108E9, 0.0, 2022-09-18 15:27:03.159
77.0, -9007.01540792172, 10946.766846986635, -39635.6555385179, -15774.050745254845, 477.79088947664377, -187500.02235174447, -13238.133578077983, -866.6218360211654, 0.588, -0.636, 0.528, 192.0, 0.0, 0.0, 0.0, 0.0, 0.0, 0.0, 0.0, 0.0, 0.0, 1.6634968231591249E9, 0.0, 2022-09-18 15:27:03.159
78.0, -6451.451057368643, 13115.400149273892, -39936.26414969732, -15931.943468087135, 402.8454903179992, -187500.02235174447, -13477.274892005313, -976.0336251298935, 0.588, -0.636, 0.528, 192.0, 0.0, 0.0, 0.0, 0.0, 0.0, 0.0, 0.0, 0.0, 0.0, 1.6634968231591485E9, 0.0, 2022-09-18 15:27:03.159
79.0, -9149.261909635296, 10682.077489146888, -39735.72429844431, -16165.496845900638, -356.44326882878175, -187500.02235174447, -13654.3230598358, -1365.4010135413425, 0.588, -0.636, 0.528, 192.0, 0.0, 0.0, 0.0, 0.0, 0.0, 0.0, 0.0, 0.0, 0.0, 1.6634968231591697E9, 0.0, 2022-09-18 15:27:03.159
80.0, -11894.570218869474, 8376.048013692858, -39320.227720764604, -15947.656744439215, -212.87801419234447, -187500.02235174447, -13390.013681651793, -1144.431667856177, 0.588, -0.636, 0.528, 192.0, 0.0, 0.0, 0.0, 0.0, 0.0, 0.0, 0.0, 0.0, 0.0, 1.663496823159186E9, 0.0, 2022-09-18 15:27:03.159
81.0, -11498.765528054897, 8780.234608678176, -39335.7845349055, -15789.764021606927, 407.91933630935387, -187500.02235174447, -13212.004388809728, -900.3059149153132, 0.588, -0.636, 0.528, 192.0, 0.0, 0.0, 0.0, 0.0, 0.0, 0.0, 0.0, 0.0, 0.0, 1.6634968231592038E9, 0.0, 2022-09-18 15:27:03.159
82.0, -9187.662206609513, 10783.308539784974, -39595.86943338745, -15778.78931507937, 477.72383424327785, -187500.02235174447, -13216.81001386762, -851.1767806025482, 0.588, -0.636, 0.528, 192.0, 0.0, 0.0, 0.0, 0.0, 0.0, 0.0, 0.0, 0.0, 0.0, 1.6634968231592245E9, 0.0, 2022-09-18 15:27:03.159
83.0, -6465.286787186478, 13105.118346824449, -39913.75594303083, -15918.57712490286, 426.53833944062467, -187500.02235174447, -13445.602470112142, -945.5234939483994, 0.59, -0.626, 0.526, 192.0, 18.0, 112.0, 236.0, 112.0, 16.0, 112.0, 0.0, 0.0, 0.0, 1.6634968231592436E9, 0.0, 2022-09-18 15:27:03.159
84.0, -8962.133105055465, 10840.037267212543, -39752.06342364114, -16167.664965112803, -418.24584224770575, -187500.02235174447, -13642.946021908048, -1365.356310052432, 0.59, -0.626, 0.526, 192.0, 0.0, 0.0, 0.0, 0.0, 0.0, 0.0, 0.0, 0.0, 0.0, 1.6634968231592607E9, 0.0, 2022-09-18 15:27:03.159
85.0, -11878.186390183735, 8384.698138797063, -39310.83998809338, -15949.221366551086, -344.6415477563796, -187500.02235174447, -13377.675518712464, -1138.46375208661, 0.59, -0.626, 0.526, 192.0, 0.0, 0.0, 0.0, 0.0, 0.0, 0.0, 0.0, 0.0, 0.0, 1.6634968231592956E9, 0.0, 2022-09-18 15:27:03.159
86.0, -11568.324156799812, 8724.57876498446, -39320.04890680897, -15778.521094145906, 369.72020503523413, -187500.02235174447, -13203.287208472158, -877.0153971928833, 0.59, -0.626, 0.526, 192.0, 0.0, 0.0, 0.0, 0.0, 0.0, 0.0, 0.0, 0.0, 0.0, 1.6634968231593134E9, 0.0, 2022-09-18 15:27:03.159
87.0, -9390.839563708254, 10612.205935979599, -39582.950125092284, -15772.083791742778, 418.22349050325045, -187500.02235174447, -13211.646760898444, -854.8871701821292, 0.59, -0.626, 0.526, 192.0, 0.0, 0.0, 0.0, 0.0, 0.0, 0.0, 0.0, 0.0, 0.0, 1.6634968231593306E9, 0.0, 2022-09-18 15:27:03.159
88.0, -6504.827023127917, 13080.442020945791, -39908.63739355056, -15891.732679812038, 445.6267292054569, -187500.02235174447, -13433.04078972826, -911.6829528430645, 0.59, -0.626, 0.526, 192.0, 0.0, 0.0, 0.0, 0.0, 0.0, 0.0, 0.0, 0.0, 0.0, 1.6634968231593468E9, 0.0, 2022-09-18 15:27:03.159
89.0, -8745.20942511671, 11034.072760829064, -39781.83594725561, -16152.264613183095, -373.7435190371894, -187500.02235174447, -13653.697210991051, -1350.3135860340103, 0.59, -0.626, 0.526, 192.0, 0.0, 0.0, 0.0, 0.0, 0.0, 0.0, 0.0, 0.0, 0.0, 1.6634968231593633E9, 0.0, 2022-09-18 15:27:03.159
90.0, -11838.556747264474, 8415.588249634297, -39338.95848261815, -15962.565357990905, -393.3459989244937, -187500.02235174447, -13407.85037372713, -1185.9612090541375, 0.59, -0.626, 0.526, 192.0, 0.0, 0.0, 0.0, 0.0, 0.0, 0.0, 0.0, 0.0, 0.0, 1.66349682315938E9, 0.0, 2022-09-18 15:27:03.159
91.0, -11636.184052966126, 8669.124086990843, -39318.68545039719, -15777.157637734133, 353.4257833273153, -187500.02235174447, -13215.446557455845, -901.4682056269892, 0.59, -0.626, 0.526, 192.0, 0.0, 0.0, 0.0, 0.0, 0.0, 0.0, 0.0, 0.0, 0.0, 1.663496823159396E9, 0.0, 2022-09-18 15:27:03.159
92.0, -9567.552455371911, 10460.258777172421, -39567.95210456278, -15758.628041580683, 422.2468045052057, -187500.02235174447, -13215.066577800106, -870.2428186229251, 0.59, -0.626, 0.526, 192.0, 0.0, 0.0, 0.0, 0.0, 0.0, 0.0, 0.0, 0.0, 0.0, 1.663496823159412E9, 0.0, 2022-09-18 15:27:03.159
93.0, -6557.577140042441, 13042.600517582956, -39896.768617244794, -15855.47815030553, 475.4216045643812, -187500.02235174447, -13418.445100598945, -891.633438066654, 0.6, -0.636, 0.528, 192.0, 18.0, 192.0, 236.0, 32.0, 16.0, 128.0, 0.0, 0.0, 0.0, 1.663496823159428E9, 0.0, 2022-09-18 15:27:03.159
94.0, -8521.759035797004, 11232.712713803377, -39796.99042999631, -16134.427921107761, -320.21109106672895, -187500.02235174447, -13650.970298167504, -1322.6421263983402, 0.6, -0.636, 0.528, 192.0, 0.0, 0.0, 0.0, 0.0, 0.0, 0.0, 0.0, 0.0, 0.0, 1.6634968231594453E9, 0.0, 2022-09-18 15:27:03.159
95.0, -11762.382002160788, 8477.34611956431, -39330.55422670296, -15966.387506292762, -415.74244686871134, -187500.02235174447, -13416.232277897869, -1197.941744082182, 0.6, -0.636, 0.528, 192.0, 0.0, 0.0, 0.0, 0.0, 0.0, 0.0, 0.0, 0.0, 0.0, 1.6634968231594613E9, 0.0, 2022-09-18 15:27:03.159
96.0, -11682.899198877716, 8627.482787070607, -39288.510595382526, -15769.915672530613, 350.81062922604434, -187500.02235174447, -13217.860545857018, -881.731615272953, 0.6, -0.636, 0.528, 192.0, 0.0, 0.0, 0.0, 0.0, 0.0, 0.0, 0.0, 0.0, 0.0, 1.663496823159478E9, 0.0, 2022-09-18 15:27:03.159
97.0, -9737.49276846561, 10313.407816101053, -39535.78794429159, -15770.340355675264, 428.28177550813865, -187500.02235174447, -13211.579705665077, -859.379870817646, 0.6, -0.636, 0.528, 192.0, 0.0, 0.0, 0.0, 0.0, 0.0, 0.0, 0.0, 0.0, 0.0, 1.663496823159494E9, 0.0, 2022-09-18 15:27:03.159
98.0, -6632.8578153679155, 12986.698804700232, -39865.185602329446, -15861.80369398638, 499.9861717207637, -187500.02235174447, -13396.830963710663, -872.120365157171, 0.6, -0.636, 0.528, 192.0, 0.0, 0.0, 0.0, 0.0, 0.0, 0.0, 0.0, 0.0, 0.0, 1.66349682315951E9, 0.0, 2022-09-18 15:27:03.159
99.0, -8314.379550740667, 11421.652009684089, -39814.424790671444, -16148.95655500371, -265.4493171512267, -187500.02235174447, -13656.625289514695, -1313.1873384937453, 0.6, -0.636, 0.528, 192.0, 0.0, 0.0, 0.0, 0.0, 0.0, 0.0, 0.0, 0.0, 0.0, 1.6634968231595297E9, 0.0, 2022-09-18 15:27:03.159
0.0, 0.0, 0.0, 0.0, 0.0, 0.0, 0.0, 0.0, 0.0, 0.612, -0.634, 0.518, 192.0, 19.0, 32.0, 236.0, 48.0, 16.0, 48.0, 0.0, 0.0, 0.0, 1.66349682324389E9, 0.0, 2022-09-18 15:27:03.243
1.0, -8111.045731430738, 9696.499669134579, -40216.71148737806, -16129.219964649674, 4152.641195373678, -187500.02235174447, -13694.28797892189, -1419.9169182678365, 0.612, -0.634, 0.518, 192.0, 0.0, 0.0, 0.0, 0.0, 0.0, 0.0, 0.0, 0.0, 0.0, 1.663496823728837E9, 0.0, 2022-09-18 15:27:03.728
2.0, -8051.344221990612, 9620.034351352973, -40352.63244541078, -16389.170752664897, 3636.427657178361, -187500.02235174447, -14047.043209915544, -1748.82283792768, 0.612, -0.634, 0.518, 192.0, 0.0, 0.0, 0.0, 0.0, 0.0, 0.0, 0.0, 0.0, 0.0, 1.6634968237288656E9, 0.0, 2022-09-18 15:27:03.728
3.0, -12035.453264171276, 6267.317386545824, -39957.56536216323, -16368.942423932842, 3043.055897123325, -187500.02235174447, -14058.375544354385, -1870.3045690422737, 0.612, -0.634, 0.518, 192.0, 0.0, 0.0, 0.0, 0.0, 0.0, 0.0, 0.0, 0.0, 0.0, 1.6634968237288833E9, 0.0, 2022-09-18 15:27:03.728
4.0, -13000.75805196262, 5597.2344395201735, -39720.7262779148, -16097.99457764561, 3779.724690881335, -187500.02235174447, -13752.693087183607, -1458.3395669865092, 0.612, -0.634, 0.518, 192.0, 0.0, 0.0, 0.0, 0.0, 0.0, 0.0, 0.0, 0.0, 0.0, 1.6634968237289088E9, 0.0, 2022-09-18 15:27:03.728
5.0, -11631.154910463682, 6760.1957035298, -39880.295381581236, -16081.454286748683, 4069.582112977757, -187500.02235174447, -13637.335734049766, -1420.6992293237722, 0.612, -0.634, 0.518, 192.0, 0.0, 0.0, 0.0, 0.0, 0.0, 0.0, 0.0, 0.0, 0.0, 1.663496823728925E9, 0.0, 2022-09-18 15:27:03.728
6.0, -8262.098820459703, 9562.456257636102, -40196.75137957947, -16119.787528489534, 4156.217474486527, -187500.02235174447, -13676.339528124277, -1389.026807430602, 0.612, -0.634, 0.518, 192.0, 0.0, 0.0, 0.0, 0.0, 0.0, 0.0, 0.0, 0.0, 0.0, 1.6634968237289407E9, 0.0, 2022-09-18 15:27:03.728
7.0, -7890.65753110141, 9751.753181428097, -40372.033759597995, -16394.937502734363, 3684.372149034995, -187500.02235174447, -14036.20261385472, -1728.8627301290908, 0.612, -0.634, 0.518, 192.0, 0.0, 0.0, 0.0, 0.0, 0.0, 0.0, 0.0, 0.0, 0.0, 1.6634968237289572E9, 0.0, 2022-09-18 15:27:03.728
8.0, -11874.073669203957, 6389.000283360516, -39994.512795747854, -16405.889857517464, 3035.992745875448, -187500.02235174447, -14079.922626009302, -1882.7768424483352, 0.62, -0.628, 0.52, 192.0, 19.0, 96.0, 236.0, 96.0, 16.0, 64.0, 0.0, 0.0, 0.0, 1.6634968237289732E9, 0.0, 2022-09-18 15:27:03.728
9.0, -13028.451863342747, 5567.283101950062, -39739.94877814636, -16126.582458803949, 3742.0620014741426, -187500.02235174447, -13772.96611940457, -1494.1470616039112, 0.62, -0.628, 0.52, 192.0, 0.0, 0.0, 0.0, 0.0, 0.0, 0.0, 0.0, 0.0, 0.0, 1.6634968237289903E9, 0.0, 2022-09-18 15:27:03.728
10.0, -11747.719257798108, 6663.457353527231, -39895.56162304421, -16110.198630118208, 4072.800764179321, -187500.02235174447, -13657.519359292908, -1446.5378459141073, 0.62, -0.628, 0.52, 192.0, 0.0, 0.0, 0.0, 0.0, 0.0, 0.0, 0.0, 0.0, 0.0, 1.6634968237290063E9, 0.0, 2022-09-18 15:27:03.729
11.0, -8435.056619054869, 9420.232107666983, -40197.24311795749, -16143.681543312257, 4148.0814395047955, -187500.02235174447, -13680.474600848509, -1411.0879792079902, 0.62, -0.628, 0.52, 192.0, 0.0, 0.0, 0.0, 0.0, 0.0, 0.0, 0.0, 0.0, 0.0, 1.6634968237290225E9, 0.0, 2022-09-18 15:27:03.729
12.0, -7753.529578868101, 9874.017223598627, -40397.44769304367, -16415.769328566712, 3726.4828355887935, -187500.02235174447, -14029.899421918324, -1728.1251225620656, 0.62, -0.628, 0.52, 192.0, 0.0, 0.0, 0.0, 0.0, 0.0, 0.0, 0.0, 0.0, 0.0, 1.6634968237290387E9, 0.0, 2022-09-18 15:27:03.729
13.0, -11692.93513213815, 6538.511102022065, -40031.92961596604, -16439.886860833987, 3061.3843275766767, -187500.02235174447, -14095.88177155039, -1899.6077060231814, 0.62, -0.628, 0.52, 192.0, 0.0, 0.0, 0.0, 0.0, 0.0, 0.0, 0.0, 0.0, 0.0, 1.6634968237290545E9, 0.0, 2022-09-18 15:27:03.729
14.0, -13041.14765419336, 5552.24037793164, -39744.21796133732, -16148.464816625694, 3736.3176031491284, -187500.02235174447, -13782.242093353521, -1492.738901703227, 0.62, -0.628, 0.52, 192.0, 0.0, 0.0, 0.0, 0.0, 0.0, 0.0, 0.0, 0.0, 0.0, 1.6634968237290704E9, 0.0, 2022-09-18 15:27:03.729
15.0, -11868.575140067953, 6560.885198221827, -39885.101006639125, -16113.551391786505, 4090.6598079991113, -187500.02235174447, -13659.732181993984, -1434.6914213527944, 0.62, -0.628, 0.52, 192.0, 0.0, 0.0, 0.0, 0.0, 0.0, 0.0, 0.0, 0.0, 0.0, 1.6634968237290864E9, 0.0, 2022-09-18 15:27:03.729
16.0, -8623.57123179093, 9262.249977856873, -40178.311190403845, -16144.977944490665, 4151.478904662002, -187500.02235174447, -13666.281243119389, -1406.9752582282138, 0.62, -0.628, 0.52, 192.0, 0.0, 0.0, 0.0, 0.0, 0.0, 0.0, 0.0, 0.0, 0.0, 1.6634968237291486E9, 0.0, 2022-09-18 15:27:03.729
17.0, -7630.952612275197, 9981.417355706377, -40396.62067849883, -16391.741203277255, 3771.432193688416, -187500.02235174447, -14007.279456529553, -1681.275866183742, 0.62, -0.628, 0.52, 192.0, 0.0, 0.0, 0.0, 0.0, 0.0, 0.0, 0.0, 0.0, 0.0, 1.6634968237291656E9, 0.0, 2022-09-18 15:27:03.729
18.0, -11515.75285384093, 6678.433022312287, -40050.794488286316, -16430.834404329587, 3037.0656296093025, -187500.02235174447, -14095.345329683463, -1892.589258264215, 0.61, -0.626, 0.522, 192.0, 19.0, 16.0, 236.0, 112.0, 16.0, 80.0, 0.0, 0.0, 0.0, 1.6634968237291815E9, 0.0, 2022-09-18 15:27:03.729
19.0, -13060.705430591755, 5523.116054906375, -39747.950702661365, -16149.00125849262, 3653.4596864533055, -187500.02235174447, -13789.238189368034, -1510.9779251787575, 0.61, -0.626, 0.522, 192.0, 0.0, 0.0, 0.0, 0.0, 0.0, 0.0, 0.0, 0.0, 0.0, 1.6634968237291985E9, 0.0, 2022-09-18 15:27:03.729
20.0, -11972.376641318398, 6468.170162221213, -39868.00192213082, -16107.985807417132, 4067.346938532226, -187500.02235174447, -13647.572833010297, -1426.510682882152, 0.61, -0.626, 0.522, 192.0, 0.0, 0.0, 0.0, 0.0, 0.0, 0.0, 0.0, 0.0, 0.0, 1.663496823729214E9, 0.0, 2022-09-18 15:27:03.729
21.0, -8810.990609048678, 9099.37281601105, -40173.17028917912, -16146.877842769367, 4122.443988614558, -187500.02235174447, -13661.207397128033, -1408.092845450979, 0.61, -0.626, 0.522, 192.0, 0.0, 0.0, 0.0, 0.0, 0.0, 0.0, 0.0, 0.0, 0.0, 1.66349682372923E9, 0.0, 2022-09-18 15:27:03.729
22.0, -7522.837224344877, 10072.768935295217, -40407.34951583738, -16392.925845733385, 3807.6420197060133, -187500.02235174447, -13986.402927208297, -1696.2962384577083, 0.61, -0.626, 0.522, 192.0, 0.0, 0.0, 0.0, 0.0, 0.0, 0.0, 0.0, 0.0, 0.0, 1.663496823729246E9, 0.0, 2022-09-18 15:27:03.729
23.0, -11326.031246904284, 6826.401570606419, -40076.49899440992, -16455.01899183023, 3037.8032371763275, -187500.02235174447, -14105.001283288157, -1922.8982237456114, 0.61, -0.626, 0.522, 192.0, 0.0, 0.0, 0.0, 0.0, 0.0, 0.0, 0.0, 0.0, 0.0, 1.6634968237292674E9, 0.0, 2022-09-18 15:27:03.729
24.0, -13062.158293981349, 5512.700141990202, -39750.85642944055, -16171.330651203472, 3611.013723732677, -187500.02235174447, -13803.11862267478, -1546.2713296736872, 0.61, -0.626, 0.522, 192.0, 0.0, 0.0, 0.0, 0.0, 0.0, 0.0, 0.0, 0.0, 0.0, 1.6634968237292836E9, 0.0, 2022-09-18 15:27:03.729
25.0, -12055.994517325702, 6397.605704975808, -39853.4062330015, -16100.117993368864, 4079.930970660564, -187500.02235174447, -13648.913937677615, -1427.740028827194, 0.61, -0.626, 0.522, 192.0, 0.0, 0.0, 0.0, 0.0, 0.0, 0.0, 0.0, 0.0, 0.0, 1.6634968237293005E9, 0.0, 2022-09-18 15:27:03.729
26.0, -8986.295340811652, 8955.315822996596, -40140.223817852, -16115.965380187678, 4130.557671851834, -187500.02235174447, -13649.673896989096, -1398.3698366129204, 0.61, -0.626, 0.522, 192.0, 0.0, 0.0, 0.0, 0.0, 0.0, 0.0, 0.0, 0.0, 0.0, 1.6634968237293196E9, 0.0, 2022-09-18 15:27:03.729
27.0, -7423.059037096386, 10163.718183483861, -40402.8344634574, -16361.119313373485, 3859.4757150978703, -187500.02235174447, -13976.791677092515, -1666.9036944989796, 0.61, -0.626, 0.522, 192.0, 0.0, 0.0, 0.0, 0.0, 0.0, 0.0, 0.0, 0.0, 0.0, 1.6634968237293355E9, 0.0, 2022-09-18 15:27:03.729
28.0, -11127.01131427423, 6986.618874862061, -40113.11115182771, -16470.195826315383, 3052.823609450294, -187500.02235174447, -14125.877812609413, -1939.7290873204574, 0.604, -0.624, 0.524, 192.0, 18.0, 224.0, 236.0, 128.0, 16.0, 96.0, 0.0, 0.0, 0.0, 1.6634968237293515E9, 0.0, 2022-09-18 15:27:03.729
29.0, -13076.06107903255, 5489.499031245593, -39765.51917380324, -16164.446313911238, 3558.531827751616, -187500.02235174447, -13814.987398980547, -1538.7164400477934, 0.604, -0.624, 0.524, 192.0, 0.0, 0.0, 0.0, 0.0, 0.0, 0.0, 0.0, 0.0, 0.0, 1.6634968237293687E9, 0.0, 2022-09-18 15:27:03.729
30.0, -12162.902911055437, 6306.455291087066, -39848.26533177678, -16093.680690965735, 4069.000967621919, -187500.02235174447, -13659.46396106052, -1425.0131160036465, 0.604, -0.624, 0.524, 192.0, 0.0, 0.0, 0.0, 0.0, 0.0, 0.0, 0.0, 0.0, 0.0, 1.663496823729385E9, 0.0, 2022-09-18 15:27:03.729
31.0, -9190.813802577712, 8786.381338403386, -40129.293814813354, -16115.630104020847, 4119.538261835368, -187500.02235174447, -13645.449417287044, -1396.8499179899595, 0.604, -0.624, 0.524, 192.0, 0.0, 0.0, 0.0, 0.0, 0.0, 0.0, 0.0, 0.0, 0.0, 1.663496823729417E9, 0.0, 2022-09-18 15:27:03.729
32.0, -7359.870655521233, 10229.186442993456, -40398.76644596654, -16329.603353691502, 3911.4435209564595, -187500.02235174447, -13934.792749260992, -1606.6880949363822, 0.604, -0.624, 0.524, 192.0, 0.0, 0.0, 0.0, 0.0, 0.0, 0.0, 0.0, 0.0, 0.0, 1.6634968237294343E9, 0.0, 2022-09-18 15:27:03.729
33.0, -10874.213084484707, 7205.107176912687, -40125.114038600215, -16457.45533197586, 3195.3830355862424, -187500.02235174447, -14107.437623433785, -1901.4852525574272, 0.604, -0.624, 0.524, 192.0, 0.0, 0.0, 0.0, 0.0, 0.0, 0.0, 0.0, 0.0, 0.0, 1.6634968237294514E9, 0.0, 2022-09-18 15:27:03.729
34.0, -13035.984401224185, 5518.735112993135, -39770.950647705875, -16196.699881160246, 3595.3004473805963, -187500.02235174447, -13828.644314842739, -1598.0156180877232, 0.604, -0.624, 0.524, 192.0, 0.0, 0.0, 0.0, 0.0, 0.0, 0.0, 0.0, 0.0, 0.0, 1.6634968237294679E9, 0.0, 2022-09-18 15:27:03.729
35.0, -12246.94547020739, 6230.057028538827, -39865.29736105172, -16132.19274666223, 4090.2127731100054, -187500.02235174447, -13696.009063244946, -1472.7787939046377, 0.604, -0.624, 0.524, 192.0, 0.0, 0.0, 0.0, 0.0, 0.0, 0.0, 0.0, 0.0, 0.0, 1.6634968237294867E9, 0.0, 2022-09-18 15:27:03.729
36.0, -9372.846409421732, 8626.164034147743, -40132.937149159574, -16142.496900856127, 4146.449762159558, -187500.02235174447, -13663.263757617922, -1431.383363173409, 0.604, -0.624, 0.524, 192.0, 0.0, 0.0, 0.0, 0.0, 0.0, 0.0, 0.0, 0.0, 0.0, 1.6634968237295043E9, 0.0, 2022-09-18 15:27:03.729
37.0, -7294.760023922923, 10283.970568653414, -40394.22904184211, -16334.56544096058, 3945.395820784071, -187500.02235174447, -13916.732539741104, -1598.3955977434634, 0.604, -0.624, 0.524, 192.0, 0.0, 0.0, 0.0, 0.0, 0.0, 0.0, 0.0, 0.0, 0.0, 1.6634968237295232E9, 0.0, 2022-09-18 15:27:03.729
38.0, -10676.467201288606, 7357.881350264711, -40158.26167562744, -16492.569922515147, 3150.3442705087987, -187500.02235174447, -14131.689266167792, -1934.744648306924, 0.602, -0.622, 0.53, 192.0, 18.0, 208.0, 236.0, 144.0, 16.0, 144.0, 0.0, 0.0, 0.0, 1.6634968237295396E9, 0.0, 2022-09-18 15:27:03.729
39.0, -13024.942639463263, 5509.213269855174, -39784.11582519005, -16223.052587873053, 3522.8137401120357, -187500.02235174447, -13865.189417027166, -1610.5772984716057, 0.602, -0.622, 0.53, 192.0, 0.0, 0.0, 0.0, 0.0, 0.0, 0.0, 0.0, 0.0, 0.0, 1.6634968237295568E9, 0.0, 2022-09-18 15:27:03.729
40.0, -12321.130910054555, 6159.112591637682, -39842.07389856266, -16116.61358077688, 4069.6491682111227, -187500.02235174447, -13680.228731659501, -1428.924671283325, 0.602, -0.622, 0.53, 192.0, 0.0, 0.0, 0.0, 0.0, 0.0, 0.0, 0.0, 0.0, 0.0, 1.6634968237295735E9, 0.0, 2022-09-18 15:27:03.729
41.0, -9576.068470009384, 8448.869997128248, -40100.34830574373, -16127.655342537802, 4098.125290647184, -187500.02235174447, -13640.956716651526, -1406.0588367055461, 0.602, -0.622, 0.53, 192.0, 0.0, 0.0, 0.0, 0.0, 0.0, 0.0, 0.0, 0.0, 0.0, 1.66349682372959E9, 0.0, 2022-09-18 15:27:03.729
42.0, -7270.15075327763, 10303.237772373888, -40392.776178452514, -16312.504269183191, 3957.7339837234003, -187500.02235174447, -13901.958036656146, -1571.1041177635334, 0.602, -0.622, 0.53, 192.0, 0.0, 0.0, 0.0, 0.0, 0.0, 0.0, 0.0, 0.0, 0.0, 1.663496823729607E9, 0.0, 2022-09-18 15:27:03.729
43.0, -10482.49876290545, 7508.688570104668, -40192.10221673277, -16496.70499523938, 3116.8613573147486, -187500.02235174447, -14143.334525029008, -1932.6659360725805, 0.602, -0.622, 0.53, 192.0, 0.0, 0.0, 0.0, 0.0, 0.0, 0.0, 0.0, 0.0, 0.0, 1.6634968237296257E9, 0.0, 2022-09-18 15:27:03.729
44.0, -13021.411063839325, 5497.143327849309, -39778.81846175414, -16238.274125847118, 3427.5953087324274, -187500.02235174447, -13868.542178695463, -1642.339127342597, 0.602, -0.622, 0.53, 192.0, 0.0, 0.0, 0.0, 0.0, 0.0, 0.0, 0.0, 0.0, 0.0, 1.6634968237296424E9, 0.0, 2022-09-18 15:27:03.729
45.0, -12391.337739388675, 6093.778442594819, -39823.74546810931, -16121.15098490131, 4064.8435431532316, -187500.02235174447, -13693.773888799416, -1427.8741392939257, 0.602, -0.622, 0.53, 192.0, 0.0, 0.0, 0.0, 0.0, 0.0, 0.0, 0.0, 0.0, 0.0, 1.6634968237296593E9, 0.0, 2022-09-18 15:27:03.729
46.0, -9751.93199538374, 8294.039463286337, -40092.525195184375, -16147.503691614116, 4103.8249854832875, -187500.02235174447, -13655.395943569654, -1440.8828545669144, 0.602, -0.622, 0.53, 192.0, 0.0, 0.0, 0.0, 0.0, 0.0, 0.0, 0.0, 0.0, 0.0, 1.663496823729676E9, 0.0, 2022-09-18 15:27:03.729
47.0, -7243.462770397994, 10322.907307494559, -40384.0813498594, -16319.969751831264, 3997.0954057091963, -187500.02235174447, -13881.707356179639, -1560.8446670585474, 0.602, -0.622, 0.53, 192.0, 0.0, 0.0, 0.0, 0.0, 0.0, 0.0, 0.0, 0.0, 0.0, 1.6634968237297132E9, 0.0, 2022-09-18 15:27:03.729
48.0, -10250.93469034847, 7692.822240927487, -40202.45107441558, -16503.70109125389, 3154.6134536997624, -187500.02235174447, -14133.008019090656, -1921.6018225672035, 0.608, -0.616, 0.528, 192.0, 19.0, 0.0, 236.0, 192.0, 16.0, 128.0, 0.0, 0.0, 0.0, 1.6634968237297297E9, 0.0, 2022-09-18 15:27:03.729
49.0, -12996.108889115918, 5502.239525585119, -39818.0457732732, -16273.388716386406, 3376.521572652051, -187500.02235174447, -13907.165993114233, -1669.4294416224293, 0.608, -0.616, 0.528, 192.0, 0.0, 0.0, 0.0, 0.0, 0.0, 0.0, 0.0, 0.0, 0.0, 1.6634968237297468E9, 0.0, 2022-09-18 15:27:03.729
50.0, -12473.860379917667, 6021.403494048535, -39836.374203726555, -16155.818540551489, 4045.0846010547402, -187500.02235174447, -13709.017778517937, -1471.8400206375147, 0.608, -0.616, 0.528, 192.0, 0.0, 0.0, 0.0, 0.0, 0.0, 0.0, 0.0, 0.0, 0.0, 1.6634968237297633E9, 0.0, 2022-09-18 15:27:03.729
51.0, -9947.018020989659, 8130.4917491068545, -40071.58161062975, -16141.133444444353, 4090.033959154363, -187500.02235174447, -13631.837204913762, -1424.9460607702806, 0.608, -0.616, 0.528, 192.0, 0.0, 0.0, 0.0, 0.0, 0.0, 0.0, 0.0, 0.0, 0.0, 1.6634968237297792E9, 0.0, 2022-09-18 15:27:03.729
52.0, -7247.262566955396, 10332.719723310438, -40383.72372194812, -16289.996062516699, 4024.677458367045, -187500.02235174447, -13853.857082588325, -1529.9098527324024, 0.608, -0.616, 0.528, 192.0, 0.0, 0.0, 0.0, 0.0, 0.0, 0.0, 0.0, 0.0, 0.0, 1.6634968237297952E9, 0.0, 2022-09-18 15:27:03.729
53.0, -10025.226774838779, 7897.094833504539, -40219.32664147933, -16499.208390618373, 3204.4354920906417, -187500.02235174447, -14121.139242784888, -1927.5920900812257, 0.608, -0.616, 0.528, 192.0, 0.0, 0.0, 0.0, 0.0, 0.0, 0.0, 0.0, 0.0, 0.0, 1.663496823729812E9, 0.0, 2022-09-18 15:27:03.729
54.0, -12936.183862231239, 5560.532875124559, -39809.37329642454, -16286.755059570678, 3398.1133577958776, -187500.02235174447, -13896.571266242418, -1679.5100783717726, 0.608, -0.616, 0.528, 192.0, 0.0, 0.0, 0.0, 0.0, 0.0, 0.0, 0.0, 0.0, 0.0, 1.663496823729828E9, 0.0, 2022-09-18 15:27:03.729
55.0, -12534.634773091648, 5980.052766806218, -39824.39366869851, -16131.544546073026, 4079.3721770491816, -187500.02235174447, -13704.52507788242, -1425.9518892707695, 0.608, -0.616, 0.528, 192.0, 0.0, 0.0, 0.0, 0.0, 0.0, 0.0, 0.0, 0.0, 0.0, 1.663496823729844E9, 0.0, 2022-09-18 15:27:03.729
56.0, -10127.86598537755, 7984.087822924594, -40052.627331331656, -16136.484281597648, 4147.120314493217, -187500.02235174447, -13641.180234096078, -1423.8284735475152, 0.608, -0.616, 0.528, 192.0, 0.0, 0.0, 0.0, 0.0, 0.0, 0.0, 0.0, 0.0, 0.0, 1.6634968237298603E9, 0.0, 2022-09-18 15:27:03.729
57.0, -7268.8543520992225, 10317.520537080829, -40360.924942603706, -16286.576245615035, 4073.6054269797123, -187500.02235174447, -13837.83088181387, -1528.993431209735, 0.608, -0.616, 0.528, 192.0, 0.0, 0.0, 0.0, 0.0, 0.0, 0.0, 0.0, 0.0, 0.0, 1.663496823729876E9, 0.0, 2022-09-18 15:27:03.729
58.0, -9768.65110023631, 8108.408225585012, -40239.130287066735, -16512.55238205819, 3334.388534353797, -187500.02235174447, -14132.963315601744, -1927.4803313589493, 0.61, -0.62, 0.534, 192.0, 19.0, 16.0, 236.0, 160.0, 16.0, 176.0, 0.0, 0.0, 0.0, 1.663496823729894E9, 0.0, 2022-09-18 15:27:03.729
59.0, -12872.459038789159, 5597.390901731361, -39826.36062221058, -16312.057234294087, 3404.7294741546484, -187500.02235174447, -13922.812214232948, -1726.046410327722, 0.61, -0.62, 0.534, 192.0, 0.0, 0.0, 0.0, 0.0, 0.0, 0.0, 0.0, 0.0, 0.0, 1.6634968237299116E9, 0.0, 2022-09-18 15:27:03.729
60.0, -12606.026244881898, 5911.634077028522, -39792.49772936079, -16135.456101352705, 4038.0438015513187, -187500.02235174447, -13691.784583542894, -1467.2132095352663, 0.61, -0.62, 0.534, 192.0, 0.0, 0.0, 0.0, 0.0, 0.0, 0.0, 0.0, 0.0, 0.0, 1.6634968237299404E9, 0.0, 2022-09-18 15:27:03.729
61.0, -10326.438883118497, 7811.219431307249, -40023.61476702867, -16136.327819386463, 4081.6967584725335, -187500.02235174447, -13638.542728250353, -1438.4688661657412, 0.61, -0.62, 0.534, 192.0, 0.0, 0.0, 0.0, 0.0, 0.0, 0.0, 0.0, 0.0, 0.0, 1.6634968237299562E9, 0.0, 2022-09-18 15:27:03.729
62.0, -7309.601582241247, 10285.378728554098, -40344.98814880707, -16274.79687628709, 4075.102993858218, -187500.02235174447, -13829.806605554415, -1528.8816724874584, 0.61, -0.62, 0.534, 192.0, 0.0, 0.0, 0.0, 0.0, 0.0, 0.0, 0.0, 0.0, 0.0, 1.663496823729987E9, 0.0, 2022-09-18 15:27:03.729
63.0, -9580.650577622722, 8260.534198347832, -40267.27113333597, -16510.719539012855, 3270.484896956074, -187500.02235174447, -14150.80000767708, -1903.4075025805835, 0.61, -0.62, 0.534, 192.0, 0.0, 0.0, 0.0, 0.0, 0.0, 0.0, 0.0, 0.0, 0.0, 1.663496823730004E9, 0.0, 2022-09-18 15:27:03.730
64.0, -12843.82645414191, 5611.2042798047405, -39826.248863488305, -16308.190382503319, 3266.6403969097614, -187500.02235174447, -13946.750932544583, -1702.2865059717305, 0.61, -0.62, 0.534, 192.0, 0.0, 0.0, 0.0, 0.0, 0.0, 0.0, 0.0, 0.0, 0.0, 1.6634968237300208E9, 0.0, 2022-09-18 15:27:03.730
65.0, -12655.55771059486, 5873.25613179876, -39775.75627276376, -16149.090665470441, 4029.863063080676, -187500.02235174447, -13705.396795916176, -1452.0140233056575, 0.61, -0.62, 0.534, 192.0, 0.0, 0.0, 0.0, 0.0, 0.0, 0.0, 0.0, 0.0, 0.0, 1.663496823730037E9, 0.0, 2022-09-18 15:27:03.730
66.0, -10494.300483977853, 7676.527819219568, -40005.86748193115, -16151.549357360525, 4096.314799346304, -187500.02235174447, -13642.543690507853, -1460.8206106210484, 0.61, -0.62, 0.534, 192.0, 0.0, 0.0, 0.0, 0.0, 0.0, 0.0, 0.0, 0.0, 0.0, 1.6634968237300544E9, 0.0, 2022-09-18 15:27:03.730
67.0, -7359.803600287867, 10254.712135161417, -40328.29139569896, -16254.21091964375, 4111.513985575913, -187500.02235174447, -13809.377111122265, -1477.1820875623332, 0.61, -0.62, 0.534, 192.0, 0.0, 0.0, 0.0, 0.0, 0.0, 0.0, 0.0, 0.0, 0.0, 1.663496823730072E9, 0.0, 2022-09-18 15:27:03.730
68.0, -9353.288633023338, 8455.731982676029, -40280.033979419946, -16513.379396603035, 3326.9454034501796, -187500.02235174447, -14135.690228425292, -1898.1548426335864, 0.61, -0.62, 0.534, 192.0, 19.0, 16.0, 236.0, 160.0, 16.0, 176.0, 0.0, 0.0, 0.0, 1.663496823730092E9, 0.0, 2022-09-18 15:27:03.730
69.0, -12771.04917419543, 5663.440306596793, -39837.82706711615, -16325.892964111921, 3237.8289983068703, -187500.02235174447, -13955.579871604428, -1728.9074336180013, 0.61, -0.62, 0.534, 192.0, 0.0, 0.0, 0.0, 0.0, 0.0, 0.0, 0.0, 0.0, 0.0, 1.66349682373011E9, 0.0, 2022-09-18 15:27:03.730
70.0, -12718.790795658922, 5817.175604960395, -39772.67173202893, -16132.371560617872, 4009.5676791152573, -187500.02235174447, -13711.94585704158, -1429.7516858281715, 0.61, -0.62, 0.534, 192.0, 0.0, 0.0, 0.0, 0.0, 0.0, 0.0, 0.0, 0.0, 0.0, 1.6634968237301276E9, 0.0, 2022-09-18 15:27:03.730
71.0, -10672.421535542195, 7523.574831911902, -39995.7421416929, -16151.839930038444, 4091.330360332771, -187500.02235174447, -13644.354181808732, -1460.0382995651125, 0.61, -0.62, 0.534, 192.0, 0.0, 0.0, 0.0, 0.0, 0.0, 0.0, 0.0, 0.0, 0.0, 1.6634968237301457E9, 0.0, 2022-09-18 15:27:03.730
72.0, -7433.340839545827, 10194.854163510105, -40321.831741551374, -16251.55106205357, 4133.016363741918, -187500.02235174447, -13792.903875458704, -1489.3414365460203, 0.61, -0.62, 0.534, 192.0, 0.0, 0.0, 0.0, 0.0, 0.0, 0.0, 0.0, 0.0, 0.0, 1.663496823730163E9, 0.0, 2022-09-18 15:27:03.730
73.0, -9102.122080579053, 8670.196970724699, -40298.96590697359, -16499.767184229753, 3457.993681191645, -187500.02235174447, -14127.822414377024, -1837.492208181883, 0.61, -0.62, 0.534, 192.0, 0.0, 0.0, 0.0, 0.0, 0.0, 0.0, 0.0, 0.0, 0.0, 1.6634968237301817E9, 0.0, 2022-09-18 15:27:03.730
74.0, -12662.12912346472, 5746.812313415088, -39876.40617804601, -16354.771417948177, 3309.198118352666, -187500.02235174447, -13988.079308042445, -1776.3601870966181, 0.61, -0.62, 0.534, 192.0, 0.0, 0.0, 0.0, 0.0, 0.0, 0.0, 0.0, 0.0, 0.0, 1.6634968237302E9, 0.0, 2022-09-18 15:27:03.730
75.0, -12773.843142252344, 5762.749107211722, -39789.50259560378, -16157.986659763654, 4005.678475580034, -187500.02235174447, -13737.695066654094, -1486.1004336000008, 0.61, -0.62, 0.534, 192.0, 0.0, 0.0, 0.0, 0.0, 0.0, 0.0, 0.0, 0.0, 0.0, 1.6634968237302177E9, 0.0, 2022-09-18 15:27:03.730
76.0, -10825.32981936095, 7393.197106504096, -39999.09490336119, -16155.952651018222, 4141.644137101667, -187500.02235174447, -13663.710792507029, -1473.1364218159226, 0.61, -0.62, 0.534, 192.0, 0.0, 0.0, 0.0, 0.0, 0.0, 0.0, 0.0, 0.0, 0.0, 1.6634968237302356E9, 0.0, 2022-09-18 15:27:03.730
77.0, -7528.447512203159, 10117.964162583849, -40324.02221250799, -16243.392675327383, 4152.171808740117, -187500.02235174447, -13788.813506223381, -1482.188878320322, 0.61, -0.62, 0.534, 192.0, 0.0, 0.0, 0.0, 0.0, 0.0, 0.0, 0.0, 0.0, 0.0, 1.6634968237302566E9, 0.0, 2022-09-18 15:27:03.730
78.0, -8894.630836800437, 8847.021621110633, -40318.23311069407, -16481.058774120662, 3496.5504403770497, -187500.02235174447, -14118.50173693916, -1820.7954550737686, 0.61, -0.62, 0.534, 192.0, 0.0, 0.0, 0.0, 0.0, 0.0, 0.0, 0.0, 0.0, 0.0, 1.6634968237303214E9, 0.0, 2022-09-18 15:27:03.730
79.0, -12564.742572872947, 5821.5788986180905, -39887.55969852921, -16351.888042913442, 3286.287580285976, -187500.02235174447, -14002.786755894036, -1767.2853788477635, 0.608, -0.622, 0.536, 192.0, 19.0, 0.0, 236.0, 144.0, 16.0, 192.0, 0.0, 0.0, 0.0, 1.6634968237303412E9, 0.0, 2022-09-18 15:27:03.730
80.0, -12822.279372486993, 5724.70643814879, -39772.068234928636, -16138.562993831993, 3977.001187443875, -187500.02235174447, -13741.24899402249, -1469.2025147917886, 0.608, -0.622, 0.536, 192.0, 0.0, 0.0, 0.0, 0.0, 0.0, 0.0, 0.0, 0.0, 0.0, 1.6634968237303615E9, 0.0, 2022-09-18 15:27:03.730
81.0, -11012.503327429691, 7237.986593006443, -39985.41563575454, -16150.230604437664, 4075.930008403064, -187500.02235174447, -13671.153923410646, -1469.0460525806013, 0.608, -0.622, 0.536, 192.0, 0.0, 0.0, 0.0, 0.0, 0.0, 0.0, 0.0, 0.0, 0.0, 1.6634968237303796E9, 0.0, 2022-09-18 15:27:03.730
82.0, -7640.697972857711, 10026.366713806, -40303.34684888683, -16223.790195440079, 4142.806427813342, -187500.02235174447, -13773.457857782587, -1460.641796665406, 0.608, -0.622, 0.536, 192.0, 0.0, 0.0, 0.0, 0.0, 0.0, 0.0, 0.0, 0.0, 0.0, 1.6634968237304E9, 0.0, 2022-09-18 15:27:03.730
83.0, -8718.029703859056, 8994.364320560016, -40329.74425908855, -16476.208445573862, 3466.5320475735725, -187500.02235174447, -14115.372492715418, -1840.2861762387963, 0.608, -0.622, 0.536, 192.0, 0.0, 0.0, 0.0, 0.0, 0.0, 0.0, 0.0, 0.0, 0.0, 1.6634968237304206E9, 0.0, 2022-09-18 15:27:03.730
84.0, -12506.605685544693, 5857.811076380143, -39903.45178883693, -16378.57602579308, 3131.4123429551537, -187500.02235174447, -14026.189032338743, -1830.9654988009333, 0.608, -0.622, 0.536, 192.0, 0.0, 0.0, 0.0, 0.0, 0.0, 0.0, 0.0, 0.0, 0.0, 1.6634968237304404E9, 0.0, 2022-09-18 15:27:03.730
85.0, -12879.16456212575, 5676.024338725131, -39774.59398205209, -16157.673735341281, 3924.4298844849927, -187500.02235174447, -13762.281985554933, -1501.5007855297072, 0.608, -0.622, 0.536, 192.0, 0.0, 0.0, 0.0, 0.0, 0.0, 0.0, 0.0, 0.0, 0.0, 1.6634968237304568E9, 0.0, 2022-09-18 15:27:03.730
86.0, -11161.410648990948, 7116.929545036501, -39970.66348441404, -16145.760255546602, 4083.261380584405, -187500.02235174447, -13666.884740219682, -1464.3521862449868, 0.608, -0.622, 0.536, 192.0, 0.0, 0.0, 0.0, 0.0, 0.0, 0.0, 0.0, 0.0, 0.0, 1.6634968237304797E9, 0.0, 2022-09-18 15:27:03.730
87.0, -7762.671442350322, 9935.68568655082, -40297.46834009509, -16215.676512202803, 4155.993957041974, -187500.02235174447, -13761.76789543246, -1470.8341921370259, 0.608, -0.622, 0.536, 192.0, 0.0, 0.0, 0.0, 0.0, 0.0, 0.0, 0.0, 0.0, 0.0, 1.6634968237304976E9, 0.0, 2022-09-18 15:27:03.730
88.0, -8519.121529951279, 9170.80899129021, -40356.007558823534, -16465.613718702047, 3520.7573796221473, -187500.02235174447, -14102.162611742331, -1815.5651468712267, 0.608, -0.622, 0.536, 192.0, 0.0, 0.0, 0.0, 0.0, 0.0, 0.0, 0.0, 0.0, 0.0, 1.6634968237305148E9, 0.0, 2022-09-18 15:27:03.730
89.0, -12387.694405042459, 5952.291900192726, -39934.05132699625, -16379.939482204854, 3110.04407525588, -187500.02235174447, -14033.386294053353, -1832.8653970796345, 0.614, -0.626, 0.528, 192.0, 19.0, 48.0, 236.0, 112.0, 16.0, 128.0, 0.0, 0.0, 0.0, 1.6634968237305331E9, 0.0, 2022-09-18 15:27:03.730
90.0, -12915.530850354535, 5642.943756931277, -39779.42195885444, -16144.463854368194, 3897.563087649714, -187500.02235174447, -13761.879654154738, -1484.736977188227, 0.614, -0.626, 0.528, 192.0, 0.0, 0.0, 0.0, 0.0, 0.0, 0.0, 0.0, 0.0, 0.0, 1.663496823730564E9, 0.0, 2022-09-18 15:27:03.730
91.0, -11305.62410421659, 6996.0513110222, -39961.72278663192, -16151.705819571713, 4083.0602148843072, -187500.02235174447, -13670.41631584362, -1484.5134597436738, 0.614, -0.626, 0.528, 192.0, 0.0, 0.0, 0.0, 0.0, 0.0, 0.0, 0.0, 0.0, 0.0, 1.663496823730585E9, 0.0, 2022-09-18 15:27:03.730
92.0, -7897.675978860377, 9826.408007908823, -40270.042749648426, -16208.054567343543, 4158.96673905453, -187500.02235174447, -13742.165415545156, -1452.7292791282273, 0.614, -0.626, 0.528, 192.0, 0.0, 0.0, 0.0, 0.0, 0.0, 0.0, 0.0, 0.0, 0.0, 1.6634968237306063E9, 0.0, 2022-09-18 15:27:03.730
93.0, -8332.551518982831, 9337.575356671257, -40367.56341070693, -16469.949957126377, 3568.724223223236, -187500.02235174447, -14091.45612614824, -1804.0539984767436, 0.614, -0.626, 0.528, 192.0, 0.0, 0.0, 0.0, 0.0, 0.0, 0.0, 0.0, 0.0, 0.0, 1.6634968237306578E9, 0.0, 2022-09-18 15:27:03.730
94.0, -12234.89787994598, 6081.954369777963, -39942.83556256718, -16400.748956292744, 3130.2947557323882, -187500.02235174447, -14041.477625546173, -1850.4115164770506, 0.614, -0.626, 0.528, 192.0, 0.0, 0.0, 0.0, 0.0, 0.0, 0.0, 0.0, 0.0, 0.0, 1.6634968237306757E9, 0.0, 2022-09-18 15:27:03.730
95.0, -12933.144024985317, 5633.131341115397, -39758.076042899615, -16155.595023106936, 3907.5096139323255, -187500.02235174447, -13759.376258775743, -1502.8865936859363, 0.614, -0.626, 0.528, 192.0, 0.0, 0.0, 0.0, 0.0, 0.0, 0.0, 0.0, 0.0, 0.0, 1.6634968237306955E9, 0.0, 2022-09-18 15:27:03.730
96.0, -11416.913439859563, 6912.925173392913, -39936.44296365297, -16146.140235202342, 4149.780172083399, -187500.02235174447, -13665.230711129989, -1467.123802557445, 0.614, -0.626, 0.528, 192.0, 0.0, 0.0, 0.0, 0.0, 0.0, 0.0, 0.0, 0.0, 0.0, 1.6634968237307134E9, 0.0, 2022-09-18 15:27:03.730
97.0, -8036.770884605752, 9716.72799786663, -40254.575342485354, -16204.098308574952, 4189.499221980479, -187500.02235174447, -13726.966229315547, -1445.1073342689676, 0.614, -0.626, 0.528, 192.0, 0.0, 0.0, 0.0, 0.0, 0.0, 0.0, 0.0, 0.0, 0.0, 1.6634968237307348E9, 0.0, 2022-09-18 15:27:03.730
98.0, -8143.723981824396, 9502.575934240334, -40382.53907949199, -16480.321166553636, 3667.4518784823276, -187500.02235174447, -14085.845838289957, -1790.8664692481125, 0.614, -0.626, 0.528, 192.0, 0.0, 0.0, 0.0, 0.0, 0.0, 0.0, 0.0, 0.0, 0.0, 1.6634968237307768E9, 0.0, 2022-09-18 15:27:03.730
99.0, -12065.829284886036, 6217.249478965936, -39976.74315890588, -16413.02006399871, 3215.432550362653, -187500.02235174447, -14068.612643314917, -1823.7011818529586, 0.614, -0.614, 0.53, 192.0, 19.0, 48.0, 236.0, 208.0, 16.0, 144.0, 0.0, 0.0, 0.0, 1.6634968237307975E9, 0.0, 2022-09-18 15:27:03.730
100.0, -12972.460743482203, 5589.500735938637, -39764.46864181384, -16161.920566787789, 3878.1841252069626, -187500.02235174447, -13770.283910069933, -1485.6757504553498, 0.614, -0.614, 0.53, 192.0, 0.0, 0.0, 0.0, 0.0, 0.0, 0.0, 0.0, 0.0, 0.0, 1.6634968237308207E9, 0.0, 2022-09-18 15:27:03.730
101.0, -11559.249348550959, 6786.615465475973, -39926.40703039253, -16143.122749700875, 4144.482808647491, -187500.02235174447, -13660.84976921675, -1451.3211192275428, 0.614, -0.614, 0.53, 192.0, 0.0, 0.0, 0.0, 0.0, 0.0, 0.0, 0.0, 0.0, 0.0, 1.6634968237308395E9, 0.0, 2022-09-18 15:27:03.730
102.0, -8202.017331363837, 9575.800249075919, -40257.59282798682, -16197.370433493905, 4189.566277213845, -187500.02235174447, -13718.09258676679, -1455.7914681186044, 0.614, -0.614, 0.53, 192.0, 0.0, 0.0, 0.0, 0.0, 0.0, 0.0, 0.0, 0.0, 0.0, 1.6634968237308578E9, 0.0, 2022-09-18 15:27:03.730
103.0, -7981.852648479063, 9638.76511320652, -40383.99194288158, -16443.418436457927, 3715.7316465057906, -187500.02235174447, -14047.512596549106, -1741.402058768518, 0.614, -0.614, 0.53, 192.0, 0.0, 0.0, 0.0, 0.0, 0.0, 0.0, 0.0, 0.0, 0.0, 1.6634968237308776E9, 0.0, 2022-09-18 15:27:03.730
104.0, -11911.289323722045, 6331.891576277206, -39997.55263299378, -16434.96947705382, 3206.87183223627, -187500.02235174447, -14067.383297369874, -1855.7088799129583, 0.614, -0.614, 0.53, 192.0, 0.0, 0.0, 0.0, 0.0, 0.0, 0.0, 0.0, 0.0, 0.0, 1.6634968237308948E9, 0.0, 2022-09-18 15:27:03.730
105.0, -12991.638540224856, 5559.303529179518, -39763.70868250235, -16182.573578664493, 3848.3221946146723, -187500.02235174447, -13768.920453658158, -1517.8846142154473, 0.614, -0.614, 0.53, 192.0, 0.0, 0.0, 0.0, 0.0, 0.0, 0.0, 0.0, 0.0, 0.0, 1.6634968237309139E9, 0.0, 2022-09-18 15:27:03.730
106.0, -11670.628091171753, 6683.2162956257225, -39922.76369604632, -16158.299584186028, 4150.361317439237, -187500.02235174447, -13669.298728620855, -1485.2063638217885, 0.614, -0.614, 0.53, 192.0, 0.0, 0.0, 0.0, 0.0, 0.0, 0.0, 0.0, 0.0, 0.0, 1.6634968237309325E9, 0.0, 2022-09-18 15:27:03.730
107.0, -8359.351260584745, 9436.39241890817, -40233.38588874172, -16196.610474182426, 4191.488527237002, -187500.02235174447, -13693.840944032783, -1447.5660261590513, 0.614, -0.614, 0.53, 192.0, 0.0, 0.0, 0.0, 0.0, 0.0, 0.0, 0.0, 0.0, 0.0, 1.6634968237309508E9, 0.0, 2022-09-18 15:27:03.730
108.0, -7845.261138112681, 9750.657945949788, -40403.79558846898, -16440.088026534086, 3725.7452280217685, -187500.02235174447, -14033.989791153645, -1724.5264917047612, 0.614, -0.614, 0.53, 192.0, 0.0, 0.0, 0.0, 0.0, 0.0, 0.0, 0.0, 0.0, 0.0, 1.6634968237309947E9, 0.0, 2022-09-18 15:27:03.730
109.0, -11779.168162246724, 6431.155673403225, -40031.19200839901, -16455.711895908345, 3094.5766680928077, -187500.02235174447, -14086.091707478967, -1888.744758217902, 0.606, -0.614, 0.534, 192.0, 18.0, 240.0, 236.0, 208.0, 16.0, 176.0, 0.0, 0.0, 0.0, 1.6634968237310145E9, 0.0, 2022-09-18 15:27:03.731
110.0, -13011.419834067803, 5540.95274698171, -39766.77087149273, -16184.182904265273, 3786.787842129212, -187500.02235174447, -13783.15851487619, -1519.8515677275143, 0.606, -0.614, 0.534, 192.0, 0.0, 0.0, 0.0, 0.0, 0.0, 0.0, 0.0, 0.0, 0.0, 1.6634968237310345E9, 0.0, 2022-09-18 15:27:03.731
111.0, -11792.512153686543, 6584.510992111086, -39921.891978012565, -16156.109113229408, 4111.469282087002, -187500.02235174447, -13667.667051275617, -1464.8439246230037, 0.606, -0.614, 0.534, 192.0, 0.0, 0.0, 0.0, 0.0, 0.0, 0.0, 0.0, 0.0, 0.0, 1.6634968237310605E9, 0.0, 2022-09-18 15:27:03.731
112.0, -8531.482044635064, 9297.610437585168, -40222.12060953624, -16186.574540921993, 4166.655739147155, -187500.02235174447, -13690.979920742504, -1432.3668399294424, 0.606, -0.614, 0.534, 192.0, 0.0, 0.0, 0.0, 0.0, 0.0, 0.0, 0.0, 0.0, 0.0, 1.663496823731082E9, 0.0, 2022-09-18 15:27:03.731
113.0, -7704.087520132962, 9877.660557944842, -40412.66923101774, -16434.701256120356, 3768.884094820511, -187500.02235174447, -14022.63510497035, -1721.464302714384, 0.606, -0.614, 0.534, 192.0, 0.0, 0.0, 0.0, 0.0, 0.0, 0.0, 0.0, 0.0, 0.0, 1.6634968237311072E9, 0.0, 2022-09-18 15:27:03.731
114.0, -11600.823593237828, 6573.916265239271, -40052.627331331656, -16471.067544349142, 3080.3833103636875, -187500.02235174447, -14099.16747798532, -1895.0032466653881, 0.606, -0.614, 0.534, 192.0, 0.0, 0.0, 0.0, 0.0, 0.0, 0.0, 0.0, 0.0, 0.0, 1.6634968237311332E9, 0.0, 2022-09-18 15:27:03.731
115.0, -13024.070921429506, 5521.484377561138, -39759.08187140011, -16187.289796744562, 3736.6081758270475, -187500.02235174447, -13794.06616617038, -1523.025515440168, 0.606, -0.614, 0.534, 192.0, 0.0, 0.0, 0.0, 0.0, 0.0, 0.0, 0.0, 0.0, 0.0, 1.663496823731152E9, 0.0, 2022-09-18 15:27:03.731
116.0, -11889.25050368911, 6498.702645147163, -39893.95229744343, -16146.564918346992, 4125.573232838301, -187500.02235174447, -13672.27151063341, -1447.968357559247, 0.606, -0.614, 0.534, 192.0, 0.0, 0.0, 0.0, 0.0, 0.0, 0.0, 0.0, 0.0, 0.0, 1.6634968237311695E9, 0.0, 2022-09-18 15:27:03.731
117.0, -8710.787738655537, 9144.791560744234, -40198.450112158076, -16179.265520485107, 4168.44387870358, -187500.02235174447, -13692.566894598831, -1421.3474299129762, 0.606, -0.614, 0.534, 192.0, 0.0, 0.0, 0.0, 0.0, 0.0, 0.0, 0.0, 0.0, 0.0, 1.663496823731186E9, 0.0, 2022-09-18 15:27:03.731
118.0, -7592.708777512166, 9975.672957381363, -40423.75569626757, -16421.424319913902, 3815.487482009826, -187500.02235174447, -14020.824613669469, -1697.9279158029458, 0.606, -0.614, 0.534, 192.0, 0.0, 0.0, 0.0, 0.0, 0.0, 0.0, 0.0, 0.0, 0.0, 1.6634968237312033E9, 0.0, 2022-09-18 15:27:03.731
119.0, -11419.774463149843, 6719.068493732035, -40085.260878236404, -16489.798306202687, 3089.368711634721, -187500.02235174447, -14115.730120626704, -1931.0566104717984, 0.612, -0.61, 0.538, 192.0, 19.0, 32.0, 236.0, 240.0, 16.0, 208.0, 0.0, 0.0, 0.0, 1.6634968237312193E9, 0.0, 2022-09-18 15:27:03.731
120.0, -13037.973706480707, 5504.765272708568, -39769.31897036063, -16207.853401643444, 3701.0241986541987, -187500.02235174447, -13819.904782760714, -1553.6250535994834, 0.612, -0.61, 0.538, 192.0, 0.0, 0.0, 0.0, 0.0, 0.0, 0.0, 0.0, 0.0, 0.0, 1.6634968237312372E9, 0.0, 2022-09-18 15:27:03.731
121.0, -11992.85083923946, 6418.705751741619, -39874.57333500068, -16146.944898002732, 4132.43521838608, -187500.02235174447, -13670.684536777084, -1441.2628342226546, 0.612, -0.61, 0.538, 192.0, 0.0, 0.0, 0.0, 0.0, 0.0, 0.0, 0.0, 0.0, 0.0, 1.663496824207988E9, 0.0, 2022-09-18 15:27:04.207
122.0, -8891.032205943133, 9001.874506697, -40156.294722115366, -16164.714534844701, 4171.282550249404, -187500.02235174447, -13658.569891282308, -1413.412560631342, 0.612, -0.61, 0.538, 192.0, 0.0, 0.0, 0.0, 0.0, 0.0, 0.0, 0.0, 0.0, 0.0, 1.663496824208208E9, 0.0, 2022-09-18 15:27:04.208
123.0, -7480.368909879793, 10082.715461577829, -40391.61388774084, -16390.891836987954, 3869.7351658028565, -187500.02235174447, -13969.415601422263, -1650.8998454689797, 0.612, -0.61, 0.538, 192.0, 0.0, 0.0, 0.0, 0.0, 0.0, 0.0, 0.0, 0.0, 0.0, 1.6634968242082531E9, 0.0, 2022-09-18 15:27:04.208
124.0, -11217.245306640305, 6893.0768243166, -40089.395950960636, -16482.86926542154, 3104.657304842151, -187500.02235174447, -14118.457033450251, -1907.4978718159048, 0.612, -0.61, 0.538, 192.0, 0.0, 0.0, 0.0, 0.0, 0.0, 0.0, 0.0, 0.0, 0.0, 1.6634968242084248E9, 0.0, 2022-09-18 15:27:04.208
125.0, -13040.745322793166, 5506.03932214252, -39754.186839364396, -16200.566732951014, 3659.561712689604, -187500.02235174447, -13811.366416378787, -1543.1420854499443, 0.612, -0.61, 0.538, 192.0, 0.0, 0.0, 0.0, 0.0, 0.0, 0.0, 0.0, 0.0, 0.0, 1.6634968242084467E9, 0.0, 2022-09-18 15:27:04.208
126.0, -12090.147982853412, 6346.6437276177085, -39859.28474179325, -16138.495938598626, 4137.1067329772395, -187500.02235174447, -13658.212263371022, -1436.90424405387, 0.612, -0.61, 0.538, 192.0, 0.0, 0.0, 0.0, 0.0, 0.0, 0.0, 0.0, 0.0, 0.0, 1.663496824208465E9, 0.0, 2022-09-18 15:27:04.208
127.0, -9089.13571705052, 8842.238347797198, -40157.85934422724, -16171.800037837034, 4162.073631533817, -187500.02235174447, -13664.403696585143, -1428.768209072138, 0.612, -0.61, 0.538, 192.0, 0.0, 0.0, 0.0, 0.0, 0.0, 0.0, 0.0, 0.0, 0.0, 1.6634968242084854E9, 0.0, 2022-09-18 15:27:04.208
128.0, -7409.692693912112, 10150.396543788498, -40425.32031837944, -16383.158133406418, 3902.5922301521578, -187500.02235174447, -13982.156095761788, -1650.2292931353204, 0.612, -0.61, 0.538, 192.0, 0.0, 0.0, 0.0, 0.0, 0.0, 0.0, 0.0, 0.0, 0.0, 1.6634968242085028E9, 0.0, 2022-09-18 15:27:04.208
129.0, -11013.375045463448, 7061.541922276249, -40116.84389315175, -16479.002413630773, 3123.90215681817, -187500.02235174447, -14117.27239099412, -1920.5065870888934, 0.612, -0.616, 0.538, 192.0, 19.0, 32.0, 236.0, 192.0, 16.0, 208.0, 0.0, 0.0, 0.0, 1.6634968242085202E9, 0.0, 2022-09-18 15:27:04.208
130.0, -13034.844462256964, 5506.285191331529, -39750.4317462959, -16198.912703861322, 3623.9330320278445, -187500.02235174447, -13817.73666354855, -1572.087594519567, 0.612, -0.616, 0.538, 192.0, 0.0, 0.0, 0.0, 0.0, 0.0, 0.0, 0.0, 0.0, 0.0, 1.6634968242085383E9, 0.0, 2022-09-18 15:27:04.208
131.0, -12164.623995378495, 6286.629293755209, -39846.92422710946, -16121.709778512692, 4176.624617174222, -187500.02235174447, -13670.595129799263, -1431.2939561955877, 0.612, -0.616, 0.538, 192.0, 0.0, 0.0, 0.0, 0.0, 0.0, 0.0, 0.0, 0.0, 0.0, 1.6634968242085576E9, 0.0, 2022-09-18 15:27:04.208
132.0, -9263.859303457655, 8698.29311350502, -40130.143181102656, -16149.984735248654, 4201.815033175353, -187500.02235174447, -13654.524225535897, -1421.6827060798057, 0.612, -0.616, 0.538, 192.0, 0.0, 0.0, 0.0, 0.0, 0.0, 0.0, 0.0, 0.0, 0.0, 1.663496824208593E9, 0.0, 2022-09-18 15:27:04.208
133.0, -7331.528643551904, 10225.87838481407, -40394.45255928666, -16350.457531268303, 3970.0497949182745, -187500.02235174447, -13934.524528327529, -1613.9300601399018, 0.612, -0.616, 0.538, 192.0, 0.0, 0.0, 0.0, 0.0, 0.0, 0.0, 0.0, 0.0, 0.0, 1.6634968242086136E9, 0.0, 2022-09-18 15:27:04.208
134.0, -10762.722583141636, 7273.905846346122, -40126.83512292327, -16468.228872803316, 3263.4440974526524, -187500.02235174447, -14116.46772819373, -1897.3725315776505, 0.612, -0.616, 0.538, 192.0, 0.0, 0.0, 0.0, 0.0, 0.0, 0.0, 0.0, 0.0, 0.0, 1.6634968242086308E9, 0.0, 2022-09-18 15:27:04.208
135.0, -13002.032101396573, 5522.691371761724, -39773.56580180714, -16204.567695208514, 3656.6783376548697, -187500.02235174447, -13840.513091148507, -1581.989417313268, 0.612, -0.616, 0.538, 192.0, 0.0, 0.0, 0.0, 0.0, 0.0, 0.0, 0.0, 0.0, 0.0, 1.663496824208648E9, 0.0, 2022-09-18 15:27:04.208
136.0, -12258.501322090784, 6201.312685169302, -39845.00197708631, -16112.52321154156, 4156.06101227534, -187500.02235174447, -13675.534865323885, -1433.4397236632972, 0.612, -0.616, 0.538, 192.0, 0.0, 0.0, 0.0, 0.0, 0.0, 0.0, 0.0, 0.0, 0.0, 1.663496824208665E9, 0.0, 2022-09-18 15:27:04.208
137.0, -9467.863675101242, 8523.144843953234, -40109.35605875922, -16128.214136149185, 4169.293244992882, -187500.02235174447, -13638.095693361247, -1411.2444414191773, 0.612, -0.616, 0.538, 192.0, 0.0, 0.0, 0.0, 0.0, 0.0, 0.0, 0.0, 0.0, 0.0, 1.663496824208682E9, 0.0, 2022-09-18 15:27:04.208
138.0, -7300.68323620358, 10252.946347349447, -40397.78296921051, -16328.217545535274, 3979.1469549115845, -187500.02235174447, -13905.735481469093, -1599.401426243952, 0.612, -0.616, 0.538, 192.0, 0.0, 0.0, 0.0, 0.0, 0.0, 0.0, 0.0, 0.0, 0.0, 1.6634968242087145E9, 0.0, 2022-09-18 15:27:04.208
139.0, -10594.033967737434, 7400.304961240883, -40173.840841512785, -16488.479553279823, 3161.7436601810055, -187500.02235174447, -14123.083844552499, -1923.881700501645, 0.596, -0.62, 0.542, 192.0, 18.0, 160.0, 236.0, 160.0, 16.0, 240.0, 0.0, 0.0, 0.0, 1.6634968242087953E9, 0.0, 2022-09-18 15:27:04.208
140.0, -13011.978627679186, 5500.674903473247, -39773.40933959596, -16209.64154119987, 3527.574661681016, -187500.02235174447, -13838.83671031436, -1602.7765396567036, 0.596, -0.62, 0.542, 192.0, 0.0, 0.0, 0.0, 0.0, 0.0, 0.0, 0.0, 0.0, 0.0, 1.663496824208815E9, 0.0, 2022-09-18 15:27:04.208
141.0, -12338.699381196426, 6130.480006990434, -39825.77947685474, -16108.634008006336, 4134.58098585379, -187500.02235174447, -13664.157827396135, -1433.797351574582, 0.596, -0.62, 0.542, 192.0, 0.0, 0.0, 0.0, 0.0, 0.0, 0.0, 0.0, 0.0, 0.0, 1.6634968242088332E9, 0.0, 2022-09-18 15:27:04.208
142.0, -9662.927348962707, 8355.372650071698, -40092.45813995101, -16130.00227570561, 4148.10379124925, -187500.02235174447, -13635.480539259976, -1413.0325809756018, 0.596, -0.62, 0.542, 192.0, 0.0, 0.0, 0.0, 0.0, 0.0, 0.0, 0.0, 0.0, 0.0, 1.6634968242088509E9, 0.0, 2022-09-18 15:27:04.208
143.0, -7272.654148656625, 10278.583798239684, -40396.10658837636, -16306.759870858179, 4009.612382604168, -187500.02235174447, -13892.190324329178, -1573.9651410538127, 0.596, -0.62, 0.542, 192.0, 0.0, 0.0, 0.0, 0.0, 0.0, 0.0, 0.0, 0.0, 0.0, 1.6634968242088687E9, 0.0, 2022-09-18 15:27:04.208
144.0, -10367.38727896062, 7580.6611872507565, -40209.04483902989, -16495.118021383052, 3187.2917040934212, -187500.02235174447, -14135.824338892024, -1941.6736890880693, 0.596, -0.62, 0.542, 192.0, 0.0, 0.0, 0.0, 0.0, 0.0, 0.0, 0.0, 0.0, 0.0, 1.6634968242088895E9, 0.0, 2022-09-18 15:27:04.208
145.0, -12980.194447063739, 5507.022798898554, -39799.78439805322, -16227.992323397677, 3479.674873313293, -187500.02235174447, -13872.409030486231, -1621.6190602325273, 0.596, -0.62, 0.542, 192.0, 0.0, 0.0, 0.0, 0.0, 0.0, 0.0, 0.0, 0.0, 0.0, 1.6634968242089076E9, 0.0, 2022-09-18 15:27:04.208
146.0, -12405.93342851799, 6063.156552691049, -39831.16624726847, -16100.453269535694, 4127.137854950172, -187500.02235174447, -13686.688385807085, -1419.2463659341772, 0.596, -0.62, 0.542, 192.0, 0.0, 0.0, 0.0, 0.0, 0.0, 0.0, 0.0, 0.0, 0.0, 1.6634968242089252E9, 0.0, 2022-09-18 15:27:04.208
147.0, -9847.820979097007, 8192.607246948153, -40093.016933562394, -16126.247182637118, 4143.141703980173, -187500.02235174447, -13650.031524900382, -1426.1977584597778, 0.596, -0.62, 0.542, 192.0, 0.0, 0.0, 0.0, 0.0, 0.0, 0.0, 0.0, 0.0, 0.0, 1.6634968242089431E9, 0.0, 2022-09-18 15:27:04.208
148.0, -7260.181875250563, 10289.804373956249, -40397.15712036576, -16292.678271851335, 4039.22844400745, -187500.02235174447, -13877.684042177683, -1547.2324546852656, 0.596, -0.62, 0.542, 192.0, 0.0, 0.0, 0.0, 0.0, 0.0, 0.0, 0.0, 0.0, 0.0, 1.6634968242089632E9, 0.0, 2022-09-18 15:27:04.208
149.0, -10138.728933182829, 7771.321567454525, -40222.03120255843, -16485.104439867075, 3221.869852765781, -187500.02235174447, -14122.07801605201, -1911.4988340734046, 0.598, -0.624, 0.54, 192.0, 18.0, 176.0, 236.0, 128.0, 16.0, 224.0, 0.0, 0.0, 0.0, 1.6634968242089884E9, 0.0, 2022-09-18 15:27:04.208
150.0, -12941.99531578962, 5533.28609863354, -39812.323726692644, -16239.481120047703, 3438.122980370877, -187500.02235174447, -13877.46052473313, -1651.7715635027366, 0.598, -0.624, 0.54, 192.0, 0.0, 0.0, 0.0, 0.0, 0.0, 0.0, 0.0, 0.0, 0.0, 1.6634968242090197E9, 0.0, 2022-09-18 15:27:04.209
151.0, -12476.453182274483, 6007.098377597139, -39819.20806398488, -16101.369691058362, 4122.466340359013, -187500.02235174447, -13674.506685078943, -1436.703078353772, 0.598, -0.624, 0.54, 192.0, 0.0, 0.0, 0.0, 0.0, 0.0, 0.0, 0.0, 0.0, 0.0, 1.6634968242090385E9, 0.0, 2022-09-18 15:27:04.209
152.0, -10037.252013355734, 8040.905957329984, -40065.6583983491, -16114.691330753725, 4151.747125595466, -187500.02235174447, -13629.847899657238, -1431.7409910846939, 0.598, -0.624, 0.54, 192.0, 0.0, 0.0, 0.0, 0.0, 0.0, 0.0, 0.0, 0.0, 0.0, 1.6634968242090576E9, 0.0, 2022-09-18 15:27:04.209
153.0, -7271.223637011485, 10296.040510659279, -40381.19797482467, -16268.448980861782, 4088.75990972041, -187500.02235174447, -13845.095198761845, -1543.3656028944974, 0.598, -0.624, 0.54, 192.0, 0.0, 0.0, 0.0, 0.0, 0.0, 0.0, 0.0, 0.0, 0.0, 1.6634968242090755E9, 0.0, 2022-09-18 15:27:04.209
154.0, -9879.225180056714, 8000.449299865878, -40244.18178131364, -16476.74488744079, 3365.7033283356823, -187500.02235174447, -14129.141167299887, -1887.940095417511, 0.598, -0.624, 0.54, 192.0, 0.0, 0.0, 0.0, 0.0, 0.0, 0.0, 0.0, 0.0, 0.0, 1.663496824209149E9, 0.0, 2022-09-18 15:27:04.209
155.0, -12874.537751023503, 5585.946808570244, -39836.530665937746, -16255.842596988989, 3492.772995564103, -187500.02235174447, -13913.983275173101, -1667.5742468326387, 0.598, -0.624, 0.54, 192.0, 0.0, 0.0, 0.0, 0.0, 0.0, 0.0, 0.0, 0.0, 0.0, 1.6634968242091672E9, 0.0, 2022-09-18 15:27:04.209
156.0, -12544.804816818812, 5949.2520629468045, -39817.48697966182, -16111.13740338533, 4134.670392831611, -187500.02235174447, -13688.61063583024, -1469.604846191984, 0.598, -0.624, 0.54, 192.0, 0.0, 0.0, 0.0, 0.0, 0.0, 0.0, 0.0, 0.0, 0.0, 1.6634968242091908E9, 0.0, 2022-09-18 15:27:04.209
157.0, -10211.774434062772, 7891.484545646256, -40051.73326155344, -16115.987731932133, 4194.215440060549, -187500.02235174447, -13635.346428793244, -1457.2890349971099, 0.598, -0.624, 0.54, 192.0, 0.0, 0.0, 0.0, 0.0, 0.0, 0.0, 0.0, 0.0, 0.0, 1.6634968242092187E9, 0.0, 2022-09-18 15:27:04.209
158.0, -7317.558803267337, 10255.807370639726, -40372.100814831356, -16257.474274334227, 4098.706436003022, -187500.02235174447, -13831.527689877474, -1526.5347393196512, 0.598, -0.624, 0.54, 192.0, 0.0, 0.0, 0.0, 0.0, 0.0, 0.0, 0.0, 0.0, 0.0, 1.6634968242092566E9, 0.0, 2022-09-18 15:27:04.209
159.0, -9706.602657628377, 8134.649173575542, -40266.06413913538, -16482.891617166, 3295.3623885348306, -187500.02235174447, -14131.979838845711, -1903.7651304918684, 0.614, -0.614, 0.536, 192.0, 19.0, 48.0, 236.0, 208.0, 16.0, 192.0, 0.0, 0.0, 0.0, 1.6634968242092936E9, 0.0, 2022-09-18 15:27:04.209
160.0, -12858.109218848851, 5585.29860798104, -39832.686165891435, -16266.906710494366, 3356.069726475445, -187500.02235174447, -13921.202888632166, -1704.6557908839932, 0.614, -0.614, 0.536, 192.0, 0.0, 0.0, 0.0, 0.0, 0.0, 0.0, 0.0, 0.0, 0.0, 1.6634968242093349E9, 0.0, 2022-09-18 15:27:04.209
161.0, -12610.563649006326, 5893.283294830715, -39802.53366262122, -16114.400758075806, 4101.679218015578, -187500.02235174447, -13696.18787720059, -1468.6213694359506, 0.614, -0.614, 0.536, 192.0, 0.0, 0.0, 0.0, 0.0, 0.0, 0.0, 0.0, 0.0, 0.0, 1.663496824209366E9, 0.0, 2022-09-18 15:27:04.209
162.0, -10410.928477159558, 7726.483968077179, -40038.61278755817, -16122.581496546449, 4141.755895823943, -187500.02235174447, -13639.280335817379, -1443.0062702901687, 0.614, -0.614, 0.536, 192.0, 0.0, 0.0, 0.0, 0.0, 0.0, 0.0, 0.0, 0.0, 0.0, 1.663496824209402E9, 0.0, 2022-09-18 15:27:04.209
163.0, -7367.134972469208, 10226.236012725356, -40355.13584078978, -16236.441282801783, 4123.114540948217, -187500.02235174447, -13810.025311711468, -1487.352131289498, 0.614, -0.614, 0.536, 192.0, 0.0, 0.0, 0.0, 0.0, 0.0, 0.0, 0.0, 0.0, 0.0, 1.6634968242094395E9, 0.0, 2022-09-18 15:27:04.209
164.0, -9483.97928285352, 8326.471844490987, -40286.42657833416, -16475.69435545139, 3341.295223390487, -187500.02235174447, -14123.21795501923, -1889.9964559073992, 0.614, -0.614, 0.536, 192.0, 0.0, 0.0, 0.0, 0.0, 0.0, 0.0, 0.0, 0.0, 0.0, 1.6634968242094753E9, 0.0, 2022-09-18 15:27:04.209
165.0, -12795.300816929439, 5629.5774137470025, -39866.81727967469, -16288.476143893737, 3315.8812899448026, -187500.02235174447, -13948.360258145363, -1734.0706865871773, 0.614, -0.614, 0.536, 192.0, 0.0, 0.0, 0.0, 0.0, 0.0, 0.0, 0.0, 0.0, 0.0, 1.6634968242095125E9, 0.0, 2022-09-18 15:27:04.209
166.0, -12666.64417584469, 5844.981175062797, -39795.93989800691, -16102.33081606994, 4088.223467853483, -187500.02235174447, -13698.691272579585, -1448.4377441928082, 0.614, -0.614, 0.536, 192.0, 0.0, 0.0, 0.0, 0.0, 0.0, 0.0, 0.0, 0.0, 0.0, 1.6634968242095416E9, 0.0, 2022-09-18 15:27:04.209
167.0, -10582.723985043047, 7584.617446019345, -40013.10944713467, -16115.652455765303, 4143.655794102645, -187500.02235174447, -13633.424178770088, -1447.7001366257832, 0.614, -0.614, 0.536, 192.0, 0.0, 0.0, 0.0, 0.0, 0.0, 0.0, 0.0, 0.0, 0.0, 1.6634968242095768E9, 0.0, 2022-09-18 15:27:04.209
168.0, -7432.983211634542, 10179.54321855822, -40340.65191038274, -16222.091462861476, 4139.34190742277, -187500.02235174447, -13791.003977180002, -1492.4930325142184, 0.614, -0.614, 0.536, 192.0, 0.0, 0.0, 0.0, 0.0, 0.0, 0.0, 0.0, 0.0, 0.0, 1.6634968242096152E9, 0.0, 2022-09-18 15:27:04.209
169.0, -9261.378259823116, 8522.87662301977, -40307.83954952235, -16478.085992108106, 3388.546811169006, -187500.02235174447, -14115.596010159972, -1897.2160693664634, 0.62, -0.62, 0.532, 192.0, 19.0, 96.0, 236.0, 160.0, 16.0, 160.0, 0.0, 0.0, 0.0, 1.6634968242096505E9, 0.0, 2022-09-18 15:27:04.209
170.0, -12716.220345046562, 5696.006798268175, -39875.109776867605, -16303.764737101166, 3287.941609375669, -187500.02235174447, -13955.982203004623, -1739.0551256007107, 0.62, -0.62, 0.532, 192.0, 0.0, 0.0, 0.0, 0.0, 0.0, 0.0, 0.0, 0.0, 0.0, 1.6634968242098148E9, 0.0, 2022-09-18 15:27:04.209
171.0, -12721.629467204746, 5802.512860597713, -39802.39955215449, -16102.24140909212, 4073.4936682574357, -187500.02235174447, -13715.633894876706, -1434.937290541803, 0.62, -0.62, 0.532, 192.0, 0.0, 0.0, 0.0, 0.0, 0.0, 0.0, 0.0, 0.0, 0.0, 1.66349682420985E9, 0.0, 2022-09-18 15:27:04.209
172.0, -10748.395114945784, 7448.227101353062, -40017.19981636999, -16111.673845252259, 4152.44002967358, -187500.02235174447, -13645.31530682031, -1441.28518596711, 0.62, -0.62, 0.532, 192.0, 0.0, 0.0, 0.0, 0.0, 0.0, 0.0, 0.0, 0.0, 0.0, 1.6634968242098923E9, 0.0, 2022-09-18 15:27:04.209
173.0, -7512.600125384346, 10114.499642193276, -40329.230168966074, -16206.73581442068, 4169.516762437434, -187500.02235174447, -13774.866017683271, -1471.3259305150427, 0.62, -0.62, 0.532, 192.0, 0.0, 0.0, 0.0, 0.0, 0.0, 0.0, 0.0, 0.0, 0.0, 1.6634968242099195E9, 0.0, 2022-09-18 15:27:04.209
174.0, -9014.50324231425, 8728.222099330676, -40308.465398367094, -16450.6827534059, 3518.8798330879017, -187500.02235174447, -14100.106251252444, -1857.3405572581958, 0.62, -0.62, 0.532, 192.0, 0.0, 0.0, 0.0, 0.0, 0.0, 0.0, 0.0, 0.0, 0.0, 1.6634968242099545E9, 0.0, 2022-09-18 15:27:04.209
175.0, -12583.29452077085, 5793.259238393216, -39880.04951239223, -16309.196211003808, 3373.682901106227, -187500.02235174447, -13969.236787466622, -1771.5992655276377, 0.62, -0.62, 0.532, 192.0, 0.0, 0.0, 0.0, 0.0, 0.0, 0.0, 0.0, 0.0, 0.0, 1.663496824209991E9, 0.0, 2022-09-18 15:27:04.209
176.0, -12759.42626707867, 5757.89877866492, -39787.446235113886, -16109.66218825128, 4078.098127615229, -187500.02235174447, -13719.880726323216, -1448.1471715148894, 0.62, -0.62, 0.532, 192.0, 0.0, 0.0, 0.0, 0.0, 0.0, 0.0, 0.0, 0.0, 0.0, 1.6634968242100186E9, 0.0, 2022-09-18 15:27:04.210
177.0, -10890.820430615, 7319.682218990591, -40002.71588596295, -16116.971208688166, 4202.396178531191, -187500.02235174447, -13650.903242934137, -1441.2404824781995, 0.62, -0.62, 0.532, 192.0, 0.0, 0.0, 0.0, 0.0, 0.0, 0.0, 0.0, 0.0, 0.0, 1.6634968242100506E9, 0.0, 2022-09-18 15:27:04.210
178.0, -7606.611562563367, 10030.635896996964, -40327.82200906539, -16210.982645867187, 4186.392329501192, -187500.02235174447, -13770.887407170227, -1471.348282259498, 0.62, -0.62, 0.532, 192.0, 0.0, 0.0, 0.0, 0.0, 0.0, 0.0, 0.0, 0.0, 0.0, 1.6634968242100785E9, 0.0, 2022-09-18 15:27:04.210
179.0, -8806.184983990786, 8899.324703136052, -40339.84724758235, -16465.434904746402, 3555.2014178277755, -187500.02235174447, -14094.27244594961, -1840.2638244943412, 0.616, -0.618, 0.53, 192.0, 19.0, 64.0, 236.0, 176.0, 16.0, 144.0, 0.0, 0.0, 0.0, 1.6634968242101123E9, 0.0, 2022-09-18 15:27:04.210
180.0, -12484.18688585602, 5861.052079326163, -39907.475102838886, -16346.858900411, 3346.0114414705567, -187500.02235174447, -13982.692537628716, -1797.7061030514365, 0.616, -0.618, 0.53, 192.0, 0.0, 0.0, 0.0, 0.0, 0.0, 0.0, 0.0, 0.0, 0.0, 1.6634968242101321E9, 0.0, 2022-09-18 15:27:04.210
181.0, -12811.10350025934, 5707.65205712939, -39779.91369723245, -16121.061577923487, 4038.870816096165, -187500.02235174447, -13714.069272764835, -1459.1665815313556, 0.616, -0.618, 0.53, 192.0, 0.0, 0.0, 0.0, 0.0, 0.0, 0.0, 0.0, 0.0, 0.0, 1.6634968242101493E9, 0.0, 2022-09-18 15:27:04.210
182.0, -11065.812237955599, 7167.243321805397, -39973.18923153749, -16113.730205742146, 4143.074648746807, -187500.02235174447, -13638.587431739263, -1433.28326145211, 0.616, -0.618, 0.53, 192.0, 0.0, 0.0, 0.0, 0.0, 0.0, 0.0, 0.0, 0.0, 0.0, 1.6634968242101665E9, 0.0, 2022-09-18 15:27:04.210
183.0, -7719.376113340392, 9935.640983061909, -40294.24968889352, -16191.022538068599, 4179.284474764404, -187500.02235174447, -13743.327706256832, -1432.0539155070683, 0.616, -0.618, 0.53, 192.0, 0.0, 0.0, 0.0, 0.0, 0.0, 0.0, 0.0, 0.0, 0.0, 1.6634968242101839E9, 0.0, 2022-09-18 15:27:04.210
184.0, -8625.582888791907, 9046.846216541078, -40341.79184934996, -16453.364962740536, 3531.597975682971, -187500.02235174447, -14082.40366964384, -1810.6924665799697, 0.616, -0.618, 0.53, 192.0, 0.0, 0.0, 0.0, 0.0, 0.0, 0.0, 0.0, 0.0, 0.0, 1.6634968242102015E9, 0.0, 2022-09-18 15:27:04.210
185.0, -12405.195820950965, 5913.511623562768, -39918.29334715526, -16352.46918826928, 3202.1779659006556, -187500.02235174447, -14009.782851908549, -1802.3105624092298, 0.616, -0.618, 0.53, 192.0, 0.0, 0.0, 0.0, 0.0, 0.0, 0.0, 0.0, 0.0, 0.0, 1.6634968242102442E9, 0.0, 2022-09-18 15:27:04.210
186.0, -12840.943079107175, 5680.159411449363, -39763.70868250235, -16109.70689174019, 4005.8349377912214, -187500.02235174447, -13723.76992985844, -1457.2443315081994, 0.616, -0.618, 0.53, 192.0, 0.0, 0.0, 0.0, 0.0, 0.0, 0.0, 0.0, 0.0, 0.0, 1.663496824210281E9, 0.0, 2022-09-18 15:27:04.210
187.0, -11195.005320907274, 7056.401021051529, -39962.4827459434, -16109.28220859554, 4161.671300133622, -187500.02235174447, -13637.089864860758, -1427.8741392939257, 0.616, -0.618, 0.53, 192.0, 0.0, 0.0, 0.0, 0.0, 0.0, 0.0, 0.0, 0.0, 0.0, 1.6634968242103193E9, 0.0, 2022-09-18 15:27:04.210
188.0, -7829.972544905251, 9842.635374383375, -40282.135043398746, -16175.063392527509, 4201.21153607506, -187500.02235174447, -13727.703836882572, -1414.6195548319288, 0.616, -0.618, 0.53, 192.0, 0.0, 0.0, 0.0, 0.0, 0.0, 0.0, 0.0, 0.0, 0.0, 1.6634968242103517E9, 0.0, 2022-09-18 15:27:04.210
189.0, -8430.988601564002, 9210.617448165112, -40358.57800943589, -16445.474796947812, 3585.644493775904, -187500.02235174447, -14079.497942864651, -1790.3523791256405, 0.616, -0.618, 0.53, 192.0, 0.0, 0.0, 0.0, 0.0, 0.0, 0.0, 0.0, 0.0, 0.0, 1.663496824210385E9, 0.0, 2022-09-18 15:27:04.210
190.0, -12288.139735238521, 6004.4832234958685, -39940.95801603294, -16369.009479166209, 3179.91562842317, -187500.02235174447, -14029.653552729316, -1816.9733067719112, 0.614, -0.622, 0.534, 192.0, 19.0, 48.0, 236.0, 144.0, 16.0, 176.0, 0.0, 0.0, 0.0, 1.6634968242104185E9, 0.0, 2022-09-18 15:27:04.210
191.0, -12890.206323886672, 5639.479236540704, -39776.404473352966, -16127.655342537802, 3971.7932309857883, -187500.02235174447, -13751.955479616581, -1465.223904278744, 0.614, -0.622, 0.534, 192.0, 0.0, 0.0, 0.0, 0.0, 0.0, 0.0, 0.0, 0.0, 0.0, 1.6634968242104564E9, 0.0, 2022-09-18 15:27:04.210
192.0, -11342.213909889926, 6938.56262428315, -39953.74321386137, -16124.95078145871, 4163.079460034306, -187500.02235174447, -13649.785655711372, -1449.5553314155736, 0.614, -0.622, 0.534, 192.0, 0.0, 0.0, 0.0, 0.0, 0.0, 0.0, 0.0, 0.0, 0.0, 1.6634968242104917E9, 0.0, 2022-09-18 15:27:04.210
193.0, -7972.017880918727, 9728.127387538838, -40268.4557757921, -16176.762125106112, 4205.234850077016, -187500.02235174447, -13720.595982145785, -1431.3386596844985, 0.614, -0.622, 0.534, 192.0, 0.0, 0.0, 0.0, 0.0, 0.0, 0.0, 0.0, 0.0, 0.0, 1.6634968242105258E9, 0.0, 2022-09-18 15:27:04.210
194.0, -8251.526445332342, 9366.476162251969, -40383.05316961446, -16444.513671936234, 3636.5841193895485, -187500.02235174447, -14070.065506704512, -1803.2493356763525, 0.614, -0.622, 0.534, 192.0, 0.0, 0.0, 0.0, 0.0, 0.0, 0.0, 0.0, 0.0, 0.0, 1.6634968242105584E9, 0.0, 2022-09-18 15:27:04.210
195.0, -12136.55020434263, 6124.73560866542, -39955.88898132908, -16372.518703045691, 3203.317904867876, -187500.02235174447, -14032.49222427514, -1810.3795421575956, 0.614, -0.622, 0.534, 192.0, 0.0, 0.0, 0.0, 0.0, 0.0, 0.0, 0.0, 0.0, 0.0, 1.6634968242105908E9, 0.0, 2022-09-18 15:27:04.210
196.0, -12905.807841516476, 5617.239250807674, -39761.361749334545, -16117.395891832817, 3978.1858299000064, -187500.02235174447, -13746.903985369681, -1452.2822442391212, 0.614, -0.622, 0.534, 192.0, 0.0, 0.0, 0.0, 0.0, 0.0, 0.0, 0.0, 0.0, 0.0, 1.663496824210636E9, 0.0, 2022-09-18 15:27:04.210
197.0, -11446.84242568522, 6847.389858649953, -39933.15725721804, -16103.42605154825, 4227.474835810046, -187500.02235174447, -13644.443588786555, -1428.90231953887, 0.614, -0.622, 0.534, 192.0, 0.0, 0.0, 0.0, 0.0, 0.0, 0.0, 0.0, 0.0, 0.0, 1.66349682421067E9, 0.0, 2022-09-18 15:27:04.210
198.0, -8116.097225677637, 9610.71367391511, -40257.034034375436, -16165.876825556377, 4235.297946369404, -187500.02235174447, -13708.749557584473, -1433.4620754077525, 0.614, -0.622, 0.534, 192.0, 0.0, 0.0, 0.0, 0.0, 0.0, 0.0, 0.0, 0.0, 0.0, 1.6634968242107043E9, 0.0, 2022-09-18 15:27:04.210
199.0, -8065.604634953098, 9533.890728222219, -40379.298076545965, -16416.506936133737, 3731.4225711134163, -187500.02235174447, -14047.266727360098, -1752.5108757628057, 0.614, -0.622, 0.534, 192.0, 0.0, 0.0, 0.0, 0.0, 0.0, 0.0, 0.0, 0.0, 0.0, 1.6634968242107377E9, 0.0, 2022-09-18 15:27:04.210
200.0, -11956.104571354936, 6275.587531994287, -39978.933629862506, -16382.353470606027, 3278.4644697266185, -187500.02235174447, -14048.339611093952, -1816.6156788606263, 0.616, -0.622, 0.534, 192.0, 19.0, 64.0, 236.0, 144.0, 16.0, 176.0, 0.0, 0.0, 0.0, 1.663496824210773E9, 0.0, 2022-09-18 15:27:04.210
201.0, -12934.351019185904, 5592.607628417924, -39762.769909235234, -16133.220926907174, 3946.2451870733726, -187500.02235174447, -13757.364601774765, -1478.5902474630175, 0.616, -0.622, 0.534, 192.0, 0.0, 0.0, 0.0, 0.0, 0.0, 0.0, 0.0, 0.0, 0.0, 1.6634968242108412E9, 0.0, 2022-09-18 15:27:04.210
202.0, -11589.91594194364, 6731.965450282747, -39926.22821643689, -16116.971208688166, 4177.675149163621, -187500.02235174447, -13654.770094724905, -1454.3833082179199, 0.616, -0.622, 0.534, 192.0, 0.0, 0.0, 0.0, 0.0, 0.0, 0.0, 0.0, 0.0, 0.0, 1.6634968242108767E9, 0.0, 2022-09-18 15:27:04.210
203.0, -8276.023957255358, 9485.096870076284, -40229.87666486224, -16156.243223696141, 4214.533175770423, -187500.02235174447, -13684.60967357274, -1428.2988224385765, 0.616, -0.622, 0.534, 192.0, 0.0, 0.0, 0.0, 0.0, 0.0, 0.0, 0.0, 0.0, 0.0, 1.663496824210904E9, 0.0, 2022-09-18 15:27:04.210
204.0, -7919.2901157486585, 9665.631910041799, -40382.24850681407, -16394.982206223274, 3739.5809578396033, -187500.02235174447, -14015.795471167026, -1719.6538114135042, 0.616, -0.622, 0.534, 192.0, 0.0, 0.0, 0.0, 0.0, 0.0, 0.0, 0.0, 0.0, 0.0, 1.6634968242109327E9, 0.0, 2022-09-18 15:27:04.210
205.0, -11834.958116407171, 6367.54260868342, -40004.101694119185, -16393.976377722785, 3152.4229827431423, -187500.02235174447, -14056.386239097863, -1852.6913944114917, 0.616, -0.622, 0.534, 192.0, 0.0, 0.0, 0.0, 0.0, 0.0, 0.0, 0.0, 0.0, 0.0, 1.663496824210964E9, 0.0, 2022-09-18 15:27:04.210
206.0, -12964.6599846673, 5562.142200725341, -39755.840868454085, -16128.281191382552, 3873.3337966601607, -187500.02235174447, -13762.72902044404, -1484.6252184659504, 0.616, -0.622, 0.534, 192.0, 0.0, 0.0, 0.0, 0.0, 0.0, 0.0, 0.0, 0.0, 0.0, 1.663496824210991E9, 0.0, 2022-09-18 15:27:04.210
207.0, -11709.430719546166, 6630.242661266645, -39915.49937909834, -16115.47364180966, 4179.798564886876, -187500.02235174447, -13656.267661603411, -1449.3765174599312, 0.616, -0.622, 0.534, 192.0, 0.0, 0.0, 0.0, 0.0, 0.0, 0.0, 0.0, 0.0, 0.0, 1.663496824211023E9, 0.0, 2022-09-18 15:27:04.211
208.0, -8443.594985436795, 9341.933946840041, -40210.94473730859, -16146.162586946797, 4213.661457736666, -187500.02235174447, -13675.601920557252, -1410.7527030411607, 0.616, -0.622, 0.534, 192.0, 0.0, 0.0, 0.0, 0.0, 0.0, 0.0, 0.0, 0.0, 0.0, 1.6634968242110505E9, 0.0, 2022-09-18 15:27:04.211
209.0, -7770.896884309875, 9787.448917323223, -40388.283477817, -16392.47881084428, 3790.9229148534437, -187500.02235174447, -14004.038453583535, -1698.4420059254178, 0.616, -0.622, 0.534, 192.0, 0.0, 0.0, 0.0, 0.0, 0.0, 0.0, 0.0, 0.0, 0.0, 1.6634968242110853E9, 0.0, 2022-09-18 15:27:04.211
210.0, -11656.345326464812, 6501.988351582093, -40032.84603748871, -16419.479718146293, 3154.9040263776815, -187500.02235174447, -14070.937224738267, -1873.2773510548295, 0.614, -0.622, 0.538, 192.0, 19.0, 48.0, 236.0, 144.0, 16.0, 208.0, 0.0, 0.0, 0.0, 1.663496824211108E9, 0.0, 2022-09-18 15:27:04.211
211.0, -12972.99718534913, 5541.1762644262635, -39770.36950235003, -16146.699028813724, 3840.9014154555102, -187500.02235174447, -13774.53074151644, -1498.9526866618023, 0.614, -0.622, 0.538, 192.0, 0.0, 0.0, 0.0, 0.0, 0.0, 0.0, 0.0, 0.0, 0.0, 1.6634968242111263E9, 0.0, 2022-09-18 15:27:04.211
212.0, -11801.251685768568, 6548.2117591156675, -39907.1174749276, -16115.04895866501, 4198.752844184976, -187500.02235174447, -13656.312365092323, -1434.4232004193307, 0.614, -0.622, 0.538, 192.0, 0.0, 0.0, 0.0, 0.0, 0.0, 0.0, 0.0, 0.0, 0.0, 1.6634968242111435E9, 0.0, 2022-09-18 15:27:04.211
213.0, -8610.540164773485, 9201.006198049332, -40201.19937672608, -16147.347229402929, 4218.623545005745, -187500.02235174447, -13672.137400166679, -1401.8567087479485, 0.614, -0.622, 0.538, 192.0, 0.0, 0.0, 0.0, 0.0, 0.0, 0.0, 0.0, 0.0, 0.0, 1.6634968242111607E9, 0.0, 2022-09-18 15:27:04.211
214.0, -7645.704763615699, 9895.273732575624, -40410.43405657221, -16391.741203277255, 3836.431066564449, -187500.02235174447, -14000.551581448506, -1686.9085057864793, 0.614, -0.622, 0.538, 192.0, 0.0, 0.0, 0.0, 0.0, 0.0, 0.0, 0.0, 0.0, 0.0, 1.6634968242111776E9, 0.0, 2022-09-18 15:27:04.211
215.0, -11463.963861937984, 6656.438905768265, -40064.65256984861, -16440.7809306122, 3184.363625569776, -187500.02235174447, -14086.695204579259, -1892.1869268640194, 0.614, -0.622, 0.538, 192.0, 0.0, 0.0, 0.0, 0.0, 0.0, 0.0, 0.0, 0.0, 0.0, 1.6634968242111945E9, 0.0, 2022-09-18 15:27:04.211
216.0, -12970.292624270038, 5540.639822559336, -39772.269400628735, -16158.836026052955, 3846.0199649357755, -187500.02235174447, -13789.886389957237, -1507.7145704882826, 0.614, -0.622, 0.538, 192.0, 0.0, 0.0, 0.0, 0.0, 0.0, 0.0, 0.0, 0.0, 0.0, 1.663496824211233E9, 0.0, 2022-09-18 15:27:04.211
217.0, -11886.702404821206, 6480.128345504802, -39890.30896309721, -16102.867257936867, 4252.419382622169, -187500.02235174447, -13651.327926078788, -1406.6846855502947, 0.614, -0.622, 0.538, 192.0, 0.0, 0.0, 0.0, 0.0, 0.0, 0.0, 0.0, 0.0, 0.0, 1.66349682421125E9, 0.0, 2022-09-18 15:27:04.211
218.0, -8777.127716198887, 9065.040536527698, -40175.60662932475, -16135.277287397063, 4260.667176326177, -187500.02235174447, -13651.41733305661, -1381.7624904826273, 0.614, -0.622, 0.538, 192.0, 0.0, 0.0, 0.0, 0.0, 0.0, 0.0, 0.0, 0.0, 0.0, 1.6634968242112713E9, 0.0, 2022-09-18 15:27:04.211
219.0, -7530.7273901376, 9999.835193137551, -40400.9345651787, -16365.991993664742, 3911.979962823387, -187500.02235174447, -13964.699383342193, -1638.3605168295524, 0.614, -0.622, 0.538, 192.0, 0.0, 0.0, 0.0, 0.0, 0.0, 0.0, 0.0, 0.0, 0.0, 1.6634968242112885E9, 0.0, 2022-09-18 15:27:04.211
220.0, -11242.972164508363, 6836.3033934001205, -40075.761386842896, -16430.96851479632, 3292.881344900292, -187500.02235174447, -14078.156838197332, -1855.686528168503, 0.616, -0.62, 0.538, 192.0, 19.0, 64.0, 236.0, 160.0, 16.0, 208.0, 0.0, 0.0, 0.0, 1.6634968242113106E9, 0.0, 2022-09-18 15:27:04.211
221.0, -12981.200275564228, 5514.868261202367, -39772.7387872623, -16166.592081378947, 3814.3251912981505, -187500.02235174447, -13788.433526567642, -1526.4229805973746, 0.616, -0.62, 0.538, 192.0, 0.0, 0.0, 0.0, 0.0, 0.0, 0.0, 0.0, 0.0, 0.0, 1.663496824211329E9, 0.0, 2022-09-18 15:27:04.211
222.0, -12010.866345270437, 6364.748640626507, -39877.501413524325, -16111.8526592079, 4198.082291851317, -187500.02235174447, -13645.874100431694, -1431.4951218956855, 0.616, -0.62, 0.538, 192.0, 0.0, 0.0, 0.0, 0.0, 0.0, 0.0, 0.0, 0.0, 0.0, 1.6634968242113466E9, 0.0, 2022-09-18 15:27:04.211
223.0, -8982.584951232071, 8883.119688405954, -40161.65914078464, -16139.211194421196, 4208.475853023035, -187500.02235174447, -13642.297821318845, -1404.0471797045684, 0.616, -0.62, 0.538, 192.0, 0.0, 0.0, 0.0, 0.0, 0.0, 0.0, 0.0, 0.0, 0.0, 1.6634968242113657E9, 0.0, 2022-09-18 15:27:04.211
224.0, -7451.669269999179, 10066.286929403179, -40404.957879180656, -16362.259252340706, 3919.5795559381913, -187500.02235174447, -13944.113426698856, -1633.890167938491, 0.616, -0.62, 0.538, 192.0, 0.0, 0.0, 0.0, 0.0, 0.0, 0.0, 0.0, 0.0, 0.0, 1.663496824211385E9, 0.0, 2022-09-18 15:27:04.211
225.0, -11092.656683046423, 6954.253548890776, -40102.114093555705, -16455.622488930523, 3174.685320220628, -187500.02235174447, -14087.611626101927, -1887.6942262285027, 0.616, -0.62, 0.538, 192.0, 0.0, 0.0, 0.0, 0.0, 0.0, 0.0, 0.0, 0.0, 0.0, 1.663496824211403E9, 0.0, 2022-09-18 15:27:04.211
226.0, -12996.175944349283, 5499.043226128009, -39762.993426679786, -16174.750468105134, 3714.7034662608467, -187500.02235174447, -13798.938846461637, -1530.669812043883, 0.616, -0.62, 0.538, 192.0, 0.0, 0.0, 0.0, 0.0, 0.0, 0.0, 0.0, 0.0, 0.0, 1.6634968242114215E9, 0.0, 2022-09-18 15:27:04.211
227.0, -12093.612503243983, 6301.336741606801, -39863.643331962034, -16102.934313170234, 4208.185280345116, -187500.02235174447, -13652.825492957294, -1414.8877757653925, 0.616, -0.62, 0.538, 192.0, 0.0, 0.0, 0.0, 0.0, 0.0, 0.0, 0.0, 0.0, 0.0, 1.6634968242114415E9, 0.0, 2022-09-18 15:27:04.211
228.0, -9168.886741267055, 8730.569032498483, -40146.906989444135, -16126.783624504045, 4209.705198968077, -187500.02235174447, -13642.074303874291, -1402.0131709591356, 0.616, -0.62, 0.538, 192.0, 0.0, 0.0, 0.0, 0.0, 0.0, 0.0, 0.0, 0.0, 0.0, 1.6634968242114637E9, 0.0, 2022-09-18 15:27:04.211
229.0, -7377.886161552211, 10133.632735447018, -40410.27759436102, -16337.761740417689, 3958.851570946166, -187500.02235174447, -13937.318496384443, -1609.638525204483, 0.616, -0.62, 0.538, 192.0, 0.0, 0.0, 0.0, 0.0, 0.0, 0.0, 0.0, 0.0, 0.0, 1.6634968242114813E9, 0.0, 2022-09-18 15:27:04.211
230.0, -10885.746584623646, 7119.544699137771, -40133.987681148974, -16450.995677828276, 3189.526878538952, -187500.02235174447, -14107.102347266955, -1891.8740024416452, 0.612, -0.614, 0.532, 192.0, 19.0, 32.0, 236.0, 208.0, 16.0, 160.0, 0.0, 0.0, 0.0, 1.6634968242115E9, 0.0, 2022-09-18 15:27:04.211
231.0, -12990.409194279813, 5490.795432424001, -39773.07406342913, -16175.577482649982, 3669.1953145498414, -187500.02235174447, -13822.02819848397, -1546.2266261847767, 0.612, -0.614, 0.532, 192.0, 0.0, 0.0, 0.0, 0.0, 0.0, 0.0, 0.0, 0.0, 0.0, 1.6634968242115483E9, 0.0, 2022-09-18 15:27:04.211
232.0, -12181.052527553145, 6223.776188346886, -39851.327520767154, -16096.117031111364, 4210.241640835005, -187500.02235174447, -13665.163655896624, -1406.8187960170264, 0.612, -0.614, 0.532, 192.0, 0.0, 0.0, 0.0, 0.0, 0.0, 0.0, 0.0, 0.0, 0.0, 1.66349682421157E9, 0.0, 2022-09-18 15:27:04.211
233.0, -9357.691926681033, 8569.524713697996, -40133.38418404868, -16127.72239777117, 4216.030742648929, -187500.02235174447, -13653.250176101945, -1412.3396768974874, 0.612, -0.614, 0.532, 192.0, 0.0, 0.0, 0.0, 0.0, 0.0, 0.0, 0.0, 0.0, 0.0, 1.663496824211588E9, 0.0, 2022-09-18 15:27:04.211
234.0, -7312.775529953901, 10190.517925085775, -40406.90248094827, -16322.674312910356, 4025.7503421008996, -187500.02235174447, -13933.384589360308, -1592.7182546518154, 0.612, -0.614, 0.532, 192.0, 0.0, 0.0, 0.0, 0.0, 0.0, 0.0, 0.0, 0.0, 0.0, 1.663496824211606E9, 0.0, 2022-09-18 15:27:04.211
235.0, -10629.796758865925, 7330.16518714013, -40146.39289932167, -16444.11134053604, 3338.3000896334756, -187500.02235174447, -14116.601838660461, -1855.172438046031, 0.612, -0.614, 0.532, 192.0, 0.0, 0.0, 0.0, 0.0, 0.0, 0.0, 0.0, 0.0, 0.0, 1.6634968242116241E9, 0.0, 2022-09-18 15:27:04.211
236.0, -12953.528815928557, 5509.682656488736, -39780.40543561047, -16191.558979935526, 3710.367227836517, -187500.02235174447, -13838.859062058815, -1562.0069577702234, 0.612, -0.614, 0.532, 192.0, 0.0, 0.0, 0.0, 0.0, 0.0, 0.0, 0.0, 0.0, 0.0, 1.663496824211642E9, 0.0, 2022-09-18 15:27:04.211
237.0, -12253.785104010714, 6154.977518913451, -39842.07389856266, -16093.859504921378, 4245.333879629837, -187500.02235174447, -13671.176275155101, -1414.1948716872778, 0.612, -0.614, 0.532, 192.0, 0.0, 0.0, 0.0, 0.0, 0.0, 0.0, 0.0, 0.0, 0.0, 1.66349682421166E9, 0.0, 2022-09-18 15:27:04.211
238.0, -9531.253222376494, 8414.76123508945, -40111.479474482476, -16115.250124365108, 4261.650653082211, -187500.02235174447, -13643.683629475074, -1403.8460140044706, 0.612, -0.614, 0.532, 192.0, 0.0, 0.0, 0.0, 0.0, 0.0, 0.0, 0.0, 0.0, 0.0, 1.6634968242116776E9, 0.0, 2022-09-18 15:27:04.211
239.0, -7278.197381281541, 10214.478995141864, -40400.44282680069, -16302.22246673375, 4054.829961637254, -187500.02235174447, -13898.292350565476, -1567.6172456285055, 0.612, -0.614, 0.532, 192.0, 0.0, 0.0, 0.0, 0.0, 0.0, 0.0, 0.0, 0.0, 0.0, 1.663496824211698E9, 0.0, 2022-09-18 15:27:04.211
240.0, -10443.83024499777, 7472.501095831525, -40183.60855383975, -16463.937337867897, 3274.999949336046, -187500.02235174447, -14117.048873549567, -1892.0975198861981, 0.622, -0.612, 0.534, 192.0, 19.0, 112.0, 236.0, 224.0, 16.0, 176.0, 0.0, 0.0, 0.0, 1.663496824211716E9, 0.0, 2022-09-18 15:27:04.211
241.0, -12943.582289645945, 5504.094720374909, -39797.97390675234, -16207.78634641008, 3620.8708430374677, -187500.02235174447, -13855.846387844847, -1594.2605250192316, 0.622, -0.612, 0.534, 192.0, 0.0, 0.0, 0.0, 0.0, 0.0, 0.0, 0.0, 0.0, 0.0, 1.6634968246882744E9, 0.0, 2022-09-18 15:27:04.688
242.0, -12332.351485771118, 6083.206067467459, -39848.15357305451, -16102.084946880932, 4219.517614783957, -187500.02235174447, -13681.145153182168, -1427.6953253382833, 0.622, -0.612, 0.534, 192.0, 0.0, 0.0, 0.0, 0.0, 0.0, 0.0, 0.0, 0.0, 0.0, 1.6634968246884449E9, 0.0, 2022-09-18 15:27:04.688
243.0, -9729.580250928433, 8244.239776639912, -40105.31039301281, -16123.967304702677, 4217.416550805157, -187500.02235174447, -13645.22589984249, -1419.2463659341772, 0.622, -0.612, 0.534, 192.0, 0.0, 0.0, 0.0, 0.0, 0.0, 0.0, 0.0, 0.0, 0.0, 1.6634968246884687E9, 0.0, 2022-09-18 15:27:04.688
244.0, -7256.896168815633, 10235.668448885495, -40405.941355936695, -16292.566513129059, 4084.937761418553, -187500.02235174447, -13889.485763250086, -1554.8096960556145, 0.622, -0.612, 0.534, 192.0, 0.0, 0.0, 0.0, 0.0, 0.0, 0.0, 0.0, 0.0, 0.0, 1.663496824688491E9, 0.0, 2022-09-18 15:27:04.688
245.0, -10236.808387852716, 7642.5308159030465, -40216.30915597787, -16472.721573438834, 3280.207905794133, -187500.02235174447, -14133.186833046298, -1918.7184475324689, 0.622, -0.612, 0.534, 192.0, 0.0, 0.0, 0.0, 0.0, 0.0, 0.0, 0.0, 0.0, 0.0, 1.6634968246885147E9, 0.0, 2022-09-18 15:27:04.688
246.0, -12927.310219682482, 5512.409569312283, -39801.572537609645, -16213.195468568263, 3552.1615805818537, -187500.02235174447, -13877.929911366691, -1624.3906765449856, 0.622, -0.612, 0.534, 192.0, 0.0, 0.0, 0.0, 0.0, 0.0, 0.0, 0.0, 0.0, 0.0, 1.6634968246885374E9, 0.0, 2022-09-18 15:27:04.688
247.0, -12407.0286639963, 6026.276174339792, -39837.67060490497, -16088.495086252105, 4215.382542059725, -187500.02235174447, -13699.138307468691, -1415.223051932222, 0.622, -0.612, 0.534, 192.0, 0.0, 0.0, 0.0, 0.0, 0.0, 0.0, 0.0, 0.0, 0.0, 1.663496824688684E9, 0.0, 2022-09-18 15:27:04.688
248.0, -9922.408750344366, 8087.084661374648, -40095.22975626347, -16116.211249376685, 4219.428207806135, -187500.02235174447, -13663.554330295841, -1431.897453295881, 0.622, -0.612, 0.534, 192.0, 0.0, 0.0, 0.0, 0.0, 0.0, 0.0, 0.0, 0.0, 0.0, 1.6634968246887045E9, 0.0, 2022-09-18 15:27:04.688
249.0, -7260.941834562044, 10240.295259987744, -40372.36903576482, -16266.236158160706, 4119.627668813189, -187500.02235174447, -13858.059210545924, -1527.2723468866764, 0.622, -0.612, 0.534, 192.0, 0.0, 0.0, 0.0, 0.0, 0.0, 0.0, 0.0, 0.0, 0.0, 1.6634968246887224E9, 0.0, 2022-09-18 15:27:04.688
250.0, -10013.067425855092, 7828.743198960209, -40217.98553681201, -16464.384372757002, 3317.7364847345934, -187500.02235174447, -14127.576545188016, -1887.3813018061285, 0.626, -0.62, 0.534, 192.0, 19.0, 144.0, 236.0, 160.0, 16.0, 176.0, 0.0, 0.0, 0.0, 1.6634968246887403E9, 0.0, 2022-09-18 15:27:04.688
251.0, -12887.859390718866, 5535.029534701054, -39803.11480797706, -16226.606515241447, 3513.381303951896, -187500.02235174447, -13892.860876662837, -1639.0757726521222, 0.626, -0.62, 0.534, 192.0, 0.0, 0.0, 0.0, 0.0, 0.0, 0.0, 0.0, 0.0, 0.0, 1.66349682468876E9, 0.0, 2022-09-18 15:27:04.688
252.0, -12471.736964194413, 5970.128592268061, -39809.820331313655, -16086.505780995582, 4211.02395189094, -187500.02235174447, -13689.370595141721, -1411.7138280527388, 0.626, -0.62, 0.534, 192.0, 0.0, 0.0, 0.0, 0.0, 0.0, 0.0, 0.0, 0.0, 0.0, 1.6634968246887891E9, 0.0, 2022-09-18 15:27:04.688
253.0, -10097.400557684965, 7936.9032903794405, -40057.991750000925, -16110.913885940778, 4223.876204952741, -187500.02235174447, -13644.063609130813, -1413.0549327200572, 0.626, -0.62, 0.534, 192.0, 0.0, 0.0, 0.0, 0.0, 0.0, 0.0, 0.0, 0.0, 0.0, 1.6634968246888063E9, 0.0, 2022-09-18 15:27:04.688
254.0, -7270.396622466639, 10235.891966330048, -40371.184393308686, -16257.429570845316, 4150.294262205871, -187500.02235174447, -13849.342030208354, -1498.6844657283386, 0.626, -0.62, 0.534, 192.0, 0.0, 0.0, 0.0, 0.0, 0.0, 0.0, 0.0, 0.0, 0.0, 1.6634968246888266E9, 0.0, 2022-09-18 15:27:04.688
255.0, -9781.615112020387, 8020.63292510902, -40247.26632204847, -16468.988832114796, 3362.0152905005566, -187500.02235174447, -14132.717446412737, -1872.3832812766173, 0.626, -0.62, 0.534, 192.0, 0.0, 0.0, 0.0, 0.0, 0.0, 0.0, 0.0, 0.0, 0.0, 1.6634968246888442E9, 0.0, 2022-09-18 15:27:04.688
0.0, -12821.675875386702, 5578.593084644447, -39818.135180251025, -16238.564698525037, 3518.3657429654295, -187500.02235174447, -13914.98910367359, -1640.3945255749854, 0.626, -0.62, 0.534, 192.0, 0.0, 0.0, 0.0, 0.0, 0.0, 0.0, 0.0, 0.0, 0.0, 1.663496824688862E9, 0.0, 2022-09-18 15:27:04.688
1.0, -12520.083787451244, 5927.07913244714, -39795.58227009562, -16082.795391416, 4234.739152758021, -187500.02235174447, -13697.640740590185, -1400.2697348916215, 0.626, -0.62, 0.534, 192.0, 0.0, 0.0, 0.0, 0.0, 0.0, 0.0, 0.0, 0.0, 0.0, 1.6634968246888793E9, 0.0, 2022-09-18 15:27:04.688
2.0, -10258.578986952185, 7806.324399271536, -40034.58947355622, -16106.309426582984, 4283.242438226037, -187500.02235174447, -13642.70015271904, -1405.1871186717892, 0.626, -0.62, 0.534, 192.0, 0.0, 0.0, 0.0, 0.0, 0.0, 0.0, 0.0, 0.0, 0.0, 1.663496824688897E9, 0.0, 2022-09-18 15:27:04.688
3.0, -7307.992256640466, 10212.981428263358, -40360.142631547766, -16248.220652129728, 4189.968608614041, -187500.02235174447, -13832.77938756697, -1497.253954083199, 0.626, -0.62, 0.534, 192.0, 0.0, 0.0, 0.0, 0.0, 0.0, 0.0, 0.0, 0.0, 0.0, 1.6634968246889143E9, 0.0, 2022-09-18 15:27:04.688
4.0, -9528.906289208686, 8238.070695170247, -40257.3022553089, -16466.64189894699, 3486.5592106055274, -187500.02235174447, -14127.04010332109, -1862.1014788271762, 0.622, -0.618, 0.534, 192.0, 19.0, 112.0, 236.0, 176.0, 16.0, 176.0, 0.0, 0.0, 0.0, 1.6634968246889403E9, 0.0, 2022-09-18 15:27:04.688
5.0, -12751.42434256367, 5629.242137580173, -39837.53649443823, -16267.8901872504, 3529.988650082189, -187500.02235174447, -13935.396246361286, -1679.979465005334, 0.622, -0.618, 0.534, 192.0, 0.0, 0.0, 0.0, 0.0, 0.0, 0.0, 0.0, 0.0, 0.0, 1.66349682468896E9, 0.0, 2022-09-18 15:27:04.688
6.0, -12602.315855302317, 5851.999622821763, -39794.867014273055, -16098.66512997927, 4187.219344046038, -187500.02235174447, -13702.75929007045, -1409.6351158183952, 0.622, -0.618, 0.534, 192.0, 0.0, 0.0, 0.0, 0.0, 0.0, 0.0, 0.0, 0.0, 0.0, 1.663496824689022E9, 0.0, 2022-09-18 15:27:04.689
7.0, -10465.623195841694, 7627.823368051454, -40025.96170019647, -16110.891534196322, 4215.717818226554, -187500.02235174447, -13644.577699253286, -1409.2104326737444, 0.622, -0.618, 0.534, 192.0, 0.0, 0.0, 0.0, 0.0, 0.0, 0.0, 0.0, 0.0, 0.0, 1.6634968246890395E9, 0.0, 2022-09-18 15:27:04.689
8.0, -7374.309882439361, 10162.48883753882, -40345.50223892954, -16224.796023940567, 4191.488527237002, -187500.02235174447, -13809.041834955435, -1460.7088518987719, 0.622, -0.618, 0.534, 192.0, 0.0, 0.0, 0.0, 0.0, 0.0, 0.0, 0.0, 0.0, 0.0, 1.663496824689057E9, 0.0, 2022-09-18 15:27:04.689
9.0, -9350.89699636662, 8391.314255155832, -40278.93874394164, -16459.198768043374, 3432.959727401701, -187500.02235174447, -14120.401635217862, -1846.0305745638102, 0.622, -0.618, 0.534, 192.0, 0.0, 0.0, 0.0, 0.0, 0.0, 0.0, 0.0, 0.0, 0.0, 1.6634968246890745E9, 0.0, 2022-09-18 15:27:04.689
10.0, -12725.563374228881, 5649.895149456876, -39840.442221217425, -16270.907672751866, 3387.362168712875, -187500.02235174447, -13945.722752299638, -1692.1388139890212, 0.622, -0.618, 0.534, 192.0, 0.0, 0.0, 0.0, 0.0, 0.0, 0.0, 0.0, 0.0, 0.0, 1.6634968246890917E9, 0.0, 2022-09-18 15:27:04.689
11.0, -12665.437181644105, 5810.403026390437, -39778.86316524305, -16086.930464140234, 4161.53718966689, -187500.02235174447, -13708.101356995268, -1404.2930488935767, 0.622, -0.618, 0.534, 192.0, 0.0, 0.0, 0.0, 0.0, 0.0, 0.0, 0.0, 0.0, 0.0, 1.6634968246891088E9, 0.0, 2022-09-18 15:27:04.689
12.0, -10640.480892715561, 7496.976256010086, -40001.86651967365, -16104.633045748837, 4218.780007216931, -187500.02235174447, -13640.2191090845, -1413.3455053979762, 0.622, -0.618, 0.534, 192.0, 0.0, 0.0, 0.0, 0.0, 0.0, 0.0, 0.0, 0.0, 0.0, 1.663496824689126E9, 0.0, 2022-09-18 15:27:04.689
13.0, -7452.272767099473, 10117.584182928107, -40326.05622125343, -16209.865058644422, 4207.850004178286, -187500.02235174447, -13783.96317767658, -1448.795372104093, 0.622, -0.618, 0.534, 192.0, 0.0, 0.0, 0.0, 0.0, 0.0, 0.0, 0.0, 0.0, 0.0, 1.6634968246891432E9, 0.0, 2022-09-18 15:27:04.689
14.0, -9139.002458930308, 8578.711280669128, -40298.205947662114, -16457.58944244259, 3472.2093906652203, -187500.02235174447, -14110.969199057723, -1834.1617982580422, 0.622, -0.612, 0.534, 192.0, 19.0, 112.0, 236.0, 224.0, 16.0, 176.0, 0.0, 0.0, 0.0, 1.663496824689161E9, 0.0, 2022-09-18 15:27:04.689
15.0, -12649.79096052539, 5710.155452508385, -39861.13993658304, -16292.007719517676, 3352.001708984579, -187500.02235174447, -13957.457418138674, -1714.3117444886857, 0.622, -0.612, 0.534, 192.0, 0.0, 0.0, 0.0, 0.0, 0.0, 0.0, 0.0, 0.0, 0.0, 1.66349682468918E9, 0.0, 2022-09-18 15:27:04.689
16.0, -12720.847156148811, 5769.074650892574, -39778.639647798496, -16092.451345020694, 4144.1475324806615, -187500.02235174447, -13708.257819206456, -1403.4883860931857, 0.622, -0.612, 0.534, 192.0, 0.0, 0.0, 0.0, 0.0, 0.0, 0.0, 0.0, 0.0, 0.0, 1.6634968246891975E9, 0.0, 2022-09-18 15:27:04.689
17.0, -10811.114109887376, 7357.479018864516, -39996.85972891566, -16109.99746441811, 4219.517614783957, -187500.02235174447, -13646.343487065255, -1417.4135228888422, 0.622, -0.612, 0.534, 192.0, 0.0, 0.0, 0.0, 0.0, 0.0, 0.0, 0.0, 0.0, 0.0, 1.663496824689216E9, 0.0, 2022-09-18 15:27:04.689
18.0, -7544.451361233158, 10044.158702392424, -40311.57229084639, -16205.707634175735, 4224.949088686596, -187500.02235174447, -13769.032212380436, -1442.894511567892, 0.622, -0.612, 0.534, 192.0, 0.0, 0.0, 0.0, 0.0, 0.0, 0.0, 0.0, 0.0, 0.0, 1.6634968246892328E9, 0.0, 2022-09-18 15:27:04.689
19.0, -8924.962154026289, 8758.35225085643, -40310.32059315689, -16456.15893079745, 3527.1276267919097, -187500.02235174447, -14099.50275415215, -1819.6331643620927, 0.622, -0.612, 0.534, 192.0, 0.0, 0.0, 0.0, 0.0, 0.0, 0.0, 0.0, 0.0, 0.0, 1.6634968246892512E9, 0.0, 2022-09-18 15:27:04.689
20.0, -12539.418046405084, 5791.7169680258, -39877.277896079766, -16302.043652778108, 3369.056090003978, -187500.02235174447, -13977.126953259345, -1727.1639975504872, 0.622, -0.612, 0.534, 192.0, 0.0, 0.0, 0.0, 0.0, 0.0, 0.0, 0.0, 0.0, 0.0, 1.6634968246892693E9, 0.0, 2022-09-18 15:27:04.689
21.0, -12752.743095486534, 5734.60826094249, -39766.27913311472, -16089.746783941602, 4159.614939643734, -187500.02235174447, -13719.701912367573, -1410.7750547856158, 0.622, -0.612, 0.534, 192.0, 0.0, 0.0, 0.0, 0.0, 0.0, 0.0, 0.0, 0.0, 0.0, 1.6634968246893015E9, 0.0, 2022-09-18 15:27:04.689
22.0, -10937.468521293225, 7245.362668676695, -39969.702359402465, -16097.413432289772, 4290.149127262727, -187500.02235174447, -13645.158844609125, -1409.6127640739398, 0.622, -0.612, 0.534, 192.0, 0.0, 0.0, 0.0, 0.0, 0.0, 0.0, 0.0, 0.0, 0.0, 1.6634968246893225E9, 0.0, 2022-09-18 15:27:04.689
23.0, -7640.161530990784, 9959.177369973346, -40299.055313951416, -16186.507485688626, 4263.394089149724, -187500.02235174447, -13761.05263960989, -1431.673935851328, 0.622, -0.612, 0.534, 192.0, 0.0, 0.0, 0.0, 0.0, 0.0, 0.0, 0.0, 0.0, 0.0, 1.6634968246893394E9, 0.0, 2022-09-18 15:27:04.689
24.0, -8696.86260185988, 8948.811465360102, -40322.77051481849, -16427.21342172783, 3644.854264838012, -187500.02235174447, -14093.490134893673, -1776.8742772190903, 0.624, -0.622, 0.534, 192.0, 19.0, 128.0, 236.0, 144.0, 16.0, 176.0, 0.0, 0.0, 0.0, 1.6634968246893566E9, 0.0, 2022-09-18 15:27:04.689
25.0, -12410.046149497766, 5886.331902305115, -39898.82497773469, -16300.99312078871, 3419.548680728517, -187500.02235174447, -13993.354319733897, -1736.7305441773588, 0.624, -0.622, 0.534, 192.0, 0.0, 0.0, 0.0, 0.0, 0.0, 0.0, 0.0, 0.0, 0.0, 1.663496824689375E9, 0.0, 2022-09-18 15:27:04.689
26.0, -12803.973293778097, 5680.9417225052985, -39770.391854094494, -16081.409583259772, 4122.041657214362, -187500.02235174447, -13726.563897915352, -1440.0334882776128, 0.624, -0.622, 0.534, 192.0, 0.0, 0.0, 0.0, 0.0, 0.0, 0.0, 0.0, 0.0, 0.0, 1.6634968246893957E9, 0.0, 2022-09-18 15:27:04.689
