%OpenBCI Raw EEG Data
%Number of channels = 8
%Sample Rate = 250 Hz
%Board = OpenBCI_GUI$BoardCytonSerial
Sample Index, EXG Channel 0, EXG Channel 1, EXG Channel 2, EXG Channel 3, EXG Channel 4, EXG Channel 5, EXG Channel 6, EXG Channel 7, Accel Channel 0, Accel Channel 1, Accel Channel 2, Other, Other, Other, Other, Other, Other, Other, Analog Channel 0, Analog Channel 1, Analog Channel 2, Timestamp, Other, Timestamp (Formatted)
176.0, 37221.10834373335, 54644.11433268957, 20183.111153019807, -8039.855425340585, -66924.20743992418, 48893.81514713945, 24168.4048376566, 17274.299833095054, 0.0, 0.0, 0.0, 192.0, 0.0, 0.0, 0.0, 0.0, 0.0, 0.0, 0.0, 0.0, 0.0, 1.66365999601882E9, 0.0, 2022-09-20 12:46:36.018
177.0, 36957.35775916073, 54388.85741100996, 19864.710553253957, -8043.252890497791, -68323.51604980422, 48873.49741142958, 23458.69224771169, 14535.853509408655, 0.0, 0.0, 0.0, 192.0, 0.0, 0.0, 0.0, 0.0, 0.0, 0.0, 0.0, 0.0, 0.0, 1.6636599960188713E9, 0.0, 2022-09-20 12:46:36.018
178.0, 38067.79242370038, 55187.01585376452, 20935.582630107718, -7109.106434477143, -66850.87136636632, 48858.65585311125, 25226.067033537274, 16753.83946345323, 0.0, 0.0, 0.0, 192.0, 0.0, 0.0, 0.0, 0.0, 0.0, 0.0, 0.0, 0.0, 0.0, 1.6636599960189023E9, 0.0, 2022-09-20 12:46:36.018
179.0, 38823.2143310564, 55763.93672990045, 21776.589366983102, -6677.069565900513, -64917.2219535377, 48874.77146086353, 26783.96127032772, 19924.456766182993, 0.0, 0.0, 0.0, 192.0, 0.0, 0.0, 0.0, 0.0, 0.0, 0.0, 0.0, 0.0, 0.0, 1.6636599960189316E9, 0.0, 2022-09-20 12:46:36.018
180.0, 38444.978111383694, 55558.010108233706, 21399.89541767781, -7101.64095182907, -64794.0414898445, 48894.97743785113, 26264.1491012751, 20709.09240354209, 0.0, 0.0, 0.0, 192.0, 0.0, 0.0, 0.0, 0.0, 0.0, 0.0, 0.0, 0.0, 0.0, 1.6636599960189612E9, 0.0, 2022-09-20 12:46:36.018
181.0, 37227.45623915866, 54643.26496640027, 20175.310394204902, -8039.184873006925, -66935.18214645173, 48906.33212403442, 24154.88203226114, 17237.46415823271, 0.0, 0.0, 0.0, 192.0, 0.0, 0.0, 0.0, 0.0, 0.0, 0.0, 0.0, 0.0, 0.0, 1.66365999601899E9, 0.0, 2022-09-20 12:46:36.018
182.0, 36971.68522735658, 54392.09841395598, 19864.956422442963, -8039.341335218112, -68313.10013688805, 48873.11743177383, 23463.319058813937, 14537.21696582043, 0.0, 0.0, 0.0, 192.0, 0.0, 0.0, 0.0, 0.0, 0.0, 0.0, 0.0, 0.0, 0.0, 1.6636599960190187E9, 0.0, 2022-09-20 12:46:36.019
183.0, 38072.374531313726, 55190.88270555529, 20937.326066175232, -7104.859603030634, -66835.76158711452, 48858.78996357798, 25233.823088863264, 16761.327297845757, 0.0, 0.0, 0.0, 192.0, 0.0, 0.0, 0.0, 0.0, 0.0, 0.0, 0.0, 0.0, 0.0, 1.6636599960190487E9, 0.0, 2022-09-20 12:46:36.019
184.0, 38815.77120015278, 55758.08057285316, 21767.49220698979, -6682.121060147412, -64923.99453210766, 48877.878353342814, 26773.16537775581, 19907.603550863692, 0.0, 0.0, 0.0, 192.0, 0.0, 0.0, 0.0, 0.0, 0.0, 0.0, 0.0, 0.0, 0.0, 1.6636599960190783E9, 0.0, 2022-09-20 12:46:36.019
185.0, 38425.84501812995, 55543.19090165984, 21382.684574447227, -7111.431015900495, -64822.048225647006, 48907.91909789075, 26239.96451377446, 20668.345173400066, 0.608, -0.5680000000000001, 0.584, 192.0, 19.0, 0.0, 238.0, 64.0, 18.0, 64.0, 0.0, 0.0, 0.0, 1.663659996019106E9, 0.0, 2022-09-20 12:46:36.019
186.0, 37211.22887268411, 54632.15614940598, 20164.715667333086, -8033.865157826563, -66963.77002761007, 48921.10662711938, 24141.11335767667, 17188.335023919943, 0.608, -0.5680000000000001, 0.584, 192.0, 0.0, 0.0, 0.0, 0.0, 0.0, 0.0, 0.0, 0.0, 0.0, 1.663659996019137E9, 0.0, 2022-09-20 12:46:36.019
187.0, 36976.64731462566, 54397.84281228099, 19876.333460370715, -8013.636829094509, -68311.11083163152, 48884.5391731905, 23482.139227645308, 14530.802015161755, 0.608, -0.5680000000000001, 0.584, 192.0, 0.0, 0.0, 0.0, 0.0, 0.0, 0.0, 0.0, 0.0, 0.0, 1.6636599960191655E9, 0.0, 2022-09-20 12:46:36.019
188.0, 38083.66216226365, 55196.49299341357, 20948.256069213876, -7085.860620243624, -66829.0784155224, 48873.072728284926, 25258.119435086184, 16771.609100295198, 0.608, -0.5680000000000001, 0.584, 192.0, 0.0, 0.0, 0.0, 0.0, 0.0, 0.0, 0.0, 0.0, 0.0, 1.6636599960191934E9, 0.0, 2022-09-20 12:46:36.019
189.0, 38813.82659838517, 55757.83470366415, 21767.715724434343, -6674.812039710527, -64931.75058743365, 48894.2398302841, 26783.78245637208, 19910.46457415397, 0.608, -0.5680000000000001, 0.584, 192.0, 0.0, 0.0, 0.0, 0.0, 0.0, 0.0, 0.0, 0.0, 0.0, 1.6636599960192227E9, 0.0, 2022-09-20 12:46:36.019
190.0, 38417.53016919258, 55546.90129123942, 21377.856597644877, -7106.625390842604, -64838.76733049958, 48917.48564451762, 26240.925638786037, 20662.623126819508, 0.608, -0.5680000000000001, 0.584, 192.0, 0.0, 0.0, 0.0, 0.0, 0.0, 0.0, 0.0, 0.0, 0.0, 1.663659996019252E9, 0.0, 2022-09-20 12:46:36.019
191.0, 37197.728419033105, 54631.46324532786, 20153.003353238506, -8041.978841063838, -66996.64944370383, 48918.357362551375, 24131.993845938905, 17159.63538403933, 0.608, -0.5680000000000001, 0.584, 192.0, 0.0, 0.0, 0.0, 0.0, 0.0, 0.0, 0.0, 0.0, 0.0, 1.6636599960192814E9, 0.0, 2022-09-20 12:46:36.019
192.0, 36974.009808779934, 54404.5930391065, 19873.092457424696, -8019.336523930612, -68333.5296313202, 48882.46046095616, 23489.202378893184, 14537.596945476169, 0.608, -0.5680000000000001, 0.584, 192.0, 0.0, 0.0, 0.0, 0.0, 0.0, 0.0, 0.0, 0.0, 0.0, 1.663659996019674E9, 0.0, 2022-09-20 12:46:36.019
193.0, 38077.13545288271, 55201.812708593934, 20946.95966803547, -7094.711911047925, -66842.62357266231, 48866.90364681526, 25267.931850902063, 16805.60610361172, 0.608, -0.5680000000000001, 0.584, 192.0, 0.0, 0.0, 0.0, 0.0, 0.0, 0.0, 0.0, 0.0, 0.0, 1.6636599960198028E9, 0.0, 2022-09-20 12:46:36.019
194.0, 38797.19690051042, 55754.88427339605, 21758.372695252026, -6689.050100928557, -64950.21312835374, 48888.093100558894, 26780.764970870612, 19940.527670446358, 0.608, -0.5680000000000001, 0.584, 192.0, 0.0, 0.0, 0.0, 0.0, 0.0, 0.0, 0.0, 0.0, 0.0, 1.663659996019846E9, 0.0, 2022-09-20 12:46:36.019
195.0, 38393.18911948075, 55533.84787247752, 21361.025734070034, -7125.154986996054, -64872.80903730501, 48905.88508914532, 26220.60790307616, 20663.606603575543, 0.604, -0.5680000000000001, 0.586, 192.0, 18.0, 224.0, 238.0, 64.0, 18.0, 80.0, 0.0, 0.0, 0.0, 1.6636599960198789E9, 0.0, 2022-09-20 12:46:36.019
196.0, 37169.56522101942, 54616.822852709636, 20139.212326909583, -8053.042954569216, -67036.9272872123, 48917.597403239895, 24112.503124773877, 17141.3963605638, 0.604, -0.5680000000000001, 0.586, 192.0, 0.0, 0.0, 0.0, 0.0, 0.0, 0.0, 0.0, 0.0, 0.0, 1.6636599960199127E9, 0.0, 2022-09-20 12:46:36.019
197.0, 36957.447166138554, 54398.2898471701, 19869.963213200954, -8019.045951252694, -68347.92415474942, 48881.63344641131, 23488.26360562606, 14549.443370037481, 0.604, -0.5680000000000001, 0.586, 192.0, 0.0, 0.0, 0.0, 0.0, 0.0, 0.0, 0.0, 0.0, 0.0, 1.6636599960199456E9, 0.0, 2022-09-20 12:46:36.019
198.0, 38065.71371146604, 55197.275304469505, 20948.501938402886, -7095.114242448121, -66836.23097374808, 48868.58002764941, 25272.87158642669, 16829.81304285682, 0.604, -0.5680000000000001, 0.586, 192.0, 0.0, 0.0, 0.0, 0.0, 0.0, 0.0, 0.0, 0.0, 0.0, 1.663659996020006E9, 0.0, 2022-09-20 12:46:36.020
199.0, 38781.304810202695, 55743.57429070167, 21753.611773683046, -6696.828507999005, -64949.833148697995, 48892.29522851649, 26773.09832252244, 19943.03106582535, 0.604, -0.5680000000000001, 0.586, 192.0, 0.0, 0.0, 0.0, 0.0, 0.0, 0.0, 0.0, 0.0, 0.0, 1.6636599960200331E9, 0.0, 2022-09-20 12:46:36.020
200.0, 38373.09490121542, 55511.54083151113, 21340.775053593523, -7146.612661673148, -64889.05875552401, 48906.980324623626, 26195.819818475225, 20639.89140270846, 0.604, -0.5680000000000001, 0.586, 192.0, 0.0, 0.0, 0.0, 0.0, 0.0, 0.0, 0.0, 0.0, 0.0, 1.6636599960200589E9, 0.0, 2022-09-20 12:46:36.020
201.0, 37159.417529036706, 54595.45458501036, 20115.87710569824, -8074.07594610166, -67048.84076700697, 48917.21742358416, 24087.268005283833, 17108.00285434757, 0.604, -0.5680000000000001, 0.586, 192.0, 0.0, 0.0, 0.0, 0.0, 0.0, 0.0, 0.0, 0.0, 0.0, 1.6636599960200796E9, 0.0, 2022-09-20 12:46:36.020
202.0, 36967.7736720769, 54391.24904766668, 19863.481207308916, -8023.538651888211, -68331.60738129704, 48874.97262656363, 23488.6435852818, 14549.376314804116, 0.604, -0.5680000000000001, 0.586, 192.0, 0.0, 0.0, 0.0, 0.0, 0.0, 0.0, 0.0, 0.0, 0.0, 1.6636599960201004E9, 0.0, 2022-09-20 12:46:36.020
203.0, 38081.181118629116, 55192.91671430072, 20943.00340926688, -7096.835326771179, -66814.97446477109, 48853.202027464155, 25284.606252265723, 16847.023886087405, 0.604, -0.5680000000000001, 0.586, 192.0, 0.0, 0.0, 0.0, 0.0, 0.0, 0.0, 0.0, 0.0, 0.0, 1.6636599960201275E9, 0.0, 2022-09-20 12:46:36.020
204.0, 38791.8548335856, 55742.88138662355, 21742.59236366658, -6699.845993500471, -64934.589258979475, 48870.61403639484, 26777.926299324787, 19966.209824825506, 0.604, -0.5680000000000001, 0.586, 192.0, 0.0, 0.0, 0.0, 0.0, 0.0, 0.0, 0.0, 0.0, 0.0, 1.6636599960201526E9, 0.0, 2022-09-20 12:46:36.020
205.0, 38374.07837797146, 55511.18320359984, 21328.66040809875, -7144.332783738707, -64884.1637234883, 48897.97257160814, 26190.27658585031, 20648.362713857023, 0.6, -0.5660000000000001, 0.588, 192.0, 18.0, 192.0, 238.0, 80.0, 18.0, 96.0, 0.0, 0.0, 0.0, 1.6636599960201845E9, 0.0, 2022-09-20 12:46:36.020
206.0, 37165.18427910618, 54597.019207122234, 20112.63610275222, -8064.934082619439, -67052.1264734419, 48894.12807156183, 24083.1329325596, 17096.447002464178, 0.6, -0.5660000000000001, 0.588, 192.0, 0.0, 0.0, 0.0, 0.0, 0.0, 0.0, 0.0, 0.0, 0.0, 1.6636599960202115E9, 0.0, 2022-09-20 12:46:36.020
207.0, 36973.83099482429, 54393.19364943429, 19868.063314922252, -8015.424968650934, -68325.9747416943, 48855.39249842078, 23498.724222031145, 14570.342251103193, 0.6, -0.5660000000000001, 0.588, 192.0, 0.0, 0.0, 0.0, 0.0, 0.0, 0.0, 0.0, 0.0, 0.0, 1.6636599960202365E9, 0.0, 2022-09-20 12:46:36.020
208.0, 38088.62424953273, 55202.46090918314, 20956.10153151769, -7086.017082454811, -66787.03478420195, 48831.02909696449, 25308.902598488643, 16918.21419217756, 0.6, -0.5660000000000001, 0.588, 192.0, 0.0, 0.0, 0.0, 0.0, 0.0, 0.0, 0.0, 0.0, 0.0, 1.6636599960203996E9, 0.0, 2022-09-20 12:46:36.020
209.0, 38798.359191222095, 55754.75016292932, 21754.282326016706, -6688.51365906163, -64905.19671502075, 48853.202027464155, 26797.7746484011, 20042.406921673646, 0.6, -0.5660000000000001, 0.588, 192.0, 0.0, 0.0, 0.0, 0.0, 0.0, 0.0, 0.0, 0.0, 0.0, 1.663659996020425E9, 0.0, 2022-09-20 12:46:36.020
210.0, 38370.83737502544, 55515.94412516882, 21329.46507089914, -7141.136484281598, -64875.737115828655, 48884.80739412396, 26194.255196363356, 20687.72413584282, 0.6, -0.5660000000000001, 0.588, 192.0, 0.0, 0.0, 0.0, 0.0, 0.0, 0.0, 0.0, 0.0, 0.0, 1.6636599960204504E9, 0.0, 2022-09-20 12:46:36.020
211.0, 37146.09588934134, 54592.16887857543, 20099.560332245866, -8070.879646644551, -67068.91263352784, 48883.17571677872, 24073.745199888373, 17093.988310574092, 0.6, -0.5660000000000001, 0.588, 192.0, 0.0, 0.0, 0.0, 0.0, 0.0, 0.0, 0.0, 0.0, 0.0, 1.6636599960204751E9, 0.0, 2022-09-20 12:46:36.020
212.0, 36972.199317479055, 54400.659132082365, 19866.297527110284, -8004.494965612289, -68320.36445383602, 48850.29630068497, 23507.41905062426, 14594.54919034829, 0.6, -0.5660000000000001, 0.588, 192.0, 0.0, 0.0, 0.0, 0.0, 0.0, 0.0, 0.0, 0.0, 0.0, 1.663659996020501E9, 0.0, 2022-09-20 12:46:36.020
213.0, 38102.10235143928, 55216.94483959018, 20966.517444433863, -7072.382518337074, -66751.67432447366, 48839.14278020177, 25331.43315689959, 16965.666945656176, 0.6, -0.5660000000000001, 0.588, 192.0, 0.0, 0.0, 0.0, 0.0, 0.0, 0.0, 0.0, 0.0, 0.0, 1.6636599960205257E9, 0.0, 2022-09-20 12:46:36.020
214.0, 38808.95391809391, 55758.505255997814, 21754.796416139176, -6686.949036949759, -64875.13361872836, 48864.35554794736, 26803.899026381856, 20067.127951041217, 0.6, -0.5660000000000001, 0.588, 192.0, 0.0, 0.0, 0.0, 0.0, 0.0, 0.0, 0.0, 0.0, 0.0, 1.6636599960205514E9, 0.0, 2022-09-20 12:46:36.020
215.0, 38375.86651752788, 55510.17737509935, 21319.943227761178, -7148.691373907492, -64859.91208075429, 48885.47794645762, 26180.061838634236, 20679.18576946089, 0.604, -0.562, 0.59, 192.0, 18.0, 224.0, 238.0, 112.0, 18.0, 112.0, 0.0, 0.0, 0.0, 1.6636599960205765E9, 0.0, 2022-09-20 12:46:36.020
216.0, 37160.28924707046, 54590.313683785644, 20094.531189743422, -8074.590036224132, -67047.20908966173, 48889.94829534868, 24062.122292771615, 17074.27407196451, 0.604, -0.562, 0.59, 192.0, 0.0, 0.0, 0.0, 0.0, 0.0, 0.0, 0.0, 0.0, 0.0, 1.6636599960206034E9, 0.0, 2022-09-20 12:46:36.020
217.0, 36989.70073338756, 54402.559030361066, 19867.79509398879, -8003.735006300808, -68282.16532256191, 48863.30501595796, 23512.76111754908, 14598.84072528371, 0.604, -0.562, 0.59, 192.0, 0.0, 0.0, 0.0, 0.0, 0.0, 0.0, 0.0, 0.0, 0.0, 1.6636599960206287E9, 0.0, 2022-09-20 12:46:36.020
218.0, 38112.697078311096, 55217.123653545816, 20970.473703202453, -7068.962701435412, -66706.65791114068, 48855.794829820974, 25347.794633840876, 16985.783515665953, 0.604, -0.562, 0.59, 192.0, 0.0, 0.0, 0.0, 0.0, 0.0, 0.0, 0.0, 0.0, 0.0, 1.6636599960206535E9, 0.0, 2022-09-20 12:46:36.020
219.0, 38800.86258660109, 55750.70449718291, 21751.086026559595, -6687.7984032390605, -64847.03747594804, 48878.303036487465, 26808.078802595, 20072.7382388995, 0.604, -0.562, 0.59, 192.0, 0.0, 0.0, 0.0, 0.0, 0.0, 0.0, 0.0, 0.0, 0.0, 1.6636599960206892E9, 0.0, 2022-09-20 12:46:36.020
220.0, 38352.93362771674, 55494.68761619182, 21305.83927700988, -7158.168513556542, -64854.4582551072, 48888.56248719245, 26165.55555648274, 20653.257745892734, 0.604, -0.562, 0.59, 192.0, 0.0, 0.0, 0.0, 0.0, 0.0, 0.0, 0.0, 0.0, 0.0, 1.6636599960207148E9, 0.0, 2022-09-20 12:46:36.020
221.0, 37140.70911892762, 54576.85793362355, 20085.29991928338, -8077.8980944035175, -67048.52784258459, 48889.076577314925, 24052.019304277816, 17026.486042319066, 0.604, -0.562, 0.59, 192.0, 0.0, 0.0, 0.0, 0.0, 0.0, 0.0, 0.0, 0.0, 0.0, 1.6636599960207453E9, 0.0, 2022-09-20 12:46:36.020
222.0, 36990.88537584369, 54404.68244608432, 19873.070105680243, -7997.007131219761, -68264.44038920884, 48864.28849271399, 23524.048748499008, 14581.78634426431, 0.604, -0.562, 0.59, 192.0, 0.0, 0.0, 0.0, 0.0, 0.0, 0.0, 0.0, 0.0, 0.0, 1.663659996020774E9, 0.0, 2022-09-20 12:46:36.020
223.0, 38120.0955057258, 55224.52208096052, 20973.826464870748, -7067.2863206012635, -66683.21093120705, 48856.30891994345, 25359.35048572427, 16986.27525404397, 0.604, -0.562, 0.59, 192.0, 0.0, 0.0, 0.0, 0.0, 0.0, 0.0, 0.0, 0.0, 0.0, 1.663659996020828E9, 0.0, 2022-09-20 12:46:36.020
224.0, 38813.91600536299, 55760.829837421166, 21750.907212603954, -6687.194906138767, -64822.02587390255, 48876.827821353414, 26814.06907010902, 20076.806256390366, 0.604, -0.562, 0.59, 192.0, 0.0, 0.0, 0.0, 0.0, 0.0, 0.0, 0.0, 0.0, 0.0, 1.6636599960208533E9, 0.0, 2022-09-20 12:46:36.020
225.0, 38366.344674389926, 55506.93637215333, 21297.63618679478, -7152.625280931626, -64846.61279280339, 48901.83942339891, 26159.855861646636, 20630.257800848223, 0.608, -0.56, 0.596, 192.0, 19.0, 0.0, 238.0, 128.0, 18.0, 160.0, 0.0, 0.0, 0.0, 1.6636599960208788E9, 0.0, 2022-09-20 12:46:36.020
226.0, 37146.54292423045, 54589.620779707526, 20074.124047055728, -8072.936007134439, -67061.0224677351, 48918.2456038291, 24041.715150083917, 16971.858378870296, 0.608, -0.56, 0.596, 192.0, 0.0, 0.0, 0.0, 0.0, 0.0, 0.0, 0.0, 0.0, 0.0, 1.6636599960209055E9, 0.0, 2022-09-20 12:46:36.020
227.0, 37001.39069573769, 54426.63185913943, 19875.238224892408, -7979.058680422149, -68258.24895599473, 48886.59553368039, 23532.497707903112, 14561.44625680998, 0.608, -0.56, 0.596, 192.0, 0.0, 0.0, 0.0, 0.0, 0.0, 0.0, 0.0, 0.0, 0.0, 1.6636599960209305E9, 0.0, 2022-09-20 12:46:36.020
228.0, 38132.38896517622, 55249.86895917285, 20984.555302209297, -7043.548767989728, -66653.14783491466, 48875.933751575205, 25381.277547034926, 16997.629940227263, 0.608, -0.56, 0.596, 192.0, 0.0, 0.0, 0.0, 0.0, 0.0, 0.0, 0.0, 0.0, 0.0, 1.6636599960209513E9, 0.0, 2022-09-20 12:46:36.020
229.0, 38819.05690658771, 55779.98528241936, 21756.15987255095, -6675.907275188837, -64800.29997829199, 48901.34768502089, 26827.949503415766, 20073.185273788604, 0.608, -0.56, 0.596, 192.0, 0.0, 0.0, 0.0, 0.0, 0.0, 0.0, 0.0, 0.0, 0.0, 1.6636599960209725E9, 0.0, 2022-09-20 12:46:36.020
230.0, 38362.07549119896, 55513.552488512105, 21297.144448416766, -7159.151990312575, -64841.71776076767, 48920.123150363346, 26162.806291914738, 20599.12182082198, 0.608, -0.56, 0.596, 192.0, 0.0, 0.0, 0.0, 0.0, 0.0, 0.0, 0.0, 0.0, 0.0, 1.6636599960209956E9, 0.0, 2022-09-20 12:46:36.020
231.0, 37144.799488162935, 54589.196096562875, 20069.944270842585, -8083.463678772889, -67062.94471775826, 48923.900595176296, 24037.51302212632, 16922.572782346342, 0.608, -0.56, 0.596, 192.0, 0.0, 0.0, 0.0, 0.0, 0.0, 0.0, 0.0, 0.0, 0.0, 1.6636599960210195E9, 0.0, 2022-09-20 12:46:36.021
232.0, 37021.99900412548, 54434.05263829859, 19881.83198950672, -7981.226799634314, -68234.66786559437, 48888.316618003446, 23546.489899932134, 14542.983715889897, 0.608, -0.56, 0.596, 192.0, 0.0, 0.0, 0.0, 0.0, 0.0, 0.0, 0.0, 0.0, 0.0, 1.6636599960210407E9, 0.0, 2022-09-20 12:46:36.021
233.0, 38158.272285255465, 55250.964194651155, 20993.719517435973, -7049.114352359099, -66621.05072987685, 48884.315655745944, 25400.209474588573, 16979.16739930718, 0.608, -0.56, 0.596, 192.0, 0.0, 0.0, 0.0, 0.0, 0.0, 0.0, 0.0, 0.0, 0.0, 1.663659996021062E9, 0.0, 2022-09-20 12:46:36.021
234.0, 38826.902368891526, 55767.62476773558, 21750.39312248148, -6685.630284026895, -64784.31848100645, 48896.74322566309, 26825.759032459144, 20031.521622123913, 0.608, -0.56, 0.596, 192.0, 0.0, 0.0, 0.0, 0.0, 0.0, 0.0, 0.0, 0.0, 0.0, 1.6636599960210843E9, 0.0, 2022-09-20 12:46:36.021
235.0, 38356.71107252969, 55497.03454935963, 21286.348555844852, -7162.080068836221, -64828.194955372215, 48907.20384206818, 26149.104672563633, 20549.143320219915, 0.602, -0.552, 0.59, 192.0, 18.0, 208.0, 238.0, 192.0, 18.0, 112.0, 0.0, 0.0, 0.0, 1.6636599960211055E9, 0.0, 2022-09-20 12:46:36.021
236.0, 37137.49046772605, 54571.91819809892, 20067.39617197468, -8081.519077005277, -67035.40736858932, 48916.59157473941, 24035.65782733653, 16878.71865972503, 0.602, -0.552, 0.59, 192.0, 0.0, 0.0, 0.0, 0.0, 0.0, 0.0, 0.0, 0.0, 0.0, 1.663659996021132E9, 0.0, 2022-09-20 12:46:36.021
237.0, 37019.85323665777, 54418.65228636889, 19887.241111664905, -7978.030500177205, -68189.51734179465, 48890.17181279323, 23563.387818740346, 14530.377332017104, 0.602, -0.552, 0.59, 192.0, 0.0, 0.0, 0.0, 0.0, 0.0, 0.0, 0.0, 0.0, 0.0, 1.6636599960211568E9, 0.0, 2022-09-20 12:46:36.021
238.0, 38152.818459608374, 55234.87093864333, 20992.937206380037, -7053.629404739071, -66580.8622933462, 48881.09700454438, 25412.279416594436, 16973.400649237712, 0.602, -0.552, 0.59, 192.0, 0.0, 0.0, 0.0, 0.0, 0.0, 0.0, 0.0, 0.0, 0.0, 1.6636599960211868E9, 0.0, 2022-09-20 12:46:36.021
239.0, 38817.29111877574, 55750.59273846063, 21744.134634033995, -6696.649694043362, -64751.081437001405, 48904.11930133335, 26829.715291227734, 20025.44194763207, 0.602, -0.552, 0.59, 192.0, 0.0, 0.0, 0.0, 0.0, 0.0, 0.0, 0.0, 0.0, 0.0, 1.663659996021359E9, 0.0, 2022-09-20 12:46:36.021
240.0, 38346.406918335786, 55474.50399094868, 21269.607099247827, -7183.001301646388, -64814.33687380992, 48924.90642367678, 26140.678064903983, 20515.235723881215, 0.602, -0.552, 0.59, 192.0, 0.0, 0.0, 0.0, 0.0, 0.0, 0.0, 0.0, 0.0, 0.0, 1.663659996021392E9, 0.0, 2022-09-20 12:46:36.021
241.0, 37118.670298894685, 54544.71612509682, 20045.62557287521, -8104.116690649592, -67046.40442686134, 48927.58863301142, 24018.089356194658, 16811.909295548117, 0.602, -0.552, 0.59, 192.0, 0.0, 0.0, 0.0, 0.0, 0.0, 0.0, 0.0, 0.0, 0.0, 1.6636599960214243E9, 0.0, 2022-09-20 12:46:36.021
242.0, 37003.82703588332, 54400.927353015824, 19880.446181350493, -7990.279256138713, -68184.04116440311, 48895.17860355123, 23564.214833285194, 14508.383215473083, 0.602, -0.552, 0.59, 192.0, 0.0, 0.0, 0.0, 0.0, 0.0, 0.0, 0.0, 0.0, 0.0, 1.663659996021452E9, 0.0, 2022-09-20 12:46:36.021
243.0, 38140.97203504706, 55224.4326739827, 20994.501828491906, -7063.084192643666, -66557.83999655725, 48882.795737122986, 25422.158887643684, 16995.148896592724, 0.602, -0.552, 0.59, 192.0, 0.0, 0.0, 0.0, 0.0, 0.0, 0.0, 0.0, 0.0, 0.0, 1.663659996021479E9, 0.0, 2022-09-20 12:46:36.021
244.0, 38808.30571750471, 55744.20013954642, 21743.06175030014, -6708.876098260414, -64732.7306548036, 48908.947278135696, 26825.267294081128, 20050.252383977462, 0.602, -0.552, 0.59, 192.0, 0.0, 0.0, 0.0, 0.0, 0.0, 0.0, 0.0, 0.0, 0.0, 1.663659996021505E9, 0.0, 2022-09-20 12:46:36.021
245.0, 38337.376813575844, 55472.849961858985, 21270.30000332594, -7190.779708716836, -64811.36409179737, 48932.79658946951, 26126.372948452587, 20524.891677485906, 0.604, -0.562, 0.59, 192.0, 18.0, 224.0, 238.0, 112.0, 18.0, 112.0, 0.0, 0.0, 0.0, 1.6636599960215323E9, 0.0, 2022-09-20 12:46:36.021
246.0, 37129.220322277586, 54556.31668046912, 20054.49921542397, -8100.294542347735, -67040.05653143603, 48949.06865943297, 24015.027167204284, 16825.47680443249, 0.604, -0.562, 0.59, 192.0, 0.0, 0.0, 0.0, 0.0, 0.0, 0.0, 0.0, 0.0, 0.0, 1.663659996021561E9, 0.0, 2022-09-20 12:46:36.021
247.0, 37047.79291722691, 54431.348077219496, 19906.84359155221, -7960.462029035334, -68149.86534713094, 48913.70819970468, 23590.992223142654, 14565.648384767579, 0.604, -0.562, 0.59, 192.0, 0.0, 0.0, 0.0, 0.0, 0.0, 0.0, 0.0, 0.0, 0.0, 1.6636599960215876E9, 0.0, 2022-09-20 12:46:36.021
248.0, 38194.012724639506, 55260.97777616713, 21027.850631219226, -7022.158148545998, -66509.8955047006, 48893.1892982947, 25461.632068351755, 17065.04280150447, 0.604, -0.562, 0.59, 192.0, 0.0, 0.0, 0.0, 0.0, 0.0, 0.0, 0.0, 0.0, 0.0, 1.6636599960216143E9, 0.0, 2022-09-20 12:46:36.021
249.0, 38853.27742734879, 55784.232113865866, 21773.01308787025, -6666.877170428893, -64693.816267706905, 48920.793702697, 26860.158367175864, 20102.488410769514, 0.604, -0.562, 0.59, 192.0, 0.0, 0.0, 0.0, 0.0, 0.0, 0.0, 0.0, 0.0, 0.0, 1.663659996021641E9, 0.0, 2022-09-20 12:46:36.021
250.0, 38366.23291566764, 55504.96941864126, 21286.035631422477, -7155.888635622101, -64786.28543451851, 48950.20859840019, 26142.89088760506, 20546.908145774385, 0.604, -0.562, 0.59, 192.0, 0.0, 0.0, 0.0, 0.0, 0.0, 0.0, 0.0, 0.0, 0.0, 1.6636599960216684E9, 0.0, 2022-09-20 12:46:36.021
251.0, 37150.90151439924, 54581.931779614904, 20065.87625335172, -8066.2751872867575, -67019.78349921507, 48956.042403703024, 24023.56553358621, 16821.90052531964, 0.604, -0.562, 0.59, 192.0, 0.0, 0.0, 0.0, 0.0, 0.0, 0.0, 0.0, 0.0, 0.0, 1.663659996021696E9, 0.0, 2022-09-20 12:46:36.021
252.0, 37063.17091741216, 54458.21487405478, 19920.32169345876, -7931.784740899175, -68118.21527698223, 48923.63237424283, 23608.828915217986, 14581.853399497677, 0.604, -0.562, 0.59, 192.0, 0.0, 0.0, 0.0, 0.0, 0.0, 0.0, 0.0, 0.0, 0.0, 1.66365999602175E9, 0.0, 2022-09-20 12:46:36.021
253.0, 38204.003954411026, 55284.4024043563, 21039.40648310262, -7008.5235844282615, -66471.5399112153, 48909.95310663618, 25485.74960061903, 17100.939703099695, 0.604, -0.562, 0.59, 192.0, 0.0, 0.0, 0.0, 0.0, 0.0, 0.0, 0.0, 0.0, 0.0, 1.6636599960217888E9, 0.0, 2022-09-20 12:46:36.021
254.0, 38843.88969467756, 55785.88614295556, 21765.055866844163, -6675.728461233194, -64675.510188998014, 48926.49339753311, 26860.22542240923, 20119.296922599904, 0.604, -0.562, 0.59, 192.0, 0.0, 0.0, 0.0, 0.0, 0.0, 0.0, 0.0, 0.0, 0.0, 1.6636599960219927E9, 0.0, 2022-09-20 12:46:36.021
255.0, 38349.469107326164, 55495.49227899221, 21268.757732958526, -7168.56207472826, -64789.30292001998, 48947.07935417645, 26123.55662865122, 20532.20069792279, 0.604, -0.5680000000000001, 0.592, 192.0, 18.0, 224.0, 238.0, 64.0, 18.0, 128.0, 0.0, 0.0, 0.0, 1.6636599960220475E9, 0.0, 2022-09-20 12:46:36.022
0.0, 37138.5633514599, 54576.053270823155, 20052.21933748953, -8070.633777455542, -67035.0720924225, 48964.580770084955, 24004.23127463237, 16787.03180396936, 0.604, -0.5680000000000001, 0.592, 192.0, 0.0, 0.0, 0.0, 0.0, 0.0, 0.0, 0.0, 0.0, 0.0, 1.6636599960220804E9, 0.0, 2022-09-20 12:46:36.022
1.0, 37072.33513263883, 54471.1565340944, 19927.04956853981, -7914.439787201856, -68107.30762568803, 48935.97053718216, 23617.479040322192, 14596.404385138081, 0.604, -0.5680000000000001, 0.592, 192.0, 0.0, 0.0, 0.0, 0.0, 0.0, 0.0, 0.0, 0.0, 0.0, 1.6636599960221114E9, 0.0, 2022-09-20 12:46:36.022
2.0, 38217.72792550659, 55304.94365751072, 21054.40450363213, -6983.176706215943, -66436.02298927582, 48921.68777247522, 25507.274330529493, 17157.936651460728, 0.604, -0.5680000000000001, 0.592, 192.0, 0.0, 0.0, 0.0, 0.0, 0.0, 0.0, 0.0, 0.0, 0.0, 1.6636599960221424E9, 0.0, 2022-09-20 12:46:36.022
3.0, 38858.30656985123, 55811.076558956694, 21779.629204229022, -6644.190149806756, -64640.7085228811, 48938.54098779452, 26876.13986446141, 20182.217083241594, 0.604, -0.5680000000000001, 0.592, 192.0, 0.0, 0.0, 0.0, 0.0, 0.0, 0.0, 0.0, 0.0, 0.0, 1.6636599960221741E9, 0.0, 2022-09-20 12:46:36.022
4.0, 38352.77716550555, 55512.65841873389, 21269.093009125354, -7153.4522954764725, -64788.610015941864, 48968.51467710909, 26116.78405008126, 20550.26090744268, 0.604, -0.5680000000000001, 0.592, 192.0, 0.0, 0.0, 0.0, 0.0, 0.0, 0.0, 0.0, 0.0, 0.0, 1.6636599960222063E9, 0.0, 2022-09-20 12:46:36.022
5.0, 37140.73147067207, 54584.658692438454, 20044.418578674624, -8066.632815198042, -67056.55211884405, 48970.0569474765, 23993.211864615903, 16776.437077097544, 0.604, -0.5680000000000001, 0.592, 192.0, 0.0, 0.0, 0.0, 0.0, 0.0, 0.0, 0.0, 0.0, 0.0, 1.6636599960222373E9, 0.0, 2022-09-20 12:46:36.022
6.0, 37084.58388860034, 54480.38780455444, 19924.52382141636, -7909.4329964438675, -68116.09186125897, 48931.20961561318, 23623.469307836214, 14613.592876624212, 0.604, -0.5680000000000001, 0.592, 192.0, 0.0, 0.0, 0.0, 0.0, 0.0, 0.0, 0.0, 0.0, 0.0, 1.6636599960222783E9, 0.0, 2022-09-20 12:46:36.022
7.0, 38235.34110013737, 55316.052474505006, 21060.081846723777, -6976.582941601628, -66424.24361994787, 48924.05705738748, 25527.010920883527, 17196.895742046327, 0.604, -0.5680000000000001, 0.592, 192.0, 0.0, 0.0, 0.0, 0.0, 0.0, 0.0, 0.0, 0.0, 0.0, 1.6636599960223124E9, 0.0, 2022-09-20 12:46:36.022
8.0, 38867.26961937781, 55812.28355315728, 21778.73513445081, -6651.0521353545355, -64624.79408082892, 48946.00647044259, 26886.22050121075, 20206.692243420155, 0.604, -0.5680000000000001, 0.592, 192.0, 0.0, 0.0, 0.0, 0.0, 0.0, 0.0, 0.0, 0.0, 0.0, 1.6636599960223467E9, 0.0, 2022-09-20 12:46:36.022
9.0, 38356.822831251964, 55505.46115701928, 21264.130921856275, -7164.717574681947, -64772.09207678939, 48967.46414511969, 26114.995910524834, 20551.06557024307, 0.594, -0.5660000000000001, 0.59, 192.0, 18.0, 144.0, 238.0, 80.0, 18.0, 112.0, 0.0, 0.0, 0.0, 1.6636599960223813E9, 0.0, 2022-09-20 12:46:36.022
10.0, 37141.0667468389, 54573.41576497743, 20043.904488552154, -8071.527847233755, -67026.91370569631, 48971.085127721446, 23992.720126237888, 16765.32826010326, 0.594, -0.5660000000000001, 0.59, 192.0, 0.0, 0.0, 0.0, 0.0, 0.0, 0.0, 0.0, 0.0, 0.0, 1.66365999602242E9, 0.0, 2022-09-20 12:46:36.022
11.0, 37096.81029281739, 54475.805696941105, 19933.017484309374, -7906.281400475669, -68055.47393029618, 48932.126037135844, 23637.707369054246, 14628.859118087188, 0.594, -0.5660000000000001, 0.59, 192.0, 0.0, 0.0, 0.0, 0.0, 0.0, 0.0, 0.0, 0.0, 0.0, 1.6636599960224545E9, 0.0, 2022-09-20 12:46:36.022
12.0, 38252.64135034577, 55311.24684944712, 21068.575509616796, -6973.2525316777865, -66352.85214815762, 48922.82771144244, 25543.439453058178, 17219.716873135196, 0.594, -0.5660000000000001, 0.59, 192.0, 0.0, 0.0, 0.0, 0.0, 0.0, 0.0, 0.0, 0.0, 0.0, 1.6636599960224926E9, 0.0, 2022-09-20 12:46:36.022
13.0, 38880.32303813971, 55804.39338736456, 21779.60685248457, -6649.241644053655, -64563.88557718821, 48947.235816387634, 26887.40514366688, 20215.744699924555, 0.594, -0.5660000000000001, 0.59, 192.0, 0.0, 0.0, 0.0, 0.0, 0.0, 0.0, 0.0, 0.0, 0.0, 1.6636599960225277E9, 0.0, 2022-09-20 12:46:36.022
14.0, 38360.73438653164, 55495.715796436765, 21255.480796752072, -7165.790458415802, -64724.10288144385, 48972.42623238877, 26101.137828962546, 20536.26871541366, 0.594, -0.5660000000000001, 0.59, 192.0, 0.0, 0.0, 0.0, 0.0, 0.0, 0.0, 0.0, 0.0, 0.0, 1.6636599960226605E9, 0.0, 2022-09-20 12:46:36.022
15.0, 37138.853924137824, 54562.84338985007, 20033.555630869345, -8068.800934410207, -66992.87199889089, 48979.55643887001, 23971.709486449898, 16721.11650957066, 0.594, -0.5660000000000001, 0.59, 192.0, 0.0, 0.0, 0.0, 0.0, 0.0, 0.0, 0.0, 0.0, 0.0, 1.6636599960226984E9, 0.0, 2022-09-20 12:46:36.022
16.0, 37113.685859881145, 54489.999054670225, 19947.546118205326, -7872.418507625879, -67994.16309525527, 48943.25720587459, 23649.218517448728, 14629.70848437649, 0.594, -0.5660000000000001, 0.59, 192.0, 0.0, 0.0, 0.0, 0.0, 0.0, 0.0, 0.0, 0.0, 0.0, 1.6636599960227878E9, 0.0, 2022-09-20 12:46:36.022
17.0, 38276.96004831315, 55336.2137480037, 21094.70469888505, -6933.555833525162, -66267.80376050518, 48918.11149336237, 25572.653183061266, 17264.733286468185, 0.594, -0.5660000000000001, 0.59, 192.0, 0.0, 0.0, 0.0, 0.0, 0.0, 0.0, 0.0, 0.0, 0.0, 1.6636599960228217E9, 0.0, 2022-09-20 12:46:36.022
18.0, 38892.41533189003, 55815.681018314484, 21793.263768346762, -6630.957917089215, -64489.85659955223, 48936.30581334899, 26902.626681640948, 20256.313116110938, 0.594, -0.5660000000000001, 0.59, 192.0, 0.0, 0.0, 0.0, 0.0, 0.0, 0.0, 0.0, 0.0, 0.0, 1.6636599960228555E9, 0.0, 2022-09-20 12:46:36.022
19.0, 38358.007473708094, 55491.71483417926, 21258.051247364434, -7162.772972914336, -64685.23319783607, 48959.01518571558, 26096.846294027127, 20534.3464653905, 0.6, -0.5700000000000001, 0.59, 192.0, 18.0, 192.0, 238.0, 48.0, 18.0, 112.0, 0.0, 0.0, 0.0, 1.6636599960228877E9, 0.0, 2022-09-20 12:46:36.022
20.0, 37145.00065386303, 54561.50228518275, 20039.322380938815, -8068.68917568793, -66977.33753649444, 48961.920912494774, 23969.764884682285, 16696.462535436458, 0.6, -0.5700000000000001, 0.59, 192.0, 0.0, 0.0, 0.0, 0.0, 0.0, 0.0, 0.0, 0.0, 0.0, 1.6636599960229204E9, 0.0, 2022-09-20 12:46:36.022
21.0, 37123.900607097225, 54480.92424642137, 19948.976629850466, -7885.874257787974, -67990.56446439796, 48922.47008353115, 23649.129110470905, 14621.46069067248, 0.6, -0.5700000000000001, 0.59, 192.0, 0.0, 0.0, 0.0, 0.0, 0.0, 0.0, 0.0, 0.0, 0.0, 1.6636599960229511E9, 0.0, 2022-09-20 12:46:36.022
22.0, 38275.19426050118, 55311.82799480295, 21083.66293712413, -6966.256435663276, -66284.2993479132, 48915.518691005556, 25559.979743955108, 17250.56228048352, 0.6, -0.5700000000000001, 0.59, 192.0, 0.0, 0.0, 0.0, 0.0, 0.0, 0.0, 0.0, 0.0, 0.0, 1.6636599960229836E9, 0.0, 2022-09-20 12:46:36.022
23.0, 38872.74579676936, 55785.215590621905, 21772.63310821451, -6671.906312931337, -64532.70489367306, 48926.4486940442, 26871.84832952599, 20214.940037124165, 0.6, -0.5700000000000001, 0.59, 192.0, 0.0, 0.0, 0.0, 0.0, 0.0, 0.0, 0.0, 0.0, 0.0, 1.6636599960230215E9, 0.0, 2022-09-20 12:46:36.023
24.0, 38335.007528663584, 55464.64687164389, 21235.453633720117, -7199.7651099878685, -64739.50323337356, 48952.80140075701, 26062.022276165757, 20481.61870022043, 0.6, -0.5700000000000001, 0.59, 192.0, 0.0, 0.0, 0.0, 0.0, 0.0, 0.0, 0.0, 0.0, 0.0, 1.6636599960230625E9, 0.0, 2022-09-20 12:46:36.023
25.0, 37126.761630387504, 54539.776389572195, 20020.97159874101, -8097.142946379537, -67032.68045576579, 48956.958825225694, 23940.417044212467, 16641.745465009866, 0.6, -0.5700000000000001, 0.59, 192.0, 0.0, 0.0, 0.0, 0.0, 0.0, 0.0, 0.0, 0.0, 0.0, 1.6636599960231135E9, 0.0, 2022-09-20 12:46:36.023
26.0, 37105.57217664387, 54466.21679856978, 19940.281801257348, -7906.773138853686, -68031.46815675117, 48914.75873169408, 23637.170927187315, 14590.659986813067, 0.6, -0.5700000000000001, 0.59, 192.0, 0.0, 0.0, 0.0, 0.0, 0.0, 0.0, 0.0, 0.0, 0.0, 1.6636599960231607E9, 0.0, 2022-09-20 12:46:36.023
27.0, 38255.54707712497, 55300.674474319756, 21082.254777223443, -6982.103822482089, -66314.74242386132, 48899.64895244229, 25560.359723610847, 17228.858736617414, 0.6, -0.5700000000000001, 0.59, 192.0, 0.0, 0.0, 0.0, 0.0, 0.0, 0.0, 0.0, 0.0, 0.0, 1.6636599960232072E9, 0.0, 2022-09-20 12:46:36.023
28.0, 38855.0208634163, 55772.51979977129, 21767.559262223156, -6682.076356658502, -64571.35105983628, 48916.92685090624, 26863.30996314406, 20184.876940831775, 0.6, -0.5700000000000001, 0.59, 192.0, 0.0, 0.0, 0.0, 0.0, 0.0, 0.0, 0.0, 0.0, 0.0, 1.66365999602325E9, 0.0, 2022-09-20 12:46:36.023
29.0, 38309.75005742908, 55448.374801680424, 21224.30011323692, -7212.416197349572, -64792.029832843524, 48936.328165093444, 26037.3459502871, 20426.789871071564, 0.594, -0.5760000000000001, 0.588, 192.0, 18.0, 144.0, 238.0, 0.0, 18.0, 96.0, 0.0, 0.0, 0.0, 1.6636599960233953E9, 0.0, 2022-09-20 12:46:36.023
30.0, 37099.716019596584, 54526.16417719891, 20013.7743370264, -8107.961190695905, -67085.67644186932, 48942.8548744744, 23916.50067764529, 16570.935138575453, 0.594, -0.5760000000000001, 0.588, 192.0, 0.0, 0.0, 0.0, 0.0, 0.0, 0.0, 0.0, 0.0, 0.0, 1.6636599960234473E9, 0.0, 2022-09-20 12:46:36.023
31.0, 37100.49833065252, 54468.27315905967, 19950.563603706792, -7902.995694040739, -68058.82669196448, 48906.2427170566, 23634.86869750842, 14553.64549799508, 0.594, -0.5760000000000001, 0.588, 192.0, 0.0, 0.0, 0.0, 0.0, 0.0, 0.0, 0.0, 0.0, 0.0, 1.663659996023497E9, 0.0, 2022-09-20 12:46:36.023
32.0, 38258.20693471515, 55309.92809652425, 21096.828114608303, -6972.783145044225, -66328.37698797906, 48906.93562113472, 25563.198395156673, 17216.609980655907, 0.594, -0.5760000000000001, 0.588, 192.0, 0.0, 0.0, 0.0, 0.0, 0.0, 0.0, 0.0, 0.0, 0.0, 1.6636599960235825E9, 0.0, 2022-09-20 12:46:36.023
33.0, 38854.864401205115, 55785.88614295556, 21778.891596661997, -6673.716804232216, -64583.018670441954, 48931.231967357635, 26857.7890822636, 20175.645670371734, 0.594, -0.5760000000000001, 0.588, 192.0, 0.0, 0.0, 0.0, 0.0, 0.0, 0.0, 0.0, 0.0, 0.0, 1.6636599960236259E9, 0.0, 2022-09-20 12:46:36.023
34.0, 38309.30302253998, 55456.421429684335, 21230.044511561933, -7210.024560692855, -64811.92288540875, 48948.286348377034, 26023.91255186946, 20397.50908583511, 0.594, -0.5760000000000001, 0.588, 192.0, 0.0, 0.0, 0.0, 0.0, 0.0, 0.0, 0.0, 0.0, 0.0, 1.6636599960236673E9, 0.0, 2022-09-20 12:46:36.023
35.0, 37103.49346440953, 54529.11460746701, 20017.954113239542, -8109.726978507874, -67111.6938724153, 48952.08614493444, 23904.09545947259, 16524.84584150861, 0.594, -0.5760000000000001, 0.588, 192.0, 0.0, 0.0, 0.0, 0.0, 0.0, 0.0, 0.0, 0.0, 0.0, 1.6636599960237212E9, 0.0, 2022-09-20 12:46:36.023
36.0, 37114.19995000362, 54478.21968534228, 19966.23217656996, -7898.614752127499, -68058.02202916409, 48915.63044972783, 23644.435244135293, 14555.07600964022, 0.594, -0.5760000000000001, 0.588, 192.0, 0.0, 0.0, 0.0, 0.0, 0.0, 0.0, 0.0, 0.0, 0.0, 1.6636599960237613E9, 0.0, 2022-09-20 12:46:36.023
37.0, 38269.20399298716, 55322.556832141505, 21116.765870662435, -6967.172857185943, -66309.75798484779, 48904.25341180008, 25579.179892442215, 17240.92867862328, 0.594, -0.5760000000000001, 0.588, 192.0, 0.0, 0.0, 0.0, 0.0, 0.0, 0.0, 0.0, 0.0, 0.0, 1.663659996023818E9, 0.0, 2022-09-20 12:46:36.023
38.0, 38859.960598940925, 55794.55861980422, 21797.06356490416, -6668.1288681183905, -64565.45019930008, 48925.085237632426, 26867.26622191265, 20196.991586326552, 0.594, -0.5760000000000001, 0.588, 192.0, 0.0, 0.0, 0.0, 0.0, 0.0, 0.0, 0.0, 0.0, 0.0, 1.6636599960238688E9, 0.0, 2022-09-20 12:46:36.023
39.0, 38314.57803423143, 55465.92092107784, 21245.735436169558, -7200.301551854796, -64807.81016442897, 48949.4039355998, 26020.984473345816, 20402.22530391518, 0.594, -0.5760000000000001, 0.588, 192.0, 0.0, 0.0, 0.0, 0.0, 0.0, 0.0, 0.0, 0.0, 0.0, 1.6636599960239153E9, 0.0, 2022-09-20 12:46:36.023
40.0, 37117.597415160824, 54549.342936199064, 20042.33986644028, -8085.542391007232, -67104.56366593405, 48951.90733097879, 23909.07989848613, 16534.233574179838, 0.598, -0.5740000000000001, 0.586, 192.0, 18.0, 176.0, 238.0, 16.0, 18.0, 80.0, 0.0, 0.0, 0.0, 1.663659996023962E9, 0.0, 2022-09-20 12:46:36.023
41.0, 37136.43993573665, 54505.77938625567, 19999.670386275102, -7867.277606401159, -68031.82578466246, 48903.18052806622, 23665.714104856743, 14597.499620616392, 0.598, -0.5740000000000001, 0.586, 192.0, 0.0, 0.0, 0.0, 0.0, 0.0, 0.0, 0.0, 0.0, 0.0, 1.6636599960240197E9, 0.0, 2022-09-20 12:46:36.024
42.0, 38286.05720830646, 55344.32743124097, 21148.035961155412, -6943.301194107676, -66286.93685375892, 48880.78408012201, 25596.949529284186, 17284.84985647796, 0.598, -0.5740000000000001, 0.586, 192.0, 0.0, 0.0, 0.0, 0.0, 0.0, 0.0, 0.0, 0.0, 0.0, 1.6636599960240717E9, 0.0, 2022-09-20 12:46:36.024
43.0, 38861.92755245299, 55808.5731635777, 21813.000358700796, -6654.0472691115465, -64564.93610917761, 48876.47019344213, 26866.752131790177, 20224.81950817341, 0.598, -0.5740000000000001, 0.586, 192.0, 0.0, 0.0, 0.0, 0.0, 0.0, 0.0, 0.0, 0.0, 0.0, 1.6636599960241077E9, 0.0, 2022-09-20 12:46:36.024
0.0, 0.0, 0.0, 0.0, 0.0, 0.0, 0.0, 0.0, 0.0, 0.61, -0.5660000000000001, 0.592, 192.0, 19.0, 16.0, 238.0, 80.0, 18.0, 128.0, 0.0, 0.0, 0.0, 1.6636599960927556E9, 0.0, 2022-09-20 12:46:36.092
1.0, 28187.71787735437, 51332.412818957906, 18029.81114742889, -8317.709960664506, -40874.05394006419, 45849.842828493456, 23467.16355886025, 13744.557052201873, 0.61, -0.5660000000000001, 0.592, 192.0, 0.0, 0.0, 0.0, 0.0, 0.0, 0.0, 0.0, 0.0, 0.0, 1.6636599961087668E9, 0.0, 2022-09-20 12:46:36.108
2.0, 28036.485974369763, 51293.36432139449, 17818.743624537423, -8581.594655703862, -40395.860719187345, 45866.338415901475, 23176.05443907433, 14926.517298998511, 0.61, -0.5660000000000001, 0.592, 192.0, 0.0, 0.0, 0.0, 0.0, 0.0, 0.0, 0.0, 0.0, 0.0, 1.663659996586988E9, 0.0, 2022-09-20 12:46:36.586
3.0, 26911.321510234062, 50442.545168703225, 16724.312809027768, -9390.012549163408, -42275.88829706768, 45883.75042483216, 21336.952905291666, 11997.477650341709, 0.61, -0.5660000000000001, 0.592, 192.0, 0.0, 0.0, 0.0, 0.0, 0.0, 0.0, 0.0, 0.0, 0.0, 1.6636599965871289E9, 0.0, 2022-09-20 12:46:36.587
4.0, 26386.167274256622, 49976.08661366542, 16277.300271666083, -9557.6059290893, -43984.67916067591, 45858.04591870856, 20493.018089892637, 8864.344223063496, 0.61, -0.5660000000000001, 0.592, 192.0, 0.0, 0.0, 0.0, 0.0, 0.0, 0.0, 0.0, 0.0, 0.0, 1.6636599965872056E9, 0.0, 2022-09-20 12:46:36.587
5.0, 27305.762744636864, 50651.31046191579, 17181.383631394343, -8789.711748327225, -42827.64110894693, 45836.02945042008, 21970.669564088534, 10585.361490888774, 0.61, -0.5660000000000001, 0.592, 192.0, 0.0, 0.0, 0.0, 0.0, 0.0, 0.0, 0.0, 0.0, 0.0, 1.6636599965872464E9, 0.0, 2022-09-20 12:46:36.587
6.0, 28193.037592534733, 51333.77627536968, 18046.53025228146, -8322.873213633682, -40780.69070347437, 45850.44632559375, 23487.83892248141, 13769.993337392014, 0.61, -0.5660000000000001, 0.592, 192.0, 0.0, 0.0, 0.0, 0.0, 0.0, 0.0, 0.0, 0.0, 0.0, 1.6636599965872808E9, 0.0, 2022-09-20 12:46:36.587
7.0, 28033.73670980176, 51291.53147834915, 17822.29755190582, -8590.691815697171, -40323.083439240865, 45880.822346308516, 23174.333354751274, 14903.360891742814, 0.61, -0.5660000000000001, 0.592, 192.0, 0.0, 0.0, 0.0, 0.0, 0.0, 0.0, 0.0, 0.0, 0.0, 1.6636599965873125E9, 0.0, 2022-09-20 12:46:36.587
8.0, 26898.536312405624, 50437.583081434146, 16721.854117137686, -9396.405148077625, -42230.916587223604, 45910.95249783427, 21324.32416967442, 11909.277666721067, 0.61, -0.5640000000000001, 0.584, 192.0, 19.0, 16.0, 238.0, 96.0, 18.0, 64.0, 0.0, 0.0, 0.0, 1.6636599965873427E9, 0.0, 2022-09-20 12:46:36.587
9.0, 26388.670669635616, 49984.11088992487, 16287.269149693151, -9549.022859218461, -43912.84065399655, 45872.775718304605, 20511.704148257275, 8826.078036556011, 0.61, -0.5640000000000001, 0.584, 192.0, 0.0, 0.0, 0.0, 0.0, 0.0, 0.0, 0.0, 0.0, 0.0, 1.6636599965873735E9, 0.0, 2022-09-20 12:46:36.587
10.0, 27334.618846728667, 50677.95374130652, 17201.991939782136, -8774.937245242269, -42719.793941950076, 45847.89822672585, 22009.494544207402, 10595.598589849305, 0.61, -0.5640000000000001, 0.584, 192.0, 0.0, 0.0, 0.0, 0.0, 0.0, 0.0, 0.0, 0.0, 0.0, 1.6636599965874023E9, 0.0, 2022-09-20 12:46:36.587
11.0, 28201.218331005377, 51348.50607496573, 18046.373790070273, -8321.867385133193, -40689.42853086335, 45862.158639688336, 23498.12072493085, 13754.011840106468, 0.61, -0.5640000000000001, 0.584, 192.0, 0.0, 0.0, 0.0, 0.0, 0.0, 0.0, 0.0, 0.0, 0.0, 1.663659996587432E9, 0.0, 2022-09-20 12:46:36.587
12.0, 28022.538485829653, 51291.509126604695, 17802.359795851684, -8605.063987381935, -40262.286694322436, 45877.42488115131, 23153.8144533413, 14849.917870750174, 0.61, -0.5640000000000001, 0.584, 192.0, 0.0, 0.0, 0.0, 0.0, 0.0, 0.0, 0.0, 0.0, 0.0, 1.663659996587469E9, 0.0, 2022-09-20 12:46:36.587
13.0, 26883.56064362057, 50427.61420340708, 16697.624826148134, -9417.549898332345, -42182.92739187806, 45881.157622475344, 21301.391279863274, 11830.286601816011, 0.61, -0.5640000000000001, 0.584, 192.0, 0.0, 0.0, 0.0, 0.0, 0.0, 0.0, 0.0, 0.0, 0.0, 1.6636599965874972E9, 0.0, 2022-09-20 12:46:36.587
14.0, 26389.721201625016, 49986.36841611486, 16283.22348394674, -9558.857626778798, -43830.921510567845, 45860.88459025438, 20521.382453606424, 8809.023655536612, 0.61, -0.5640000000000001, 0.584, 192.0, 0.0, 0.0, 0.0, 0.0, 0.0, 0.0, 0.0, 0.0, 0.0, 1.6636599965875297E9, 0.0, 2022-09-20 12:46:36.587
15.0, 27334.64119847312, 50683.787546609354, 17208.92098056328, -8782.134506956876, -42614.47252207667, 45836.208264375724, 22034.416739275068, 10626.332238475352, 0.61, -0.5640000000000001, 0.584, 192.0, 0.0, 0.0, 0.0, 0.0, 0.0, 0.0, 0.0, 0.0, 0.0, 1.6636599965875573E9, 0.0, 2022-09-20 12:46:36.587
16.0, 28196.256243736298, 51349.35544125503, 18045.926755181164, -8332.953850383026, -40602.92727982131, 45843.56198830152, 23507.84373376891, 13776.788267706426, 0.61, -0.5640000000000001, 0.584, 192.0, 0.0, 0.0, 0.0, 0.0, 0.0, 0.0, 0.0, 0.0, 0.0, 1.6636599965875843E9, 0.0, 2022-09-20 12:46:36.587
17.0, 28009.328604856564, 51284.13305093444, 17787.697051489, -8621.336057345397, -40216.46561818905, 45871.993407248665, 23136.782424066358, 14832.79643449741, 0.61, -0.5640000000000001, 0.584, 192.0, 0.0, 0.0, 0.0, 0.0, 0.0, 0.0, 0.0, 0.0, 0.0, 1.6636599965876596E9, 0.0, 2022-09-20 12:46:36.587
18.0, 26868.22734692423, 50416.5500899017, 16681.285700951303, -9429.061046726829, -42169.739862649425, 45888.5336981456, 21277.318451084906, 11764.147789972758, 0.61, -0.56, 0.586, 192.0, 19.0, 16.0, 238.0, 128.0, 18.0, 80.0, 0.0, 0.0, 0.0, 1.6636599965877051E9, 0.0, 2022-09-20 12:46:36.587
19.0, 26400.07005930782, 49994.52680284105, 16291.918312539854, -9545.357173127792, -43789.056693203056, 45860.37050013191, 20535.978142735737, 8802.228725222198, 0.61, -0.56, 0.586, 192.0, 0.0, 0.0, 0.0, 0.0, 0.0, 0.0, 0.0, 0.0, 0.0, 1.6636599965877342E9, 0.0, 2022-09-20 12:46:36.587
20.0, 27357.730550495453, 50698.89732586114, 17225.72949239367, -8764.275463137086, -42543.63984389781, 45843.94196795726, 22070.51480657039, 10682.770393225002, 0.61, -0.56, 0.586, 192.0, 0.0, 0.0, 0.0, 0.0, 0.0, 0.0, 0.0, 0.0, 0.0, 1.6636599965877614E9, 0.0, 2022-09-20 12:46:36.587
21.0, 28203.72172638437, 51354.697508179845, 18047.91606043769, -8327.656486947119, -40545.86327622691, 45857.75534603064, 23519.93602751923, 13823.92809676267, 0.61, -0.56, 0.586, 192.0, 0.0, 0.0, 0.0, 0.0, 0.0, 0.0, 0.0, 0.0, 0.0, 1.6636599965877943E9, 0.0, 2022-09-20 12:46:36.587
22.0, 27996.811627961593, 51278.43335609834, 17775.872978672145, -8625.672295769727, -40190.62700159872, 45878.81068930754, 23120.309188402796, 14829.466024573569, 0.61, -0.56, 0.586, 192.0, 0.0, 0.0, 0.0, 0.0, 0.0, 0.0, 0.0, 0.0, 0.0, 1.6636599965878215E9, 0.0, 2022-09-20 12:46:36.587
23.0, 26849.876564726423, 50408.43640666443, 16667.606433344656, -9437.957041020041, -42167.214115525974, 45890.50065165766, 21253.469139751094, 11704.60274274382, 0.61, -0.56, 0.586, 192.0, 0.0, 0.0, 0.0, 0.0, 0.0, 0.0, 0.0, 0.0, 0.0, 1.663659996587849E9, 0.0, 2022-09-20 12:46:36.587
24.0, 26408.161390800644, 50005.83678553543, 16298.757946343178, -9538.405780602192, -43746.09664035996, 45857.375366374894, 20550.663238842873, 8810.208297992742, 0.61, -0.56, 0.586, 192.0, 0.0, 0.0, 0.0, 0.0, 0.0, 0.0, 0.0, 0.0, 0.0, 1.663659996587876E9, 0.0, 2022-09-20 12:46:36.587
25.0, 27383.680925808065, 50725.115922107216, 17241.50982397912, -8752.384335086863, -42460.8713341798, 45838.15286614333, 22102.23193195247, 10743.209510232153, 0.61, -0.56, 0.586, 192.0, 0.0, 0.0, 0.0, 0.0, 0.0, 0.0, 0.0, 0.0, 0.0, 1.663659996587903E9, 0.0, 2022-09-20 12:46:36.587
26.0, 28220.284369025754, 51374.54585725616, 18054.398066329726, -8321.97914385547, -40467.162783999775, 45853.88849423987, 23530.776623580055, 13861.36726872531, 0.61, -0.56, 0.586, 192.0, 0.0, 0.0, 0.0, 0.0, 0.0, 0.0, 0.0, 0.0, 0.0, 1.6636599965879352E9, 0.0, 2022-09-20 12:46:36.587
27.0, 27989.212034846787, 51273.06893742907, 17758.32685927473, -8634.903566229768, -40146.929341188596, 45874.18387820529, 23099.63382478164, 14809.394158052703, 0.61, -0.56, 0.586, 192.0, 0.0, 0.0, 0.0, 0.0, 0.0, 0.0, 0.0, 0.0, 0.0, 1.6636599965879624E9, 0.0, 2022-09-20 12:46:36.587
28.0, 26834.476212796715, 50389.54918259969, 16646.640497045577, -9445.221357968016, -42142.22486522495, 45886.0303027666, 21230.44684296213, 11640.810864068373, 0.606, -0.56, 0.588, 192.0, 18.0, 240.0, 238.0, 128.0, 18.0, 96.0, 0.0, 0.0, 0.0, 1.6636599965879893E9, 0.0, 2022-09-20 12:46:36.587
29.0, 26412.94466411408, 50006.61909659137, 16300.210809732773, -9527.565184541367, -43678.48261338266, 45852.279168639085, 20567.53880590663, 8809.850670081458, 0.606, -0.56, 0.588, 192.0, 0.0, 0.0, 0.0, 0.0, 0.0, 0.0, 0.0, 0.0, 0.0, 1.6636599965880182E9, 0.0, 2022-09-20 12:46:36.588
30.0, 27399.32714692678, 50735.84475944576, 17256.217271830712, -8742.05782914851, -42361.60723705378, 45837.035278920564, 22141.77216789391, 10791.779850933535, 0.606, -0.56, 0.588, 192.0, 0.0, 0.0, 0.0, 0.0, 0.0, 0.0, 0.0, 0.0, 0.0, 1.6636599965880456E9, 0.0, 2022-09-20 12:46:36.588
31.0, 28220.15025855902, 51372.73536595528, 18053.213423873596, -8324.236670045457, -40389.06578887293, 45848.14409591485, 23548.09922553292, 13887.339995782375, 0.606, -0.56, 0.588, 192.0, 0.0, 0.0, 0.0, 0.0, 0.0, 0.0, 0.0, 0.0, 0.0, 1.6636599965880728E9, 0.0, 2022-09-20 12:46:36.588
32.0, 27965.87681363545, 51258.652062255394, 17738.32204798723, -8647.733467547116, -40109.28900352585, 45865.53375310108, 23077.818522193258, 14780.046317582885, 0.606, -0.56, 0.588, 192.0, 0.0, 0.0, 0.0, 0.0, 0.0, 0.0, 0.0, 0.0, 0.0, 1.6636599965881245E9, 0.0, 2022-09-20 12:46:36.588
33.0, 26799.316918768516, 50367.84563873358, 16624.311104334727, -9454.832608083798, -42130.75842031937, 45883.817480065525, 21197.254502445998, 11560.054011351349, 0.606, -0.56, 0.588, 192.0, 0.0, 0.0, 0.0, 0.0, 0.0, 0.0, 0.0, 0.0, 0.0, 1.6636599965881517E9, 0.0, 2022-09-20 12:46:36.588
34.0, 26413.391699003187, 50004.2498116791, 16304.234123734728, -9515.74111172451, -43631.36513607087, 45858.47060185321, 20575.563082166085, 8795.858478052436, 0.606, -0.56, 0.588, 192.0, 0.0, 0.0, 0.0, 0.0, 0.0, 0.0, 0.0, 0.0, 0.0, 1.6636599965881786E9, 0.0, 2022-09-20 12:46:36.588
35.0, 27413.36404244471, 50739.152817625145, 17272.42228656081, -8729.384390042353, -42282.81733784883, 45840.678613266784, 22169.86831067423, 10842.674773058268, 0.606, -0.56, 0.588, 192.0, 0.0, 0.0, 0.0, 0.0, 0.0, 0.0, 0.0, 0.0, 0.0, 1.663659996588206E9, 0.0, 2022-09-20 12:46:36.588
36.0, 28222.228970793363, 51368.71205195333, 18060.343630354837, -8324.326077023277, -40324.51395088601, 45859.09645069796, 23554.51417619159, 13930.255345136566, 0.606, -0.56, 0.588, 192.0, 0.0, 0.0, 0.0, 0.0, 0.0, 0.0, 0.0, 0.0, 0.0, 1.6636599965882332E9, 0.0, 2022-09-20 12:46:36.588
37.0, 27964.803929901595, 51251.36539356296, 17735.79630086378, -8649.588662336906, -40082.75748285741, 45879.7271108302, 23063.289888297306, 14770.30095700037, 0.606, -0.56, 0.588, 192.0, 0.0, 0.0, 0.0, 0.0, 0.0, 0.0, 0.0, 0.0, 0.0, 1.6636599965882607E9, 0.0, 2022-09-20 12:46:36.588
38.0, 26799.20516004624, 50357.74265023979, 16617.873801931597, -9461.06874478683, -42147.45517342749, 45883.973942276716, 21178.255519658986, 11482.784030769353, 0.604, -0.5660000000000001, 0.588, 192.0, 18.0, 224.0, 238.0, 80.0, 18.0, 96.0, 0.0, 0.0, 0.0, 1.6636599965882878E9, 0.0, 2022-09-20 12:46:36.588
39.0, 26426.668635209637, 50009.65893383729, 16318.963923330775, -9504.095852863295, -43623.40791504478, 45848.92640697079, 20591.36576549599, 8777.373585387897, 0.604, -0.5660000000000001, 0.588, 192.0, 0.0, 0.0, 0.0, 0.0, 0.0, 0.0, 0.0, 0.0, 0.0, 1.6636599965883167E9, 0.0, 2022-09-20 12:46:36.588
40.0, 27431.983045575984, 50751.13335265319, 17297.32212988402, -8709.58074445495, -42243.299453651845, 45823.84774969194, 22208.76034602646, 10887.780593369078, 0.604, -0.5660000000000001, 0.588, 192.0, 0.0, 0.0, 0.0, 0.0, 0.0, 0.0, 0.0, 0.0, 0.0, 1.663659996588344E9, 0.0, 2022-09-20 12:46:36.588
41.0, 28229.001549363322, 51371.349557799054, 18068.30085138093, -8322.3144200223, -40301.15637793021, 45839.493970810654, 23569.400437998826, 13959.692592584204, 0.604, -0.5660000000000001, 0.588, 192.0, 0.0, 0.0, 0.0, 0.0, 0.0, 0.0, 0.0, 0.0, 0.0, 1.663659996588371E9, 0.0, 2022-09-20 12:46:36.588
42.0, 27947.928362837836, 51238.244919567696, 17721.625294879115, -8667.358299178875, -40098.15783478711, 45871.076985726, 23039.641742663593, 14741.10957874174, 0.604, -0.5660000000000001, 0.588, 192.0, 0.0, 0.0, 0.0, 0.0, 0.0, 0.0, 0.0, 0.0, 0.0, 1.663659996588398E9, 0.0, 2022-09-20 12:46:36.588
43.0, 26782.57546217149, 50349.62896700251, 16607.413185526515, -9467.662509401145, -42180.96043836599, 45887.103186500455, 21149.220603611542, 11412.152518290583, 0.604, -0.5660000000000001, 0.588, 192.0, 0.0, 0.0, 0.0, 0.0, 0.0, 0.0, 0.0, 0.0, 0.0, 1.6636599965884252E9, 0.0, 2022-09-20 12:46:36.588
44.0, 26446.33817033031, 50032.77063760408, 16343.573193976068, -9482.772288652932, -43604.47598749113, 45848.18879940377, 20607.12374533698, 8785.889600025368, 0.604, -0.5660000000000001, 0.588, 192.0, 0.0, 0.0, 0.0, 0.0, 0.0, 0.0, 0.0, 0.0, 0.0, 1.6636599965884523E9, 0.0, 2022-09-20 12:46:36.588
45.0, 27464.080150613805, 50787.454937393064, 17335.47655766923, -8689.598284911906, -42185.09551109022, 45821.54552001304, 22241.349189442302, 10946.83390222, 0.604, -0.5660000000000001, 0.588, 192.0, 0.0, 0.0, 0.0, 0.0, 0.0, 0.0, 0.0, 0.0, 0.0, 1.6636599965884795E9, 0.0, 2022-09-20 12:46:36.588
46.0, 28241.809098936214, 51400.54093605768, 18092.73130807058, -8310.110367549702, -40258.37513904276, 45839.985709188666, 23581.7162491937, 13998.919904103268, 0.604, -0.5660000000000001, 0.588, 192.0, 0.0, 0.0, 0.0, 0.0, 0.0, 0.0, 0.0, 0.0, 0.0, 1.6636599965885067E9, 0.0, 2022-09-20 12:46:36.588
47.0, 27941.4463569458, 51251.164227862864, 17728.666094382537, -8663.290281688009, -40091.54171842834, 45864.84084902297, 23024.867239578634, 14732.235936192983, 0.604, -0.5660000000000001, 0.588, 192.0, 0.0, 0.0, 0.0, 0.0, 0.0, 0.0, 0.0, 0.0, 0.0, 1.663659996588538E9, 0.0, 2022-09-20 12:46:36.588
48.0, 26772.383066699873, 50348.95841466885, 16612.889362918064, -9466.366108222737, -42196.53960425134, 45886.052654511055, 21132.501498758975, 11361.615224077133, 0.6, -0.5700000000000001, 0.592, 192.0, 18.0, 192.0, 238.0, 48.0, 18.0, 128.0, 0.0, 0.0, 0.0, 1.6636599965886047E9, 0.0, 2022-09-20 12:46:36.588
49.0, 26459.793920492404, 50044.460599954204, 16368.271871599183, -9470.121201291227, -43586.81810937144, 45855.296654140555, 20631.08481539307, 8799.680626354293, 0.6, -0.5700000000000001, 0.592, 192.0, 0.0, 0.0, 0.0, 0.0, 0.0, 0.0, 0.0, 0.0, 0.0, 1.663659996588634E9, 0.0, 2022-09-20 12:46:36.588
50.0, 27492.422162583134, 50807.593859147295, 17372.73691567623, -8668.542941635007, -42134.357051176674, 45831.60380501793, 22295.865094168796, 11030.921164860865, 0.6, -0.5700000000000001, 0.592, 192.0, 0.0, 0.0, 0.0, 0.0, 0.0, 0.0, 0.0, 0.0, 0.0, 1.6636599965886612E9, 0.0, 2022-09-20 12:46:36.588
51.0, 28254.50488978683, 51403.11138667004, 18109.96450304562, -8302.466070945988, -40228.714374150564, 45848.21115114822, 23607.86779020641, 14071.697184049748, 0.6, -0.5700000000000001, 0.592, 192.0, 0.0, 0.0, 0.0, 0.0, 0.0, 0.0, 0.0, 0.0, 0.0, 1.663659996588698E9, 0.0, 2022-09-20 12:46:36.588
52.0, 27928.258827717167, 51229.52773923013, 17722.586419890693, -8675.650796371794, -40108.23847153646, 45868.05950022453, 23013.89253305108, 14746.451645666559, 0.6, -0.5700000000000001, 0.592, 192.0, 0.0, 0.0, 0.0, 0.0, 0.0, 0.0, 0.0, 0.0, 0.0, 1.6636599965887299E9, 0.0, 2022-09-20 12:46:36.588
53.0, 26756.558031625515, 50324.751475423756, 16604.350996536137, -9477.16200079465, -42242.383032129175, 45888.421939423315, 21116.810574151346, 11323.460796291924, 0.6, -0.5700000000000001, 0.592, 192.0, 0.0, 0.0, 0.0, 0.0, 0.0, 0.0, 0.0, 0.0, 0.0, 1.663659996588757E9, 0.0, 2022-09-20 12:46:36.588
54.0, 26469.271060141455, 50048.43921046725, 16384.521589818192, -9453.983241794496, -43595.04355133099, 45855.54252332956, 20652.967173214816, 8838.527958217617, 0.6, -0.5700000000000001, 0.592, 192.0, 0.0, 0.0, 0.0, 0.0, 0.0, 0.0, 0.0, 0.0, 0.0, 1.663659996588784E9, 0.0, 2022-09-20 12:46:36.588
55.0, 27515.869142516753, 50825.20703377808, 17400.408375311898, -8646.727639046627, -42106.059742696256, 45843.67374702379, 22330.689112030163, 11136.600212645557, 0.6, -0.5700000000000001, 0.592, 192.0, 0.0, 0.0, 0.0, 0.0, 0.0, 0.0, 0.0, 0.0, 0.0, 1.6636599965888116E9, 0.0, 2022-09-20 12:46:36.588
56.0, 28273.079189429187, 51420.45634036736, 18134.037331823987, -8286.149297493614, -40199.075961002825, 45857.86710475291, 23626.084461937484, 14175.699851000292, 0.6, -0.5700000000000001, 0.592, 192.0, 0.0, 0.0, 0.0, 0.0, 0.0, 0.0, 0.0, 0.0, 0.0, 1.6636599965888388E9, 0.0, 2022-09-20 12:46:36.588
57.0, 27926.00130152718, 51236.27796605563, 17736.578611919715, -8664.117296232855, -40109.22194829249, 45888.62310512341, 23007.678748092505, 14796.676015457633, 0.6, -0.5700000000000001, 0.592, 192.0, 0.0, 0.0, 0.0, 0.0, 0.0, 0.0, 0.0, 0.0, 0.0, 1.663659996588866E9, 0.0, 2022-09-20 12:46:36.588
58.0, 26747.505575121115, 50325.645545201965, 16617.918505420508, -9466.544922178378, -42263.03604400588, 45906.973887321226, 21110.350920003762, 11329.026380661295, 0.602, -0.5640000000000001, 0.59, 192.0, 18.0, 208.0, 238.0, 96.0, 18.0, 112.0, 0.0, 0.0, 0.0, 1.6636599965888932E9, 0.0, 2022-09-20 12:46:36.588
59.0, 26488.24769118401, 50063.03489959656, 16418.093909990064, -9427.764645548421, -43572.17771675321, 45868.19361069127, 20682.449124151364, 8909.204174185297, 0.602, -0.5640000000000001, 0.59, 192.0, 0.0, 0.0, 0.0, 0.0, 0.0, 0.0, 0.0, 0.0, 0.0, 1.6636599965889223E9, 0.0, 2022-09-20 12:46:36.588
60.0, 27543.74176785252, 50842.64139445322, 17441.423826387385, -8622.207775379155, -42052.03557634778, 45852.16740991681, 22375.392600940777, 11243.396847653014, 0.602, -0.5640000000000001, 0.59, 192.0, 0.0, 0.0, 0.0, 0.0, 0.0, 0.0, 0.0, 0.0, 0.0, 1.6636599965889497E9, 0.0, 2022-09-20 12:46:36.588
61.0, 28282.98101222289, 51428.92765151592, 18159.31715480294, -8271.508904875387, -40167.31413213183, 45868.931218258294, 23648.34679941497, 14253.640383915948, 0.602, -0.5640000000000001, 0.59, 192.0, 0.0, 0.0, 0.0, 0.0, 0.0, 0.0, 0.0, 0.0, 0.0, 1.6636599965889769E9, 0.0, 2022-09-20 12:46:36.588
62.0, 27926.962426538757, 51239.429562023826, 17738.61262066515, -8660.317499675453, -40116.39685826265, 45904.06816054203, 22997.754573554346, 14817.284323845426, 0.602, -0.5640000000000001, 0.59, 192.0, 0.0, 0.0, 0.0, 0.0, 0.0, 0.0, 0.0, 0.0, 0.0, 1.663659996589004E9, 0.0, 2022-09-20 12:46:36.589
63.0, 26750.992447256143, 50330.741742937775, 16614.90101991904, -9459.124143019217, -42284.113739027234, 45914.66288741385, 21095.822286107814, 11309.379197285081, 0.602, -0.5640000000000001, 0.59, 192.0, 0.0, 0.0, 0.0, 0.0, 0.0, 0.0, 0.0, 0.0, 0.0, 1.6636599965890515E9, 0.0, 2022-09-20 12:46:36.589
64.0, 26513.43810718514, 50088.06885338651, 16436.310581721136, -9403.401244092136, -43547.90372227475, 45880.50942188614, 20707.19250526339, 8955.695802652335, 0.602, -0.5640000000000001, 0.59, 192.0, 0.0, 0.0, 0.0, 0.0, 0.0, 0.0, 0.0, 0.0, 0.0, 1.663659996589079E9, 0.0, 2022-09-20 12:46:36.589
65.0, 27569.803901887408, 50868.703528488106, 17461.607451630527, -8603.521717014519, -42007.71206709291, 45872.485145626684, 22406.997967600582, 11314.631857232078, 0.602, -0.5640000000000001, 0.59, 192.0, 0.0, 0.0, 0.0, 0.0, 0.0, 0.0, 0.0, 0.0, 0.0, 1.663659996589106E9, 0.0, 2022-09-20 12:46:36.589
66.0, 28296.816742040726, 51441.44462841089, 18159.719486203132, -8273.408803154089, -40145.90116094365, 45893.45108192576, 23648.749130815166, 14286.9221314099, 0.602, -0.5640000000000001, 0.59, 192.0, 0.0, 0.0, 0.0, 0.0, 0.0, 0.0, 0.0, 0.0, 0.0, 1.6636599965891333E9, 0.0, 2022-09-20 12:46:36.589
67.0, 27927.43181317232, 51240.480094013226, 17729.493108927385, -8666.53128463403, -40117.60385246323, 45912.38300947941, 22980.96841346841, 14799.514687003457, 0.602, -0.5640000000000001, 0.59, 192.0, 0.0, 0.0, 0.0, 0.0, 0.0, 0.0, 0.0, 0.0, 0.0, 1.66365999658916E9, 0.0, 2022-09-20 12:46:36.589
68.0, 26747.349112909927, 50324.28208879019, 16612.911714662518, -9460.465247686536, -42295.06609381033, 45910.28194550061, 21086.769829603414, 11246.83901629913, 0.604, -0.562, 0.588, 192.0, 18.0, 224.0, 238.0, 112.0, 18.0, 96.0, 0.0, 0.0, 0.0, 1.6636599965891905E9, 0.0, 2022-09-20 12:46:36.589
69.0, 26528.72670039257, 50090.63930399887, 16456.807131386653, -9391.57717127528, -43522.780361506986, 45874.2285816942, 20731.08652008611, 8950.353735727518, 0.604, -0.562, 0.588, 192.0, 0.0, 0.0, 0.0, 0.0, 0.0, 0.0, 0.0, 0.0, 0.0, 1.6636599965892177E9, 0.0, 2022-09-20 12:46:36.589
70.0, 27589.965175386093, 50871.92217968967, 17488.138972298977, -8592.70347269815, -41954.917246689474, 45859.02939546459, 22443.520718040552, 11356.58608157469, 0.604, -0.562, 0.588, 192.0, 0.0, 0.0, 0.0, 0.0, 0.0, 0.0, 0.0, 0.0, 0.0, 1.663659996589246E9, 0.0, 2022-09-20 12:46:36.589
71.0, 28301.532960120796, 51433.08507598461, 18174.225768354627, -8269.83252404124, -40103.87988136767, 45893.94282030378, 23662.741322844187, 14312.313713111129, 0.604, -0.562, 0.588, 192.0, 0.0, 0.0, 0.0, 0.0, 0.0, 0.0, 0.0, 0.0, 0.0, 1.6636599965892744E9, 0.0, 2022-09-20 12:46:36.589
72.0, 27917.060603745056, 51220.00589609217, 17725.626257136617, -8677.796563839504, -40116.75448617393, 45914.26055601365, 22960.851843458637, 14752.508968413946, 0.604, -0.562, 0.588, 192.0, 0.0, 0.0, 0.0, 0.0, 0.0, 0.0, 0.0, 0.0, 0.0, 1.6636599965893023E9, 0.0, 2022-09-20 12:46:36.589
73.0, 26726.874914988868, 50295.80596635413, 16601.4676215014, -9480.961797352053, -42331.20886459456, 45913.6347071689, 21056.416160633107, 11132.912174810432, 0.604, -0.562, 0.588, 192.0, 0.0, 0.0, 0.0, 0.0, 0.0, 0.0, 0.0, 0.0, 0.0, 1.663659996589331E9, 0.0, 2022-09-20 12:46:36.589
74.0, 26539.8131656424, 50090.05815864303, 16469.637032704002, -9388.984368918464, -43521.863939984316, 45882.09639574247, 20745.793967937705, 8904.063272960577, 0.604, -0.562, 0.588, 192.0, 0.0, 0.0, 0.0, 0.0, 0.0, 0.0, 0.0, 0.0, 0.0, 1.6636599965893588E9, 0.0, 2022-09-20 12:46:36.589
75.0, 27610.75229772953, 50883.947418206626, 17507.13795508599, -8579.761812658526, -41931.40321152249, 45866.45017462375, 22473.91909049977, 11351.758104772343, 0.604, -0.562, 0.588, 192.0, 0.0, 0.0, 0.0, 0.0, 0.0, 0.0, 0.0, 0.0, 0.0, 1.6636599965893834E9, 0.0, 2022-09-20 12:46:36.589
76.0, 28304.997480511367, 51437.8907010425, 18176.617405011344, -8263.484628615932, -40103.63401217866, 45885.136232988385, 23670.340915958994, 14284.77636394219, 0.604, -0.562, 0.588, 192.0, 0.0, 0.0, 0.0, 0.0, 0.0, 0.0, 0.0, 0.0, 0.0, 1.6636599965894072E9, 0.0, 2022-09-20 12:46:36.589
77.0, 27897.94986223577, 51209.09824479798, 17709.912980784535, -8678.176543495243, -40151.71261450203, 45913.41118972435, 22943.328075805675, 14682.726822224478, 0.604, -0.562, 0.588, 192.0, 0.0, 0.0, 0.0, 0.0, 0.0, 0.0, 0.0, 0.0, 0.0, 1.6636599965894349E9, 0.0, 2022-09-20 12:46:36.589
78.0, 26713.888551460335, 50287.535820905665, 16595.879685387576, -9472.088154803296, -42364.46826034406, 45932.18665506681, 21049.30830589632, 11063.040621643142, 0.602, -0.5660000000000001, 0.584, 192.0, 18.0, 208.0, 238.0, 80.0, 18.0, 64.0, 0.0, 0.0, 0.0, 1.6636599965894601E9, 0.0, 2022-09-20 12:46:36.589
79.0, 26559.013314129512, 50106.889022217874, 16493.620454504544, -9362.385793016649, -43497.522890272485, 45895.26157322664, 20779.925081720958, 8923.889270292435, 0.602, -0.5660000000000001, 0.584, 192.0, 0.0, 0.0, 0.0, 0.0, 0.0, 0.0, 0.0, 0.0, 0.0, 1.6636599965895152E9, 0.0, 2022-09-20 12:46:36.589
80.0, 27634.109870685326, 50905.405092883724, 17540.889089213502, -8559.511132182019, -41877.71432134084, 45869.914695014326, 22520.768346878096, 11416.175832292538, 0.602, -0.5660000000000001, 0.584, 192.0, 0.0, 0.0, 0.0, 0.0, 0.0, 0.0, 0.0, 0.0, 0.0, 1.6636599965895429E9, 0.0, 2022-09-20 12:46:36.589
81.0, 28312.328852692706, 51447.01021278027, 18190.944873207198, -8257.695526802006, -40074.19676473102, 45897.47439592772, 23684.869549854942, 14327.334085385095, 0.602, -0.5660000000000001, 0.584, 192.0, 0.0, 0.0, 0.0, 0.0, 0.0, 0.0, 0.0, 0.0, 0.0, 1.663659996589572E9, 0.0, 2022-09-20 12:46:36.589
82.0, 27891.110228432444, 51205.49961394067, 17709.153021473056, -8680.836401085426, -40156.60764653774, 45921.79309389509, 22925.759604663803, 14675.931891910064, 0.602, -0.5660000000000001, 0.584, 192.0, 0.0, 0.0, 0.0, 0.0, 0.0, 0.0, 0.0, 0.0, 0.0, 1.6636599965895991E9, 0.0, 2022-09-20 12:46:36.589
83.0, 26704.791391467024, 50278.4163091679, 16589.978824851372, -9476.022061827429, -42388.38462691124, 45930.21970155474, 21028.409424830606, 11012.905658829888, 0.602, -0.5660000000000001, 0.584, 192.0, 0.0, 0.0, 0.0, 0.0, 0.0, 0.0, 0.0, 0.0, 0.0, 1.6636599965896263E9, 0.0, 2022-09-20 12:46:36.589
84.0, 26569.809206701426, 50113.43808334328, 16506.6962250109, -9350.204092288506, -43483.08366335436, 45895.41803543783, 20800.421631386474, 8950.0631630496, 0.602, -0.5660000000000001, 0.584, 192.0, 0.0, 0.0, 0.0, 0.0, 0.0, 0.0, 0.0, 0.0, 0.0, 1.6636599965896611E9, 0.0, 2022-09-20 12:46:36.589
85.0, 27656.036931995983, 50920.24665120205, 17559.28457490022, -8544.446056419141, -41834.396640586456, 45886.85731731145, 22554.452425772244, 11498.094975721238, 0.602, -0.5660000000000001, 0.584, 192.0, 0.0, 0.0, 0.0, 0.0, 0.0, 0.0, 0.0, 0.0, 0.0, 1.6636599965896945E9, 0.0, 2022-09-20 12:46:36.589
86.0, 28308.88668404659, 51441.15405573298, 18186.07219291594, -8266.368003650667, -40051.17446794206, 45900.7824541071, 23685.316584744047, 14391.058908827175, 0.602, -0.5660000000000001, 0.584, 192.0, 0.0, 0.0, 0.0, 0.0, 0.0, 0.0, 0.0, 0.0, 0.0, 1.6636599965897222E9, 0.0, 2022-09-20 12:46:36.589
87.0, 27863.662286241328, 51178.83398280549, 17679.64871879205, -8709.91602062178, -40184.56967885133, 45918.50738746016, 22890.77912459125, 14665.068944104785, 0.602, -0.5660000000000001, 0.584, 192.0, 0.0, 0.0, 0.0, 0.0, 0.0, 0.0, 0.0, 0.0, 0.0, 1.66365999658975E9, 0.0, 2022-09-20 12:46:36.589
88.0, 26683.870158656857, 50255.036384467654, 16568.029411796262, -9494.663416703155, -42439.63717694726, 45924.76587590765, 20999.77684018336, 10959.417934348337, 0.602, -0.5720000000000001, 0.578, 192.0, 18.0, 208.0, 238.0, 32.0, 18.0, 16.0, 0.0, 0.0, 0.0, 1.6636599965897768E9, 0.0, 2022-09-20 12:46:36.589
89.0, 26571.597346257848, 50105.503214061646, 16507.456184322382, -9352.685135923044, -43489.09628261284, 45891.148852246864, 20810.0105297578, 8978.829858163579, 0.602, -0.5720000000000001, 0.578, 192.0, 0.0, 0.0, 0.0, 0.0, 0.0, 0.0, 0.0, 0.0, 0.0, 1.6636599965898085E9, 0.0, 2022-09-20 12:46:36.589
90.0, 27657.936830274684, 50915.48572963307, 17562.503226101784, -8553.07382977889, -41809.09446586305, 45873.58038110499, 22570.456274802244, 11575.409659792145, 0.602, -0.5720000000000001, 0.578, 192.0, 0.0, 0.0, 0.0, 0.0, 0.0, 0.0, 0.0, 0.0, 0.0, 1.6636599965898426E9, 0.0, 2022-09-20 12:46:36.589
91.0, 28303.097582232665, 51439.94706153239, 18180.50660854657, -8276.78391656684, -40035.57295031226, 45890.43359642429, 23681.650898653377, 14453.33086887966, 0.602, -0.5720000000000001, 0.578, 192.0, 0.0, 0.0, 0.0, 0.0, 0.0, 0.0, 0.0, 0.0, 0.0, 1.6636599965898676E9, 0.0, 2022-09-20 12:46:36.589
92.0, 27842.718701686706, 51172.08375597999, 17660.225052860387, -8726.880994663357, -40206.340277950796, 45917.81448338205, 22858.27968815323, 14667.974670883976, 0.602, -0.5720000000000001, 0.578, 192.0, 0.0, 0.0, 0.0, 0.0, 0.0, 0.0, 0.0, 0.0, 0.0, 1.663659996589896E9, 0.0, 2022-09-20 12:46:36.589
93.0, 26655.729312387626, 50245.22396865177, 16545.16357721848, -9507.247448831493, -42486.285267625484, 45929.61620445445, 20965.846892100202, 10929.06426537803, 0.602, -0.5720000000000001, 0.578, 192.0, 0.0, 0.0, 0.0, 0.0, 0.0, 0.0, 0.0, 0.0, 0.0, 1.6636599965899255E9, 0.0, 2022-09-20 12:46:36.589
94.0, 26573.78781721447, 50122.46818810322, 16509.199620389893, -9339.6540689056, -43503.11082638631, 45886.92437254481, 20814.950265282427, 9014.771463247713, 0.602, -0.5720000000000001, 0.578, 192.0, 0.0, 0.0, 0.0, 0.0, 0.0, 0.0, 0.0, 0.0, 0.0, 1.6636599965899568E9, 0.0, 2022-09-20 12:46:36.589
95.0, 27673.784217093496, 50939.022116544504, 17573.254415184787, -8538.724009838583, -41801.09254134805, 45867.9253897578, 22594.104420435957, 11647.248166471501, 0.602, -0.5720000000000001, 0.578, 192.0, 0.0, 0.0, 0.0, 0.0, 0.0, 0.0, 0.0, 0.0, 0.0, 1.6636599965900314E9, 0.0, 2022-09-20 12:46:36.590
96.0, 28298.403715897053, 51444.86444531256, 18168.861349685354, -8282.908294547593, -40062.685616336545, 45880.50942188614, 23670.49737817018, 14481.717584337901, 0.602, -0.5720000000000001, 0.578, 192.0, 0.0, 0.0, 0.0, 0.0, 0.0, 0.0, 0.0, 0.0, 0.0, 1.6636599965900614E9, 0.0, 2022-09-20 12:46:36.590
97.0, 27826.98307359017, 51163.590093086976, 17641.20371832892, -8736.514596523595, -40260.07387162136, 45910.661925156346, 22827.747205227282, 14643.164234538584, 0.602, -0.5720000000000001, 0.578, 192.0, 0.0, 0.0, 0.0, 0.0, 0.0, 0.0, 0.0, 0.0, 0.0, 1.663659996590088E9, 0.0, 2022-09-20 12:46:36.590
98.0, 26647.07918728342, 50232.84110222353, 16531.774882289756, -9515.562297768867, -42542.61166365286, 45918.61914618244, 20939.829461554225, 10865.585311124958, 0.602, -0.5720000000000001, 0.578, 192.0, 0.0, 0.0, 0.0, 0.0, 0.0, 0.0, 0.0, 0.0, 0.0, 1.6636599965901165E9, 0.0, 2022-09-20 12:46:36.590
99.0, 26586.617718531816, 50125.68683930479, 16516.151012915496, -9336.457769448492, -43506.50829154352, 45888.31018070104, 20826.774338099283, 9020.225288894808, 0.604, -0.5640000000000001, 0.578, 192.0, 18.0, 224.0, 238.0, 96.0, 18.0, 16.0, 0.0, 0.0, 0.0, 1.6636599965901625E9, 0.0, 2022-09-20 12:46:36.590
100.0, 27694.884263859305, 50954.534227196484, 17589.280615959244, -8529.02335274498, -41766.5590961646, 45877.04490149557, 22621.775880071626, 11696.578466484365, 0.604, -0.5640000000000001, 0.578, 192.0, 0.0, 0.0, 0.0, 0.0, 0.0, 0.0, 0.0, 0.0, 0.0, 1.663659996590196E9, 0.0, 2022-09-20 12:46:36.590
101.0, 28321.046033030278, 51464.690442644416, 18185.558102793468, -8267.284425173333, -40016.73042973643, 45895.39568369337, 23691.910349358364, 14529.326800027706, 0.604, -0.5640000000000001, 0.578, 192.0, 0.0, 0.0, 0.0, 0.0, 0.0, 0.0, 0.0, 0.0, 0.0, 1.6636599965902212E9, 0.0, 2022-09-20 12:46:36.590
102.0, 27826.75955614562, 51166.13819195488, 17632.598296713626, -8738.25803259111, -40257.48106926454, 45921.837797384, 22810.335196296597, 14602.08172822973, 0.604, -0.5640000000000001, 0.578, 192.0, 0.0, 0.0, 0.0, 0.0, 0.0, 0.0, 0.0, 0.0, 0.0, 1.6636599965902472E9, 0.0, 2022-09-20 12:46:36.590
103.0, 26644.955771560166, 50236.88676796994, 16522.074225196153, -9512.477757034036, -42560.8953906173, 45913.41118972435, 20924.004426479867, 10770.031603578522, 0.604, -0.5640000000000001, 0.578, 192.0, 0.0, 0.0, 0.0, 0.0, 0.0, 0.0, 0.0, 0.0, 0.0, 1.6636599965902734E9, 0.0, 2022-09-20 12:46:36.590
104.0, 26609.394146131774, 50152.03954601759, 16531.37255088956, -9308.138109223617, -43477.92041038518, 45885.65032311086, 20851.249498277844, 8993.403195548439, 0.604, -0.5640000000000001, 0.578, 192.0, 0.0, 0.0, 0.0, 0.0, 0.0, 0.0, 0.0, 0.0, 0.0, 1.663659996590296E9, 0.0, 2022-09-20 12:46:36.590
105.0, 27721.080508360927, 50982.451556021166, 17611.610008670094, -8501.06132043139, -41702.78956923361, 45877.84956429596, 22658.43274097833, 11709.833050946361, 0.604, -0.5640000000000001, 0.578, 192.0, 0.0, 0.0, 0.0, 0.0, 0.0, 0.0, 0.0, 0.0, 0.0, 1.6636599965903172E9, 0.0, 2022-09-20 12:46:36.590
106.0, 28317.00036728387, 51465.42805021144, 18179.88075970182, -8264.088125716225, -39986.37676076612, 45895.95447730476, 23688.93756734581, 14496.022700789297, 0.604, -0.5640000000000001, 0.578, 192.0, 0.0, 0.0, 0.0, 0.0, 0.0, 0.0, 0.0, 0.0, 0.0, 1.6636599965903502E9, 0.0, 2022-09-20 12:46:36.590
107.0, 27800.518608155086, 51147.899168479344, 17606.849087101113, -8748.741000740649, -40277.97761893006, 45919.401457238375, 22776.472303446808, 14499.263703735318, 0.604, -0.5640000000000001, 0.578, 192.0, 0.0, 0.0, 0.0, 0.0, 0.0, 0.0, 0.0, 0.0, 0.0, 1.66365999659038E9, 0.0, 2022-09-20 12:46:36.590
108.0, 26624.012187005545, 50221.57582301806, 16504.617512776556, -9517.216326858561, -42598.20045211321, 45923.737695662705, 20897.919940700525, 10650.293308531442, 0.604, -0.5640000000000001, 0.578, 192.0, 0.0, 0.0, 0.0, 0.0, 0.0, 0.0, 0.0, 0.0, 0.0, 1.6636599965904064E9, 0.0, 2022-09-20 12:46:36.590
109.0, 26615.987910746087, 50154.721755352235, 16540.536766116235, -9301.767862053855, -43478.54625922993, 45894.300448215065, 20866.672201952006, 8965.8658463795, 0.61, -0.5660000000000001, 0.578, 192.0, 19.0, 16.0, 238.0, 80.0, 18.0, 16.0, 0.0, 0.0, 0.0, 1.66365999659043E9, 0.0, 2022-09-20 12:46:36.590
110.0, 27724.00858688457, 50981.17750658721, 17620.0589680742, -8502.514183820986, -41700.12971164343, 45887.61727662293, 22676.02356386466, 11714.07988239287, 0.61, -0.5660000000000001, 0.578, 192.0, 0.0, 0.0, 0.0, 0.0, 0.0, 0.0, 0.0, 0.0, 0.0, 1.6636599965904899E9, 0.0, 2022-09-20 12:46:36.590
111.0, 28314.832248071703, 51467.30559674568, 18177.243253856093, -8268.960806007482, -40011.18719711151, 45893.02639878111, 23686.322413244536, 14485.606787873125, 0.61, -0.5660000000000001, 0.578, 192.0, 0.0, 0.0, 0.0, 0.0, 0.0, 0.0, 0.0, 0.0, 0.0, 1.663659996590523E9, 0.0, 2022-09-20 12:46:36.590
112.0, 27791.041468506035, 51145.194607400255, 17592.454563671894, -8755.11124791041, -40338.70730861513, 45911.33247749001, 22751.97479152379, 14445.731275764856, 0.61, -0.5660000000000001, 0.578, 192.0, 0.0, 0.0, 0.0, 0.0, 0.0, 0.0, 0.0, 0.0, 0.0, 1.6636599965905523E9, 0.0, 2022-09-20 12:46:36.590
113.0, 26628.259018452052, 50221.91109918489, 16496.861457450566, -9514.221193101548, -42660.89709531034, 45918.4403322268, 20882.877216682104, 10585.853229266791, 0.61, -0.5660000000000001, 0.578, 192.0, 0.0, 0.0, 0.0, 0.0, 0.0, 0.0, 0.0, 0.0, 0.0, 1.6636599965905912E9, 0.0, 2022-09-20 12:46:36.590
114.0, 26648.956733817668, 50177.229962018726, 16557.4570366689, -9279.304358876272, -43487.97869539007, 45887.43846266728, 20893.807219720748, 8983.836648921568, 0.61, -0.5660000000000001, 0.578, 192.0, 0.0, 0.0, 0.0, 0.0, 0.0, 0.0, 0.0, 0.0, 0.0, 1.6636599965906212E9, 0.0, 2022-09-20 12:46:36.590
115.0, 27758.31851462347, 51007.06082666646, 17642.366009040597, -8483.358738822788, -41687.657438237366, 45877.871916040414, 22714.20034339432, 11766.204150462647, 0.61, -0.5660000000000001, 0.578, 192.0, 0.0, 0.0, 0.0, 0.0, 0.0, 0.0, 0.0, 0.0, 0.0, 1.6636599965906527E9, 0.0, 2022-09-20 12:46:36.590
116.0, 28327.438631944497, 51475.441631727415, 18180.104277146373, -8266.345651906211, -40014.91993843555, 45900.51423317364, 23693.340861003504, 14517.815651633222, 0.61, -0.5660000000000001, 0.578, 192.0, 0.0, 0.0, 0.0, 0.0, 0.0, 0.0, 0.0, 0.0, 0.0, 1.6636599965906813E9, 0.0, 2022-09-20 12:46:36.590
117.0, 27773.29418340852, 51131.202415371234, 17573.634394840527, -8768.455239350229, -40377.57699222291, 45920.094361316485, 22726.15852667791, 14411.063720114676, 0.61, -0.5660000000000001, 0.578, 192.0, 0.0, 0.0, 0.0, 0.0, 0.0, 0.0, 0.0, 0.0, 0.0, 1.6636599965906966E9, 0.0, 2022-09-20 12:46:36.590
118.0, 26606.9801577306, 50207.6506862224, 16487.250207334782, -9524.12301589525, -42696.95045911676, 45928.05158234258, 20869.332059542186, 10526.107016337755, 0.61, -0.5660000000000001, 0.578, 192.0, 0.0, 0.0, 0.0, 0.0, 0.0, 0.0, 0.0, 0.0, 0.0, 1.663659996590712E9, 0.0, 2022-09-20 12:46:36.590
119.0, 26651.571887918937, 50181.7450143987, 16569.817551352688, -9268.17319013753, -43469.67261668118, 45893.07110227002, 20919.645836311083, 9006.523669543705, 0.608, -0.5640000000000001, 0.5740000000000001, 192.0, 19.0, 0.0, 238.0, 96.0, 17.0, 240.0, 0.0, 0.0, 0.0, 1.663659996590727E9, 0.0, 2022-09-20 12:46:36.590
120.0, 27760.888965235827, 51010.72651275713, 17651.887852178555, -8473.948654407102, -41640.94229232577, 45883.61631436543, 22736.619143082997, 11820.563592977953, 0.608, -0.5640000000000001, 0.5740000000000001, 192.0, 0.0, 0.0, 0.0, 0.0, 0.0, 0.0, 0.0, 0.0, 0.0, 1.6636599965907435E9, 0.0, 2022-09-20 12:46:36.590
121.0, 28310.60776836965, 51466.210361267375, 18170.336564819405, -8269.340785663222, -39984.05217934277, 45903.241145997185, 23682.5896719205, 14535.741750686379, 0.608, -0.5640000000000001, 0.5740000000000001, 192.0, 0.0, 0.0, 0.0, 0.0, 0.0, 0.0, 0.0, 0.0, 0.0, 1.6636599965907588E9, 0.0, 2022-09-20 12:46:36.590
122.0, 27746.02505517305, 51109.25300231612, 17551.237946896308, -8782.290969168063, -40377.264067800534, 45905.476320442714, 22692.25093033921, 14365.041478281199, 0.608, -0.5640000000000001, 0.5740000000000001, 192.0, 0.0, 0.0, 0.0, 0.0, 0.0, 0.0, 0.0, 0.0, 0.0, 1.6636599970677392E9, 0.0, 2022-09-20 12:46:37.067
123.0, 26588.96465169962, 50190.35043601399, 16472.565111227646, -9526.604059529789, -42700.37027601842, 45919.51321596065, 20846.55563194223, 10465.064402230311, 0.608, -0.5640000000000001, 0.5740000000000001, 192.0, 0.0, 0.0, 0.0, 0.0, 0.0, 0.0, 0.0, 0.0, 0.0, 1.6636599970678787E9, 0.0, 2022-09-20 12:46:37.067
124.0, 26658.947963589188, 50186.75180515669, 16578.244159012338, -9255.902082431565, -43421.52695912444, 45887.37140743392, 20935.359112663165, 9031.088236700087, 0.608, -0.5640000000000001, 0.5740000000000001, 192.0, 0.0, 0.0, 0.0, 0.0, 0.0, 0.0, 0.0, 0.0, 0.0, 1.663659997067973E9, 0.0, 2022-09-20 12:46:37.067
125.0, 27772.802445030506, 51017.63320179382, 17660.426218560486, -8472.004052639491, -41580.63728578536, 45875.904962528344, 22754.813463069615, 11864.01538419907, 0.608, -0.5640000000000001, 0.5740000000000001, 192.0, 0.0, 0.0, 0.0, 0.0, 0.0, 0.0, 0.0, 0.0, 0.0, 1.6636599970680273E9, 0.0, 2022-09-20 12:46:37.068
126.0, 28306.785620067792, 51461.13651527602, 18161.485274015104, -8286.17164923807, -39953.273827227815, 45902.50353843016, 23673.35840146046, 14547.990506647886, 0.608, -0.5640000000000001, 0.5740000000000001, 192.0, 0.0, 0.0, 0.0, 0.0, 0.0, 0.0, 0.0, 0.0, 0.0, 1.6636599970682557E9, 0.0, 2022-09-20 12:46:37.068
127.0, 27730.512944521066, 51095.618438198384, 17531.00961816426, -8806.497908413161, -40377.73345443409, 45921.435465983806, 22659.95265960129, 14329.256335408252, 0.608, -0.5640000000000001, 0.5740000000000001, 192.0, 0.0, 0.0, 0.0, 0.0, 0.0, 0.0, 0.0, 0.0, 0.0, 1.6636599970682847E9, 0.0, 2022-09-20 12:46:37.068
128.0, 26578.70520099464, 50182.70613941028, 16459.578747699114, -9536.684696279133, -42698.15745331734, 45920.519044461136, 20825.477936920874, 10422.01494240939, 0.608, -0.5640000000000001, 0.5740000000000001, 192.0, 0.0, 0.0, 0.0, 0.0, 0.0, 0.0, 0.0, 0.0, 0.0, 1.6636599970683174E9, 0.0, 2022-09-20 12:46:37.068
129.0, 26670.57087070595, 50200.20755531878, 16588.52596146178, -9247.07314337172, -43372.040196900394, 45885.47150915522, 20955.833310584225, 9065.398164438982, 0.602, -0.5660000000000001, 0.5740000000000001, 192.0, 18.0, 208.0, 238.0, 80.0, 17.0, 240.0, 0.0, 0.0, 0.0, 1.6636599970683467E9, 0.0, 2022-09-20 12:46:37.068
130.0, 27778.658602077798, 51028.18322517672, 17665.34360234065, -8469.902988660693, -41518.45473271069, 45866.31606415702, 22778.685126147884, 11922.398140716332, 0.602, -0.5660000000000001, 0.5740000000000001, 192.0, 0.0, 0.0, 0.0, 0.0, 0.0, 0.0, 0.0, 0.0, 0.0, 1.6636599970683763E9, 0.0, 2022-09-20 12:46:37.068
131.0, 28288.390134381072, 51457.202608251886, 18145.21320405164, -8293.525373163864, -39910.85021625164, 45888.04195976758, 23667.234023479705, 14579.059431440763, 0.602, -0.5660000000000001, 0.5740000000000001, 192.0, 0.0, 0.0, 0.0, 0.0, 0.0, 0.0, 0.0, 0.0, 0.0, 1.6636599970684004E9, 0.0, 2022-09-20 12:46:37.068
132.0, 27693.56551093644, 51075.278350744054, 17495.582103202596, -8830.928365102813, -40375.34181777738, 45903.822291353026, 22618.825449803528, 14281.378898784984, 0.602, -0.5660000000000001, 0.5740000000000001, 192.0, 0.0, 0.0, 0.0, 0.0, 0.0, 0.0, 0.0, 0.0, 0.0, 1.6636599970684452E9, 0.0, 2022-09-20 12:46:37.068
133.0, 26555.481738505572, 50164.44476419029, 16433.091930519575, -9559.41642039018, -42702.314877786026, 45909.052599555565, 20797.091221462637, 10347.829502562226, 0.602, -0.5660000000000001, 0.5740000000000001, 192.0, 0.0, 0.0, 0.0, 0.0, 0.0, 0.0, 0.0, 0.0, 0.0, 1.6636599970684693E9, 0.0, 2022-09-20 12:46:37.068
134.0, 26679.109237087876, 50203.33679954253, 16587.028394583274, -9249.397724795072, -43320.161798019624, 45875.81555555052, 20972.664174159072, 9084.598312926091, 0.602, -0.5660000000000001, 0.5740000000000001, 192.0, 0.0, 0.0, 0.0, 0.0, 0.0, 0.0, 0.0, 0.0, 0.0, 1.663659997068494E9, 0.0, 2022-09-20 12:46:37.068
135.0, 27795.802390075016, 51039.51555961556, 17674.664279778513, -8466.751392692495, -41427.21491184413, 45860.01287222062, 22809.530533496207, 11995.309531129544, 0.602, -0.5660000000000001, 0.5740000000000001, 192.0, 0.0, 0.0, 0.0, 0.0, 0.0, 0.0, 0.0, 0.0, 0.0, 1.6636599970685177E9, 0.0, 2022-09-20 12:46:37.068
136.0, 28300.013041497834, 51461.29297748721, 18143.02273309502, -8296.87813483216, -39838.050584560704, 45881.04586375307, 23672.978421804717, 14633.351818722704, 0.602, -0.5660000000000001, 0.5740000000000001, 192.0, 0.0, 0.0, 0.0, 0.0, 0.0, 0.0, 0.0, 0.0, 0.0, 1.663659997068548E9, 0.0, 2022-09-20 12:46:37.068
137.0, 27678.746304362572, 51060.302681959, 17469.385858700974, -8841.299574530074, -40356.87927685729, 45899.15077676187, 22588.13650466639, 14247.985392568755, 0.602, -0.5660000000000001, 0.5740000000000001, 192.0, 0.0, 0.0, 0.0, 0.0, 0.0, 0.0, 0.0, 0.0, 0.0, 1.66365999706858E9, 0.0, 2022-09-20 12:46:37.068
138.0, 26537.689749919147, 50149.178522727314, 16410.561372108623, -9557.315356411382, -42693.217717792715, 45914.171149035836, 20773.73364850684, 10282.718870963916, 0.602, -0.5660000000000001, 0.5740000000000001, 192.0, 0.0, 0.0, 0.0, 0.0, 0.0, 0.0, 0.0, 0.0, 0.0, 1.6636599970686069E9, 0.0, 2022-09-20 12:46:37.068
139.0, 26684.31719354596, 50205.43786352132, 16589.531789962268, -9232.768026920323, -43258.18041064506, 45869.24414268066, 20987.461028988484, 9098.56815321066, 0.598, -0.558, 0.584, 192.0, 18.0, 176.0, 238.0, 144.0, 18.0, 64.0, 0.0, 0.0, 0.0, 1.6636599970686533E9, 0.0, 2022-09-20 12:46:37.068
140.0, 27802.597320389432, 51037.77212354805, 17675.93832921247, -8459.062392599868, -41350.07904172886, 45849.88753198237, 22823.70153948087, 12029.261830957155, 0.598, -0.558, 0.584, 192.0, 0.0, 0.0, 0.0, 0.0, 0.0, 0.0, 0.0, 0.0, 0.0, 1.6636599970686896E9, 0.0, 2022-09-20 12:46:37.068
141.0, 28294.134532706088, 51455.77209660675, 18129.72344514411, -8300.297951733823, -39781.567726322144, 45874.07211948301, 23658.002753019664, 14631.876603588655, 0.598, -0.558, 0.584, 192.0, 0.0, 0.0, 0.0, 0.0, 0.0, 0.0, 0.0, 0.0, 0.0, 1.663659997068737E9, 0.0, 2022-09-20 12:46:37.068
142.0, 27669.09035075788, 51052.993661522116, 17451.683277092372, -8846.015792610144, -40322.524645629484, 45901.922393074325, 22558.520443263107, 14200.577342579048, 0.598, -0.558, 0.584, 192.0, 0.0, 0.0, 0.0, 0.0, 0.0, 0.0, 0.0, 0.0, 0.0, 1.66365999706876E9, 0.0, 2022-09-20 12:46:37.068
143.0, 26533.48762196155, 50146.36220292595, 16397.262084157715, -9556.421286633169, -42662.79699358904, 45908.002067566165, 20748.63263948353, 10226.057198769713, 0.598, -0.558, 0.584, 192.0, 0.0, 0.0, 0.0, 0.0, 0.0, 0.0, 0.0, 0.0, 0.0, 1.6636599970687869E9, 0.0, 2022-09-20 12:46:37.068
144.0, 26706.266606601075, 50225.17445387536, 16600.506496489823, -9215.646590667557, -43187.83947084421, 45881.93993353128, 21001.83320067325, 9121.344580810617, 0.598, -0.558, 0.584, 192.0, 0.0, 0.0, 0.0, 0.0, 0.0, 0.0, 0.0, 0.0, 0.0, 1.663659997068815E9, 0.0, 2022-09-20 12:46:37.068
145.0, 27823.83147762197, 51061.24145522612, 17692.210399175932, -8443.10324705878, -41263.93541859811, 45869.15473570285, 22847.81907174815, 12085.498820006707, 0.598, -0.558, 0.584, 192.0, 0.0, 0.0, 0.0, 0.0, 0.0, 0.0, 0.0, 0.0, 0.0, 1.6636599970688488E9, 0.0, 2022-09-20 12:46:37.068
146.0, 28293.866311772625, 51463.081117043635, 18129.030541065997, -8295.31351272029, -39715.69713541235, 45870.45113688125, 23658.047456508575, 14670.299252307326, 0.598, -0.558, 0.584, 192.0, 0.0, 0.0, 0.0, 0.0, 0.0, 0.0, 0.0, 0.0, 0.0, 1.6636599970688846E9, 0.0, 2022-09-20 12:46:37.068
147.0, 27635.51803058601, 51029.211405421665, 17423.564782567595, -8868.255778343175, -40305.42556112118, 45889.00308477916, 22518.93550383276, 14161.350031059985, 0.598, -0.558, 0.584, 192.0, 0.0, 0.0, 0.0, 0.0, 0.0, 0.0, 0.0, 0.0, 0.0, 1.6636599970689125E9, 0.0, 2022-09-20 12:46:37.068
148.0, 26500.29528144542, 50117.953135723255, 16376.989051936753, -9576.18022873166, -42653.9680545292, 45888.26547721213, 20722.995188593293, 10166.780372474239, 0.598, -0.558, 0.584, 192.0, 0.0, 0.0, 0.0, 0.0, 0.0, 0.0, 0.0, 0.0, 0.0, 1.6636599970689433E9, 0.0, 2022-09-20 12:46:37.068
149.0, 26703.42793505525, 50214.93735491483, 16604.909790147518, -9217.233564523884, -43133.502380073354, 45853.77673551759, 21018.48525029245, 9143.29399386573, 0.598, -0.562, 0.58, 192.0, 18.0, 176.0, 238.0, 112.0, 18.0, 32.0, 0.0, 0.0, 0.0, 1.6636599970689745E9, 0.0, 2022-09-20 12:46:37.068
150.0, 27834.69442542725, 51060.168571492264, 17702.872181281113, -8445.76310464896, -41186.03958917136, 45852.59209306146, 22873.165949960465, 12145.110922469012, 0.598, -0.562, 0.58, 192.0, 0.0, 0.0, 0.0, 0.0, 0.0, 0.0, 0.0, 0.0, 0.0, 1.6636599970690064E9, 0.0, 2022-09-20 12:46:37.069
151.0, 28298.22490194141, 51462.61173041007, 18125.16368927523, -8309.126890793668, -39661.49415510824, 45883.86218355443, 23656.706351841254, 14709.034825448374, 0.598, -0.562, 0.58, 192.0, 0.0, 0.0, 0.0, 0.0, 0.0, 0.0, 0.0, 0.0, 0.0, 1.6636599970690367E9, 0.0, 2022-09-20 12:46:37.069
152.0, 27627.404347348733, 51023.042323952, 17407.82915447106, -8885.734842507225, -40298.94355522914, 45909.09730304448, 22492.292224442033, 14130.057588822556, 0.598, -0.562, 0.58, 192.0, 0.0, 0.0, 0.0, 0.0, 0.0, 0.0, 0.0, 0.0, 0.0, 1.663659997069066E9, 0.0, 2022-09-20 12:46:37.069
153.0, 26504.162133236186, 50122.08820844749, 16370.6635082559, -9581.656406123211, -42660.986502288164, 45903.79993960857, 20708.399499463976, 10124.826148131628, 0.598, -0.562, 0.58, 192.0, 0.0, 0.0, 0.0, 0.0, 0.0, 0.0, 0.0, 0.0, 0.0, 1.6636599970690951E9, 0.0, 2022-09-20 12:46:37.069
154.0, 26728.797165012023, 50245.20161690732, 16624.400511312546, -9201.989674805365, -43092.19635631995, 45869.08768046948, 21045.0167709609, 9202.146137016553, 0.598, -0.562, 0.58, 192.0, 0.0, 0.0, 0.0, 0.0, 0.0, 0.0, 0.0, 0.0, 0.0, 1.6636599970691314E9, 0.0, 2022-09-20 12:46:37.069
155.0, 27849.334818045478, 51083.883772359346, 17722.74288210188, -8436.442427211097, -41126.44983845352, 45858.24708440866, 22903.51961893077, 12246.409028340464, 0.598, -0.562, 0.58, 192.0, 0.0, 0.0, 0.0, 0.0, 0.0, 0.0, 0.0, 0.0, 0.0, 1.6636599970691626E9, 0.0, 2022-09-20 12:46:37.069
156.0, 28289.84299777067, 51463.30463448819, 18123.9790468191, -8317.531146708865, -39636.32609085156, 45869.780584547596, 23651.29722968307, 14779.554579204867, 0.598, -0.562, 0.58, 192.0, 0.0, 0.0, 0.0, 0.0, 0.0, 0.0, 0.0, 0.0, 0.0, 1.66365999706919E9, 0.0, 2022-09-20 12:46:37.069
157.0, 27596.089553366848, 51003.28338185351, 17385.835037927038, -8909.651209074404, -40322.07761074038, 45890.16537549083, 22455.747122257606, 14132.248059779175, 0.598, -0.562, 0.58, 192.0, 0.0, 0.0, 0.0, 0.0, 0.0, 0.0, 0.0, 0.0, 0.0, 1.6636599970692468E9, 0.0, 2022-09-20 12:46:37.069
158.0, 26480.357525391286, 50106.66550477332, 16356.067819126585, -9593.6145894068, -42679.33728448597, 45888.9807330347, 20687.791191076183, 10120.892241107493, 0.598, -0.562, 0.58, 192.0, 0.0, 0.0, 0.0, 0.0, 0.0, 0.0, 0.0, 0.0, 0.0, 1.663659997069274E9, 0.0, 2022-09-20 12:46:37.069
159.0, 26734.876839503868, 50246.47566634127, 16631.95540093844, -9197.161698003018, -43056.52297216928, 45852.74855527265, 21066.876777038193, 9278.790268753799, 0.604, -0.56, 0.584, 192.0, 18.0, 224.0, 238.0, 128.0, 18.0, 64.0, 0.0, 0.0, 0.0, 1.6636599970693035E9, 0.0, 2022-09-20 12:46:37.069
160.0, 27856.487376271176, 51087.9070863613, 17725.134518758598, -8438.543491189897, -41083.55684084378, 45847.9205784703, 22920.21637203889, 12322.695532166426, 0.604, -0.56, 0.584, 192.0, 0.0, 0.0, 0.0, 0.0, 0.0, 0.0, 0.0, 0.0, 0.0, 1.6636599970693328E9, 0.0, 2022-09-20 12:46:37.069
161.0, 28276.521358075304, 51458.92369257494, 18108.422232678204, -8324.102559578725, -39623.13856162293, 45875.03324449459, 23635.159270186337, 14812.232829598526, 0.604, -0.56, 0.584, 192.0, 0.0, 0.0, 0.0, 0.0, 0.0, 0.0, 0.0, 0.0, 0.0, 1.6636599970693557E9, 0.0, 2022-09-20 12:46:37.069
162.0, 27576.308259523903, 50992.509841026054, 17366.120799317458, -8915.86499403298, -40330.19129397766, 45899.50840467315, 22423.605313730874, 14109.918667068323, 0.604, -0.56, 0.584, 192.0, 0.0, 0.0, 0.0, 0.0, 0.0, 0.0, 0.0, 0.0, 0.0, 1.663659997069383E9, 0.0, 2022-09-20 12:46:37.069
163.0, 26471.103903186788, 50102.083397159986, 16351.552766746614, -9588.876019582274, -42677.59384841846, 45895.485090671194, 20675.698897325863, 10094.85245881706, 0.604, -0.56, 0.584, 192.0, 0.0, 0.0, 0.0, 0.0, 0.0, 0.0, 0.0, 0.0, 0.0, 1.663659997069414E9, 0.0, 2022-09-20 12:46:37.069
164.0, 26743.504612863617, 50259.48438161426, 16644.29356387777, -9184.91294204151, -43015.84279726062, 45861.33162514349, 21087.50743717044, 9317.27997270584, 0.604, -0.56, 0.584, 192.0, 0.0, 0.0, 0.0, 0.0, 0.0, 0.0, 0.0, 0.0, 0.0, 1.6636599970694454E9, 0.0, 2022-09-20 12:46:37.069
165.0, 27864.735169975185, 51096.959542865705, 17730.588344405693, -8436.509482444464, -41034.36065129765, 45852.50268608364, 22936.82371816918, 12370.841189723158, 0.604, -0.56, 0.584, 192.0, 0.0, 0.0, 0.0, 0.0, 0.0, 0.0, 0.0, 0.0, 0.0, 1.6636599970694764E9, 0.0, 2022-09-20 12:46:37.069
166.0, 28264.920802703, 51443.56804413415, 18088.909159768722, -8340.709905709018, -39601.99381136821, 45865.66786356782, 23617.43433683328, 14816.792585467409, 0.604, -0.56, 0.584, 192.0, 0.0, 0.0, 0.0, 0.0, 0.0, 0.0, 0.0, 0.0, 0.0, 1.6636599970695064E9, 0.0, 2022-09-20 12:46:37.069
167.0, 27542.177145740647, 50953.707212651636, 17328.435758165808, -8944.855206591512, -40353.437108211176, 45879.88357304139, 22379.907653320748, 14030.704084718715, 0.604, -0.56, 0.584, 192.0, 0.0, 0.0, 0.0, 0.0, 0.0, 0.0, 0.0, 0.0, 0.0, 1.6636599970695364E9, 0.0, 2022-09-20 12:46:37.069
168.0, 26448.32747558683, 50071.729728189675, 16325.915315856377, -9606.891525613251, -42696.50342422765, 45880.7776428196, 20651.00021970275, 10004.529059473165, 0.604, -0.56, 0.584, 192.0, 0.0, 0.0, 0.0, 0.0, 0.0, 0.0, 0.0, 0.0, 0.0, 1.6636599970695667E9, 0.0, 2022-09-20 12:46:37.069
169.0, 26744.890421019845, 50252.84591351103, 16644.785302255787, -9183.124802485085, -42977.28603807522, 45842.913787712314, 21102.840733866782, 9316.74353083891, 0.604, -0.562, 0.594, 192.0, 18.0, 224.0, 238.0, 112.0, 18.0, 144.0, 0.0, 0.0, 0.0, 1.6636599970695944E9, 0.0, 2022-09-20 12:46:37.069
170.0, 27861.784739707084, 51095.618438198384, 17736.019818308334, -8433.201424265078, -40973.2733337013, 45830.08388639497, 22954.72746547788, 12393.684672556481, 0.604, -0.562, 0.594, 192.0, 0.0, 0.0, 0.0, 0.0, 0.0, 0.0, 0.0, 0.0, 0.0, 1.6636599970696263E9, 0.0, 2022-09-20 12:46:37.069
171.0, 28250.123947873588, 51442.49516040029, 18086.830447534376, -8341.31340280931, -39545.60036010747, 45857.88945649737, 23619.222476389707, 14818.960704679574, 0.604, -0.562, 0.594, 192.0, 0.0, 0.0, 0.0, 0.0, 0.0, 0.0, 0.0, 0.0, 0.0, 1.6636599970696607E9, 0.0, 2022-09-20 12:46:37.069
172.0, 27520.808878041375, 50949.862712605325, 17314.734138814707, -8952.588910173048, -40324.37984041928, 45883.90688704335, 22359.634621099787, 13971.963700290169, 0.604, -0.562, 0.594, 192.0, 0.0, 0.0, 0.0, 0.0, 0.0, 0.0, 0.0, 0.0, 0.0, 1.663659997069721E9, 0.0, 2022-09-20 12:46:37.069
173.0, 26439.163260360154, 50073.696681701746, 16321.020283820664, -9611.585391948867, -42663.84752557844, 45878.69893058526, 20642.50655680973, 9945.051067477592, 0.604, -0.562, 0.594, 192.0, 0.0, 0.0, 0.0, 0.0, 0.0, 0.0, 0.0, 0.0, 0.0, 1.6636599970697424E9, 0.0, 2022-09-20 12:46:37.069
174.0, 26761.028380516575, 50271.91195153141, 16663.426657131513, -9175.77107855929, -42893.69051381237, 45835.13538064187, 21132.99323713699, 9332.836786846732, 0.604, -0.562, 0.594, 192.0, 0.0, 0.0, 0.0, 0.0, 0.0, 0.0, 0.0, 0.0, 0.0, 1.6636599970697644E9, 0.0, 2022-09-20 12:46:37.069
175.0, 27876.13455964739, 51106.72725519267, 17750.235527781908, -8432.597927164785, -40885.07335008065, 45836.16356088681, 22977.705058777938, 12414.583553622193, 0.604, -0.562, 0.594, 192.0, 0.0, 0.0, 0.0, 0.0, 0.0, 0.0, 0.0, 0.0, 0.0, 1.663659997069794E9, 0.0, 2022-09-20 12:46:37.069
176.0, 28246.145337360544, 51441.31051794416, 18079.297909652938, -8353.875083193194, -39497.00766766163, 45845.79716274705, 23601.34108082546, 14798.732375947522, 0.604, -0.562, 0.594, 192.0, 0.0, 0.0, 0.0, 0.0, 0.0, 0.0, 0.0, 0.0, 0.0, 1.6636599970698225E9, 0.0, 2022-09-20 12:46:37.069
177.0, 27506.146133678692, 50938.686840377675, 17303.513563098142, -8963.362451000507, -40301.1116744413, 45873.31216017153, 22326.308170116925, 13902.449775034163, 0.604, -0.562, 0.594, 192.0, 0.0, 0.0, 0.0, 0.0, 0.0, 0.0, 0.0, 0.0, 0.0, 1.6636599970698469E9, 0.0, 2022-09-20 12:46:37.069
178.0, 26436.548106258884, 50069.785126422066, 16322.56255418808, -9604.633999423266, -42628.77763852807, 45877.246067195665, 20633.767024727706, 9880.253360301658, 0.604, -0.562, 0.594, 192.0, 0.0, 0.0, 0.0, 0.0, 0.0, 0.0, 0.0, 0.0, 0.0, 1.663659997069872E9, 0.0, 2022-09-20 12:46:37.069
179.0, 26781.323764481996, 50280.15974523542, 16679.184636972506, -9155.900377738522, -42820.466198976785, 45848.1217441704, 21156.216699626053, 9337.776522371356, 0.6, -0.5700000000000001, 0.586, 192.0, 18.0, 192.0, 238.0, 48.0, 18.0, 80.0, 0.0, 0.0, 0.0, 1.6636599970698984E9, 0.0, 2022-09-20 12:46:37.069
180.0, 27898.396897124876, 51121.769979211094, 17769.41332452456, -8413.509537399952, -40796.35927633754, 45831.15677012882, 23008.014024259333, 12444.490187703394, 0.6, -0.5700000000000001, 0.586, 192.0, 0.0, 0.0, 0.0, 0.0, 0.0, 0.0, 0.0, 0.0, 0.0, 1.6636599970699296E9, 0.0, 2022-09-20 12:46:37.069
181.0, 28259.19875612244, 51451.547616904696, 18088.707994068624, -8340.307574308823, -39425.303271449004, 45856.57070357451, 23611.6228832749, 14807.851887685287, 0.6, -0.5700000000000001, 0.586, 192.0, 0.0, 0.0, 0.0, 0.0, 0.0, 0.0, 0.0, 0.0, 0.0, 1.6636599970699651E9, 0.0, 2022-09-20 12:46:37.069
182.0, 27492.131589905213, 50926.92982279418, 17287.487362323685, -8971.34202377105, -40289.71228476909, 45883.817480065525, 22296.22272208008, 13812.573410579374, 0.6, -0.5700000000000001, 0.586, 192.0, 0.0, 0.0, 0.0, 0.0, 0.0, 0.0, 0.0, 0.0, 0.0, 1.6636599970699909E9, 0.0, 2022-09-20 12:46:37.069
183.0, 26432.345978301288, 50067.594655465444, 16318.427481463848, -9598.263752253504, -42619.43460934575, 45875.077947983504, 20617.3161408086, 9777.837667207441, 0.6, -0.5700000000000001, 0.586, 192.0, 0.0, 0.0, 0.0, 0.0, 0.0, 0.0, 0.0, 0.0, 0.0, 1.6636599970700123E9, 0.0, 2022-09-20 12:46:37.070
184.0, 26805.463648493725, 50305.19369902536, 16703.033948306318, -9129.637078003536, -42753.768593522145, 45843.42787783479, 21185.63159532924, 9328.969935055964, 0.6, -0.5700000000000001, 0.586, 192.0, 0.0, 0.0, 0.0, 0.0, 0.0, 0.0, 0.0, 0.0, 0.0, 1.6636599970700352E9, 0.0, 2022-09-20 12:46:37.070
185.0, 27915.987720011202, 51140.94777595375, 17788.434659056027, -8400.254952937956, -40713.34489743053, 45845.372479602396, 23033.204440260466, 12460.829312900223, 0.6, -0.5700000000000001, 0.586, 192.0, 0.0, 0.0, 0.0, 0.0, 0.0, 0.0, 0.0, 0.0, 0.0, 1.663659997070062E9, 0.0, 2022-09-20 12:46:37.070
186.0, 28251.06272114071, 51447.92663430293, 18082.0695259654, -8350.209397102522, -39373.93896269071, 45878.38600616289, 23598.323595323993, 14779.398116993681, 0.6, -0.5700000000000001, 0.586, 192.0, 0.0, 0.0, 0.0, 0.0, 0.0, 0.0, 0.0, 0.0, 0.0, 1.6636599970700855E9, 0.0, 2022-09-20 12:46:37.070
187.0, 27466.985877392995, 50905.91918300619, 17261.447580033255, -8992.486774025772, -40282.42561607667, 45894.434558681794, 22255.967230316073, 13699.89826678017, 0.6, -0.5700000000000001, 0.586, 192.0, 0.0, 0.0, 0.0, 0.0, 0.0, 0.0, 0.0, 0.0, 0.0, 1.663659997070109E9, 0.0, 2022-09-20 12:46:37.070
188.0, 26422.22063806303, 50053.96009134771, 16307.475126680749, -9605.99745583504, -42603.34135333793, 45871.32285491501, 20599.278283033167, 9668.716450776632, 0.6, -0.5700000000000001, 0.586, 192.0, 0.0, 0.0, 0.0, 0.0, 0.0, 0.0, 0.0, 0.0, 0.0, 1.6636599970701632E9, 0.0, 2022-09-20 12:46:37.070
189.0, 26817.868866666424, 50311.29572526166, 16716.869678124152, -9118.215336586874, -42682.37712173189, 45838.108162654426, 21209.793831085426, 9313.144899981608, 0.598, -0.5660000000000001, 0.588, 192.0, 18.0, 176.0, 238.0, 80.0, 18.0, 96.0, 0.0, 0.0, 0.0, 1.663659997070187E9, 0.0, 2022-09-20 12:46:37.070
190.0, 27926.2918742051, 51144.434648088776, 17800.86222897318, -8394.443499379575, -40628.92235862283, 45844.27724412409, 23059.266574295354, 12460.60579545567, 0.598, -0.5660000000000001, 0.588, 192.0, 0.0, 0.0, 0.0, 0.0, 0.0, 0.0, 0.0, 0.0, 0.0, 1.663659997070212E9, 0.0, 2022-09-20 12:46:37.070
191.0, 28242.010264636312, 51436.81781730865, 18072.681793294167, -8360.670013507606, -39321.92645334321, 45860.59401757646, 23591.551016754034, 14742.897718298163, 0.598, -0.5660000000000001, 0.588, 192.0, 0.0, 0.0, 0.0, 0.0, 0.0, 0.0, 0.0, 0.0, 0.0, 1.6636599970702538E9, 0.0, 2022-09-20 12:46:37.070
192.0, 27440.56611544682, 50884.774432751474, 17238.69350417775, -9012.715102757824, -40266.891153680226, 45878.721282329716, 22227.289942179912, 13617.621495440186, 0.598, -0.5660000000000001, 0.588, 192.0, 0.0, 0.0, 0.0, 0.0, 0.0, 0.0, 0.0, 0.0, 0.0, 1.6636599970702791E9, 0.0, 2022-09-20 12:46:37.070
193.0, 26400.785315130393, 50041.264300497096, 16294.712280596768, -9619.85553739733, -42581.41429202727, 45867.99244499117, 20591.097544562526, 9612.881793127275, 0.598, -0.5660000000000001, 0.588, 192.0, 0.0, 0.0, 0.0, 0.0, 0.0, 0.0, 0.0, 0.0, 0.0, 1.6636599970703063E9, 0.0, 2022-09-20 12:46:37.070
194.0, 26815.857209665446, 50309.976972338794, 16722.3458555157, -9122.931554666944, -42626.43070536026, 45829.50274103913, 21228.837517361346, 9333.619097902669, 0.598, -0.5660000000000001, 0.588, 192.0, 0.0, 0.0, 0.0, 0.0, 0.0, 0.0, 0.0, 0.0, 0.0, 1.663659997070332E9, 0.0, 2022-09-20 12:46:37.070
195.0, 27923.833182315015, 51139.74078175316, 17798.224723127452, -8406.915772785636, -40572.528907362095, 45827.51343578261, 23066.57559473224, 12496.279179606341, 0.598, -0.5660000000000001, 0.588, 192.0, 0.0, 0.0, 0.0, 0.0, 0.0, 0.0, 0.0, 0.0, 0.0, 1.663659997070358E9, 0.0, 2022-09-20 12:46:37.070
196.0, 28230.901447642023, 51426.51366311475, 18055.247432619028, -8378.640816049674, -39280.30750516743, 45853.821439006504, 23575.793036913044, 14772.893759357186, 0.598, -0.5660000000000001, 0.588, 192.0, 0.0, 0.0, 0.0, 0.0, 0.0, 0.0, 0.0, 0.0, 0.0, 1.6636599970703893E9, 0.0, 2022-09-20 12:46:37.070
197.0, 27413.721670355997, 50860.56749350637, 17208.853925329917, -9034.843329768579, -40265.77356645746, 45879.03420675209, 22184.642813759187, 13582.059870011792, 0.598, -0.5660000000000001, 0.588, 192.0, 0.0, 0.0, 0.0, 0.0, 0.0, 0.0, 0.0, 0.0, 0.0, 1.663659997070416E9, 0.0, 2022-09-20 12:46:37.070
198.0, 26388.044820790867, 50025.61807937838, 16278.753135055678, -9625.242307811059, -42578.88854490382, 45870.808764792535, 20565.370686694467, 9581.634054378756, 0.598, -0.5660000000000001, 0.588, 192.0, 0.0, 0.0, 0.0, 0.0, 0.0, 0.0, 0.0, 0.0, 0.0, 1.6636599970704405E9, 0.0, 2022-09-20 12:46:37.070
199.0, 26836.085538397496, 50322.225728300305, 16732.87352715415, -9107.732368437335, -42568.584390709926, 45839.04693592154, 21246.87537513678, 9405.52465981539, 0.602, -0.5700000000000001, 0.584, 192.0, 18.0, 208.0, 238.0, 48.0, 18.0, 64.0, 0.0, 0.0, 0.0, 1.6636599970704668E9, 0.0, 2022-09-20 12:46:37.070
200.0, 27940.887563334414, 51148.86029349093, 17810.629941300147, -8399.964380260037, -40498.65639193731, 45843.36082260142, 23082.624147251146, 12600.103032601242, 0.602, -0.5700000000000001, 0.584, 192.0, 0.0, 0.0, 0.0, 0.0, 0.0, 0.0, 0.0, 0.0, 0.0, 1.6636599970704956E9, 0.0, 2022-09-20 12:46:37.070
201.0, 28230.07443309718, 51422.89268051299, 18051.894670950733, -8384.139345185678, -39247.09281290684, 45860.90694199884, 23557.12933029286, 14831.678847274645, 0.602, -0.5700000000000001, 0.584, 192.0, 0.0, 0.0, 0.0, 0.0, 0.0, 0.0, 0.0, 0.0, 0.0, 1.6636599970705197E9, 0.0, 2022-09-20 12:46:37.070
202.0, 27399.014222504407, 50846.5529497329, 17194.660567600797, -9047.382658408005, -40278.625819519264, 45879.14596547437, 22147.47186273001, 13571.576901862252, 0.602, -0.5700000000000001, 0.584, 192.0, 0.0, 0.0, 0.0, 0.0, 0.0, 0.0, 0.0, 0.0, 0.0, 1.6636599970705452E9, 0.0, 2022-09-20 12:46:37.070
203.0, 26384.08856202228, 50018.77844557506, 16274.998041987186, -9624.325886288392, -42596.14409162332, 45870.49584037016, 20549.702113831296, 9573.430964163657, 0.602, -0.5700000000000001, 0.584, 192.0, 0.0, 0.0, 0.0, 0.0, 0.0, 0.0, 0.0, 0.0, 0.0, 1.6636599970705996E9, 0.0, 2022-09-20 12:46:37.070
204.0, 26861.94650673229, 50338.31898430813, 16755.6052512652, -9088.867496117056, -42539.43771594021, 45837.92934869878, 21278.614852263316, 9484.515724720446, 0.602, -0.5700000000000001, 0.584, 192.0, 0.0, 0.0, 0.0, 0.0, 0.0, 0.0, 0.0, 0.0, 0.0, 1.6636599970706296E9, 0.0, 2022-09-20 12:46:37.070
205.0, 27960.870022877458, 51166.00408148814, 17831.72998806596, -8384.496973096964, -40468.1015572669, 45844.29959586854, 23115.43650811154, 12689.46530693356, 0.602, -0.5700000000000001, 0.584, 192.0, 0.0, 0.0, 0.0, 0.0, 0.0, 0.0, 0.0, 0.0, 0.0, 1.6636599970706627E9, 0.0, 2022-09-20 12:46:37.070
206.0, 28234.030691865766, 51430.17934920542, 18057.19203438664, -8378.529057327398, -39244.187086127655, 45862.44921236625, 23565.7124001637, 14892.5649991709, 0.602, -0.5700000000000001, 0.584, 192.0, 0.0, 0.0, 0.0, 0.0, 0.0, 0.0, 0.0, 0.0, 0.0, 1.6636599970706928E9, 0.0, 2022-09-20 12:46:37.070
207.0, 27388.307736910312, 50840.54033047442, 17185.608111096397, -9054.758734078257, -40319.17188396119, 45880.71058758624, 22125.880077586186, 13552.801436519794, 0.602, -0.5700000000000001, 0.584, 192.0, 0.0, 0.0, 0.0, 0.0, 0.0, 0.0, 0.0, 0.0, 0.0, 1.6636599970707211E9, 0.0, 2022-09-20 12:46:37.070
208.0, 26397.16433252863, 50029.641393380334, 16283.961091513765, -9615.966333862107, -42621.37921111336, 45873.80389854955, 20550.59618360951, 9570.212312962094, 0.602, -0.5700000000000001, 0.584, 192.0, 0.0, 0.0, 0.0, 0.0, 0.0, 0.0, 0.0, 0.0, 0.0, 1.6636599970707524E9, 0.0, 2022-09-20 12:46:37.070
209.0, 26882.800684309088, 50356.84858046158, 16777.241739897938, -9072.908350575966, -42533.51450365955, 45844.880741224384, 21299.491381584572, 9538.696353280111, 0.602, -0.5700000000000001, 0.584, 192.0, 0.0, 0.0, 0.0, 0.0, 0.0, 0.0, 0.0, 0.0, 0.0, 1.6636599970707836E9, 0.0, 2022-09-20 12:46:37.070
210.0, 27979.19845333081, 51181.98557877369, 17852.517110409393, -8375.220999148012, -40466.22401073266, 45853.687328539774, 23131.68622633055, 12743.534176770947, 0.606, -0.5680000000000001, 0.586, 192.0, 18.0, 240.0, 238.0, 64.0, 18.0, 80.0, 0.0, 0.0, 0.0, 1.6636599970708156E9, 0.0, 2022-09-20 12:46:37.070
211.0, 28230.320302286185, 51434.38147716302, 18060.365982099294, -8378.260836393933, -39274.16077544222, 45869.22179093621, 23550.535565678547, 14911.541630213456, 0.606, -0.5680000000000001, 0.586, 192.0, 0.0, 0.0, 0.0, 0.0, 0.0, 0.0, 0.0, 0.0, 0.0, 1.6636599970708487E9, 0.0, 2022-09-20 12:46:37.070
212.0, 27364.07844592076, 50826.77165588995, 17173.091134201426, -9063.610024882559, -40380.12509109081, 45883.23633470969, 22091.86072252521, 13510.243715076891, 0.606, -0.5680000000000001, 0.586, 192.0, 0.0, 0.0, 0.0, 0.0, 0.0, 0.0, 0.0, 0.0, 0.0, 1.6636599970708797E9, 0.0, 2022-09-20 12:46:37.070
213.0, 26387.50837892394, 50022.935870043744, 16291.359518928472, -9605.930400601674, -42660.651226121336, 45867.99244499117, 20547.15401496339, 9543.770199271465, 0.606, -0.5680000000000001, 0.586, 192.0, 0.0, 0.0, 0.0, 0.0, 0.0, 0.0, 0.0, 0.0, 0.0, 1.6636599970709107E9, 0.0, 2022-09-20 12:46:37.070
214.0, 26902.961957807776, 50374.32764462563, 16812.4680891595, -9044.096951973075, -42517.46595114064, 45838.4210870768, 21338.003437281066, 9601.95179008863, 0.606, -0.5680000000000001, 0.586, 192.0, 0.0, 0.0, 0.0, 0.0, 0.0, 0.0, 0.0, 0.0, 0.0, 1.6636599970709395E9, 0.0, 2022-09-20 12:46:37.070
215.0, 27989.63671799144, 51192.28973296758, 17880.59090144526, -8356.959623928025, -40441.25711217608, 45856.056613452034, 23157.480139431973, 12822.592296909368, 0.606, -0.5680000000000001, 0.586, 192.0, 0.0, 0.0, 0.0, 0.0, 0.0, 0.0, 0.0, 0.0, 0.0, 1.6636599970709715E9, 0.0, 2022-09-20 12:46:37.070
216.0, 28226.833430151157, 51430.984012005814, 18074.00054621703, -8368.001385688947, -39274.60781033133, 45870.674654325805, 23547.249859243617, 14955.172235390215, 0.606, -0.5680000000000001, 0.586, 192.0, 0.0, 0.0, 0.0, 0.0, 0.0, 0.0, 0.0, 0.0, 0.0, 1.663659997071E9, 0.0, 2022-09-20 12:46:37.071
217.0, 27357.28351560635, 50817.383923218724, 17185.83162854095, -9052.858835799556, -40407.08129490391, 45898.36846570593, 22079.52255958588, 13492.585836957198, 0.606, -0.5680000000000001, 0.586, 192.0, 0.0, 0.0, 0.0, 0.0, 0.0, 0.0, 0.0, 0.0, 0.0, 1.6636599970710227E9, 0.0, 2022-09-20 12:46:37.071
218.0, 26391.66580339263, 50021.41595142078, 16314.94060932882, -9589.70303412712, -42675.93981932876, 45886.27617195561, 20556.564099379077, 9540.618603303266, 0.606, -0.5680000000000001, 0.586, 192.0, 0.0, 0.0, 0.0, 0.0, 0.0, 0.0, 0.0, 0.0, 0.0, 1.6636599970710533E9, 0.0, 2022-09-20 12:46:37.071
219.0, 26923.592617940023, 50389.43742387741, 16851.181310556094, -9021.566393562127, -42480.8761454673, 45851.78743026107, 21379.108295334376, 9682.239256172092, 0.606, -0.5680000000000001, 0.586, 192.0, 0.0, 0.0, 0.0, 0.0, 0.0, 0.0, 0.0, 0.0, 0.0, 1.6636599970711071E9, 0.0, 2022-09-20 12:46:37.071
220.0, 27999.002098918212, 51203.53266042861, 17907.077718624798, -8345.202606344534, -40397.9841349106, 45855.587226818476, 23187.16325606862, 12907.88655375082, 0.604, -0.558, 0.582, 192.0, 18.0, 224.0, 238.0, 144.0, 18.0, 48.0, 0.0, 0.0, 0.0, 1.6636599970711384E9, 0.0, 2022-09-20 12:46:37.071
221.0, 28219.479706225364, 51431.27458468373, 18074.358174128316, -8376.338586370777, -39264.05778694842, 45880.30825618604, 23537.638609127833, 14988.163410206249, 0.604, -0.558, 0.582, 192.0, 0.0, 0.0, 0.0, 0.0, 0.0, 0.0, 0.0, 0.0, 0.0, 1.6636599970711627E9, 0.0, 2022-09-20 12:46:37.071
222.0, 27340.340893309225, 50809.78433010392, 17175.236901669134, -9067.789801095701, -40430.550626581986, 45914.41701822484, 22055.02504766286, 13462.52274066481, 0.604, -0.558, 0.582, 192.0, 0.0, 0.0, 0.0, 0.0, 0.0, 0.0, 0.0, 0.0, 0.0, 1.6636599970711873E9, 0.0, 2022-09-20 12:46:37.071
223.0, 26396.158504028142, 50028.90378581331, 16321.936705343333, -9583.869228824286, -42679.56080193053, 45898.077893028014, 20561.68264885934, 9534.31541136687, 0.604, -0.558, 0.582, 192.0, 0.0, 0.0, 0.0, 0.0, 0.0, 0.0, 0.0, 0.0, 0.0, 1.663659997071215E9, 0.0, 2022-09-20 12:46:37.071
224.0, 26946.726673451267, 50404.435444406925, 16874.091848622782, -9010.16700388992, -42443.995767116045, 45863.23152342219, 21418.29090336453, 9740.577309200444, 0.604, -0.558, 0.582, 192.0, 0.0, 0.0, 0.0, 0.0, 0.0, 0.0, 0.0, 0.0, 0.0, 1.6636599970712416E9, 0.0, 2022-09-20 12:46:37.071
225.0, 28013.21780839179, 51207.91360234185, 17921.159317631642, -8343.615632488207, -40365.395291494766, 45865.98078799019, 23216.22052386052, 12955.272251996072, 0.604, -0.558, 0.582, 192.0, 0.0, 0.0, 0.0, 0.0, 0.0, 0.0, 0.0, 0.0, 0.0, 1.6636599970712657E9, 0.0, 2022-09-20 12:46:37.071
226.0, 28217.378642246564, 51423.65263982447, 18073.53115958347, -8375.13159217019, -39256.346435111336, 45884.48803239918, 23541.304295218506, 15004.122555747337, 0.604, -0.558, 0.582, 192.0, 0.0, 0.0, 0.0, 0.0, 0.0, 0.0, 0.0, 0.0, 0.0, 1.6636599970712907E9, 0.0, 2022-09-20 12:46:37.071
227.0, 27329.187372826025, 50797.66968460914, 17162.02702069605, -9072.37190870904, -40455.11519373837, 45903.263497741646, 22031.935695640528, 13404.899943459028, 0.604, -0.558, 0.582, 192.0, 0.0, 0.0, 0.0, 0.0, 0.0, 0.0, 0.0, 0.0, 0.0, 1.6636599970713196E9, 0.0, 2022-09-20 12:46:37.071
228.0, 26407.42378323362, 50037.77742836207, 16325.691798411823, -9577.923664799175, -42684.142909543865, 45888.80191907906, 20564.476616916254, 9488.047300344384, 0.604, -0.558, 0.582, 192.0, 0.0, 0.0, 0.0, 0.0, 0.0, 0.0, 0.0, 0.0, 0.0, 1.663659997071344E9, 0.0, 2022-09-20 12:46:37.071
229.0, 26984.881101236475, 50441.87461636956, 16900.601017546775, -8989.759861202225, -42394.59841186982, 45860.70577629874, 21460.178072473773, 9774.149629372314, 0.604, -0.558, 0.582, 192.0, 0.0, 0.0, 0.0, 0.0, 0.0, 0.0, 0.0, 0.0, 0.0, 1.6636599970713696E9, 0.0, 2022-09-20 12:46:37.071
230.0, 28051.014608265712, 51252.05829764108, 17950.283640656908, -8330.830434659772, -40298.11654068429, 45865.39964263435, 23259.426445892626, 13011.106909645428, 0.598, -0.56, 0.584, 192.0, 18.0, 176.0, 238.0, 128.0, 18.0, 64.0, 0.0, 0.0, 0.0, 1.6636599970713966E9, 0.0, 2022-09-20 12:46:37.071
231.0, 28231.549648231226, 51455.61563439556, 18083.365927143805, -8382.820592262817, -39215.21922531357, 45897.027361038614, 23553.79892036902, 15025.580230424433, 0.598, -0.56, 0.584, 192.0, 0.0, 0.0, 0.0, 0.0, 0.0, 0.0, 0.0, 0.0, 0.0, 1.6636599970714245E9, 0.0, 2022-09-20 12:46:37.071
232.0, 27317.02802384234, 50801.87181256674, 17153.935689203227, -9086.878190860532, -40467.810984588985, 45924.52000671864, 22014.903666365586, 13346.137207286027, 0.598, -0.56, 0.584, 192.0, 0.0, 0.0, 0.0, 0.0, 0.0, 0.0, 0.0, 0.0, 0.0, 1.6636599970714495E9, 0.0, 2022-09-20 12:46:37.071
233.0, 26404.518056454428, 50044.50530344311, 16336.599449706013, -9573.386260674746, -42687.4733194677, 45906.4374454543, 20573.037335042638, 9456.7325063625, 0.598, -0.56, 0.584, 192.0, 0.0, 0.0, 0.0, 0.0, 0.0, 0.0, 0.0, 0.0, 0.0, 1.6636599970714772E9, 0.0, 2022-09-20 12:46:37.071
234.0, 27006.338775913573, 50462.32646254617, 16934.598020863297, -8962.647195177937, -42348.084431658324, 45885.069177755024, 21503.652215439346, 9837.695638858753, 0.598, -0.56, 0.584, 192.0, 0.0, 0.0, 0.0, 0.0, 0.0, 0.0, 0.0, 0.0, 0.0, 1.6636599970715103E9, 0.0, 2022-09-20 12:46:37.071
235.0, 28066.23614623978, 51263.03300416863, 17975.36229793576, -8308.568097182286, -40248.60742671578, 45883.86218355443, 23288.014327050965, 13084.644148903388, 0.598, -0.56, 0.584, 192.0, 0.0, 0.0, 0.0, 0.0, 0.0, 0.0, 0.0, 0.0, 0.0, 1.6636599970715554E9, 0.0, 2022-09-20 12:46:37.071
236.0, 28233.047215109735, 51455.66033788447, 18088.909159768722, -8368.738993255973, -39202.34462050732, 45901.765930863134, 23549.641495900334, 15052.849358659907, 0.598, -0.56, 0.584, 192.0, 0.0, 0.0, 0.0, 0.0, 0.0, 0.0, 0.0, 0.0, 0.0, 1.663659997071574E9, 0.0, 2022-09-20 12:46:37.071
237.0, 27310.50131446139, 50795.993303774994, 17151.946383946703, -9083.436022214415, -40487.7040371542, 45927.85041664248, 21995.368241711647, 13299.690282307898, 0.598, -0.56, 0.584, 192.0, 0.0, 0.0, 0.0, 0.0, 0.0, 0.0, 0.0, 0.0, 0.0, 1.6636599970715928E9, 0.0, 2022-09-20 12:46:37.071
238.0, 26408.787239645393, 50044.05826855401, 16341.360371274994, -9563.484437881045, -42697.151624816855, 45908.002067566165, 20569.103428018505, 9417.594601821256, 0.598, -0.56, 0.584, 192.0, 0.0, 0.0, 0.0, 0.0, 0.0, 0.0, 0.0, 0.0, 0.0, 1.6636599970716138E9, 0.0, 2022-09-20 12:46:37.071
239.0, 27028.7799273467, 50474.351701063126, 16953.328782716846, -8949.996107816232, -42315.07090509783, 45876.08377648399, 21530.49666053017, 9863.780124638097, 0.598, -0.56, 0.584, 192.0, 0.0, 0.0, 0.0, 0.0, 0.0, 0.0, 0.0, 0.0, 0.0, 1.6636599970716414E9, 0.0, 2022-09-20 12:46:37.071
240.0, 28083.424637725908, 51274.07476592955, 17990.874408587744, -8303.11427153519, -40208.03901052941, 45896.826195338515, 23314.970530864066, 13114.059044606573, 0.598, -0.5680000000000001, 0.5760000000000001, 192.0, 18.0, 176.0, 238.0, 64.0, 18.0, 0.0, 0.0, 0.0, 0.0, 1.6636599970716593E9, 0.0, 2022-09-20 12:46:37.071
241.0, 28236.86936341159, 51456.37559370704, 18087.612758590312, -8371.890589224171, -39186.67604764415, 45929.77266666564, 23546.691065632232, 15046.434408001234, 0.598, -0.5680000000000001, 0.5760000000000001, 192.0, 0.0, 0.0, 0.0, 0.0, 0.0, 0.0, 0.0, 0.0, 0.0, 1.6636599970716944E9, 0.0, 2022-09-20 12:46:37.071
242.0, 27296.59852941019, 50778.9836262445, 17136.09899712789, -9096.243571787307, -40516.13545610136, 45940.27798655963, 21964.187558196492, 13216.318275489602, 0.598, -0.5680000000000001, 0.5760000000000001, 192.0, 0.0, 0.0, 0.0, 0.0, 0.0, 0.0, 0.0, 0.0, 0.0, 1.66365999754972E9, 0.0, 2022-09-20 12:46:37.549
243.0, 26416.587998460294, 50045.2652627546, 16353.47501676977, -9551.928585997652, -42704.79592142057, 45923.178902051324, 20578.535864178644, 9366.342051785237, 0.598, -0.5680000000000001, 0.5760000000000001, 192.0, 0.0, 0.0, 0.0, 0.0, 0.0, 0.0, 0.0, 0.0, 0.0, 1.663659997549784E9, 0.0, 2022-09-20 12:46:37.549
244.0, 27057.658381182955, 50499.83268974217, 16990.99147212404, -8912.33341840904, -42281.2303639925, 45893.76400634814, 21579.625794842934, 9891.876267418416, 0.598, -0.5680000000000001, 0.5760000000000001, 192.0, 0.0, 0.0, 0.0, 0.0, 0.0, 0.0, 0.0, 0.0, 0.0, 1.6636599975498152E9, 0.0, 2022-09-20 12:46:37.549
245.0, 28106.89396940398, 51296.44886212932, 18017.76355716748, -8271.26303568638, -40183.72031256203, 45904.582250664505, 23351.04624641493, 13145.418542077368, 0.598, -0.5680000000000001, 0.5760000000000001, 192.0, 0.0, 0.0, 0.0, 0.0, 0.0, 0.0, 0.0, 0.0, 0.0, 1.6636599975498533E9, 0.0, 2022-09-20 12:46:37.549
246.0, 28244.58071524867, 51467.84203861261, 18096.039366249963, -8349.851769191238, -39199.796521639415, 45931.89608238889, 23553.24012675764, 15042.54520446601, 0.598, -0.5680000000000001, 0.5760000000000001, 192.0, 0.0, 0.0, 0.0, 0.0, 0.0, 0.0, 0.0, 0.0, 0.0, 1.6636599975498977E9, 0.0, 2022-09-20 12:46:37.549
247.0, 27289.133046762116, 50780.57060010083, 17131.472186025643, -9081.044385557698, -40579.9273347768, 45950.62684424244, 21950.731808034398, 13138.847129207508, 0.598, -0.5680000000000001, 0.5760000000000001, 192.0, 0.0, 0.0, 0.0, 0.0, 0.0, 0.0, 0.0, 0.0, 0.0, 1.6636599975499227E9, 0.0, 2022-09-20 12:46:37.549
248.0, 26419.38196651721, 50050.987309335156, 16358.168883105385, -9531.901422965697, -42766.55379135058, 45932.7901521671, 20583.87793110346, 9310.038007502319, 0.598, -0.5680000000000001, 0.5760000000000001, 192.0, 0.0, 0.0, 0.0, 0.0, 0.0, 0.0, 0.0, 0.0, 0.0, 1.663659997549952E9, 0.0, 2022-09-20 12:46:37.549
249.0, 27079.83131168262, 50511.83557651468, 17009.766937466495, -8888.662921030871, -42301.30223051336, 45896.468567427226, 21612.169934769863, 9919.167747398347, 0.598, -0.5680000000000001, 0.5760000000000001, 192.0, 0.0, 0.0, 0.0, 0.0, 0.0, 0.0, 0.0, 0.0, 0.0, 1.663659997549979E9, 0.0, 2022-09-20 12:46:37.549
250.0, 28127.1893533694, 51307.1106442345, 18031.28636256294, -8256.421477368054, -40195.8349580568, 45912.338305990495, 23372.414514114203, 13182.835362295553, 0.604, -0.5720000000000001, 0.578, 192.0, 18.0, 224.0, 238.0, 32.0, 18.0, 16.0, 0.0, 0.0, 0.0, 1.6636599975500388E9, 0.0, 2022-09-20 12:46:37.550
251.0, 28243.68664547046, 51468.95962583538, 18092.016052248007, -8348.354202312732, -39243.896513449734, 45937.70753594727, 23539.829080084455, 15036.085550318427, 0.604, -0.5720000000000001, 0.578, 192.0, 0.0, 0.0, 0.0, 0.0, 0.0, 0.0, 0.0, 0.0, 0.0, 1.6636599975500567E9, 0.0, 2022-09-20 12:46:37.550
252.0, 27269.262345941348, 50766.75722202745, 17113.590790461396, -9089.649807172991, -40663.03112066163, 45962.98735892622, 21917.09243262916, 13058.939642779786, 0.604, -0.5720000000000001, 0.578, 192.0, 0.0, 0.0, 0.0, 0.0, 0.0, 0.0, 0.0, 0.0, 0.0, 1.6636599975500734E9, 0.0, 2022-09-20 12:46:37.550
253.0, 26421.61714096274, 50060.822076895485, 16358.302993572117, -9520.412626315669, -42828.33401302505, 45948.548132008094, 20578.066477545082, 9252.415210296538, 0.604, -0.5720000000000001, 0.578, 192.0, 0.0, 0.0, 0.0, 0.0, 0.0, 0.0, 0.0, 0.0, 0.0, 1.6636599975500913E9, 0.0, 2022-09-20 12:46:37.550
254.0, 27112.46485858737, 50550.10176302216, 17039.360647125322, -8859.270377072142, -42300.31875375733, 45914.8864048584, 21651.486653266747, 9936.445645862299, 0.604, -0.5720000000000001, 0.578, 192.0, 0.0, 0.0, 0.0, 0.0, 0.0, 0.0, 0.0, 0.0, 0.0, 1.6636599975501072E9, 0.0, 2022-09-20 12:46:37.550
255.0, 28153.653818804483, 51337.710182393814, 18065.81980774639, -8230.515805544353, -40174.62315256872, 45926.0399253416, 23410.01014828803, 13200.627350881978, 0.604, -0.5720000000000001, 0.578, 192.0, 0.0, 0.0, 0.0, 0.0, 0.0, 0.0, 0.0, 0.0, 0.0, 1.6636599975501232E9, 0.0, 2022-09-20 12:46:37.550
0.0, 28254.460186297918, 51480.73899516332, 18111.104442012842, -8335.948984140037, -39236.78865871295, 45961.08746064752, 23550.62497265637, 15013.06325352946, 0.604, -0.5720000000000001, 0.578, 192.0, 0.0, 0.0, 0.0, 0.0, 0.0, 0.0, 0.0, 0.0, 0.0, 1.6636599975501394E9, 0.0, 2022-09-20 12:46:37.550
1.0, 27279.320630946237, 50772.166344185636, 17125.459566767164, -9079.680929145925, -40667.255600363686, 45980.91345797938, 21915.03607213927, 12979.94857787473, 0.604, -0.5720000000000001, 0.578, 192.0, 0.0, 0.0, 0.0, 0.0, 0.0, 0.0, 0.0, 0.0, 0.0, 1.6636599975501552E9, 0.0, 2022-09-20 12:46:37.550
2.0, 26447.433405808617, 50071.327396789486, 16383.62752003998, -9495.35632078127, -42795.365189953474, 45957.220608856755, 20603.70392843532, 9210.997427820854, 0.604, -0.5720000000000001, 0.578, 192.0, 0.0, 0.0, 0.0, 0.0, 0.0, 0.0, 0.0, 0.0, 0.0, 1.6636599975501711E9, 0.0, 2022-09-20 12:46:37.550
3.0, 27132.22380068586, 50556.80728635875, 17062.427647403198, -8843.154769319864, -42241.77953502888, 45917.56861419304, 21684.947214716343, 9948.40382914589, 0.604, -0.5720000000000001, 0.578, 192.0, 0.0, 0.0, 0.0, 0.0, 0.0, 0.0, 0.0, 0.0, 0.0, 1.663659997550187E9, 0.0, 2022-09-20 12:46:37.550
4.0, 28155.754882783283, 51335.51971143719, 18067.85381649182, -8232.48275905642, -40128.57855899078, 45913.679410657816, 23425.052872306453, 13212.47377544329, 0.602, -0.5660000000000001, 0.58, 192.0, 18.0, 208.0, 238.0, 80.0, 18.0, 32.0, 0.0, 0.0, 0.0, 1.663659997550215E9, 0.0, 2022-09-20 12:46:37.550
5.0, 28238.813965179204, 51467.551465934695, 18093.670081337703, -8348.51066452392, -39218.86255965979, 45942.960195894266, 23538.353864950404, 15000.322759189936, 0.602, -0.5660000000000001, 0.58, 192.0, 0.0, 0.0, 0.0, 0.0, 0.0, 0.0, 0.0, 0.0, 0.0, 1.6636599975502322E9, 0.0, 2022-09-20 12:46:37.550
6.0, 27241.546182816768, 50740.225701359, 17094.748269885575, -9108.492327748816, -40683.1029871825, 45961.31097809208, 21885.822342136187, 12909.428824118237, 0.602, -0.5660000000000001, 0.58, 192.0, 0.0, 0.0, 0.0, 0.0, 0.0, 0.0, 0.0, 0.0, 0.0, 1.663659997550248E9, 0.0, 2022-09-20 12:46:37.550
7.0, 26427.205077076564, 50052.82015238049, 16368.853016955021, -9511.941315167107, -42791.520689907156, 45939.83095167053, 20602.496934234732, 9175.256988436817, 0.602, -0.5660000000000001, 0.58, 192.0, 0.0, 0.0, 0.0, 0.0, 0.0, 0.0, 0.0, 0.0, 0.0, 1.663659997550264E9, 0.0, 2022-09-20 12:46:37.550
8.0, 27133.587257097635, 50552.359289212145, 17064.685173593185, -8847.468655999739, -42194.86322341719, 45909.410227466855, 21710.29409292866, 9989.26281801019, 0.602, -0.5660000000000001, 0.58, 192.0, 0.0, 0.0, 0.0, 0.0, 0.0, 0.0, 0.0, 0.0, 0.0, 1.6636599975502799E9, 0.0, 2022-09-20 12:46:37.550
9.0, 28145.629542545026, 51320.07465601858, 18057.214386131094, -8248.10662843068, -40084.65738113611, 45920.295527016584, 23428.11506129683, 13251.924604406906, 0.602, -0.5660000000000001, 0.58, 192.0, 0.0, 0.0, 0.0, 0.0, 0.0, 0.0, 0.0, 0.0, 0.0, 1.6636599975502956E9, 0.0, 2022-09-20 12:46:37.550
10.0, 28217.91508411349, 51445.62440462404, 18064.657517034713, -8371.689423524072, -39200.93646060663, 45935.02532661263, 23511.531771604037, 14999.763965578553, 0.602, -0.5660000000000001, 0.58, 192.0, 0.0, 0.0, 0.0, 0.0, 0.0, 0.0, 0.0, 0.0, 0.0, 1.6636599975503697E9, 0.0, 2022-09-20 12:46:37.550
11.0, 27215.461697037423, 50715.34820978025, 17059.879548535293, -9126.083150635142, -40699.35270540151, 45950.38097505343, 21840.962391014386, 12842.619459941323, 0.602, -0.5660000000000001, 0.58, 192.0, 0.0, 0.0, 0.0, 0.0, 0.0, 0.0, 0.0, 0.0, 0.0, 1.663659997550386E9, 0.0, 2022-09-20 12:46:37.550
12.0, 26424.053481108367, 50043.45477145371, 16355.24080458174, -9508.432091287625, -42782.95997178078, 45930.84555039949, 20589.55527419511, 9148.278432879262, 0.602, -0.5660000000000001, 0.58, 192.0, 0.0, 0.0, 0.0, 0.0, 0.0, 0.0, 0.0, 0.0, 0.0, 1.663659997550402E9, 0.0, 2022-09-20 12:46:37.550
13.0, 27155.313152708193, 50568.47489696442, 17070.831903318394, -8835.309307016052, -42138.71564134546, 45903.46466344174, 21730.902401316453, 10039.978926179281, 0.602, -0.5660000000000001, 0.58, 192.0, 0.0, 0.0, 0.0, 0.0, 0.0, 0.0, 0.0, 0.0, 0.0, 1.663659997550418E9, 0.0, 2022-09-20 12:46:37.550
14.0, 28168.249507933797, 51338.73836263876, 18058.82371173188, -8246.765523763363, -40039.1492294251, 45915.78047463662, 23434.999398589065, 13292.023633959727, 0.606, -0.5700000000000001, 0.578, 192.0, 18.0, 240.0, 238.0, 48.0, 18.0, 16.0, 0.0, 0.0, 0.0, 1.663659997550434E9, 0.0, 2022-09-20 12:46:37.550
15.0, 28225.045290594735, 51455.97326230684, 18053.414589573695, -8380.875990495204, -39192.733370391536, 45936.724059191234, 23493.069230683952, 14999.607503367366, 0.606, -0.5700000000000001, 0.578, 192.0, 0.0, 0.0, 0.0, 0.0, 0.0, 0.0, 0.0, 0.0, 0.0, 1.6636599975504513E9, 0.0, 2022-09-20 12:46:37.550
16.0, 27209.940816156963, 50713.850642901736, 17037.3713418688, -9145.484464822348, -40724.788990591645, 45950.67154773135, 21810.429908088438, 12791.188095949663, 0.606, -0.5700000000000001, 0.578, 192.0, 0.0, 0.0, 0.0, 0.0, 0.0, 0.0, 0.0, 0.0, 0.0, 1.6636599975504675E9, 0.0, 2022-09-20 12:46:37.550
17.0, 26438.984446404513, 50060.62091119539, 16358.23593833875, -9504.587591241312, -42780.88125954643, 45938.556902236574, 20596.21609404279, 9150.67006953598, 0.606, -0.5700000000000001, 0.578, 192.0, 0.0, 0.0, 0.0, 0.0, 0.0, 0.0, 0.0, 0.0, 0.0, 1.6636599975504832E9, 0.0, 2022-09-20 12:46:37.550
18.0, 27177.441379718948, 50586.98214137342, 17084.310005224947, -8825.899222600368, -42112.74291428839, 45894.34515170397, 21755.31050626165, 10095.90299080646, 0.606, -0.5700000000000001, 0.578, 192.0, 0.0, 0.0, 0.0, 0.0, 0.0, 0.0, 0.0, 0.0, 0.0, 1.6636599975505083E9, 0.0, 2022-09-20 12:46:37.550
19.0, 28178.374848172054, 51345.80151388663, 18063.115246667297, -8244.77621850684, -40019.77026698235, 45903.084683786, 23449.282163296004, 13350.652259665998, 0.606, -0.5700000000000001, 0.578, 192.0, 0.0, 0.0, 0.0, 0.0, 0.0, 0.0, 0.0, 0.0, 0.0, 1.663659997550542E9, 0.0, 2022-09-20 12:46:37.550
20.0, 28212.505961955307, 51446.07143951314, 18036.62842948776, -8389.32494989931, -39207.1055420763, 45921.81544563955, 23471.186872862207, 15020.528736177534, 0.606, -0.5700000000000001, 0.578, 192.0, 0.0, 0.0, 0.0, 0.0, 0.0, 0.0, 0.0, 0.0, 0.0, 1.6636599975505705E9, 0.0, 2022-09-20 12:46:37.550
21.0, 27185.48800772286, 50695.92454384858, 17015.109004391314, -9155.878025994067, -40777.31559006162, 45944.56952149505, 21769.056829101664, 12737.163929601185, 0.606, -0.5700000000000001, 0.578, 192.0, 0.0, 0.0, 0.0, 0.0, 0.0, 0.0, 0.0, 0.0, 0.0, 1.6636599975505962E9, 0.0, 2022-09-20 12:46:37.550
