%OpenBCI Raw EEG Data
%Number of channels = 8
%Sample Rate = 250 Hz
%Board = OpenBCI_GUI$BoardCytonSerial
Sample Index, EXG Channel 0, EXG Channel 1, EXG Channel 2, EXG Channel 3, EXG Channel 4, EXG Channel 5, EXG Channel 6, EXG Channel 7, Accel Channel 0, Accel Channel 1, Accel Channel 2, Other, Other, Other, Other, Other, Other, Other, Analog Channel 0, Analog Channel 1, Analog Channel 2, Timestamp, Other, Timestamp (Formatted)
230.0, 22790.46449547583, 45505.76007434846, 14349.618774607037, -10653.243738799541, -12238.921193947936, 42579.91672514877, 14544.704800212956, 5654.141980903385, 0.624, -0.602, 0.522, 192.0, 19.0, 128.0, 237.0, 48.0, 16.0, 80.0, 0.0, 0.0, 0.0, 1.6636601726658611E9, 0.0, 2022-09-20 12:49:32.665
231.0, 22269.02064907797, 44990.10532976453, 13950.327211657432, -10814.422168066762, -14111.058606035544, 42554.32397774744, 13908.574153014917, 2694.905125487462, 0.624, -0.602, 0.522, 192.0, 0.0, 0.0, 0.0, 0.0, 0.0, 0.0, 0.0, 0.0, 0.0, 1.6636601726659143E9, 0.0, 2022-09-20 12:49:32.665
232.0, 23145.141976492643, 45650.84524760786, 14826.448539072102, -10154.48691302382, -12935.960344786687, 42533.0898205149, 15341.544490044653, 4538.387601183367, 0.624, -0.602, 0.522, 192.0, 0.0, 0.0, 0.0, 0.0, 0.0, 0.0, 0.0, 0.0, 0.0, 1.6636601726659372E9, 0.0, 2022-09-20 12:49:32.665
233.0, 23973.050591117215, 46342.274110588325, 15606.99380719588, -9753.07193435096, -10809.728301731146, 42541.874056085835, 16609.201325082937, 7602.45413809468, 0.624, -0.602, 0.522, 192.0, 0.0, 0.0, 0.0, 0.0, 0.0, 0.0, 0.0, 0.0, 0.0, 1.6636601726659606E9, 0.0, 2022-09-20 12:49:32.665
234.0, 23814.196743273347, 46321.665802200536, 15342.975001689792, -9989.93337034385, -10376.976177331946, 42562.705881918184, 16158.500749886127, 8512.68422754815, 0.624, -0.602, 0.522, 192.0, 0.0, 0.0, 0.0, 0.0, 0.0, 0.0, 0.0, 0.0, 0.0, 1.663660172665984E9, 0.0, 2022-09-20 12:49:32.665
235.0, 22738.63080008397, 45461.68243428259, 14302.456593806339, -10687.240742116064, -12448.155873794065, 42575.781652424535, 14470.273491176784, 5427.651754337759, 0.624, -0.602, 0.522, 192.0, 0.0, 0.0, 0.0, 0.0, 0.0, 0.0, 0.0, 0.0, 0.0, 1.6636601726660073E9, 0.0, 2022-09-20 12:49:32.666
236.0, 22282.16347481769, 44997.079074034584, 13964.900549042291, -10798.127746358841, -14222.660866100892, 42549.697166645194, 13933.496348082585, 2634.9577468583284, 0.624, -0.602, 0.522, 192.0, 0.0, 0.0, 0.0, 0.0, 0.0, 0.0, 0.0, 0.0, 0.0, 1.6636601726660562E9, 0.0, 2022-09-20 12:49:32.666
237.0, 23196.01454687292, 45691.90540217226, 14878.528103652967, -10117.584182928107, -12926.662019093279, 42535.07912577142, 15424.581220696118, 4662.886817799427, 0.624, -0.602, 0.522, 192.0, 0.0, 0.0, 0.0, 0.0, 0.0, 0.0, 0.0, 0.0, 0.0, 1.6636601726660872E9, 0.0, 2022-09-20 12:49:32.666
238.0, 23995.268225105792, 46364.514096321356, 15629.211441184456, -9741.985469101128, -10818.870165213368, 42553.60872192487, 16637.319819607714, 7692.397557782836, 0.624, -0.602, 0.522, 192.0, 0.0, 0.0, 0.0, 0.0, 0.0, 0.0, 0.0, 0.0, 0.0, 1.6636601726661165E9, 0.0, 2022-09-20 12:49:32.666
239.0, 23785.720620837288, 46297.79413912227, 15314.118899597992, -10016.733111945763, -10503.621161415716, 42566.483326731126, 16105.504763782594, 8432.642630653696, 0.624, -0.602, 0.522, 192.0, 0.0, 0.0, 0.0, 0.0, 0.0, 0.0, 0.0, 0.0, 0.0, 1.663660172666146E9, 0.0, 2022-09-20 12:49:32.666
240.0, 22691.96035766129, 45414.587308715265, 14264.704497421324, -10719.539012853982, -12669.862827046256, 42579.60380072639, 14404.04527235571, 5177.759251327426, 0.628, -0.596, 0.526, 192.0, 19.0, 160.0, 237.0, 96.0, 16.0, 112.0, 0.0, 0.0, 0.0, 1.6636601726661766E9, 0.0, 2022-09-20 12:49:32.666
241.0, 22303.487039028056, 45005.14805378295, 13991.47677319965, -10777.65354843778, -14325.277724895208, 42552.51348644656, 13971.874293312347, 2570.4059088714016, 0.628, -0.596, 0.526, 192.0, 0.0, 0.0, 0.0, 0.0, 0.0, 0.0, 0.0, 0.0, 0.0, 1.6636601726662085E9, 0.0, 2022-09-20 12:49:32.666
242.0, 23250.977486488522, 45730.46216135766, 14934.496871769057, -10084.23538020079, -12906.478393850137, 42534.72149786013, 15512.669445594483, 4759.982795713281, 0.628, -0.596, 0.526, 192.0, 0.0, 0.0, 0.0, 0.0, 0.0, 0.0, 0.0, 0.0, 0.0, 1.6636601726662369E9, 0.0, 2022-09-20 12:49:32.666
243.0, 24014.155449170525, 46381.32260815175, 15645.863490803658, -9736.911623109774, -10831.744770019624, 42552.08880330191, 16662.756104797852, 7736.832825759987, 0.628, -0.596, 0.526, 192.0, 0.0, 0.0, 0.0, 0.0, 0.0, 0.0, 0.0, 0.0, 0.0, 1.6636601726662652E9, 0.0, 2022-09-20 12:49:32.666
244.0, 23753.064722188083, 46276.8729063121, 15279.11606778098, -10035.799149966138, -10625.81814835288, 42581.1013676049, 16047.881966576811, 8323.901393878627, 0.628, -0.596, 0.526, 192.0, 0.0, 0.0, 0.0, 0.0, 0.0, 0.0, 0.0, 0.0, 0.0, 1.6636601726662936E9, 0.0, 2022-09-20 12:49:32.666
245.0, 22644.172328015844, 45373.70596810651, 14221.364464922484, -10734.335867683396, -12857.63983221529, 42593.90891717779, 14340.141634957987, 4948.609167171618, 0.628, -0.596, 0.526, 192.0, 0.0, 0.0, 0.0, 0.0, 0.0, 0.0, 0.0, 0.0, 0.0, 1.6636601726663215E9, 0.0, 2022-09-20 12:49:32.666
246.0, 22328.342178862356, 45026.382211015494, 14017.538907234539, -10740.683763108704, -14364.169760247441, 42560.537762706015, 14022.657456714805, 2568.349548381513, 0.628, -0.596, 0.526, 192.0, 0.0, 0.0, 0.0, 0.0, 0.0, 0.0, 0.0, 0.0, 0.0, 1.6636601726666217E9, 0.0, 2022-09-20 12:49:32.666
247.0, 23302.677071413647, 45775.50092643511, 14983.603654337367, -10051.691240273864, -12828.87313710131, 42537.113134516854, 15597.918998947025, 4908.577192852163, 0.628, -0.596, 0.526, 192.0, 0.0, 0.0, 0.0, 0.0, 0.0, 0.0, 0.0, 0.0, 0.0, 1.663660172667443E9, 0.0, 2022-09-20 12:49:32.667
248.0, 24021.03978646276, 46391.96203851247, 15643.494205891397, -9735.145835297804, -10802.732205716635, 42558.45905047167, 16666.82412228872, 7814.63924820891, 0.628, -0.596, 0.526, 192.0, 0.0, 0.0, 0.0, 0.0, 0.0, 0.0, 0.0, 0.0, 0.0, 1.663660172667476E9, 0.0, 2022-09-20 12:49:32.667
249.0, 23709.657634455878, 46244.59698731863, 15224.53310782112, -10063.13533343498, -10703.110480679332, 42577.86036465888, 15972.534236017971, 8242.183416150025, 0.628, -0.596, 0.526, 192.0, 0.0, 0.0, 0.0, 0.0, 0.0, 0.0, 0.0, 0.0, 0.0, 1.6636601726675053E9, 0.0, 2022-09-20 12:49:32.667
250.0, 22589.18703665579, 45322.989859937414, 14165.37334506194, -10767.997594833088, -12997.181772849772, 42582.218954827666, 14264.279814276673, 4740.93910943736, 0.628, -0.596, 0.528, 192.0, 19.0, 160.0, 237.0, 96.0, 16.0, 128.0, 0.0, 0.0, 0.0, 1.6636601726675332E9, 0.0, 2022-09-20 12:49:32.667
251.0, 22347.385865138276, 45033.04303086317, 14028.804186440015, -10732.12304498232, -14369.444771938894, 42560.247190028094, 14055.380410597374, 2572.9987112282174, 0.628, -0.596, 0.528, 192.0, 0.0, 0.0, 0.0, 0.0, 0.0, 0.0, 0.0, 0.0, 0.0, 1.6636601726675615E9, 0.0, 2022-09-20 12:49:32.667
252.0, 23344.318371333884, 45805.519319238585, 15011.185706995215, -10034.83802495456, -12741.008429647498, 42534.72149786013, 15664.035459045823, 5048.208540464466, 0.628, -0.596, 0.528, 192.0, 0.0, 0.0, 0.0, 0.0, 0.0, 0.0, 0.0, 0.0, 0.0, 1.6636601726675966E9, 0.0, 2022-09-20 12:49:32.667
253.0, 24023.5208300973, 46397.21469845947, 15635.38052265412, -9748.266309293069, -10762.230844763619, 42546.970253821644, 16668.388744400592, 7895.150231736927, 0.628, -0.596, 0.528, 192.0, 0.0, 0.0, 0.0, 0.0, 0.0, 0.0, 0.0, 0.0, 0.0, 1.663660172667745E9, 0.0, 2022-09-20 12:49:32.667
254.0, 23665.758808345654, 46210.778797957755, 15174.24168279668, -10099.412214685943, -10781.90037988429, 42568.80790815448, 15902.685034595137, 8149.446028404955, 0.628, -0.596, 0.528, 192.0, 0.0, 0.0, 0.0, 0.0, 0.0, 0.0, 0.0, 0.0, 0.0, 1.6636601726679404E9, 0.0, 2022-09-20 12:49:32.667
255.0, 22545.623486712397, 45280.834469894704, 14121.27335325162, -10799.647664981803, -13135.941402428318, 42573.01003611208, 14204.868877514467, 4536.130074993382, 0.628, -0.596, 0.528, 192.0, 0.0, 0.0, 0.0, 0.0, 0.0, 0.0, 0.0, 0.0, 0.0, 1.6636601726679752E9, 0.0, 2022-09-20 12:49:32.667
0.0, 22381.00288879906, 45053.02549040622, 14053.97225069669, -10713.16876568422, -14372.596367907092, 42542.05287004148, 14107.437623433785, 2600.3125429526026, 0.628, -0.596, 0.528, 192.0, 0.0, 0.0, 0.0, 0.0, 0.0, 0.0, 0.0, 0.0, 0.0, 1.663660172668018E9, 0.0, 2022-09-20 12:49:32.668
1.0, 23401.82940981739, 45842.287938867565, 15060.158379096792, -10007.4124345079, -12655.401248383672, 42536.12965776082, 15746.11106468571, 5213.298525011364, 0.628, -0.596, 0.528, 192.0, 0.0, 0.0, 0.0, 0.0, 0.0, 0.0, 0.0, 0.0, 0.0, 1.663660172668052E9, 0.0, 2022-09-20 12:49:32.668
2.0, 24039.591734360663, 46403.33907644023, 15636.542813365795, -9746.83579764793, -10746.249347478075, 42561.20831503967, 16669.640442090087, 7985.96536945884, 0.628, -0.596, 0.528, 192.0, 0.0, 0.0, 0.0, 0.0, 0.0, 0.0, 0.0, 0.0, 0.0, 1.6636601726680772E9, 0.0, 2022-09-20 12:49:32.668
3.0, 23633.81816551902, 46179.128727809046, 15130.409911919824, -10125.697866165385, -10894.664930661313, 42582.37541703885, 15833.171109339131, 8071.796068167218, 0.628, -0.596, 0.528, 192.0, 0.0, 0.0, 0.0, 0.0, 0.0, 0.0, 0.0, 0.0, 0.0, 1.6636601726681085E9, 0.0, 2022-09-20 12:49:32.668
4.0, 22519.807221866515, 45250.57020790222, 14093.825411060503, -10806.33083657394, -13298.371529385035, 42598.46867304667, 14160.455961281772, 4382.014796974039, 0.634, -0.602, 0.526, 192.0, 19.0, 208.0, 237.0, 48.0, 16.0, 112.0, 0.0, 0.0, 0.0, 1.6636601726682203E9, 0.0, 2022-09-20 12:49:32.668
5.0, 22429.506174267077, 45085.99431347779, 14102.855515820447, -10668.577035495882, -14392.332958261128, 42563.979931352136, 14179.454944068784, 2690.904163229962, 0.634, -0.602, 0.526, 192.0, 0.0, 0.0, 0.0, 0.0, 0.0, 0.0, 0.0, 0.0, 0.0, 1.6636601726682746E9, 0.0, 2022-09-20 12:49:32.668
6.0, 23460.8380151794, 45887.34905568946, 15116.216554190703, -9976.343509715023, -12607.277942571396, 42546.25499799907, 15831.204155827065, 5400.270867380008, 0.634, -0.602, 0.526, 192.0, 0.0, 0.0, 0.0, 0.0, 0.0, 0.0, 0.0, 0.0, 0.0, 1.6636601726688263E9, 0.0, 2022-09-20 12:49:32.668
7.0, 24050.14175774357, 46414.42554169006, 15640.990810512401, -9751.641422705821, -10772.55735070197, 42558.03436732702, 16674.356660170157, 8089.5210015202765, 0.634, -0.602, 0.526, 192.0, 0.0, 0.0, 0.0, 0.0, 0.0, 0.0, 0.0, 0.0, 0.0, 1.6636601726688547E9, 0.0, 2022-09-20 12:49:32.668
8.0, 23586.745391696142, 46142.22599771333, 15084.432373575257, -10158.800799703695, -11051.551824993114, 42578.26269605907, 15752.861291511213, 7990.659235794454, 0.634, -0.602, 0.526, 192.0, 0.0, 0.0, 0.0, 0.0, 0.0, 0.0, 0.0, 0.0, 0.0, 1.663660172668883E9, 0.0, 2022-09-20 12:49:32.668
9.0, 22479.328212657954, 45214.69565805145, 14067.40564911433, -10823.80990073799, -13485.612092687143, 42584.54353625102, 14106.834126333491, 4227.564242787867, 0.634, -0.602, 0.526, 192.0, 0.0, 0.0, 0.0, 0.0, 0.0, 0.0, 0.0, 0.0, 0.0, 1.6636601726689093E9, 0.0, 2022-09-20 12:49:32.668
10.0, 22464.576061317453, 45114.604546380586, 14141.568737217038, -10636.05524731341, -14436.321191349172, 42565.27633253054, 14239.983468053755, 2765.1119548215815, 0.634, -0.602, 0.526, 192.0, 0.0, 0.0, 0.0, 0.0, 0.0, 0.0, 0.0, 0.0, 0.0, 1.6636601726691904E9, 0.0, 2022-09-20 12:49:32.669
11.0, 23511.17414369275, 45936.03115511312, 15168.586691449487, -9944.425218632845, -12575.829038122778, 42563.130565062835, 15914.084424267343, 5571.664043863302, 0.634, -0.602, 0.526, 192.0, 0.0, 0.0, 0.0, 0.0, 0.0, 0.0, 0.0, 0.0, 0.0, 1.663660172669228E9, 0.0, 2022-09-20 12:49:32.669
12.0, 24056.75787410234, 46433.82685587727, 15647.249298959889, -9752.535492484032, -10806.286133085028, 42573.01003611208, 16676.54713112678, 8175.262293250835, 0.634, -0.602, 0.526, 192.0, 0.0, 0.0, 0.0, 0.0, 0.0, 0.0, 0.0, 0.0, 0.0, 1.6636601726692557E9, 0.0, 2022-09-20 12:49:32.669
13.0, 23550.84849010092, 46124.1881399379, 15054.928070894252, -10176.34691910111, -11194.848858696087, 42600.36857132537, 15694.880866394147, 7894.233810214259, 0.634, -0.602, 0.526, 192.0, 0.0, 0.0, 0.0, 0.0, 0.0, 0.0, 0.0, 0.0, 0.0, 1.6636601726692822E9, 0.0, 2022-09-20 12:49:32.669
14.0, 22446.2476308641, 45191.09221590665, 14050.999468684135, -10823.318162359974, -13669.70106002105, 42613.891376720836, 14071.160742182821, 4050.8289993797544, 0.634, -0.602, 0.526, 192.0, 0.0, 0.0, 0.0, 0.0, 0.0, 0.0, 0.0, 0.0, 0.0, 1.6636601726693287E9, 0.0, 2022-09-20 12:49:32.669
15.0, 22499.735355345652, 45143.93003510595, 14187.054537183589, -10597.47613638355, -14482.790468071757, 42572.54064947851, 14306.54696304166, 2825.3275543841787, 0.634, -0.608, 0.528, 192.0, 19.0, 208.0, 237.0, 0.0, 16.0, 128.0, 0.0, 0.0, 0.0, 1.6636601726693575E9, 0.0, 2022-09-20 12:49:32.669
16.0, 23557.57636518197, 45975.593742799014, 15222.38734035341, -9913.87038396244, -12538.456921393505, 42558.66021617177, 15994.751870006547, 5745.582967470046, 0.634, -0.608, 0.528, 192.0, 0.0, 0.0, 0.0, 0.0, 0.0, 0.0, 0.0, 0.0, 0.0, 1.663660172669399E9, 0.0, 2022-09-20 12:49:32.669
17.0, 24059.10480727015, 46441.62761469217, 15653.016049029357, -9754.278928551546, -10827.207365895196, 42567.37739650934, 16678.82700906122, 8269.363137407678, 0.634, -0.608, 0.528, 192.0, 0.0, 0.0, 0.0, 0.0, 0.0, 0.0, 0.0, 0.0, 0.0, 1.6636601726694431E9, 0.0, 2022-09-20 12:49:32.669
18.0, 23496.332585374428, 46083.50796502924, 15005.128384247826, -10214.613105608596, -11357.368392630624, 42594.13243462234, 15612.201763653966, 7771.9027128103635, 0.634, -0.608, 0.528, 192.0, 0.0, 0.0, 0.0, 0.0, 0.0, 0.0, 0.0, 0.0, 0.0, 1.6636601726694703E9, 0.0, 2022-09-20 12:49:32.669
19.0, 22408.316720523446, 45157.96693062389, 14021.875145658869, -10835.924546232765, -13856.583995411873, 42609.84571097443, 14028.625372484372, 3875.09958447213, 0.634, -0.608, 0.528, 192.0, 0.0, 0.0, 0.0, 0.0, 0.0, 0.0, 0.0, 0.0, 0.0, 1.6636601726694992E9, 0.0, 2022-09-20 12:49:32.669
20.0, 22547.009294868625, 45184.431396058964, 14234.976677295766, -10551.520949783438, -14491.842924576154, 42584.320018806466, 14385.582731435625, 2911.7393984483956, 0.634, -0.608, 0.528, 192.0, 0.0, 0.0, 0.0, 0.0, 0.0, 0.0, 0.0, 0.0, 0.0, 1.6636601726695292E9, 0.0, 2022-09-20 12:49:32.669
21.0, 23619.06601417852, 46031.048420792635, 15280.032489303649, -9869.010432840638, -12467.445429258994, 42583.18007983924, 16082.9965571161, 5909.197736882894, 0.634, -0.608, 0.528, 192.0, 0.0, 0.0, 0.0, 0.0, 0.0, 0.0, 0.0, 0.0, 0.0, 1.6636601726696439E9, 0.0, 2022-09-20 12:49:32.669
22.0, 24074.34869698867, 46464.895780670144, 15663.208444500977, -9737.917451610261, -10821.7535402481, 42608.75047549611, 16686.247788220382, 8330.226937559479, 0.634, -0.608, 0.528, 192.0, 0.0, 0.0, 0.0, 0.0, 0.0, 0.0, 0.0, 0.0, 0.0, 1.6636601726696787E9, 0.0, 2022-09-20 12:49:32.669
23.0, 23459.966297145642, 46058.29519728365, 14969.656165797254, -10231.332210461165, -11462.332184592746, 42632.622138574385, 15548.454588467432, 7627.085760484429, 0.634, -0.608, 0.528, 192.0, 0.0, 0.0, 0.0, 0.0, 0.0, 0.0, 0.0, 0.0, 0.0, 1.6636601726697505E9, 0.0, 2022-09-20 12:49:32.669
24.0, 22391.66467090424, 45139.3032240037, 14006.899476873814, -10832.124749675364, -13961.212511207166, 42625.849560004426, 14001.445651226719, 3695.995056151755, 0.634, -0.608, 0.528, 192.0, 0.0, 0.0, 0.0, 0.0, 0.0, 0.0, 0.0, 0.0, 0.0, 1.6636601726697876E9, 0.0, 2022-09-20 12:49:32.669
25.0, 22609.594179343487, 45237.13680948458, 14291.548942512149, -10500.648379403161, -14430.509737790793, 42593.327771821954, 14467.546578353236, 2976.8947335356156, 0.63, -0.606, 0.524, 192.0, 19.0, 176.0, 237.0, 16.0, 16.0, 96.0, 0.0, 0.0, 0.0, 1.66366017266982E9, 0.0, 2022-09-20 12:49:32.669
26.0, 23675.92885207282, 46081.675121983906, 15332.872013195994, -9837.360362691923, -12348.690610967948, 42593.9536206667, 16160.512406887105, 6034.747485488354, 0.63, -0.606, 0.524, 192.0, 0.0, 0.0, 0.0, 0.0, 0.0, 0.0, 0.0, 0.0, 0.0, 1.6636601726698463E9, 0.0, 2022-09-20 12:49:32.669
27.0, 24084.317575015735, 46477.144536631655, 15660.794456099804, -9732.508329452077, -10785.588417719415, 42618.495836078626, 16675.04956424827, 8362.994594930959, 0.63, -0.606, 0.524, 192.0, 0.0, 0.0, 0.0, 0.0, 0.0, 0.0, 0.0, 0.0, 0.0, 1.6636601726698716E9, 0.0, 2022-09-20 12:49:32.669
28.0, 23425.16463102873, 46032.38952545995, 14932.552270001444, -10240.049390798735, -11548.676973423599, 42651.285845194565, 15477.621910288563, 7474.445697599137, 0.63, -0.606, 0.524, 192.0, 0.0, 0.0, 0.0, 0.0, 0.0, 0.0, 0.0, 0.0, 0.0, 1.6636601726698997E9, 0.0, 2022-09-20 12:49:32.669
29.0, 22387.82017085793, 45134.22937801235, 14012.82268915447, -10815.316237844972, -14033.721570220181, 42645.98848175866, 13992.281436000043, 3550.2616823031526, 0.63, -0.606, 0.524, 192.0, 0.0, 0.0, 0.0, 0.0, 0.0, 0.0, 0.0, 0.0, 0.0, 1.6636601726699293E9, 0.0, 2022-09-20 12:49:32.669
30.0, 22674.704810941796, 45291.898583400085, 14359.073562511632, -10443.629079297672, -14351.60807986356, 42616.93121396675, 14562.07210565473, 3087.3123511448325, 0.63, -0.606, 0.524, 192.0, 0.0, 0.0, 0.0, 0.0, 0.0, 0.0, 0.0, 0.0, 0.0, 1.6636601726699572E9, 0.0, 2022-09-20 12:49:32.669
31.0, 23736.83735571353, 46140.79548606819, 15392.66292961394, -9789.572333046477, -12237.781254980715, 42618.27231863407, 16243.92911719431, 6204.978371259973, 0.63, -0.606, 0.524, 192.0, 0.0, 0.0, 0.0, 0.0, 0.0, 0.0, 0.0, 0.0, 0.0, 1.6636601726699848E9, 0.0, 2022-09-20 12:49:32.669
32.0, 24100.276720556823, 46506.78294977939, 15670.562168426773, -9718.58319265642, -10754.966527815644, 42637.53952235455, 16681.06218350675, 8445.807808137872, 0.63, -0.606, 0.524, 192.0, 0.0, 0.0, 0.0, 0.0, 0.0, 0.0, 0.0, 0.0, 0.0, 1.6636601726700156E9, 0.0, 2022-09-20 12:49:32.670
33.0, 23392.195807957152, 46015.15633048491, 14897.460031206612, -10257.371992751598, -11653.774875852452, 42666.77560410209, 15412.846554857082, 7351.466399606037, 0.63, -0.606, 0.524, 192.0, 0.0, 0.0, 0.0, 0.0, 0.0, 0.0, 0.0, 0.0, 0.0, 1.663660172670045E9, 0.0, 2022-09-20 12:49:32.670
34.0, 22377.627775386307, 45128.70849713188, 14003.367901249874, -10805.481470284638, -14149.011868120655, 42668.7202058697, 13969.28149095553, 3421.180358073754, 0.63, -0.606, 0.524, 192.0, 0.0, 0.0, 0.0, 0.0, 0.0, 0.0, 0.0, 0.0, 0.0, 1.6636601726700704E9, 0.0, 2022-09-20 12:49:32.670
35.0, 22735.702721560327, 45342.25706365789, 14418.260981829284, -10400.400805521109, -14308.491564809272, 42638.143019454845, 14645.153539795107, 3208.7046752816054, 0.636, -0.602, 0.528, 192.0, 19.0, 224.0, 237.0, 48.0, 16.0, 128.0, 0.0, 0.0, 0.0, 1.6636601726700976E9, 0.0, 2022-09-20 12:49:32.670
36.0, 23796.024775031183, 46189.81286165868, 15450.933927408925, -9754.323632040458, -12141.601698589528, 42647.15077247033, 16321.199097776307, 6379.590198944831, 0.636, -0.602, 0.528, 192.0, 0.0, 0.0, 0.0, 0.0, 0.0, 0.0, 0.0, 0.0, 0.0, 1.6636601726701257E9, 0.0, 2022-09-20 12:49:32.670
37.0, 24110.983206150915, 46526.58659536679, 15679.43581097553, -9707.384968684313, -10744.17063524373, 42669.167240758805, 16672.97085201393, 8511.074901947368, 0.636, -0.602, 0.528, 192.0, 0.0, 0.0, 0.0, 0.0, 0.0, 0.0, 0.0, 0.0, 0.0, 1.6636601726705134E9, 0.0, 2022-09-20 12:49:32.670
38.0, 23359.85283373032, 45999.46540587729, 14871.308490193904, -10264.971585866402, -11758.47044688111, 42698.26921203962, 15350.015801193214, 7218.205299163497, 0.636, -0.602, 0.528, 192.0, 0.0, 0.0, 0.0, 0.0, 0.0, 0.0, 0.0, 0.0, 0.0, 1.6636601726705596E9, 0.0, 2022-09-20 12:49:32.670
39.0, 22387.216673757634, 45143.77357289477, 14018.880011901858, -10774.61371119186, -14207.685197315837, 42694.38000850439, 13976.903435814791, 3325.805464482959, 0.636, -0.602, 0.528, 192.0, 0.0, 0.0, 0.0, 0.0, 0.0, 0.0, 0.0, 0.0, 0.0, 1.6636601726705968E9, 0.0, 2022-09-20 12:49:32.670
40.0, 22814.26910332073, 45419.63880296217, 14492.91580831001, -10320.716836537938, -14199.638569311926, 42667.356749457926, 14754.319459714827, 3353.678089818727, 0.636, -0.602, 0.528, 192.0, 0.0, 0.0, 0.0, 0.0, 0.0, 0.0, 0.0, 0.0, 0.0, 1.6636601726706388E9, 0.0, 2022-09-20 12:49:32.670
41.0, 23868.511482299746, 46264.55709511723, 15515.2622479513, -9696.611427856855, -11993.476688084209, 42682.06419730952, 16412.19304945386, 6539.449875289188, 0.636, -0.602, 0.528, 192.0, 0.0, 0.0, 0.0, 0.0, 0.0, 0.0, 0.0, 0.0, 0.0, 1.6636601726706808E9, 0.0, 2022-09-20 12:49:32.670
42.0, 24139.973418709447, 46566.350348752785, 15699.44062226303, -9679.400584626268, -10665.336032549863, 42704.79592142057, 16684.437296919503, 8558.50530368153, 0.636, -0.602, 0.528, 192.0, 0.0, 0.0, 0.0, 0.0, 0.0, 0.0, 0.0, 0.0, 0.0, 1.6636601726708565E9, 0.0, 2022-09-20 12:49:32.670
43.0, 23340.317409076382, 45991.79875752911, 14854.052943474406, -10260.300071275244, -11787.326548972911, 42723.61609025193, 15302.607751203508, 7062.547750776738, 0.636, -0.602, 0.528, 192.0, 0.0, 0.0, 0.0, 0.0, 0.0, 0.0, 0.0, 0.0, 0.0, 1.6636601726708984E9, 0.0, 2022-09-20 12:49:32.670
44.0, 22405.254531533068, 45162.88431440405, 14044.785683725559, -10740.929632297712, -14189.513229073673, 42727.10296238696, 13998.76344189208, 3217.198338174622, 0.636, -0.602, 0.528, 192.0, 0.0, 0.0, 0.0, 0.0, 0.0, 0.0, 0.0, 0.0, 0.0, 1.663660172670951E9, 0.0, 2022-09-20 12:49:32.670
45.0, 22894.690679870928, 45492.34902767528, 14575.55020756128, -10255.427390983987, -14025.473776516174, 42693.82121489301, 14869.095667492827, 3484.614608837916, 0.63, -0.598, 0.53, 192.0, 19.0, 176.0, 237.0, 80.0, 16.0, 144.0, 0.0, 0.0, 0.0, 1.6636601726709785E9, 0.0, 2022-09-20 12:49:32.670
46.0, 23926.000169038794, 46321.75520917836, 15571.052202111747, -9662.346203606869, -11803.889191614295, 42691.049598580554, 16490.4912102808, 6689.98887419568, 0.63, -0.598, 0.53, 192.0, 0.0, 0.0, 0.0, 0.0, 0.0, 0.0, 0.0, 0.0, 0.0, 1.663660172671013E9, 0.0, 2022-09-20 12:49:32.671
47.0, 24146.790700768317, 46586.17634608464, 15697.138392584133, -9674.550256079467, -10571.23518839302, 42719.793941950076, 16673.44023864749, 8599.677216968204, 0.63, -0.598, 0.53, 192.0, 0.0, 0.0, 0.0, 0.0, 0.0, 0.0, 0.0, 0.0, 0.0, 1.6636601726710386E9, 0.0, 2022-09-20 12:49:32.671
48.0, 23312.08715582933, 45978.18654515583, 14825.08508266033, -10267.117353334112, -11816.450871998177, 42752.583951066015, 15247.533052865632, 6908.365417524031, 0.63, -0.598, 0.53, 192.0, 0.0, 0.0, 0.0, 0.0, 0.0, 0.0, 0.0, 0.0, 0.0, 1.6636601726710737E9, 0.0, 2022-09-20 12:49:32.671
49.0, 22420.319607295944, 45176.965913410895, 14060.521311822095, -10707.469070848116, -14188.015662195166, 42744.470267828736, 14018.120052590377, 3127.3890289531982, 0.63, -0.598, 0.53, 192.0, 0.0, 0.0, 0.0, 0.0, 0.0, 0.0, 0.0, 0.0, 0.0, 1.6636601726710958E9, 0.0, 2022-09-20 12:49:32.671
50.0, 22969.07728541819, 45553.503400505, 14644.035952572342, -10186.561666317186, -13882.087335835378, 42719.59277624998, 14971.064325697938, 3633.3431164435287, 0.63, -0.598, 0.53, 192.0, 0.0, 0.0, 0.0, 0.0, 0.0, 0.0, 0.0, 0.0, 0.0, 1.6636601726711156E9, 0.0, 2022-09-20 12:49:32.671
51.0, 23988.093315135637, 46375.86878250466, 15625.545755093784, -9604.5669441899, -11647.136407749225, 42725.35952631945, 16564.72135361688, 6857.425791910386, 0.63, -0.598, 0.53, 192.0, 0.0, 0.0, 0.0, 0.0, 0.0, 0.0, 0.0, 0.0, 0.0, 1.6636601726711335E9, 0.0, 2022-09-20 12:49:32.671
52.0, 24154.792625283317, 46602.15784337019, 15697.384261773142, -9658.278186116004, -10522.441330247084, 42743.71030851726, 16658.419866373522, 8648.0910954584, 0.63, -0.598, 0.53, 192.0, 0.0, 0.0, 0.0, 0.0, 0.0, 0.0, 0.0, 0.0, 0.0, 1.6636601726712637E9, 0.0, 2022-09-20 12:49:32.671
53.0, 23274.960908289064, 45950.224512842244, 14794.865524156754, -10283.948216908959, -11893.810259557995, 42769.146593707395, 15181.394241022379, 6759.2345785182215, 0.63, -0.598, 0.53, 192.0, 0.0, 0.0, 0.0, 0.0, 0.0, 0.0, 0.0, 0.0, 0.0, 1.6636601726713145E9, 0.0, 2022-09-20 12:49:32.671
54.0, 22430.48965102311, 45184.029064658775, 14082.895408021857, -10683.887980447767, -14208.266342671675, 42766.46438437276, 14031.464044030196, 3067.9333887020816, 0.63, -0.598, 0.53, 192.0, 0.0, 0.0, 0.0, 0.0, 0.0, 0.0, 0.0, 0.0, 0.0, 1.663660172671356E9, 0.0, 2022-09-20 12:49:32.671
55.0, 23037.920658340536, 45610.053313976925, 14717.595543574756, -10139.734761683318, -13758.146912830702, 42736.06601191354, 15069.412001301289, 3793.783938143723, 0.63, -0.596, 0.524, 192.0, 19.0, 176.0, 237.0, 96.0, 16.0, 96.0, 0.0, 0.0, 0.0, 1.663660172671397E9, 0.0, 2022-09-20 12:49:32.671
56.0, 24033.333245913178, 46414.26907947887, 15670.67392714905, -9589.27835098247, -11524.604144645233, 42746.39251785189, 16623.23822060087, 7008.881212339546, 0.63, -0.596, 0.524, 192.0, 0.0, 0.0, 0.0, 0.0, 0.0, 0.0, 0.0, 0.0, 0.0, 1.6636601726714373E9, 0.0, 2022-09-20 12:49:32.671
57.0, 24143.21442165547, 46596.59225900081, 15679.949901098002, -9668.269415887526, -10501.587152670283, 42761.70346280378, 16626.255706102336, 8675.539037649518, 0.63, -0.596, 0.524, 192.0, 0.0, 0.0, 0.0, 0.0, 0.0, 0.0, 0.0, 0.0, 0.0, 1.6636601726715217E9, 0.0, 2022-09-20 12:49:32.671
58.0, 23218.20982911704, 45899.9330878178, 14740.841357808276, -10311.463214333442, -11985.921798458314, 42783.02702701414, 15099.69861503823, 6589.696596824718, 0.63, -0.596, 0.524, 192.0, 0.0, 0.0, 0.0, 0.0, 0.0, 0.0, 0.0, 0.0, 0.0, 1.6636601726715877E9, 0.0, 2022-09-20 12:49:32.671
59.0, 22420.654883462776, 45167.399366784026, 14078.335652152975, -10676.06486988841, -14231.221584227274, 42764.92211400534, 14032.626334741872, 3000.274658235867, 0.63, -0.596, 0.524, 192.0, 0.0, 0.0, 0.0, 0.0, 0.0, 0.0, 0.0, 0.0, 0.0, 1.6636601726716344E9, 0.0, 2022-09-20 12:49:32.671
60.0, 23075.94097565901, 45638.8200090909, 14758.543939416879, -10111.236287502801, -13641.671972474096, 42733.87554095692, 15146.86079583893, 3937.68446894699, 0.63, -0.596, 0.524, 192.0, 0.0, 0.0, 0.0, 0.0, 0.0, 0.0, 0.0, 0.0, 0.0, 1.6636601726717677E9, 0.0, 2022-09-20 12:49:32.671
61.0, 24049.784129832286, 46436.017326833884, 15691.237532047931, -9581.790516589943, -11402.250695496881, 42753.09804118849, 16664.81246528774, 7150.770086141835, 0.63, -0.596, 0.524, 192.0, 0.0, 0.0, 0.0, 0.0, 0.0, 0.0, 0.0, 0.0, 0.0, 1.6636601726718664E9, 0.0, 2022-09-20 12:49:32.671
62.0, 24121.332063833725, 46591.853689176285, 15661.1967875, -9682.686291061198, -10467.344280164752, 42770.532401863624, 16594.024490597785, 8699.634218172338, 0.63, -0.596, 0.524, 192.0, 0.0, 0.0, 0.0, 0.0, 0.0, 0.0, 0.0, 0.0, 0.0, 1.6636601726719697E9, 0.0, 2022-09-20 12:49:32.671
63.0, 23169.527729693382, 45865.645511823364, 14705.391491102158, -10335.267822178343, -12059.839017372014, 42787.63148637194, 15032.755140394585, 6413.654257494719, 0.63, -0.596, 0.524, 192.0, 0.0, 0.0, 0.0, 0.0, 0.0, 0.0, 0.0, 0.0, 0.0, 1.6636601726720612E9, 0.0, 2022-09-20 12:49:32.672
64.0, 22438.424520304743, 45185.70544549292, 14104.21897223222, -10642.760770650002, -14227.488842903238, 42776.61207635547, 14063.918776979302, 2938.181512139024, 0.63, -0.596, 0.524, 192.0, 0.0, 0.0, 0.0, 0.0, 0.0, 0.0, 0.0, 0.0, 0.0, 1.663660172672166E9, 0.0, 2022-09-20 12:49:32.672
65.0, 23160.139997022154, 45710.74792274808, 14837.93733572213, -10039.755408734729, -13483.041642074782, 42757.546038335095, 15265.101524007503, 4109.748197763944, 0.63, -0.598, 0.532, 192.0, 19.0, 176.0, 237.0, 80.0, 16.0, 160.0, 0.0, 0.0, 0.0, 1.6636601726722436E9, 0.0, 2022-09-20 12:49:32.672
66.0, 24105.708194459465, 46484.3194466018, 15741.283087883365, -9537.288193379425, -11250.102370989605, 42766.68790181731, 16733.141748087615, 7305.354750794739, 0.63, -0.598, 0.532, 192.0, 0.0, 0.0, 0.0, 0.0, 0.0, 0.0, 0.0, 0.0, 0.0, 1.6636601726723008E9, 0.0, 2022-09-20 12:49:32.672
67.0, 24122.293188845302, 46597.97806715704, 15655.787665341815, -9673.544427578978, -10428.787520979347, 42787.63148637194, 16569.772847863776, 8708.038474087534, 0.63, -0.598, 0.532, 192.0, 0.0, 0.0, 0.0, 0.0, 0.0, 0.0, 0.0, 0.0, 0.0, 1.6636601726723747E9, 0.0, 2022-09-20 12:49:32.672
68.0, 23135.486022887948, 45834.956566686225, 14669.986327884953, -10339.402894902576, -12145.736771313761, 42807.3010214926, 14964.001174450063, 6219.6187638781985, 0.63, -0.598, 0.532, 192.0, 0.0, 0.0, 0.0, 0.0, 0.0, 0.0, 0.0, 0.0, 0.0, 1.6636601726728463E9, 0.0, 2022-09-20 12:49:32.672
69.0, 22460.284526382035, 45197.26129737632, 14121.78744337409, -10609.166098733676, -14237.43536918585, 42789.37492243945, 14085.823486545503, 2871.3721479621113, 0.63, -0.598, 0.532, 192.0, 0.0, 0.0, 0.0, 0.0, 0.0, 0.0, 0.0, 0.0, 0.0, 1.663660172672963E9, 0.0, 2022-09-20 12:49:32.672
70.0, 23231.196192645573, 45768.124850764856, 14902.802098131431, -9990.380405232956, -13355.636698679531, 42769.213648940764, 15363.248033910757, 4248.351365131302, 0.63, -0.598, 0.532, 192.0, 0.0, 0.0, 0.0, 0.0, 0.0, 0.0, 0.0, 0.0, 0.0, 1.6636601726729932E9, 0.0, 2022-09-20 12:49:32.672
71.0, 24151.998657226402, 46527.681830845104, 15781.762097091925, -9512.388350056213, -11134.074465522108, 42787.07269276055, 16785.154257435115, 7415.146519559207, 0.63, -0.598, 0.532, 192.0, 0.0, 0.0, 0.0, 0.0, 0.0, 0.0, 0.0, 0.0, 0.0, 1.6636601726730175E9, 0.0, 2022-09-20 12:49:32.673
72.0, 24120.415642311054, 46608.17046262866, 15647.651630360084, -9675.354918879857, -10405.117023601179, 42800.59549815601, 16542.011981250285, 8689.821802356459, 0.63, -0.598, 0.532, 192.0, 0.0, 0.0, 0.0, 0.0, 0.0, 0.0, 0.0, 0.0, 0.0, 1.6636601726730437E9, 0.0, 2022-09-20 12:49:32.673
73.0, 23096.035193924334, 45809.20735707371, 14635.89991759061, -10362.224025991443, -12219.60928673855, 42824.28834727864, 14901.148069041737, 6014.519156756301, 0.63, -0.598, 0.532, 192.0, 0.0, 0.0, 0.0, 0.0, 0.0, 0.0, 0.0, 0.0, 0.0, 1.6636601726730783E9, 0.0, 2022-09-20 12:49:32.673
74.0, 22478.791770791027, 45217.69079180846, 14143.334525029008, -10587.529610100939, -14218.52579337666, 42812.352515739505, 14113.204373503253, 2804.3616180851004, 0.63, -0.598, 0.532, 192.0, 0.0, 0.0, 0.0, 0.0, 0.0, 0.0, 0.0, 0.0, 0.0, 1.66366017267312E9, 0.0, 2022-09-20 12:49:32.673
75.0, 23294.161056776175, 45825.1665026148, 14962.660069782743, -9949.454361135287, -13206.170583506893, 42782.75880608068, 15455.20311059989, 4378.326759138913, 0.63, -0.594, 0.532, 192.0, 19.0, 176.0, 237.0, 112.0, 16.0, 160.0, 0.0, 0.0, 0.0, 1.6636601726731784E9, 0.0, 2022-09-20 12:49:32.673
76.0, 24181.92764305206, 46559.44365971609, 15805.007911325445, -9501.324236550838, -11004.389644192415, 42800.14846326691, 16821.766414852907, 7523.530128422992, 0.63, -0.594, 0.532, 192.0, 0.0, 0.0, 0.0, 0.0, 0.0, 0.0, 0.0, 0.0, 0.0, 1.663660172673232E9, 0.0, 2022-09-20 12:49:32.673
77.0, 24098.801505422773, 46595.206450844584, 15616.1356706781, -9695.806765056464, -10385.313378013776, 42828.42342000287, 16493.866323693554, 8654.237825183609, 0.63, -0.594, 0.532, 192.0, 0.0, 0.0, 0.0, 0.0, 0.0, 0.0, 0.0, 0.0, 0.0, 1.663660172673276E9, 0.0, 2022-09-20 12:49:32.673
78.0, 23049.9906003464, 45768.57188565396, 14589.073012956742, -10392.108308328188, -12301.751947611803, 42831.55266422661, 14827.387312339224, 5797.059034950618, 0.63, -0.594, 0.532, 192.0, 0.0, 0.0, 0.0, 0.0, 0.0, 0.0, 0.0, 0.0, 0.0, 1.6636601726733549E9, 0.0, 2022-09-20 12:49:32.673
79.0, 22494.750916332116, 45227.05617273524, 14156.343240301996, -10573.42565934964, -14206.14292694842, 42799.94729756681, 14139.601783704971, 2742.0673062881597, 0.63, -0.594, 0.532, 192.0, 0.0, 0.0, 0.0, 0.0, 0.0, 0.0, 0.0, 0.0, 0.0, 1.6636601726733975E9, 0.0, 2022-09-20 12:49:32.673
80.0, 23362.66915353169, 45883.61631436543, 15020.72990187763, -9912.082244406014, -13054.692811333278, 42784.70340784829, 15555.60714669313, 4521.08735097496, 0.63, -0.594, 0.532, 192.0, 0.0, 0.0, 0.0, 0.0, 0.0, 0.0, 0.0, 0.0, 0.0, 1.6636601726734476E9, 0.0, 2022-09-20 12:49:32.673
81.0, 24226.22880056248, 46603.02956140394, 15837.306182063365, -9477.698442661576, -10863.238377957152, 42809.22327151576, 16870.783790443398, 7645.481246171146, 0.63, -0.594, 0.532, 192.0, 0.0, 0.0, 0.0, 0.0, 0.0, 0.0, 0.0, 0.0, 0.0, 1.6636601726735256E9, 0.0, 2022-09-20 12:49:32.673
82.0, 24095.314633287744, 46602.761340470475, 15604.043376927779, -9692.051671987972, -10351.897520053091, 42836.537103240145, 16462.015087844742, 8631.528452817018, 0.63, -0.594, 0.532, 192.0, 0.0, 0.0, 0.0, 0.0, 0.0, 0.0, 0.0, 0.0, 0.0, 1.663660172673566E9, 0.0, 2022-09-20 12:49:32.673
83.0, 23027.46004193545, 45750.86930404536, 14569.850512725177, -10386.855648381192, -12367.0190414213, 42865.415557076405, 14775.978300092018, 5611.3830937603825, 0.63, -0.594, 0.532, 192.0, 0.0, 0.0, 0.0, 0.0, 0.0, 0.0, 0.0, 0.0, 0.0, 1.663660172673595E9, 0.0, 2022-09-20 12:49:32.673
84.0, 22535.006408096124, 45257.14162077208, 14203.61717982497, -10519.870879634724, -14160.098333370488, 42833.07258284958, 14191.524886074649, 2744.2801289892354, 0.63, -0.594, 0.532, 192.0, 0.0, 0.0, 0.0, 0.0, 0.0, 0.0, 0.0, 0.0, 0.0, 1.6636601726736977E9, 0.0, 2022-09-20 12:49:32.673
85.0, 23432.183078787697, 45936.41113476886, 15100.168001671793, -9852.783066366084, -12884.461925561658, 42809.24562326022, 15657.486397920418, 4694.291018759134, 0.63, -0.59, 0.53, 192.0, 19.0, 176.0, 237.0, 144.0, 16.0, 144.0, 0.0, 0.0, 0.0, 1.6636601726737144E9, 0.0, 2022-09-20 12:49:32.673
86.0, 24241.763262958917, 46611.724389997056, 15856.774551483937, -9474.345680993281, -10747.411638189751, 42821.293213521625, 16884.999499916972, 7734.664706547822, 0.63, -0.59, 0.53, 192.0, 0.0, 0.0, 0.0, 0.0, 0.0, 0.0, 0.0, 0.0, 0.0, 1.6636601726737332E9, 0.0, 2022-09-20 12:49:32.673
87.0, 24048.71124609843, 46558.12490679323, 15557.350582760642, -9738.722114410653, -10354.57972938773, 42831.19503631533, 16383.62752003998, 8555.085486779868, 0.63, -0.59, 0.53, 192.0, 0.0, 0.0, 0.0, 0.0, 0.0, 0.0, 0.0, 0.0, 0.0, 1.6636601726737504E9, 0.0, 2022-09-20 12:49:32.673
88.0, 22957.63319225707, 45680.90834390025, 14506.639779405568, -10441.773884507882, -12436.55531842176, 42841.230969575765, 14687.733612982467, 5396.1357946557755, 0.63, -0.59, 0.53, 192.0, 0.0, 0.0, 0.0, 0.0, 0.0, 0.0, 0.0, 0.0, 0.0, 1.6636601726737669E9, 0.0, 2022-09-20 12:49:32.673
89.0, 22544.304733789533, 45251.553684658254, 14209.071005472066, -10523.000123858468, -14087.969254013213, 42812.62073667297, 14217.81053755409, 2729.215053226358, 0.63, -0.59, 0.53, 192.0, 0.0, 0.0, 0.0, 0.0, 0.0, 0.0, 0.0, 0.0, 0.0, 1.663660172673783E9, 0.0, 2022-09-20 12:49:32.673
90.0, 23477.154788631775, 45964.551981038094, 15135.439054422266, -9842.300098216547, -12693.823897102344, 42794.0017335417, 15731.470672067486, 4833.7435524157945, 0.63, -0.59, 0.53, 192.0, 0.0, 0.0, 0.0, 0.0, 0.0, 0.0, 0.0, 0.0, 0.0, 1.6636601726738005E9, 0.0, 2022-09-20 12:49:32.673
91.0, 24254.61551602072, 46625.068381436875, 15864.061220176367, -9473.473962959524, -10584.28860715492, 42810.89965234991, 16906.233657149514, 7833.258251340181, 0.63, -0.59, 0.53, 192.0, 0.0, 0.0, 0.0, 0.0, 0.0, 0.0, 0.0, 0.0, 0.0, 1.6636601726738167E9, 0.0, 2022-09-20 12:49:32.673
92.0, 24016.14475442705, 46538.92475830612, 15520.872535809582, -9757.564634986476, -10295.168792625522, 42829.1610275699, 16330.005685091697, 8503.810584999394, 0.63, -0.59, 0.53, 192.0, 0.0, 0.0, 0.0, 0.0, 0.0, 0.0, 0.0, 0.0, 0.0, 1.6636601726738338E9, 0.0, 2022-09-20 12:49:32.673
93.0, 22911.275674256765, 45642.061012036924, 14467.703040564424, -10459.767038794404, -12459.599966955182, 42843.44379227684, 14623.6511616291, 5191.326760211798, 0.63, -0.59, 0.53, 192.0, 0.0, 0.0, 0.0, 0.0, 0.0, 0.0, 0.0, 0.0, 0.0, 1.6636601726738508E9, 0.0, 2022-09-20 12:49:32.673
94.0, 22566.969402667215, 45268.51865869983, 14242.017476799188, -10489.159582753133, -13993.734299389638, 42818.70041116481, 14264.056296832121, 2726.912823547462, 0.63, -0.59, 0.53, 192.0, 0.0, 0.0, 0.0, 0.0, 0.0, 0.0, 0.0, 0.0, 0.0, 1.6636601726738682E9, 0.0, 2022-09-20 12:49:32.673
95.0, 23530.84367881342, 46006.43915014734, 15193.285369072602, -9799.98824596265, -12506.33746461123, 42803.9035563354, 15817.055501586856, 4991.748033970361, 0.628, -0.6, 0.532, 192.0, 19.0, 160.0, 237.0, 64.0, 16.0, 160.0, 0.0, 0.0, 0.0, 1.6636601726738856E9, 0.0, 2022-09-20 12:49:32.673
96.0, 24274.307402885843, 46640.66989906668, 15875.840589504312, -9470.568236180334, -10456.30251840383, 42815.146483796416, 16920.31525615636, 7931.538871710167, 0.628, -0.6, 0.532, 192.0, 0.0, 0.0, 0.0, 0.0, 0.0, 0.0, 0.0, 0.0, 0.0, 1.663660172673905E9, 0.0, 2022-09-20 12:49:32.673
0.0, 0.0, 0.0, 0.0, 0.0, 0.0, 0.0, 0.0, 0.0, 0.632, -0.598, 0.536, 192.0, 19.0, 192.0, 237.0, 80.0, 16.0, 192.0, 0.0, 0.0, 0.0, 1.6636601727510004E9, 0.0, 2022-09-20 12:49:32.751
1.0, 23823.96445560032, 45915.981640336715, 15281.574759671064, -9936.356238884478, -11169.16670431694, 42239.1196774387, 16200.790250395567, 7926.66619141891, 0.632, -0.598, 0.536, 192.0, 0.0, 0.0, 0.0, 0.0, 0.0, 0.0, 0.0, 0.0, 0.0, 1.663660173230484E9, 0.0, 2022-09-20 12:49:33.230
2.0, 23304.219341781063, 45595.792901014436, 14683.6655954916, -10365.509732426373, -11545.927708855595, 42267.66285510813, 15207.76929947964, 7612.512423099569, 0.632, -0.598, 0.536, 192.0, 0.0, 0.0, 0.0, 0.0, 0.0, 0.0, 0.0, 0.0, 0.0, 1.6636601732306795E9, 0.0, 2022-09-20 12:49:33.230
3.0, 22205.027604702427, 44661.22176184914, 13694.265627177434, -11000.656902868379, -13976.702270114694, 42273.69782611106, 13611.072434314781, 3792.621647432047, 0.632, -0.598, 0.536, 192.0, 0.0, 0.0, 0.0, 0.0, 0.0, 0.0, 0.0, 0.0, 0.0, 1.66366017323071E9, 0.0, 2022-09-20 12:49:33.230
4.0, 22274.31801251388, 44625.6824881652, 13840.043704514947, -10766.432972721217, -14751.190215491084, 42233.53174132487, 13865.547044938452, 2602.9500487983287, 0.632, -0.598, 0.536, 192.0, 0.0, 0.0, 0.0, 0.0, 0.0, 0.0, 0.0, 0.0, 0.0, 1.6636601732307384E9, 0.0, 2022-09-20 12:49:33.230
5.0, 23332.606057239303, 45459.42490809261, 14859.842045288331, -10095.56771463963, -12816.222049739607, 42223.33934585325, 15531.467262681397, 5505.838156442423, 0.632, -0.598, 0.536, 192.0, 0.0, 0.0, 0.0, 0.0, 0.0, 0.0, 0.0, 0.0, 0.0, 1.6636601732307744E9, 0.0, 2022-09-20 12:49:33.230
6.0, 23827.04899633515, 45925.14585556339, 15276.478561935255, -9938.144378440902, -11118.29413393666, 42239.90198849464, 16185.524008932593, 7996.470689352834, 0.632, -0.598, 0.536, 192.0, 0.0, 0.0, 0.0, 0.0, 0.0, 0.0, 0.0, 0.0, 0.0, 1.6636601732308013E9, 0.0, 2022-09-20 12:49:33.230
7.0, 23256.47601562453, 45561.885304675736, 14636.168138524074, -10392.354177517198, -11614.569916077842, 42266.67937835209, 15122.877374038384, 7494.7857850534665, 0.632, -0.598, 0.536, 192.0, 0.0, 0.0, 0.0, 0.0, 0.0, 0.0, 0.0, 0.0, 0.0, 1.6636601732308276E9, 0.0, 2022-09-20 12:49:33.230
8.0, 22174.67393573212, 44635.00316560306, 13673.411449600631, -11005.239010481717, -14058.934337965768, 42267.193468474565, 13571.44279139552, 3631.174997231364, 0.624, -0.596, 0.54, 192.0, 19.0, 128.0, 237.0, 96.0, 16.0, 224.0, 0.0, 0.0, 0.0, 1.6636601732308545E9, 0.0, 2022-09-20 12:49:33.230
9.0, 22314.66291125571, 44660.2382850931, 13886.22240855961, -10730.759588570547, -14677.585920999756, 42237.46564834901, 13931.864670737348, 2687.7525672617635, 0.624, -0.596, 0.54, 192.0, 0.0, 0.0, 0.0, 0.0, 0.0, 0.0, 0.0, 0.0, 0.0, 1.6636601732308838E9, 0.0, 2022-09-20 12:49:33.230
10.0, 23377.756581039022, 45500.507414401465, 14904.456127221123, -10071.047850972158, -12678.848228317289, 42241.57836932878, 15591.861676199636, 5666.234274653706, 0.624, -0.596, 0.54, 192.0, 0.0, 0.0, 0.0, 0.0, 0.0, 0.0, 0.0, 0.0, 0.0, 1.66366017323091E9, 0.0, 2022-09-20 12:49:33.230
11.0, 23824.657359678433, 45930.28675678811, 15270.957681054793, -9944.224052932746, -11047.148531335419, 42261.73964282747, 16165.698011600736, 8066.945739620417, 0.624, -0.596, 0.54, 192.0, 0.0, 0.0, 0.0, 0.0, 0.0, 0.0, 0.0, 0.0, 0.0, 1.6636601732309363E9, 0.0, 2022-09-20 12:49:33.230
12.0, 23209.15737261264, 45524.96022283557, 14592.403422880581, -10419.578602263762, -11660.815675355874, 42271.06032026534, 15045.853262645396, 7376.612112118258, 0.624, -0.596, 0.54, 192.0, 0.0, 0.0, 0.0, 0.0, 0.0, 0.0, 0.0, 0.0, 0.0, 1.6636601732309625E9, 0.0, 2022-09-20 12:49:33.230
13.0, 22148.656505186143, 44608.91867982372, 13654.054838902335, -11015.99019956472, -14112.802042103058, 42265.114756240226, 13537.19991888999, 3489.666103084815, 0.624, -0.596, 0.54, 192.0, 0.0, 0.0, 0.0, 0.0, 0.0, 0.0, 0.0, 0.0, 0.0, 1.663660173230992E9, 0.0, 2022-09-20 12:49:33.230
14.0, 22355.298382675457, 44691.55307907499, 13925.025036934023, -10705.144489424765, -14585.943768732997, 42227.65323253313, 13995.0530523125, 2783.7086062083968, 0.624, -0.596, 0.54, 192.0, 0.0, 0.0, 0.0, 0.0, 0.0, 0.0, 0.0, 0.0, 0.0, 1.6636601732310193E9, 0.0, 2022-09-20 12:49:33.231
15.0, 23415.508677424037, 45529.85525487128, 14942.81172070643, -10055.245167642257, -12538.591031860236, 42233.93407272507, 15652.792531584804, 5820.304849184138, 0.624, -0.596, 0.54, 192.0, 0.0, 0.0, 0.0, 0.0, 0.0, 0.0, 0.0, 0.0, 0.0, 1.6636601732310452E9, 0.0, 2022-09-20 12:49:33.231
16.0, 23820.544638698655, 45929.72796317672, 15262.06168676158, -9958.05978275058, -10985.569475361048, 42250.072032221804, 16147.704857314213, 8125.082626948671, 0.624, -0.596, 0.54, 192.0, 0.0, 0.0, 0.0, 0.0, 0.0, 0.0, 0.0, 0.0, 0.0, 1.6636601732310712E9, 0.0, 2022-09-20 12:49:33.231
17.0, 23159.290630732852, 45483.922420015624, 14538.558070487747, -10462.091620217756, -11727.848556977338, 42267.57344813031, 14961.386020348791, 7234.745590060425, 0.624, -0.596, 0.54, 192.0, 0.0, 0.0, 0.0, 0.0, 0.0, 0.0, 0.0, 0.0, 0.0, 1.6636601732310975E9, 0.0, 2022-09-20 12:49:33.231
18.0, 22122.84024034026, 44579.794356798455, 13630.876079902182, -11027.769568892667, -14182.114801658965, 42273.206087733044, 13504.879296407616, 3336.4001913547745, 0.632, -0.594, 0.546, 192.0, 19.0, 192.0, 237.0, 112.0, 17.0, 16.0, 0.0, 0.0, 0.0, 1.6636601732311487E9, 0.0, 2022-09-20 12:49:33.231
19.0, 22404.695737921684, 44723.29255620153, 13975.227054980644, -10668.912311662712, -14493.608712388124, 42237.95738672702, 14077.039250974567, 2883.0621103122367, 0.632, -0.594, 0.546, 192.0, 0.0, 0.0, 0.0, 0.0, 0.0, 0.0, 0.0, 0.0, 0.0, 1.663660173231177E9, 0.0, 2022-09-20 12:49:33.231
20.0, 23459.966297145642, 45565.103955877305, 14983.737764804098, -10036.55910927762, -12406.581629107193, 42228.50259882243, 15723.312285341299, 5957.835132817642, 0.632, -0.594, 0.546, 192.0, 0.0, 0.0, 0.0, 0.0, 0.0, 0.0, 0.0, 0.0, 0.0, 1.6636601732312033E9, 0.0, 2022-09-20 12:49:33.231
21.0, 23815.671958407398, 45933.23718705621, 15249.58941335552, -9978.154001015902, -10934.607498002946, 42246.65221532014, 16129.9575722167, 8149.289566193768, 0.632, -0.594, 0.546, 192.0, 0.0, 0.0, 0.0, 0.0, 0.0, 0.0, 0.0, 0.0, 0.0, 1.6636601732312307E9, 0.0, 2022-09-20 12:49:33.231
22.0, 23103.455973083495, 45442.057602650835, 14491.172372242496, -10502.503574192951, -11789.09233678488, 42272.736701099486, 14881.232664732059, 7064.201779866431, 0.632, -0.594, 0.546, 192.0, 0.0, 0.0, 0.0, 0.0, 0.0, 0.0, 0.0, 0.0, 0.0, 1.6636601732312567E9, 0.0, 2022-09-20 12:49:33.231
23.0, 22089.536141101857, 44550.11124016181, 13614.447547727532, -11040.890042887931, -14230.260459215697, 42267.88637255268, 13474.033889059292, 3173.679491720139, 0.632, -0.594, 0.546, 192.0, 0.0, 0.0, 0.0, 0.0, 0.0, 0.0, 0.0, 0.0, 0.0, 1.6636601732312825E9, 0.0, 2022-09-20 12:49:33.231
24.0, 22445.510023297076, 44756.171972295284, 14016.577782222961, -10645.577090451372, -14388.756679148279, 42228.99433720045, 14145.726161685725, 2973.989006756426, 0.632, -0.594, 0.546, 192.0, 0.0, 0.0, 0.0, 0.0, 0.0, 0.0, 0.0, 0.0, 0.0, 1.6636601732313137E9, 0.0, 2022-09-20 12:49:33.231
25.0, 23500.355899376384, 45598.944496982636, 15019.478204188134, -10022.522213759687, -12257.853121501581, 42233.285872135864, 15781.627986625193, 6107.413006712557, 0.632, -0.594, 0.546, 192.0, 0.0, 0.0, 0.0, 0.0, 0.0, 0.0, 0.0, 0.0, 0.0, 1.6636601732313447E9, 0.0, 2022-09-20 12:49:33.231
26.0, 23806.306577480624, 45928.38685850941, 15234.546689337098, -9980.858562094994, -10873.609587384413, 42246.20518043103, 16106.622351005359, 8204.274857553823, 0.632, -0.594, 0.546, 192.0, 0.0, 0.0, 0.0, 0.0, 0.0, 0.0, 0.0, 0.0, 0.0, 1.6636601732313757E9, 0.0, 2022-09-20 12:49:33.231
27.0, 23045.475547966427, 45390.402721214625, 14436.455301815904, -10534.980658886512, -11859.098000418902, 42266.992302774466, 14797.972416636041, 6906.554926223151, 0.632, -0.594, 0.546, 192.0, 0.0, 0.0, 0.0, 0.0, 0.0, 0.0, 0.0, 0.0, 0.0, 1.6636601732314076E9, 0.0, 2022-09-20 12:49:33.231
28.0, 22071.65474553761, 44529.27941432946, 13598.935437075548, -11045.650964456912, -14277.087363849565, 42259.61622710422, 13454.006726027337, 3039.3902110326544, 0.63, -0.592, 0.542, 192.0, 19.0, 176.0, 237.0, 128.0, 16.0, 240.0, 0.0, 0.0, 0.0, 1.6636601732314367E9, 0.0, 2022-09-20 12:49:33.231
29.0, 22496.270834955078, 44796.06983614801, 14059.426076343785, -10608.361435933284, -14275.858017904524, 42224.30047086483, 14221.140947477932, 3082.842002253771, 0.63, -0.592, 0.542, 192.0, 0.0, 0.0, 0.0, 0.0, 0.0, 0.0, 0.0, 0.0, 0.0, 1.663660173231466E9, 0.0, 2022-09-20 12:49:33.231
30.0, 23539.538507406534, 45631.60039563184, 15053.050524360006, -10001.98096060526, -12102.955532426302, 42228.5696540558, 15839.183728597609, 6253.3698980057125, 0.63, -0.592, 0.542, 192.0, 0.0, 0.0, 0.0, 0.0, 0.0, 0.0, 0.0, 0.0, 0.0, 1.6636601732314956E9, 0.0, 2022-09-20 12:49:33.231
31.0, 23792.068516262596, 45921.077838072524, 15218.475785073733, -9994.73899540174, -10803.738034217124, 42247.16630544261, 16079.08500183642, 8236.528424802831, 0.63, -0.592, 0.542, 192.0, 0.0, 0.0, 0.0, 0.0, 0.0, 0.0, 0.0, 0.0, 0.0, 1.663660173231527E9, 0.0, 2022-09-20 12:49:33.231
32.0, 22988.16567518302, 45342.994671224915, 14382.878170356533, -10569.402345347686, -11919.112434281402, 42267.66285510813, 14711.247648149449, 6729.931441537314, 0.63, -0.592, 0.542, 192.0, 0.0, 0.0, 0.0, 0.0, 0.0, 0.0, 0.0, 0.0, 0.0, 1.6636601732315545E9, 0.0, 2022-09-20 12:49:33.231
33.0, 22054.98034417395, 44510.436893753635, 13586.552570647309, -11042.14174057743, -14306.725776997302, 42256.10700322474, 13440.461568887422, 2915.829767683717, 0.63, -0.592, 0.542, 192.0, 0.0, 0.0, 0.0, 0.0, 0.0, 0.0, 0.0, 0.0, 0.0, 1.6636601732315853E9, 0.0, 2022-09-20 12:49:33.231
34.0, 22545.89170764586, 44832.90551101035, 14107.0799955225, -10571.324595370841, -14151.470560010739, 42228.323784866785, 14305.250561863251, 3207.0506461919126, 0.63, -0.592, 0.542, 192.0, 0.0, 0.0, 0.0, 0.0, 0.0, 0.0, 0.0, 0.0, 0.0, 1.6636601732316434E9, 0.0, 2022-09-20 12:49:33.231
35.0, 23573.55786246751, 45657.997805833555, 15081.817219473985, -9990.64862616642, -11967.146333115857, 42228.99433720045, 15891.822086789858, 6384.686396680641, 0.63, -0.592, 0.542, 192.0, 0.0, 0.0, 0.0, 0.0, 0.0, 0.0, 0.0, 0.0, 0.0, 1.6636601732316735E9, 0.0, 2022-09-20 12:49:33.231
36.0, 23777.919862022383, 45917.99329733769, 15198.001587152672, -10006.45130949632, -10754.74301037109, 42241.73483153997, 16052.419370701238, 8266.97150075096, 0.63, -0.592, 0.542, 192.0, 0.0, 0.0, 0.0, 0.0, 0.0, 0.0, 0.0, 0.0, 0.0, 1.6636601732317045E9, 0.0, 2022-09-20 12:49:33.231
37.0, 22932.30866578921, 45300.25813582637, 14331.916192998433, -10600.068938740365, -11978.501019299152, 42265.89706729616, 14635.6540484016, 6573.536285583531, 0.63, -0.592, 0.542, 192.0, 0.0, 0.0, 0.0, 0.0, 0.0, 0.0, 0.0, 0.0, 0.0, 1.6636601732317364E9, 0.0, 2022-09-20 12:49:33.231
38.0, 22041.63635273413, 44496.467053469074, 13578.930625788049, -11039.95126962081, -14319.622733548014, 42260.756166071435, 13437.019400241305, 2825.886347995561, 0.628, -0.592, 0.546, 192.0, 19.0, 160.0, 237.0, 128.0, 17.0, 16.0, 0.0, 0.0, 0.0, 1.663660173231768E9, 0.0, 2022-09-20 12:49:33.231
39.0, 22589.321147122522, 44866.67899688232, 14150.0400483656, -10538.668696721637, -14026.814881183493, 42225.90979646562, 14386.834429125123, 3345.4302961147187, 0.628, -0.592, 0.546, 192.0, 0.0, 0.0, 0.0, 0.0, 0.0, 0.0, 0.0, 0.0, 0.0, 1.6636601732318017E9, 0.0, 2022-09-20 12:49:33.231
40.0, 23599.217665102206, 45679.56723923293, 15109.198106431737, -9977.885780082439, -11823.446968012688, 42227.09443892175, 15944.505148471017, 6550.9163201947595, 0.628, -0.592, 0.546, 192.0, 0.0, 0.0, 0.0, 0.0, 0.0, 0.0, 0.0, 0.0, 0.0, 1.6636601732318323E9, 0.0, 2022-09-20 12:49:33.231
41.0, 23758.473844346267, 45901.3859512074, 15170.128961816903, -10025.494995772242, -10704.429233602195, 42253.98358750148, 16016.634227828292, 8319.498100220932, 0.628, -0.592, 0.546, 192.0, 0.0, 0.0, 0.0, 0.0, 0.0, 0.0, 0.0, 0.0, 0.0, 1.6636601732318637E9, 0.0, 2022-09-20 12:49:33.231
42.0, 22865.968688245855, 45237.09210599567, 14266.604395700026, -10641.374962493774, -12061.247177272699, 42267.79696557486, 14538.714532698934, 6406.814623691395, 0.628, -0.592, 0.546, 192.0, 0.0, 0.0, 0.0, 0.0, 0.0, 0.0, 0.0, 0.0, 0.0, 1.6636601732318957E9, 0.0, 2022-09-20 12:49:33.231
43.0, 22019.955160612484, 44465.57694263184, 13563.843198280716, -11039.012496353685, -14352.725667086324, 42247.970968243004, 13412.186612151458, 2734.713582362364, 0.628, -0.592, 0.546, 192.0, 0.0, 0.0, 0.0, 0.0, 0.0, 0.0, 0.0, 0.0, 0.0, 1.663660173231926E9, 0.0, 2022-09-20 12:49:33.231
44.0, 22631.498888909686, 44894.395160006905, 14191.48018258574, -10503.59880967126, -13892.883228407292, 42213.48222654846, 14449.128740922064, 3495.701074087748, 0.628, -0.592, 0.546, 192.0, 0.0, 0.0, 0.0, 0.0, 0.0, 0.0, 0.0, 0.0, 0.0, 1.663660173231958E9, 0.0, 2022-09-20 12:49:33.231
45.0, 23626.15151717085, 45705.94229769019, 15132.421568920801, -9964.899416553906, -11656.568843909365, 42223.40640108662, 15977.429268053684, 6716.609801841951, 0.628, -0.592, 0.546, 192.0, 0.0, 0.0, 0.0, 0.0, 0.0, 0.0, 0.0, 0.0, 0.0, 1.6636601732319915E9, 0.0, 2022-09-20 12:49:33.231
46.0, 23737.46320455828, 45893.85341332596, 15142.636316136875, -10047.533815805176, -10624.566450663382, 42245.93695949757, 15965.20286383663, 8355.730277982984, 0.628, -0.592, 0.546, 192.0, 0.0, 0.0, 0.0, 0.0, 0.0, 0.0, 0.0, 0.0, 0.0, 1.6636601732320216E9, 0.0, 2022-09-20 12:49:33.232
47.0, 22809.41877477393, 45193.34974209664, 14211.887325273434, -10683.753869981036, -12094.126593366456, 42262.54430562786, 14446.625345543069, 6243.468075212011, 0.628, -0.592, 0.546, 192.0, 0.0, 0.0, 0.0, 0.0, 0.0, 0.0, 0.0, 0.0, 0.0, 1.6636601732320595E9, 0.0, 2022-09-20 12:49:33.232
48.0, 22019.664587934567, 44463.16295423066, 13564.513750614376, -11041.225319054762, -14308.379806086996, 42237.68916579356, 13411.203135395424, 2679.5941805355765, 0.622, -0.582, 0.552, 192.0, 19.0, 112.0, 237.0, 208.0, 17.0, 64.0, 0.0, 0.0, 0.0, 1.663660173232093E9, 0.0, 2022-09-20 12:49:33.232
49.0, 22686.35006980301, 44937.869302972475, 14238.687066875347, -10479.637739615171, -13714.784528587405, 42213.83985445975, 14523.91767786952, 3637.05350602311, 0.622, -0.582, 0.552, 192.0, 0.0, 0.0, 0.0, 0.0, 0.0, 0.0, 0.0, 0.0, 0.0, 1.6636601732321515E9, 0.0, 2022-09-20 12:49:33.232
50.0, 23658.06980825303, 45732.65263231428, 15156.896729099362, -9963.848884564506, -11493.244647174437, 42233.017651202405, 16009.861649258335, 6827.519157829185, 0.622, -0.582, 0.552, 192.0, 0.0, 0.0, 0.0, 0.0, 0.0, 0.0, 0.0, 0.0, 0.0, 1.6636601732321837E9, 0.0, 2022-09-20 12:49:33.232
51.0, 23716.07258511455, 45881.157622475344, 15116.66358907981, -10064.923472991404, -10567.055412179878, 42243.88059900768, 15915.961970801589, 8339.949946397537, 0.622, -0.582, 0.552, 192.0, 0.0, 0.0, 0.0, 0.0, 0.0, 0.0, 0.0, 0.0, 0.0, 1.6636601732322147E9, 0.0, 2022-09-20 12:49:33.232
52.0, 22750.320762434098, 45144.42177348397, 14159.651298481382, -10711.648847061258, -12149.715381826805, 42261.35966317173, 14362.582786391114, 6036.200348877949, 0.622, -0.582, 0.552, 192.0, 0.0, 0.0, 0.0, 0.0, 0.0, 0.0, 0.0, 0.0, 0.0, 1.6636601732322454E9, 0.0, 2022-09-20 12:49:33.232
53.0, 22017.65293093359, 44455.58571286032, 13565.251358181402, -11029.065970071075, -14295.616960003015, 42245.4228693751, 13419.093301188148, 2577.6702258193764, 0.622, -0.582, 0.552, 192.0, 0.0, 0.0, 0.0, 0.0, 0.0, 0.0, 0.0, 0.0, 0.0, 1.663660173232271E9, 0.0, 2022-09-20 12:49:33.232
54.0, 22743.25761118622, 44981.41050117141, 14295.236980347274, -10440.25396588492, -13550.655669052085, 42219.56190104031, 14620.924248805553, 3757.216484214841, 0.622, -0.582, 0.552, 192.0, 0.0, 0.0, 0.0, 0.0, 0.0, 0.0, 0.0, 0.0, 0.0, 1.6636601732322958E9, 0.0, 2022-09-20 12:49:33.232
55.0, 23681.650898653377, 45751.897484290304, 15175.649842697365, -9952.762419314673, -11344.516139568823, 42232.48120933548, 16051.547652667483, 6909.728873935804, 0.622, -0.582, 0.552, 192.0, 0.0, 0.0, 0.0, 0.0, 0.0, 0.0, 0.0, 0.0, 0.0, 1.6636601732323177E9, 0.0, 2022-09-20 12:49:33.232
56.0, 23689.675174912834, 45862.27039841061, 15081.817219473985, -10090.42681341491, -10518.641533689683, 42254.69884332405, 15872.264310391463, 8282.282445702846, 0.622, -0.582, 0.552, 192.0, 0.0, 0.0, 0.0, 0.0, 0.0, 0.0, 0.0, 0.0, 0.0, 1.6636601732323403E9, 0.0, 2022-09-20 12:49:33.232
57.0, 22699.62700600946, 45094.8456042821, 14109.002245545656, -10746.763437600546, -12200.945580118369, 42271.19443073207, 14291.057204134131, 5797.1037384395295, 0.622, -0.582, 0.552, 192.0, 0.0, 0.0, 0.0, 0.0, 0.0, 0.0, 0.0, 0.0, 0.0, 1.66366017323237E9, 0.0, 2022-09-20 12:49:33.232
58.0, 22025.65485544859, 44453.127020970234, 13569.006451249892, -11019.432368210837, -14270.560654468616, 42248.239189176464, 13435.722999062897, 2468.8395820664864, 0.62, -0.582, 0.548, 192.0, 19.0, 96.0, 237.0, 208.0, 17.0, 32.0, 0.0, 0.0, 0.0, 1.663660173232395E9, 0.0, 2022-09-20 12:49:33.232
59.0, 22797.549998468163, 45018.08971382257, 14335.31365815564, -10411.956657404502, -13401.79305097974, 42211.17999686956, 14697.81424973181, 3850.110334171097, 0.62, -0.582, 0.548, 192.0, 0.0, 0.0, 0.0, 0.0, 0.0, 0.0, 0.0, 0.0, 0.0, 1.6636601732324193E9, 0.0, 2022-09-20 12:49:33.232
60.0, 23710.149372833894, 45772.25992348909, 15189.99966263767, -9945.855730277985, -11204.415405322958, 42218.77958998437, 16085.499952495094, 7001.661598880482, 0.62, -0.582, 0.548, 192.0, 0.0, 0.0, 0.0, 0.0, 0.0, 0.0, 0.0, 0.0, 0.0, 1.6636601732324457E9, 0.0, 2022-09-20 12:49:33.232
61.0, 23668.17279674683, 45842.73497375667, 15048.513120235577, -10110.833956102606, -10484.018681528412, 42241.80188677334, 15828.32078079233, 8249.090105186713, 0.62, -0.582, 0.548, 192.0, 0.0, 0.0, 0.0, 0.0, 0.0, 0.0, 0.0, 0.0, 0.0, 1.663660173232483E9, 0.0, 2022-09-20 12:49:33.232
62.0, 22649.939078085314, 45044.04008913518, 14057.481474576172, -10784.202609563186, -12271.57709259714, 42257.26929393641, 14217.76583406518, 5591.221820261696, 0.62, -0.582, 0.548, 192.0, 0.0, 0.0, 0.0, 0.0, 0.0, 0.0, 0.0, 0.0, 0.0, 1.6636601732325127E9, 0.0, 2022-09-20 12:49:33.232
63.0, 22032.315675296268, 44445.59448308879, 13575.510808886387, -11013.665618141367, -14250.48878794775, 42229.217854645, 13457.76181909583, 2422.437360577269, 0.62, -0.582, 0.548, 192.0, 0.0, 0.0, 0.0, 0.0, 0.0, 0.0, 0.0, 0.0, 0.0, 1.6636601732325425E9, 0.0, 2022-09-20 12:49:33.232
64.0, 22843.013446690256, 45048.398679303966, 14382.364080234061, -10388.040290837323, -13252.081066618093, 42215.1139038937, 14787.288282786403, 4007.3101529252713, 0.62, -0.582, 0.548, 192.0, 0.0, 0.0, 0.0, 0.0, 0.0, 0.0, 0.0, 0.0, 0.0, 1.663660173232573E9, 0.0, 2022-09-20 12:49:33.232
65.0, 23726.376739308445, 45785.49215620663, 15204.461241300254, -9949.364954157467, -11076.33990959405, 42226.0662586768, 16118.982865689144, 7129.625335887115, 0.62, -0.582, 0.548, 192.0, 0.0, 0.0, 0.0, 0.0, 0.0, 0.0, 0.0, 0.0, 0.0, 1.6636601732326343E9, 0.0, 2022-09-20 12:49:33.232
66.0, 23638.467328365725, 45822.372534557886, 15011.073948272939, -10136.24788954829, -10458.180064938077, 42250.22849443299, 15777.0235272674, 8249.224215653447, 0.62, -0.582, 0.548, 192.0, 0.0, 0.0, 0.0, 0.0, 0.0, 0.0, 0.0, 0.0, 0.0, 1.6636601732326648E9, 0.0, 2022-09-20 12:49:33.232
67.0, 22595.937263481293, 44997.10142577904, 14004.060805327988, -10812.09758664341, -12334.787825916746, 42272.155555743644, 14143.669801195838, 5430.043390994477, 0.62, -0.582, 0.548, 192.0, 0.0, 0.0, 0.0, 0.0, 0.0, 0.0, 0.0, 0.0, 0.0, 1.6636601732326949E9, 0.0, 2022-09-20 12:49:33.232
68.0, 22048.185413859537, 44454.17755295963, 13589.63711138214, -10990.12923122993, -14198.47627860025, 42247.74745079845, 13488.562522955242, 2435.401372361347, 0.626, -0.586, 0.546, 192.0, 19.0, 144.0, 237.0, 176.0, 17.0, 16.0, 0.0, 0.0, 0.0, 1.663660173232726E9, 0.0, 2022-09-20 12:49:33.232
69.0, 22901.507961929794, 45096.23141243833, 14433.504871547804, -10349.371772929642, -13076.217541243737, 42234.11288668071, 14870.660289604699, 4195.154213327672, 0.626, -0.586, 0.546, 192.0, 0.0, 0.0, 0.0, 0.0, 0.0, 0.0, 0.0, 0.0, 0.0, 1.663660173232762E9, 0.0, 2022-09-20 12:49:33.232
70.0, 23746.202736640305, 45805.25109830512, 15218.431081584822, -9936.892680751405, -10936.663858492835, 42243.36650888521, 16137.870089753878, 7260.383040950661, 0.626, -0.586, 0.546, 192.0, 0.0, 0.0, 0.0, 0.0, 0.0, 0.0, 0.0, 0.0, 0.0, 1.6636601732327924E9, 0.0, 2022-09-20 12:49:33.232
71.0, 23600.849342447444, 45795.55044121152, 14972.181912920703, -10154.308099068177, -10432.140282647644, 42245.48992460846, 15712.784613702848, 8215.048398381281, 0.626, -0.586, 0.546, 192.0, 0.0, 0.0, 0.0, 0.0, 0.0, 0.0, 0.0, 0.0, 0.0, 1.6636601732328231E9, 0.0, 2022-09-20 12:49:33.232
72.0, 22531.251315027635, 44937.377564594455, 13948.024981978535, -10843.635898069848, -12406.425166896006, 42247.903913009635, 14058.509654821117, 5213.879670367202, 0.626, -0.586, 0.546, 192.0, 0.0, 0.0, 0.0, 0.0, 0.0, 0.0, 0.0, 0.0, 0.0, 1.6636601732328534E9, 0.0, 2022-09-20 12:49:33.232
73.0, 22048.967724915474, 44442.152314442676, 13591.045271282825, -10979.93683575831, -14174.112877143965, 42219.383087084665, 13503.605246973664, 2377.555057711012, 0.626, -0.586, 0.546, 192.0, 0.0, 0.0, 0.0, 0.0, 0.0, 0.0, 0.0, 0.0, 0.0, 1.6636601732328837E9, 0.0, 2022-09-20 12:49:33.232
74.0, 22941.74110194935, 45116.437389425926, 14465.57962484117, -10326.863566263148, -12934.574536630456, 42200.719380464485, 14941.358857316836, 4302.643752413243, 0.626, -0.586, 0.546, 192.0, 0.0, 0.0, 0.0, 0.0, 0.0, 0.0, 0.0, 0.0, 0.0, 1.6636601732329135E9, 0.0, 2022-09-20 12:49:33.232
75.0, 23748.75083550821, 45798.92555462427, 15210.004473925172, -9953.701192581797, -10822.580554792949, 42214.66686900459, 16143.547432845526, 7309.914506663622, 0.626, -0.586, 0.546, 192.0, 0.0, 0.0, 0.0, 0.0, 0.0, 0.0, 0.0, 0.0, 0.0, 1.6636601732329452E9, 0.0, 2022-09-20 12:49:33.232
76.0, 23545.729940620655, 45743.00148999709, 14908.166516800704, -10213.54022187474, -10437.236480383453, 42232.57061631329, 15631.625429585629, 8089.006911397805, 0.626, -0.586, 0.546, 192.0, 0.0, 0.0, 0.0, 0.0, 0.0, 0.0, 0.0, 0.0, 0.0, 1.6636601732329776E9, 0.0, 2022-09-20 12:49:33.232
77.0, 22461.603279304898, 44868.6906538833, 13883.517847480518, -10895.313131250517, -12502.247095375908, 42250.11673571071, 13969.661470611272, 4934.795789098238, 0.626, -0.586, 0.546, 192.0, 0.0, 0.0, 0.0, 0.0, 0.0, 0.0, 0.0, 0.0, 0.0, 1.6636601732330093E9, 0.0, 2022-09-20 12:49:33.233
78.0, 22058.668382009077, 44443.38166038772, 13604.277504000367, -10968.31392864155, -14145.077961096522, 42226.17801739908, 13532.48370080992, 2317.0935889594066, 0.632, -0.59, 0.548, 192.0, 19.0, 192.0, 237.0, 144.0, 17.0, 32.0, 0.0, 0.0, 0.0, 1.6636601732330403E9, 0.0, 2022-09-20 12:49:33.233
79.0, 22991.563140340226, 45154.99414861133, 14520.721378412412, -10301.159060139546, -12775.966557975598, 42207.08962763425, 15026.340189735913, 4440.978698847139, 0.632, -0.59, 0.548, 192.0, 0.0, 0.0, 0.0, 0.0, 0.0, 0.0, 0.0, 0.0, 0.0, 1.6636601732330728E9, 0.0, 2022-09-20 12:49:33.233
80.0, 23763.391228126435, 45814.59412748744, 15232.669142802853, -9947.532111112132, -10696.15908815373, 42227.16149415511, 16167.083819756965, 7414.028932336442, 0.632, -0.59, 0.548, 192.0, 0.0, 0.0, 0.0, 0.0, 0.0, 0.0, 0.0, 0.0, 0.0, 1.663660173233136E9, 0.0, 2022-09-20 12:49:33.233
81.0, 23515.868010028364, 45722.21436765366, 14891.022728803484, -10224.157300491011, -10415.801157450815, 42252.664834578616, 15580.350527805154, 8048.773771378252, 0.632, -0.59, 0.548, 192.0, 0.0, 0.0, 0.0, 0.0, 0.0, 0.0, 0.0, 0.0, 0.0, 1.6636601732331655E9, 0.0, 2022-09-20 12:49:33.233
82.0, 22414.508153737566, 44828.63632781939, 13863.31187049292, -10903.829145887988, -12555.220729734985, 42278.726968613504, 13909.959961171147, 4747.666984518407, 0.632, -0.59, 0.548, 192.0, 0.0, 0.0, 0.0, 0.0, 0.0, 0.0, 0.0, 0.0, 0.0, 1.663660173233194E9, 0.0, 2022-09-20 12:49:33.233
83.0, 22079.07552469677, 44463.386471675214, 13646.321135320799, -10926.471463021215, -14068.947919481745, 42244.52879959688, 13576.807210064795, 2313.472606357647, 0.632, -0.59, 0.548, 192.0, 0.0, 0.0, 0.0, 0.0, 0.0, 0.0, 0.0, 0.0, 0.0, 1.6636601732332244E9, 0.0, 2022-09-20 12:49:33.233
84.0, 23052.69516142549, 45210.98526847187, 14587.866018756155, -10246.821969368693, -12579.695889913546, 42221.28298536337, 15118.362321658413, 4581.638226704386, 0.632, -0.59, 0.548, 192.0, 0.0, 0.0, 0.0, 0.0, 0.0, 0.0, 0.0, 0.0, 0.0, 1.6636601732332537E9, 0.0, 2022-09-20 12:49:33.233
85.0, 23788.492237149745, 45843.15965690132, 15253.366858168467, -9932.422331860344, -10543.340211312796, 42234.71638378101, 16188.519142689604, 7484.034595970464, 0.632, -0.59, 0.548, 192.0, 0.0, 0.0, 0.0, 0.0, 0.0, 0.0, 0.0, 0.0, 0.0, 1.6636601732332828E9, 0.0, 2022-09-20 12:49:33.233
86.0, 23484.17323639074, 45707.59632677989, 14856.981021998052, -10242.999821066836, -10378.160819788078, 42258.0739567368, 15518.682064852961, 7953.600043487555, 0.632, -0.59, 0.548, 192.0, 0.0, 0.0, 0.0, 0.0, 0.0, 0.0, 0.0, 0.0, 0.0, 1.6636601732333124E9, 0.0, 2022-09-20 12:49:33.233
87.0, 22374.409124184745, 44797.34388558196, 13825.358608407809, -10926.58322174349, -12580.880532369678, 42259.45976489303, 13849.07380927489, 4529.916290034806, 0.632, -0.59, 0.548, 192.0, 0.0, 0.0, 0.0, 0.0, 0.0, 0.0, 0.0, 0.0, 0.0, 1.6636601732333412E9, 0.0, 2022-09-20 12:49:33.233
88.0, 22109.876228556186, 44481.223163750554, 13667.309423364333, -10911.16051806933, -13968.47682815514, 42220.92535745208, 13618.560268707308, 2304.531908575524, 0.626, -0.584, 0.54, 192.0, 19.0, 144.0, 237.0, 192.0, 16.0, 224.0, 0.0, 0.0, 0.0, 1.663660173233374E9, 0.0, 2022-09-20 12:49:33.233
89.0, 23102.070164927267, 45245.2281409774, 14627.6521238866, -10228.69470461544, -12382.665262540015, 42203.66981073259, 15192.324244061023, 4723.616507484497, 0.626, -0.584, 0.54, 192.0, 0.0, 0.0, 0.0, 0.0, 0.0, 0.0, 0.0, 0.0, 0.0, 1.6636601732334113E9, 0.0, 2022-09-20 12:49:33.233
90.0, 23796.069478520094, 45848.70288952624, 15252.58454711253, -9935.77509352864, -10389.157878060088, 42222.244110374944, 16192.430697969283, 7580.21415236165, 0.626, -0.584, 0.54, 192.0, 0.0, 0.0, 0.0, 0.0, 0.0, 0.0, 0.0, 0.0, 0.0, 1.6636601732334428E9, 0.0, 2022-09-20 12:49:33.233
91.0, 23446.868174894833, 45670.42537575071, 14808.723605719044, -10274.381670282088, -10343.985002515914, 42239.1196774387, 15445.345991295098, 7880.755708307709, 0.626, -0.584, 0.54, 192.0, 0.0, 0.0, 0.0, 0.0, 0.0, 0.0, 0.0, 0.0, 0.0, 1.6636601732334776E9, 0.0, 2022-09-20 12:49:33.233
92.0, 22323.670664271198, 44740.50339943211, 13771.982642648536, -10959.59674830398, -12630.16612889363, 42247.50158160944, 13773.904892671693, 4329.152921337238, 0.626, -0.584, 0.54, 192.0, 0.0, 0.0, 0.0, 0.0, 0.0, 0.0, 0.0, 0.0, 0.0, 1.663660173233508E9, 0.0, 2022-09-20 12:49:33.233
93.0, 22136.564211435823, 44490.320323743865, 13690.622292831218, -10890.462802703716, -13883.27197829151, 42218.80194172882, 13660.290975605367, 2349.2577492305936, 0.626, -0.584, 0.54, 192.0, 0.0, 0.0, 0.0, 0.0, 0.0, 0.0, 0.0, 0.0, 0.0, 1.6636601732335386E9, 0.0, 2022-09-20 12:49:33.233
94.0, 23157.837767343255, 45279.15808906056, 14676.915368666097, -10204.778338048262, -12190.50731545774, 42212.07406664778, 15270.510646165687, 4923.731675592861, 0.626, -0.584, 0.54, 192.0, 0.0, 0.0, 0.0, 0.0, 0.0, 0.0, 0.0, 0.0, 0.0, 1.663660173233569E9, 0.0, 2022-09-20 12:49:33.233
95.0, 23810.352243227037, 45852.435630850276, 15254.104465735492, -9943.195872687802, -10248.945385091947, 42222.177055141576, 16192.296587502551, 7706.233287600671, 0.626, -0.584, 0.54, 192.0, 0.0, 0.0, 0.0, 0.0, 0.0, 0.0, 0.0, 0.0, 0.0, 1.6636601732335992E9, 0.0, 2022-09-20 12:49:33.233
96.0, 23404.24339821856, 45628.426447919184, 14757.292241727382, -10313.89955447907, -10323.309638894754, 42232.43650584656, 15366.243167667768, 7825.032809380628, 0.626, -0.584, 0.54, 192.0, 0.0, 0.0, 0.0, 0.0, 0.0, 0.0, 0.0, 0.0, 0.0, 1.6636601732336605E9, 0.0, 2022-09-20 12:49:33.233
97.0, 22284.197483563126, 44696.828090766445, 13728.843775849793, -10984.340129416005, -12655.155379194663, 42243.03123271838, 13714.71747335404, 4174.545904939879, 0.626, -0.584, 0.54, 192.0, 0.0, 0.0, 0.0, 0.0, 0.0, 0.0, 0.0, 0.0, 0.0, 1.6636601732336915E9, 0.0, 2022-09-20 12:49:33.233
98.0, 22174.00338339846, 44513.163806577184, 13712.549354141875, -10859.505636633116, -13766.417058279165, 42214.08572364876, 13711.029435518914, 2414.7707122290985, 0.626, -0.584, 0.54, 192.0, 0.0, 0.0, 0.0, 0.0, 0.0, 0.0, 0.0, 0.0, 0.0, 1.6636601732337217E9, 0.0, 2022-09-20 12:49:33.233
99.0, 23200.797820186355, 45312.05985689877, 14705.927932969087, -10181.465468581375, -12006.284237657099, 42199.06535137479, 15335.50951904172, 5070.359119219675, 0.626, -0.59, 0.54, 192.0, 19.0, 144.0, 237.0, 144.0, 16.0, 224.0, 0.0, 0.0, 0.0, 1.663660173233752E9, 0.0, 2022-09-20 12:49:33.233
100.0, 23803.33379546807, 45855.54252332956, 15240.000514984193, -9953.25415769269, -10137.343125026598, 42223.294642364344, 16184.138200776364, 7751.540273611578, 0.626, -0.59, 0.54, 192.0, 0.0, 0.0, 0.0, 0.0, 0.0, 0.0, 0.0, 0.0, 0.0, 1.6636601732337835E9, 0.0, 2022-09-20 12:49:33.233
101.0, 23353.750807494023, 45597.1116539373, 14708.856011492731, -10337.480644879419, -10328.227022674922, 42248.395651387655, 15294.31525401059, 7700.421834042291, 0.626, -0.59, 0.54, 192.0, 0.0, 0.0, 0.0, 0.0, 0.0, 0.0, 0.0, 0.0, 0.0, 1.6636601732338164E9, 0.0, 2022-09-20 12:49:33.233
102.0, 22242.35501794279, 44660.12652637083, 13700.635874347196, -10996.253609210684, -12691.566370912358, 42249.17796244359, 13668.069382675814, 3981.583295057213, 0.626, -0.59, 0.54, 192.0, 0.0, 0.0, 0.0, 0.0, 0.0, 0.0, 0.0, 0.0, 0.0, 1.6636601732338471E9, 0.0, 2022-09-20 12:49:33.233
103.0, 22200.91488372265, 44531.13460911925, 13751.1955203051, -10837.265650900084, -13661.252100616945, 42212.61050851471, 13771.289738570422, 2444.587939332478, 0.626, -0.59, 0.54, 192.0, 0.0, 0.0, 0.0, 0.0, 0.0, 0.0, 0.0, 0.0, 0.0, 1.6636601732338784E9, 0.0, 2022-09-20 12:49:33.233
104.0, 23247.55766958686, 45351.13070620665, 14759.72858187301, -10157.52675026974, -11815.154470819769, 42200.518214764386, 15418.85917411556, 5212.739731399981, 0.626, -0.59, 0.54, 192.0, 0.0, 0.0, 0.0, 0.0, 0.0, 0.0, 0.0, 0.0, 0.0, 1.663660173233908E9, 0.0, 2022-09-20 12:49:33.233
105.0, 23811.402775216437, 45864.50557285614, 15244.78378829763, -9960.049088007103, -10005.132556573459, 42218.891348706646, 16187.714479889213, 7827.424446037347, 0.626, -0.59, 0.54, 192.0, 0.0, 0.0, 0.0, 0.0, 0.0, 0.0, 0.0, 0.0, 0.0, 1.663660173233938E9, 0.0, 2022-09-20 12:49:33.233
106.0, 23311.99774885151, 45560.58890349733, 14664.890130149142, -10377.020880820857, -10315.821804502226, 42244.50644785243, 15223.124947920436, 7594.273399624039, 0.626, -0.59, 0.54, 192.0, 0.0, 0.0, 0.0, 0.0, 0.0, 0.0, 0.0, 0.0, 0.0, 1.6636601732339697E9, 0.0, 2022-09-20 12:49:33.233
107.0, 22201.38427035621, 44619.89338635128, 13663.75549599594, -11021.242859511716, -12725.652781206702, 42239.74552628345, 13613.084091315759, 3789.5371066972148, 0.626, -0.59, 0.54, 192.0, 0.0, 0.0, 0.0, 0.0, 0.0, 0.0, 0.0, 0.0, 0.0, 1.6636601732340076E9, 0.0, 2022-09-20 12:49:33.234
108.0, 22237.281171951436, 44556.54854256494, 13778.755221218495, -10812.544621532516, -13548.219328906456, 42204.96621191099, 13826.520899119485, 2505.0270563396284, 0.626, -0.59, 0.54, 192.0, 0.0, 0.0, 0.0, 0.0, 0.0, 0.0, 0.0, 0.0, 0.0, 1.6636601732340412E9, 0.0, 2022-09-20 12:49:33.234
109.0, 23294.27281549845, 45384.74772986743, 14792.87621890023, -10136.76197967076, -11634.284154687424, 42195.53377575085, 15484.372137114065, 5379.081413636376, 0.628, -0.59, 0.544, 192.0, 19.0, 160.0, 237.0, 144.0, 17.0, 0.0, 0.0, 0.0, 0.0, 1.663660173234074E9, 0.0, 2022-09-20 12:49:33.234
110.0, 23804.116106524005, 45856.21307566322, 15227.192965411303, -9970.867332323473, -9913.53510779561, 42215.09155214924, 16166.994412779142, 7901.073444017583, 0.628, -0.59, 0.544, 192.0, 0.0, 0.0, 0.0, 0.0, 0.0, 0.0, 0.0, 0.0, 0.0, 1.6636601732341287E9, 0.0, 2022-09-20 12:49:33.234
111.0, 23255.626649335223, 45511.258603484464, 14608.854306799687, -10412.604857993705, -10362.604005647185, 42244.484096107975, 15137.249545723147, 7481.330034891372, 0.628, -0.59, 0.544, 192.0, 0.0, 0.0, 0.0, 0.0, 0.0, 0.0, 0.0, 0.0, 0.0, 1.6636601732342122E9, 0.0, 2022-09-20 12:49:33.234
112.0, 22167.47667401751, 44581.761310310525, 13636.374609038188, -11034.251574784706, -12801.715767588112, 42248.038023476365, 13571.845122795716, 3643.58021540406, 0.628, -0.59, 0.544, 192.0, 0.0, 0.0, 0.0, 0.0, 0.0, 0.0, 0.0, 0.0, 0.0, 1.6636601732342484E9, 0.0, 2022-09-20 12:49:33.234
113.0, 22280.08476258335, 44583.19182195566, 13824.486890374052, -10777.519437971048, -13480.605301929154, 42206.73199972296, 13893.352615040854, 2607.6662668783983, 0.628, -0.59, 0.544, 192.0, 0.0, 0.0, 0.0, 0.0, 0.0, 0.0, 0.0, 0.0, 0.0, 1.6636601732342803E9, 0.0, 2022-09-20 12:49:33.234
114.0, 23334.729472962557, 45418.07418085029, 14839.189033411627, -10116.757168383261, -11525.56526965681, 42195.891403662135, 15543.134873287068, 5532.0791044329535, 0.628, -0.59, 0.544, 192.0, 0.0, 0.0, 0.0, 0.0, 0.0, 0.0, 0.0, 0.0, 0.0, 1.6636601732343223E9, 0.0, 2022-09-20 12:49:33.234
115.0, 23799.064612277107, 45862.94095074427, 15224.667218287852, -9979.942140572328, -9885.394261526379, 42219.20427312902, 16143.390970634338, 7949.129694596493, 0.628, -0.59, 0.544, 192.0, 0.0, 0.0, 0.0, 0.0, 0.0, 0.0, 0.0, 0.0, 0.0, 1.6636601732343512E9, 0.0, 2022-09-20 12:49:33.234
116.0, 23207.995081900965, 45477.10513795676, 14564.463742311447, -10445.30546013182, -10456.235463170466, 42247.25571242043, 15048.31195453548, 7337.07187617682, 0.628, -0.59, 0.544, 192.0, 0.0, 0.0, 0.0, 0.0, 0.0, 0.0, 0.0, 0.0, 0.0, 1.6636601732343805E9, 0.0, 2022-09-20 12:49:33.234
117.0, 22135.737196890976, 44552.79344949644, 13613.240553526944, -11047.550862735614, -12916.491975366114, 42235.47634309249, 13518.603267503175, 3456.4961143131395, 0.628, -0.59, 0.544, 192.0, 0.0, 0.0, 0.0, 0.0, 0.0, 0.0, 0.0, 0.0, 0.0, 1.6636601732344112E9, 0.0, 2022-09-20 12:49:33.234
118.0, 22318.038024668458, 44614.685429893194, 13864.36240248232, -10749.646812635281, -13458.253557473847, 42204.09449387724, 13945.499234855084, 2659.522314014711, 0.628, -0.59, 0.544, 192.0, 0.0, 0.0, 0.0, 0.0, 0.0, 0.0, 0.0, 0.0, 0.0, 1.6636601732344403E9, 0.0, 2022-09-20 12:49:33.234
119.0, 23382.651613074737, 45458.977873203505, 14884.697185122632, -10090.203295970357, -11451.960975165484, 42207.1119793787, 15604.89274321708, 5666.88247524291, 0.622, -0.592, 0.538, 192.0, 19.0, 112.0, 237.0, 128.0, 16.0, 208.0, 0.0, 0.0, 0.0, 1.663660173234471E9, 0.0, 2022-09-20 12:49:33.234
120.0, 23802.462077434313, 45870.540543859075, 15228.712884034263, -9977.952835315804, -9888.322340050023, 42225.14983715413, 16128.817633249479, 8004.360855145557, 0.622, -0.592, 0.538, 192.0, 0.0, 0.0, 0.0, 0.0, 0.0, 0.0, 0.0, 0.0, 0.0, 1.6636601732345045E9, 0.0, 2022-09-20 12:49:33.234
121.0, 23162.464578445506, 45443.398707318156, 14533.618334963125, -10468.014832498411, -10585.607360077782, 42247.09925020925, 14970.147904175272, 7202.000284433399, 0.622, -0.592, 0.538, 192.0, 0.0, 0.0, 0.0, 0.0, 0.0, 0.0, 0.0, 0.0, 0.0, 1.6636601737117286E9, 0.0, 2022-09-20 12:49:33.711
122.0, 22115.46416467001, 44537.03546965546, 13617.554440206819, -11045.449798756814, -13057.10679973445, 42249.55794209933, 13490.19420030048, 3306.7841299514926, 0.622, -0.592, 0.538, 192.0, 0.0, 0.0, 0.0, 0.0, 0.0, 0.0, 0.0, 0.0, 0.0, 1.663660173711919E9, 0.0, 2022-09-20 12:49:33.711
123.0, 22376.778409097005, 44666.7426427296, 13937.363199873353, -10695.935570709178, -13453.04560101576, 42225.328651109776, 14023.998561382123, 2770.4540217463996, 0.622, -0.592, 0.538, 192.0, 0.0, 0.0, 0.0, 0.0, 0.0, 0.0, 0.0, 0.0, 0.0, 1.6636601737119608E9, 0.0, 2022-09-20 12:49:33.711
124.0, 23439.559154457947, 45515.28191748642, 14954.725200501109, -10050.03721118417, -11397.73564311691, 42219.71836325149, 15680.821619131759, 5854.413611222936, 0.622, -0.592, 0.538, 192.0, 0.0, 0.0, 0.0, 0.0, 0.0, 0.0, 0.0, 0.0, 0.0, 1.6636601737119932E9, 0.0, 2022-09-20 12:49:33.711
125.0, 23807.111240281018, 45894.90394531536, 15242.392151640912, -9973.504838169198, -9922.162881155358, 42243.25475016293, 16119.541659300527, 8095.98065566786, 0.622, -0.592, 0.538, 192.0, 0.0, 0.0, 0.0, 0.0, 0.0, 0.0, 0.0, 0.0, 0.0, 1.663660173712028E9, 0.0, 2022-09-20 12:49:33.712
126.0, 23115.972949978466, 45423.32684079729, 14499.8224973467, -10490.724204865004, -10769.808086133968, 42273.60841913324, 14887.155877012716, 7071.421393325495, 0.622, -0.592, 0.538, 192.0, 0.0, 0.0, 0.0, 0.0, 0.0, 0.0, 0.0, 0.0, 0.0, 1.6636601737120614E9, 0.0, 2022-09-20 12:49:33.712
127.0, 22101.248455196437, 44535.87317894378, 13616.749777406429, -11033.290449773127, -13246.00139212625, 42276.53649765688, 13462.299223220256, 3183.7377767250273, 0.622, -0.592, 0.538, 192.0, 0.0, 0.0, 0.0, 0.0, 0.0, 0.0, 0.0, 0.0, 0.0, 1.6636601737122064E9, 0.0, 2022-09-20 12:49:33.712
128.0, 22435.205869103178, 44723.29255620153, 13997.355281991397, -10645.934718362656, -13490.440069489488, 42249.423831632594, 14097.200524473254, 2899.2671250423346, 0.622, -0.592, 0.538, 192.0, 0.0, 0.0, 0.0, 0.0, 0.0, 0.0, 0.0, 0.0, 0.0, 1.6636601737122352E9, 0.0, 2022-09-20 12:49:33.712
129.0, 23492.80100975049, 45567.406185556196, 15009.73284360562, -10018.655361968918, -11393.533515159312, 42240.013747216915, 15745.462864096507, 6026.656153995533, 0.626, -0.586, 0.538, 192.0, 19.0, 144.0, 237.0, 176.0, 16.0, 208.0, 0.0, 0.0, 0.0, 1.6636601737122638E9, 0.0, 2022-09-20 12:49:33.712
130.0, 23826.221981790302, 45918.50738746016, 15254.775018069151, -9962.865407808473, -9993.286132012145, 42261.29260793836, 16112.947894686211, 8170.769592615318, 0.626, -0.586, 0.538, 192.0, 0.0, 0.0, 0.0, 0.0, 0.0, 0.0, 0.0, 0.0, 0.0, 1.663660173712294E9, 0.0, 2022-09-20 12:49:33.712
131.0, 23084.680507741035, 45400.84098587525, 14471.838113288655, -10502.883553848691, -10964.40237336187, 42281.85621283725, 14820.234754113526, 6954.275900635231, 0.626, -0.586, 0.538, 192.0, 0.0, 0.0, 0.0, 0.0, 0.0, 0.0, 0.0, 0.0, 0.0, 1.6636601737123225E9, 0.0, 2022-09-20 12:49:33.712
132.0, 22093.492399870443, 44525.74783870552, 13622.02478909788, -11025.243821769218, -13420.970847722394, 42272.22261097701, 13450.072819003204, 3088.2958279008662, 0.626, -0.586, 0.538, 192.0, 0.0, 0.0, 0.0, 0.0, 0.0, 0.0, 0.0, 0.0, 0.0, 1.6636601737123506E9, 0.0, 2022-09-20 12:49:33.712
133.0, 22492.582797119954, 44769.69477769075, 14065.416343857807, -10602.795851563913, -13502.733528939907, 42236.79509601535, 14187.926255217346, 3050.9684146605036, 0.626, -0.586, 0.538, 192.0, 0.0, 0.0, 0.0, 0.0, 0.0, 0.0, 0.0, 0.0, 0.0, 1.6636601737123861E9, 0.0, 2022-09-20 12:49:33.712
134.0, 23546.199327254217, 45613.16020645621, 15065.478094277156, -9990.134536043946, -11366.018517734828, 42241.17603792859, 15818.754234165459, 6209.985162017962, 0.626, -0.586, 0.538, 192.0, 0.0, 0.0, 0.0, 0.0, 0.0, 0.0, 0.0, 0.0, 0.0, 1.6636601737124145E9, 0.0, 2022-09-20 12:49:33.712
135.0, 23825.462022478823, 45922.57540495103, 15252.606898856986, -9970.196779989814, -10047.936147205372, 42264.533610884384, 16093.971263643654, 8242.853968483683, 0.626, -0.586, 0.538, 192.0, 0.0, 0.0, 0.0, 0.0, 0.0, 0.0, 0.0, 0.0, 0.0, 1.6636601737124424E9, 0.0, 2022-09-20 12:49:33.712
136.0, 23032.60094316017, 45352.31534866278, 14424.56417376568, -10537.126426354222, -11142.992811559774, 42287.55590767335, 14739.522604885413, 6803.289866839632, 0.626, -0.586, 0.538, 192.0, 0.0, 0.0, 0.0, 0.0, 0.0, 0.0, 0.0, 0.0, 0.0, 1.6636601737124708E9, 0.0, 2022-09-20 12:49:33.712
137.0, 22082.674155554076, 44502.30085877191, 13609.97719883647, -11021.332266489539, -13567.64299483812, 42276.89412556817, 13436.594717096654, 2957.493419348409, 0.626, -0.586, 0.538, 192.0, 0.0, 0.0, 0.0, 0.0, 0.0, 0.0, 0.0, 0.0, 0.0, 1.663660173712499E9, 0.0, 2022-09-20 12:49:33.712
138.0, 22551.41258852632, 44808.83268223199, 14115.372492715418, -10559.232301620521, -13478.794810628273, 42248.462706621016, 14272.72877368078, 3158.43560200162, 0.626, -0.586, 0.538, 192.0, 0.0, 0.0, 0.0, 0.0, 0.0, 0.0, 0.0, 0.0, 0.0, 1.6636601737125268E9, 0.0, 2022-09-20 12:49:33.712
139.0, 23590.276967320082, 45645.59258766086, 15103.788984273551, -9968.520399155665, -11294.850563389131, 42244.70761355253, 15882.054374462889, 6352.052849775893, 0.628, -0.5760000000000001, 0.544, 192.0, 19.0, 160.0, 238.0, 0.0, 17.0, 0.0, 0.0, 0.0, 0.0, 1.6636601737125552E9, 0.0, 2022-09-20 12:49:33.712
140.0, 23814.867295607008, 45914.19350078029, 15234.256116659179, -9979.763326616685, -10062.129504934492, 42261.94080852757, 16072.312423266463, 8273.162933965079, 0.628, -0.5760000000000001, 0.544, 192.0, 0.0, 0.0, 0.0, 0.0, 0.0, 0.0, 0.0, 0.0, 0.0, 1.6636601737125847E9, 0.0, 2022-09-20 12:49:33.712
141.0, 22975.156959910033, 45303.230917838926, 14373.60219640758, -10568.62003429175, -11279.114935292595, 42296.27308801092, 14660.66565044709, 6624.632373408363, 0.628, -0.5760000000000001, 0.544, 192.0, 0.0, 0.0, 0.0, 0.0, 0.0, 0.0, 0.0, 0.0, 0.0, 1.663660173712613E9, 0.0, 2022-09-20 12:49:33.712
142.0, 22068.212576891492, 44488.979219076544, 13611.072434314781, -11014.850260597499, -13648.310440577323, 42291.93684958659, 13434.381894395578, 2851.1438192300584, 0.628, -0.5760000000000001, 0.544, 192.0, 0.0, 0.0, 0.0, 0.0, 0.0, 0.0, 0.0, 0.0, 0.0, 1.6636601737126412E9, 0.0, 2022-09-20 12:49:33.712
143.0, 22600.586426327995, 44846.04833675007, 14170.782467220124, -10517.859222633746, -13407.112766160104, 42249.580293843785, 14358.067734011143, 3300.5926967373725, 0.628, -0.5760000000000001, 0.544, 192.0, 0.0, 0.0, 0.0, 0.0, 0.0, 0.0, 0.0, 0.0, 0.0, 1.663660173712729E9, 0.0, 2022-09-20 12:49:33.712
144.0, 23620.787098501576, 45668.23490479409, 15140.423493435801, -9950.01315474667, -11211.970294948853, 42247.054546720334, 15933.77631113247, 6505.117595805836, 0.628, -0.5760000000000001, 0.544, 192.0, 0.0, 0.0, 0.0, 0.0, 0.0, 0.0, 0.0, 0.0, 0.0, 1.6636601737127576E9, 0.0, 2022-09-20 12:49:33.712
145.0, 23800.38336519997, 45903.84464309748, 15222.432043842322, -9990.872143610972, -10066.42103986991, 42271.976741788, 16041.60112638487, 8313.083149562259, 0.628, -0.5760000000000001, 0.544, 192.0, 0.0, 0.0, 0.0, 0.0, 0.0, 0.0, 0.0, 0.0, 0.0, 1.663660173712786E9, 0.0, 2022-09-20 12:49:33.712
146.0, 22926.318398275187, 45255.24172249338, 14330.239812164285, -10601.901781785702, -11391.164230247048, 42288.449977451564, 14582.07691694223, 6474.048671012959, 0.628, -0.5760000000000001, 0.544, 192.0, 0.0, 0.0, 0.0, 0.0, 0.0, 0.0, 0.0, 0.0, 0.0, 1.663660173712814E9, 0.0, 2022-09-20 12:49:33.712
147.0, 22063.83163497825, 44472.058948523874, 13611.608876181708, -11010.826946595544, -13716.729130355017, 42276.290628467876, 13427.117577447603, 2771.0351671022377, 0.628, -0.5760000000000001, 0.544, 192.0, 0.0, 0.0, 0.0, 0.0, 0.0, 0.0, 0.0, 0.0, 0.0, 1.6636601737128425E9, 0.0, 2022-09-20 12:49:33.712
148.0, 22648.24034550671, 44877.966627832255, 14223.19730796782, -10489.874838575703, -13337.531785670733, 42249.33442465478, 14433.61663027008, 3433.3620588018966, 0.628, -0.5760000000000001, 0.544, 192.0, 0.0, 0.0, 0.0, 0.0, 0.0, 0.0, 0.0, 0.0, 0.0, 1.66366017371287E9, 0.0, 2022-09-20 12:49:33.712
149.0, 23648.145633714874, 45690.094910871376, 15169.369002505424, -9943.307631410078, -11141.048209792163, 42254.542381112864, 15975.596425008349, 6626.3981612203315, 0.628, -0.588, 0.544, 192.0, 19.0, 160.0, 237.0, 160.0, 17.0, 0.0, 0.0, 0.0, 0.0, 1.6636601737129016E9, 0.0, 2022-09-20 12:49:33.712
150.0, 23779.216263200793, 45896.35680870495, 15201.846087198985, -10005.892515884938, -10091.387938426487, 42276.51414591243, 16003.200829410653, 8319.945135110038, 0.628, -0.588, 0.544, 192.0, 0.0, 0.0, 0.0, 0.0, 0.0, 0.0, 0.0, 0.0, 0.0, 1.6636601737129312E9, 0.0, 2022-09-20 12:49:33.712
151.0, 22869.366153403065, 45218.16017844203, 14285.513971509215, -10632.926003089668, -11530.527356925888, 42293.99321007648, 14504.561067171226, 6298.296904360879, 0.628, -0.588, 0.544, 192.0, 0.0, 0.0, 0.0, 0.0, 0.0, 0.0, 0.0, 0.0, 0.0, 1.6636601737129593E9, 0.0, 2022-09-20 12:49:33.712
152.0, 22058.13194014215, 44473.91414331367, 13614.64871342763, -11005.529583159636, -13800.078785428857, 42277.475270924006, 13431.699685060941, 2693.3405033755903, 0.628, -0.588, 0.544, 192.0, 0.0, 0.0, 0.0, 0.0, 0.0, 0.0, 0.0, 0.0, 0.0, 1.6636601737129872E9, 0.0, 2022-09-20 12:49:33.712
153.0, 22702.35391883301, 44932.147256391916, 14272.169980069397, -10454.156750936121, -13287.597988557576, 42248.77563104339, 14516.96628534392, 3573.8204209590463, 0.628, -0.588, 0.544, 192.0, 0.0, 0.0, 0.0, 0.0, 0.0, 0.0, 0.0, 0.0, 0.0, 1.6636601737130153E9, 0.0, 2022-09-20 12:49:33.713
154.0, 23679.572186419035, 45731.065658457956, 15193.10655511696, -9932.712904538263, -11091.539095823658, 42255.950541013546, 16019.36114065184, 6769.9187123678585, 0.628, -0.588, 0.544, 192.0, 0.0, 0.0, 0.0, 0.0, 0.0, 0.0, 0.0, 0.0, 0.0, 1.6636601737130437E9, 0.0, 2022-09-20 12:49:33.713
155.0, 23759.70319029131, 45897.92143081682, 15174.800476408063, -10032.535795275664, -10142.260508806767, 42276.20122149005, 15961.02308762349, 8339.011173130415, 0.628, -0.588, 0.544, 192.0, 0.0, 0.0, 0.0, 0.0, 0.0, 0.0, 0.0, 0.0, 0.0, 1.663660173713076E9, 0.0, 2022-09-20 12:49:33.713
156.0, 22815.498449265775, 45178.88816343405, 14236.049561029622, -10668.77820119598, -11695.147954839225, 42304.78910264839, 14427.782824967246, 6125.026181343339, 0.628, -0.588, 0.544, 192.0, 0.0, 0.0, 0.0, 0.0, 0.0, 0.0, 0.0, 0.0, 0.0, 1.6636601737131045E9, 0.0, 2022-09-20 12:49:33.713
157.0, 22056.567318030277, 44471.723672357046, 13618.22499254048, -10994.688987098813, -13906.786013458493, 42282.929096571104, 13440.528624120787, 2620.9208513403955, 0.628, -0.588, 0.544, 192.0, 0.0, 0.0, 0.0, 0.0, 0.0, 0.0, 0.0, 0.0, 0.0, 1.6636601737131321E9, 0.0, 2022-09-20 12:49:33.713
158.0, 22753.82998631358, 44974.48146039027, 14324.78598651719, -10417.34342781823, -13257.378430054001, 42247.45687812053, 14602.662873585568, 3714.8152249831232, 0.628, -0.588, 0.544, 192.0, 0.0, 0.0, 0.0, 0.0, 0.0, 0.0, 0.0, 0.0, 0.0, 1.6636601737132246E9, 0.0, 2022-09-20 12:49:33.713
159.0, 23708.40593676638, 45758.267731460066, 15223.10259617598, -9918.340732853501, -11068.449743801326, 42260.44324164906, 16062.075324305932, 6894.216763283821, 0.626, -0.594, 0.54, 192.0, 19.0, 144.0, 237.0, 112.0, 16.0, 224.0, 0.0, 0.0, 0.0, 1.6636601737132528E9, 0.0, 2022-09-20 12:49:33.713
160.0, 23739.02782667015, 45883.9292387878, 15151.241737752169, -10042.079990158081, -10235.668448885495, 42293.61323042074, 15919.605305147805, 8322.135606066657, 0.626, -0.594, 0.54, 192.0, 0.0, 0.0, 0.0, 0.0, 0.0, 0.0, 0.0, 0.0, 0.0, 1.6636601737132955E9, 0.0, 2022-09-20 12:49:33.713
161.0, 22765.430541685884, 45134.49759894581, 14189.42382209585, -10692.225181129597, -11903.510916651598, 42314.400352764176, 14352.859777553056, 5925.2462894018045, 0.626, -0.594, 0.54, 192.0, 0.0, 0.0, 0.0, 0.0, 0.0, 0.0, 0.0, 0.0, 0.0, 1.6636601737133226E9, 0.0, 2022-09-20 12:49:33.713
162.0, 22066.871472224175, 44477.06573928186, 13629.713789190506, -10980.339167158505, -14033.229831842165, 42287.08652103979, 13458.208853984936, 2564.9297314798514, 0.626, -0.594, 0.54, 192.0, 0.0, 0.0, 0.0, 0.0, 0.0, 0.0, 0.0, 0.0, 0.0, 1.66366017371335E9, 0.0, 2022-09-20 12:49:33.713
163.0, 22813.84442017608, 45025.42108600392, 14377.17847552043, -10382.653520423595, -13251.902252662452, 42252.88835202317, 14687.688909493556, 3864.5272093447697, 0.626, -0.594, 0.54, 192.0, 0.0, 0.0, 0.0, 0.0, 0.0, 0.0, 0.0, 0.0, 0.0, 1.6636601737133772E9, 0.0, 2022-09-20 12:49:33.713
164.0, 23737.686722002833, 45789.06843531948, 15245.096712720004, -9908.01422691515, -11077.345738094538, 42259.28095093739, 16092.876028165345, 7011.809290863192, 0.626, -0.594, 0.54, 192.0, 0.0, 0.0, 0.0, 0.0, 0.0, 0.0, 0.0, 0.0, 0.0, 1.6636601737134044E9, 0.0, 2022-09-20 12:49:33.713
165.0, 23721.057024128084, 45880.50942188614, 15129.13586248587, -10055.334574620078, -10326.841214518692, 42284.98545706099, 15872.71134528057, 8318.045236831336, 0.626, -0.594, 0.54, 192.0, 0.0, 0.0, 0.0, 0.0, 0.0, 0.0, 0.0, 0.0, 0.0, 1.6636601737134314E9, 0.0, 2022-09-20 12:49:33.713
166.0, 22715.02735793917, 45093.07981647013, 14152.096408855488, -10718.801405286957, -12079.955587381792, 42311.49462598498, 14274.941596381856, 5741.023211601164, 0.626, -0.594, 0.54, 192.0, 0.0, 0.0, 0.0, 0.0, 0.0, 0.0, 0.0, 0.0, 0.0, 1.6636601737134583E9, 0.0, 2022-09-20 12:49:33.713
167.0, 22077.42149560708, 44478.65271313819, 13652.087885390269, -10960.557873315558, -14102.676701864804, 42295.3343147438, 13481.14174379608, 2521.6344024699215, 0.626, -0.594, 0.54, 192.0, 0.0, 0.0, 0.0, 0.0, 0.0, 0.0, 0.0, 0.0, 0.0, 1.663660173713486E9, 0.0, 2022-09-20 12:49:33.713
168.0, 22871.86954878206, 45066.77181324623, 14436.209432626896, -10342.442732148496, -13180.644891338932, 42258.051604992346, 14776.581797192312, 4017.3013826967936, 0.626, -0.594, 0.54, 192.0, 0.0, 0.0, 0.0, 0.0, 0.0, 0.0, 0.0, 0.0, 0.0, 1.6636601737135131E9, 0.0, 2022-09-20 12:49:33.713
169.0, 23767.123969450473, 45808.82737741797, 15269.750686854208, -9897.95594191026, -11020.66171415588, 42263.99716901746, 16126.448348337217, 7143.148141282576, 0.628, -0.588, 0.542, 192.0, 19.0, 160.0, 237.0, 160.0, 16.0, 240.0, 0.0, 0.0, 0.0, 1.6636601737135403E9, 0.0, 2022-09-20 12:49:33.713
170.0, 23698.54881746159, 45858.91763674231, 15096.435260347756, -10082.357833666543, -10378.67490991055, 42286.773596617415, 15816.206135297554, 8310.892678605638, 0.628, -0.588, 0.542, 192.0, 0.0, 0.0, 0.0, 0.0, 0.0, 0.0, 0.0, 0.0, 0.0, 1.6636601737135687E9, 0.0, 2022-09-20 12:49:33.713
171.0, 22658.253927022688, 45037.33456579859, 14089.757393569636, -10757.246405750086, -12247.012525440756, 42304.43147473711, 14183.344147604008, 5551.8603982759005, 0.628, -0.588, 0.542, 192.0, 0.0, 0.0, 0.0, 0.0, 0.0, 0.0, 0.0, 0.0, 0.0, 1.6636601737135963E9, 0.0, 2022-09-20 12:49:33.713
172.0, 22086.876283511672, 44476.37283520375, 13651.75260922344, -10947.683268509301, -14166.80385670708, 42276.491794167974, 13495.782136414307, 2511.68787618731, 0.628, -0.588, 0.542, 192.0, 0.0, 0.0, 0.0, 0.0, 0.0, 0.0, 0.0, 0.0, 0.0, 1.6636601737136235E9, 0.0, 2022-09-20 12:49:33.713
173.0, 22928.285351787254, 45106.40145616549, 14481.941101782455, -10314.592458557185, -13091.059099562062, 42247.09925020925, 14867.285176191948, 4234.403876591191, 0.628, -0.588, 0.542, 192.0, 0.0, 0.0, 0.0, 0.0, 0.0, 0.0, 0.0, 0.0, 0.0, 1.6636601737136512E9, 0.0, 2022-09-20 12:49:33.713
174.0, 23788.76045808321, 45825.50177878163, 15278.914902080884, -9895.653712231364, -10939.279012594106, 42263.5277823839, 16159.752447575624, 7335.194329642574, 0.628, -0.588, 0.542, 192.0, 0.0, 0.0, 0.0, 0.0, 0.0, 0.0, 0.0, 0.0, 0.0, 1.6636601737137363E9, 0.0, 2022-09-20 12:49:33.713
175.0, 23665.378828689914, 45833.25783410762, 15053.922242393763, -10109.3363892241, -10400.870192154669, 42285.00780880544, 15767.278166684888, 8344.688516222062, 0.628, -0.588, 0.542, 192.0, 0.0, 0.0, 0.0, 0.0, 0.0, 0.0, 0.0, 0.0, 0.0, 1.663660173713764E9, 0.0, 2022-09-20 12:49:33.713
176.0, 22597.077202448512, 44982.86336456101, 14032.246355086132, -10796.27255156905, -12361.676974496482, 42297.86006186725, 14112.355007213951, 5395.331131855385, 0.628, -0.588, 0.542, 192.0, 0.0, 0.0, 0.0, 0.0, 0.0, 0.0, 0.0, 0.0, 0.0, 1.6636601737138083E9, 0.0, 2022-09-20 12:49:33.713
177.0, 22089.17851319057, 44474.2494194805, 13654.07719064679, -10943.011753918143, -14179.074964413043, 42272.64729412166, 13517.39627330259, 2502.1213295604384, 0.628, -0.588, 0.542, 192.0, 0.0, 0.0, 0.0, 0.0, 0.0, 0.0, 0.0, 0.0, 0.0, 1.663660173713835E9, 0.0, 2022-09-20 12:49:33.713
178.0, 22974.084076176176, 45140.51021820429, 14521.570744701714, -10292.397176313065, -12979.456839496714, 42247.278064164886, 14943.325810828903, 4384.317026652936, 0.628, -0.588, 0.542, 192.0, 0.0, 0.0, 0.0, 0.0, 0.0, 0.0, 0.0, 0.0, 0.0, 1.6636601737138648E9, 0.0, 2022-09-20 12:49:33.713
179.0, 23800.025737288684, 45834.2189591192, 15285.776887628663, -9901.778090212118, -10861.29377618954, 42266.902895796644, 16175.845703583445, 7413.760711402979, 0.624, -0.588, 0.538, 192.0, 19.0, 128.0, 237.0, 160.0, 16.0, 208.0, 0.0, 0.0, 0.0, 1.663660173713895E9, 0.0, 2022-09-20 12:49:33.713
180.0, 23627.00088346015, 45802.39007501484, 15013.040901785005, -10136.851386648583, -10441.706829274515, 42289.925192585615, 15701.072299608268, 8257.315547146267, 0.624, -0.588, 0.538, 192.0, 0.0, 0.0, 0.0, 0.0, 0.0, 0.0, 0.0, 0.0, 0.0, 1.6636601737139394E9, 0.0, 2022-09-20 12:49:33.713
181.0, 22546.159928579324, 44934.22596862626, 13985.665319641272, -10823.318162359974, -12497.28500810683, 42309.10298932827, 14032.760445208603, 5144.723373022482, 0.624, -0.588, 0.538, 192.0, 0.0, 0.0, 0.0, 0.0, 0.0, 0.0, 0.0, 0.0, 0.0, 1.6636601737139685E9, 0.0, 2022-09-20 12:49:33.713
182.0, 22114.592446636256, 44483.97242831856, 13678.03826070288, -10914.759148926634, -14206.9028862599, 42284.76193961644, 13550.052171951793, 2435.5801863169895, 0.624, -0.588, 0.538, 192.0, 0.0, 0.0, 0.0, 0.0, 0.0, 0.0, 0.0, 0.0, 0.0, 1.66366017371401E9, 0.0, 2022-09-20 12:49:33.714
183.0, 23039.485280452405, 45189.14761413904, 14583.060393698264, -10245.100885045635, -12899.102318179885, 42258.56569511482, 15034.967963095662, 4487.716196503186, 0.624, -0.588, 0.538, 192.0, 0.0, 0.0, 0.0, 0.0, 0.0, 0.0, 0.0, 0.0, 0.0, 1.6636601737140384E9, 0.0, 2022-09-20 12:49:33.714
184.0, 23823.42801373339, 45858.24708440866, 15304.530001226665, -9884.410784770345, -10828.123787417864, 42258.49863988145, 16201.617264940414, 7473.395165609738, 0.624, -0.588, 0.538, 192.0, 0.0, 0.0, 0.0, 0.0, 0.0, 0.0, 0.0, 0.0, 0.0, 1.6636601737140677E9, 0.0, 2022-09-20 12:49:33.714
185.0, 23594.456743533225, 45783.81577537248, 14976.652261811765, -10156.364459558066, -10530.823234417825, 42281.520936670415, 15640.76729306785, 8165.159304757036, 0.624, -0.588, 0.538, 192.0, 0.0, 0.0, 0.0, 0.0, 0.0, 0.0, 0.0, 0.0, 0.0, 1.663660173714093E9, 0.0, 2022-09-20 12:49:33.714
186.0, 22499.44478266773, 44894.08223558453, 13943.822854020937, -10844.99935448162, -12677.551827138881, 42305.39259974869, 13964.811142064471, 4913.986315010347, 0.624, -0.588, 0.538, 192.0, 0.0, 0.0, 0.0, 0.0, 0.0, 0.0, 0.0, 0.0, 0.0, 1.6636601737141173E9, 0.0, 2022-09-20 12:49:33.714
187.0, 22141.414539982623, 44502.52437621646, 13702.982807515004, -10894.262599261117, -14272.147628324943, 42286.88535533969, 13590.397070693622, 2419.3304680979813, 0.624, -0.588, 0.538, 192.0, 0.0, 0.0, 0.0, 0.0, 0.0, 0.0, 0.0, 0.0, 0.0, 1.6636601737141423E9, 0.0, 2022-09-20 12:49:33.714
188.0, 23095.34228984622, 45235.75100132835, 14634.312943734283, -10222.033884767758, -12848.341506521881, 42258.36452941472, 15117.870583280395, 4654.102582228492, 0.624, -0.588, 0.538, 192.0, 0.0, 0.0, 0.0, 0.0, 0.0, 0.0, 0.0, 0.0, 0.0, 1.6636601737141738E9, 0.0, 2022-09-20 12:49:33.714
189.0, 23841.689388953375, 45877.64839859586, 15316.84581242154, -9892.256247074158, -10806.777871463046, 42260.30913118233, 16216.235305814185, 7600.688350282711, 0.63, -0.594, 0.54, 192.0, 19.0, 176.0, 237.0, 112.0, 16.0, 224.0, 0.0, 0.0, 0.0, 1.6636601737143028E9, 0.0, 2022-09-20 12:49:33.714
190.0, 23556.101150047918, 45756.72546109265, 14937.939040415175, -10189.087413440635, -10622.867718084779, 42288.27116349592, 15575.455495769442, 8124.881461248573, 0.63, -0.594, 0.54, 192.0, 0.0, 0.0, 0.0, 0.0, 0.0, 0.0, 0.0, 0.0, 0.0, 1.663660173714334E9, 0.0, 2022-09-20 12:49:33.714
191.0, 22445.375912830343, 44850.02694726312, 13899.70051046616, -10875.129506007375, -12841.323058762915, 42302.777445647414, 13896.258341820043, 4728.198615097835, 0.63, -0.594, 0.54, 192.0, 0.0, 0.0, 0.0, 0.0, 0.0, 0.0, 0.0, 0.0, 0.0, 1.6636601737143629E9, 0.0, 2022-09-20 12:49:33.714
192.0, 22160.6817437031, 44520.11519910279, 13723.077025780323, -10867.552264637026, -14300.333178083085, 42272.155555743644, 13626.808062411317, 2440.72108754171, 0.63, -0.594, 0.54, 192.0, 0.0, 0.0, 0.0, 0.0, 0.0, 0.0, 0.0, 0.0, 0.0, 1.6636601737143917E9, 0.0, 2022-09-20 12:49:33.714
193.0, 23149.366456194693, 45279.89569662759, 14682.749173968932, -10185.377023861054, -12754.397124576226, 42259.88444803768, 15196.459316785254, 4834.056476838169, 0.63, -0.594, 0.54, 192.0, 0.0, 0.0, 0.0, 0.0, 0.0, 0.0, 0.0, 0.0, 0.0, 1.6636601737144208E9, 0.0, 2022-09-20 12:49:33.714
194.0, 23854.921621670917, 45889.91950630183, 15323.327818313577, -9885.99775862667, -10755.011231304554, 42288.53938442939, 16225.26541057413, 7717.677380761788, 0.63, -0.594, 0.54, 192.0, 0.0, 0.0, 0.0, 0.0, 0.0, 0.0, 0.0, 0.0, 0.0, 1.6636601737144496E9, 0.0, 2022-09-20 12:49:33.714
195.0, 23521.813574053478, 45728.65167005678, 14897.191810273149, -10210.768605562283, -10683.262131603018, 42289.58991641879, 15508.847297292627, 8085.4082805405005, 0.63, -0.594, 0.54, 192.0, 0.0, 0.0, 0.0, 0.0, 0.0, 0.0, 0.0, 0.0, 0.0, 1.6636601737144785E9, 0.0, 2022-09-20 12:49:33.714
196.0, 22406.461525733655, 44811.85016773346, 13861.926062336692, -10890.529857937081, -12952.143007772329, 42296.47425371102, 13834.723989334583, 4589.19311633028, 0.63, -0.594, 0.54, 192.0, 0.0, 0.0, 0.0, 0.0, 0.0, 0.0, 0.0, 0.0, 0.0, 1.663660173714508E9, 0.0, 2022-09-20 12:49:33.714
197.0, 22194.701098764075, 44543.91980694769, 13750.86024413827, -10837.019781711077, -14267.54316896715, 42270.32271269831, 13675.46781009052, 2521.097960602994, 0.63, -0.594, 0.54, 192.0, 0.0, 0.0, 0.0, 0.0, 0.0, 0.0, 0.0, 0.0, 0.0, 1.663660173714538E9, 0.0, 2022-09-20 12:49:33.714
198.0, 23195.612215472727, 45316.86548195666, 14714.376892373193, -10163.91934918396, -12642.906623233155, 42246.987491486965, 15264.185102484835, 5015.440883092986, 0.63, -0.594, 0.54, 192.0, 0.0, 0.0, 0.0, 0.0, 0.0, 0.0, 0.0, 0.0, 0.0, 1.663660173714562E9, 0.0, 2022-09-20 12:49:33.714
199.0, 23856.083912382594, 45898.502576172665, 15303.278303537167, -9897.62066574343, -10701.769376012013, 42260.08561373778, 16215.385939524884, 7808.82779465053, 0.628, -0.592, 0.544, 192.0, 19.0, 160.0, 237.0, 128.0, 17.0, 0.0, 0.0, 0.0, 0.0, 1.663660173714602E9, 0.0, 2022-09-20 12:49:33.714
200.0, 23479.859349710867, 45700.98021042111, 14835.299829876403, -10248.364239736109, -10725.26105943454, 42284.046683793866, 15433.141938822502, 8011.066378482149, 0.628, -0.592, 0.544, 192.0, 0.0, 0.0, 0.0, 0.0, 0.0, 0.0, 0.0, 0.0, 0.0, 1.6636601737146404E9, 0.0, 2022-09-20 12:49:33.714
201.0, 22360.752208322552, 44767.213734056204, 13809.108890188802, -10918.201317572752, -13044.500415861658, 42293.25560250945, 13775.000128150003, 4403.5395268844995, 0.628, -0.592, 0.544, 192.0, 0.0, 0.0, 0.0, 0.0, 0.0, 0.0, 0.0, 0.0, 0.0, 1.6636601737146852E9, 0.0, 2022-09-20 12:49:33.714
202.0, 22213.11893619525, 44551.45234482913, 13765.634747223228, -10822.111168159387, -14226.952401036311, 42264.64536960666, 13721.154775757168, 2551.69749876231, 0.628, -0.592, 0.544, 192.0, 0.0, 0.0, 0.0, 0.0, 0.0, 0.0, 0.0, 0.0, 0.0, 1.663660173714718E9, 0.0, 2022-09-20 12:49:33.714
203.0, 23238.84048924929, 45350.21428468398, 14753.246575980971, -10142.014639617759, -12509.958447212988, 42253.51420086792, 15340.873937710994, 5174.294730936853, 0.628, -0.592, 0.544, 192.0, 0.0, 0.0, 0.0, 0.0, 0.0, 0.0, 0.0, 0.0, 0.0, 1.6636601737147455E9, 0.0, 2022-09-20 12:49:33.714
204.0, 23866.92450844342, 45908.426750710816, 15306.98869311675, -9896.078395376015, -10619.514956416484, 42276.491794167974, 16221.286800061083, 7907.220173742792, 0.628, -0.592, 0.544, 192.0, 0.0, 0.0, 0.0, 0.0, 0.0, 0.0, 0.0, 0.0, 0.0, 1.6636601737147744E9, 0.0, 2022-09-20 12:49:33.714
205.0, 23437.659256179246, 45664.166887303225, 14791.468058999546, -10277.309748805732, -10772.713812913158, 42296.51895719993, 15358.732981530784, 7920.206537271326, 0.628, -0.592, 0.544, 192.0, 0.0, 0.0, 0.0, 0.0, 0.0, 0.0, 0.0, 0.0, 0.0, 1.6636601737149432E9, 0.0, 2022-09-20 12:49:33.714
206.0, 22314.59585602234, 44721.61617536738, 13770.373317047754, -10942.20709111775, -13145.597356033011, 42300.69873341307, 13713.823403575827, 4206.061864621862, 0.628, -0.592, 0.544, 192.0, 0.0, 0.0, 0.0, 0.0, 0.0, 0.0, 0.0, 0.0, 0.0, 1.6636601737149756E9, 0.0, 2022-09-20 12:49:33.714
207.0, 22246.892422067216, 44573.982903240074, 13795.541381304429, -10797.32308355845, -14175.56574053356, 42259.90679978213, 13774.888369427727, 2590.5001271367228, 0.628, -0.592, 0.544, 192.0, 0.0, 0.0, 0.0, 0.0, 0.0, 0.0, 0.0, 0.0, 0.0, 1.663660173714998E9, 0.0, 2022-09-20 12:49:33.714
208.0, 23288.818989851356, 45389.8662793477, 14798.218285825049, -10116.868927105537, -12365.856750709623, 42244.819372274804, 15413.070072301636, 5323.29145947593, 0.628, -0.592, 0.544, 192.0, 0.0, 0.0, 0.0, 0.0, 0.0, 0.0, 0.0, 0.0, 0.0, 1.6636601737150228E9, 0.0, 2022-09-20 12:49:33.715
209.0, 23866.633935765498, 45911.73480889021, 15303.725338426273, -9903.208601857257, -10536.858205420758, 42263.08074749479, 16215.944733136266, 7960.283215079691, 0.628, -0.592, 0.544, 192.0, 0.0, 0.0, 0.0, 0.0, 0.0, 0.0, 0.0, 0.0, 0.0, 1.6636601737150507E9, 0.0, 2022-09-20 12:49:33.715
210.0, 23385.08795322036, 45620.22335770409, 14742.830663064799, -10311.060882933245, -10807.314313329973, 42283.778462860406, 15282.602939916009, 7786.677215895322, 0.626, -0.588, 0.538, 192.0, 19.0, 144.0, 237.0, 160.0, 16.0, 208.0, 0.0, 0.0, 0.0, 1.6636601737150774E9, 0.0, 2022-09-20 12:49:33.715
211.0, 22275.480303225555, 44679.32667485794, 13742.120712056247, -10961.787219260601, -13193.206571722814, 42290.819262363824, 13669.857522232238, 4012.4063506610814, 0.626, -0.588, 0.538, 192.0, 0.0, 0.0, 0.0, 0.0, 0.0, 0.0, 0.0, 0.0, 0.0, 1.6636601737151096E9, 0.0, 2022-09-20 12:49:33.715
212.0, 22284.443352752132, 44594.25593546104, 13834.12049223429, -10769.852789622879, -14065.326936879987, 42262.96898877251, 13839.820187070392, 2628.453389221834, 0.626, -0.588, 0.538, 192.0, 0.0, 0.0, 0.0, 0.0, 0.0, 0.0, 0.0, 0.0, 0.0, 1.6636601737151408E9, 0.0, 2022-09-20 12:49:33.715
213.0, 23327.420452525672, 45414.453198248535, 14837.423245599657, -10099.792194341684, -12194.307112015142, 42255.50350612444, 15482.941625468926, 5430.870405539323, 0.626, -0.588, 0.538, 192.0, 0.0, 0.0, 0.0, 0.0, 0.0, 0.0, 0.0, 0.0, 0.0, 1.6636601737151632E9, 0.0, 2022-09-20 12:49:33.715
214.0, 23859.995467662273, 45907.82325361053, 15293.331777254556, -9917.826642731028, -10437.750570505927, 42272.46848016602, 16203.651273685846, 7971.190866373881, 0.626, -0.588, 0.538, 192.0, 0.0, 0.0, 0.0, 0.0, 0.0, 0.0, 0.0, 0.0, 0.0, 1.6636601737151928E9, 0.0, 2022-09-20 12:49:33.715
215.0, 23333.47777527306, 45583.23122063056, 14692.427479318081, -10349.394124674098, -10822.491147815126, 42285.65600939465, 15202.538991277099, 7609.941972487209, 0.626, -0.588, 0.538, 192.0, 0.0, 0.0, 0.0, 0.0, 0.0, 0.0, 0.0, 0.0, 0.0, 1.6636601737152228E9, 0.0, 2022-09-20 12:49:33.715
216.0, 22235.895363795207, 44646.80488667547, 13708.011950017448, -10983.334300915516, -13241.642801957465, 42285.454843694555, 13618.22499254048, 3764.369042440539, 0.626, -0.588, 0.538, 192.0, 0.0, 0.0, 0.0, 0.0, 0.0, 0.0, 0.0, 0.0, 0.0, 1.6636601737152517E9, 0.0, 2022-09-20 12:49:33.715
217.0, 22319.870867713795, 44624.36373524234, 13865.591748427361, -10745.712905611146, -13968.923863044247, 42249.33442465478, 13897.107708109344, 2613.656534392421, 0.626, -0.588, 0.538, 192.0, 0.0, 0.0, 0.0, 0.0, 0.0, 0.0, 0.0, 0.0, 0.0, 1.6636601737152812E9, 0.0, 2022-09-20 12:49:33.715
218.0, 23370.626374557778, 45457.21208539153, 14877.343461196837, -10079.876790032005, -12024.255040199167, 42246.093421708756, 15550.399190235043, 5511.671961745258, 0.626, -0.588, 0.538, 192.0, 0.0, 0.0, 0.0, 0.0, 0.0, 0.0, 0.0, 0.0, 0.0, 1.6636601737153103E9, 0.0, 2022-09-20 12:49:33.715
219.0, 23857.91675542793, 45916.31691650354, 15286.536846940142, -9924.353352111979, -10336.363057656654, 42271.88733481018, 16189.05558455653, 7977.091726910082, 0.626, -0.588, 0.538, 192.0, 0.0, 0.0, 0.0, 0.0, 0.0, 0.0, 0.0, 0.0, 0.0, 1.6636601737153497E9, 0.0, 2022-09-20 12:49:33.715
220.0, 23280.392382191705, 45543.6015777113, 14640.079693803751, -10384.262846024376, -10856.53285462056, 42290.10400654125, 15114.674283823286, 7423.863699896777, 0.634, -0.588, 0.546, 192.0, 19.0, 208.0, 237.0, 160.0, 17.0, 16.0, 0.0, 0.0, 0.0, 1.6636601737154756E9, 0.0, 2022-09-20 12:49:33.715
221.0, 22200.244331388993, 44614.70778163765, 13678.127667680701, -10995.739519088213, -13305.278218421725, 42294.50730019895, 13570.951053017505, 3547.89239739089, 0.634, -0.588, 0.546, 192.0, 0.0, 0.0, 0.0, 0.0, 0.0, 0.0, 0.0, 0.0, 0.0, 1.6636601737154994E9, 0.0, 2022-09-20 12:49:33.715
222.0, 22358.919365277216, 44656.72906121362, 13906.56249601394, -10709.234858660086, -13878.667518933717, 42251.1225642112, 13964.095886241901, 2673.0451194101715, 0.634, -0.588, 0.546, 192.0, 0.0, 0.0, 0.0, 0.0, 0.0, 0.0, 0.0, 0.0, 0.0, 1.6636601737155216E9, 0.0, 2022-09-20 12:49:33.715
223.0, 23418.548514669958, 45498.76397833395, 14926.360836787324, -10048.785513494673, -11859.433276585733, 42238.38206987167, 15624.785795782305, 5677.03016722562, 0.634, -0.588, 0.546, 192.0, 0.0, 0.0, 0.0, 0.0, 0.0, 0.0, 0.0, 0.0, 0.0, 1.6636601737155504E9, 0.0, 2022-09-20 12:49:33.715
224.0, 23853.982848403793, 45919.9378991053, 15280.680689892852, -9932.020000460148, -10253.12516130509, 42265.60649461824, 16176.762125106112, 8049.712544645375, 0.634, -0.588, 0.546, 192.0, 0.0, 0.0, 0.0, 0.0, 0.0, 0.0, 0.0, 0.0, 0.0, 1.6636601737155747E9, 0.0, 2022-09-20 12:49:33.715
225.0, 23219.84150646228, 45492.97487652003, 14582.41219310906, -10427.82639596777, -10919.341256539972, 42280.42570119211, 15026.586058924922, 7281.5948464387475, 0.634, -0.588, 0.546, 192.0, 0.0, 0.0, 0.0, 0.0, 0.0, 0.0, 0.0, 0.0, 0.0, 1.6636601737155974E9, 0.0, 2022-09-20 12:49:33.715
226.0, 22165.554423994356, 44574.34053115136, 13651.84201620126, -11010.066987284063, -13379.083678613148, 42279.576334902806, 13529.957953686471, 3385.1940495007098, 0.634, -0.588, 0.546, 192.0, 0.0, 0.0, 0.0, 0.0, 0.0, 0.0, 0.0, 0.0, 0.0, 1.6636601737156188E9, 0.0, 2022-09-20 12:49:33.715
227.0, 22398.079621562913, 44677.739701001614, 13947.577947089429, -10677.115401877809, -13801.106965673802, 42250.004976988435, 14027.44073002824, 2760.8874751195285, 0.634, -0.588, 0.546, 192.0, 0.0, 0.0, 0.0, 0.0, 0.0, 0.0, 0.0, 0.0, 0.0, 1.6636601737156472E9, 0.0, 2022-09-20 12:49:33.715
228.0, 23453.506642998058, 45517.31592623186, 14961.274261626515, -10036.313240088612, -11742.667763551208, 42246.83102927578, 15681.268654020865, 5812.951125258342, 0.634, -0.588, 0.546, 192.0, 0.0, 0.0, 0.0, 0.0, 0.0, 0.0, 0.0, 0.0, 0.0, 1.6636601737156763E9, 0.0, 2022-09-20 12:49:33.715
229.0, 23847.500842511756, 45914.46172171375, 15271.963509555282, -9940.267794164158, -10207.527602616263, 42261.35966317173, 16158.456046397216, 8096.003007412316, 0.634, -0.588, 0.546, 192.0, 0.0, 0.0, 0.0, 0.0, 0.0, 0.0, 0.0, 0.0, 0.0, 1.663660173715708E9, 0.0, 2022-09-20 12:49:33.715
230.0, 23169.77359888239, 45453.83697197878, 14540.033285621797, -10450.379306123175, -10982.909617770865, 42280.55981165884, 14953.182930133693, 7153.295833265285, 0.632, -0.592, 0.546, 192.0, 19.0, 192.0, 237.0, 128.0, 17.0, 16.0, 0.0, 0.0, 0.0, 1.6636601737157433E9, 0.0, 2022-09-20 12:49:33.715
231.0, 22138.32999924779, 44549.731260506065, 13637.64865847214, -11013.263286741172, -13440.103940976136, 42279.84455583627, 13503.761709184851, 3251.575321146884, 0.632, -0.592, 0.546, 192.0, 0.0, 0.0, 0.0, 0.0, 0.0, 0.0, 0.0, 0.0, 0.0, 1.6636601737157843E9, 0.0, 2022-09-20 12:49:33.715
232.0, 22445.01828491906, 44715.357686919895, 13993.44372671172, -10642.090218316343, -13714.985694287503, 42244.72996529698, 14099.748623341158, 2871.439203195477, 0.632, -0.592, 0.546, 192.0, 0.0, 0.0, 0.0, 0.0, 0.0, 0.0, 0.0, 0.0, 0.0, 1.6636601737158246E9, 0.0, 2022-09-20 12:49:33.715
233.0, 23501.47348659915, 45563.2040575986, 15003.49670690259, -10012.083949099058, -11606.903267729673, 42246.74162229796, 15745.64167805215, 5986.333606998159, 0.632, -0.592, 0.546, 192.0, 0.0, 0.0, 0.0, 0.0, 0.0, 0.0, 0.0, 0.0, 0.0, 1.6636601737158544E9, 0.0, 2022-09-20 12:49:33.715
234.0, 23839.655380207943, 45918.50738746016, 15258.485407648732, -9956.428105405344, -10158.174950858946, 42268.869849308714, 16135.836081008445, 8168.445011191966, 0.632, -0.592, 0.546, 192.0, 0.0, 0.0, 0.0, 0.0, 0.0, 0.0, 0.0, 0.0, 0.0, 1.6636601737158885E9, 0.0, 2022-09-20 12:49:33.715
235.0, 23110.206199908996, 45407.47945397848, 14484.511552394815, -10500.201344514055, -11064.38172631046, 42287.980590818, 14866.346402924824, 7015.631439165049, 0.632, -0.592, 0.546, 192.0, 0.0, 0.0, 0.0, 0.0, 0.0, 0.0, 0.0, 0.0, 0.0, 1.6636601737159219E9, 0.0, 2022-09-20 12:49:33.715
236.0, 22106.389356421158, 44521.366896792286, 13615.855707628216, -11033.84924338451, -13517.038645391303, 42278.50345116895, 13470.703479135453, 3119.3200492048322, 0.632, -0.592, 0.546, 192.0, 0.0, 0.0, 0.0, 0.0, 0.0, 0.0, 0.0, 0.0, 0.0, 1.6636601737159905E9, 0.0, 2022-09-20 12:49:33.715
237.0, 22474.92491900026, 44741.73274537716, 14030.771139952081, -10622.755959362503, -13642.923670163593, 42238.98556697197, 14163.696964227793, 2983.600256872208, 0.632, -0.592, 0.546, 192.0, 0.0, 0.0, 0.0, 0.0, 0.0, 0.0, 0.0, 0.0, 0.0, 1.6636601737160325E9, 0.0, 2022-09-20 12:49:33.716
238.0, 23530.866030557878, 45586.74044451004, 15032.106939805382, -10008.30650428611, -11489.13192619466, 42240.46078210602, 15800.425803712107, 6139.152483839093, 0.632, -0.592, 0.546, 192.0, 0.0, 0.0, 0.0, 0.0, 0.0, 0.0, 0.0, 0.0, 0.0, 1.663660173716058E9, 0.0, 2022-09-20 12:49:33.716
239.0, 23821.14813579895, 45904.023457053125, 15229.316381134557, -9985.105393541502, -10130.347029012088, 42252.664834578616, 16101.369691058362, 8197.524630728321, 0.632, -0.592, 0.546, 192.0, 0.0, 0.0, 0.0, 0.0, 0.0, 0.0, 0.0, 0.0, 0.0, 1.663660173716083E9, 0.0, 2022-09-20 12:49:33.716
240.0, 23043.910925854558, 45348.806124783296, 14414.37177829406, -10550.895100938691, -11174.218198563838, 42273.563715644326, 14767.663451154644, 6821.148910659423, 0.628, -0.596, 0.546, 192.0, 19.0, 160.0, 237.0, 96.0, 17.0, 16.0, 0.0, 0.0, 0.0, 1.6636601737161145E9, 0.0, 2022-09-20 12:49:33.716
241.0, 22075.56630081729, 44484.75473937449, 13585.59144563573, -11051.171845337372, -13604.50102144492, 42264.08657599528, 13437.309972919224, 2954.855913502683, 0.628, -0.596, 0.546, 192.0, 0.0, 0.0, 0.0, 0.0, 0.0, 0.0, 0.0, 0.0, 0.0, 1.66366017371614E9, 0.0, 2022-09-20 12:49:33.716
242.0, 22513.36991946339, 44761.80461189802, 14066.511579336116, -10604.315770186875, -13567.553587860297, 42222.57938654177, 14232.160357494398, 3066.9722636905035, 0.628, -0.596, 0.546, 192.0, 0.0, 0.0, 0.0, 0.0, 0.0, 0.0, 0.0, 0.0, 0.0, 1.6636601741924868E9, 0.0, 2022-09-20 12:49:34.192
243.0, 23553.28483024655, 45596.95519172611, 15061.11950410837, -10004.484355984254, -11384.72692784392, 42227.3179563663, 15850.538414780905, 6248.631328181187, 0.628, -0.596, 0.546, 192.0, 0.0, 0.0, 0.0, 0.0, 0.0, 0.0, 0.0, 0.0, 0.0, 1.6636601741925418E9, 0.0, 2022-09-20 12:49:34.192
244.0, 23802.57383615659, 45886.14206148888, 15217.089976917503, -10000.103414071014, -10101.490926920287, 42258.29747418135, 16078.637966947314, 8214.444901280987, 0.628, -0.596, 0.546, 192.0, 0.0, 0.0, 0.0, 0.0, 0.0, 0.0, 0.0, 0.0, 0.0, 1.663660174192586E9, 0.0, 2022-09-20 12:49:34.192
245.0, 22990.557311839737, 45299.45347302598, 14372.775181862735, -10571.838685493312, -11248.783618066744, 42290.2828204969, 14695.355557841725, 6660.752792448139, 0.628, -0.596, 0.546, 192.0, 0.0, 0.0, 0.0, 0.0, 0.0, 0.0, 0.0, 0.0, 0.0, 1.6636601741926265E9, 0.0, 2022-09-20 12:49:34.192
246.0, 22074.091085683238, 44478.004512548985, 13591.40289919411, -11029.37889449345, -13618.046178584837, 42283.68905588258, 13445.155435223036, 2873.741432874374, 0.628, -0.596, 0.546, 192.0, 0.0, 0.0, 0.0, 0.0, 0.0, 0.0, 0.0, 0.0, 0.0, 1.663660174192661E9, 0.0, 2022-09-20 12:49:34.192
247.0, 22577.787646983583, 44812.25249913365, 14123.776748630615, -10550.023382904934, -13430.068007715703, 42236.012784959414, 14331.446806364871, 3217.4889108525413, 0.628, -0.596, 0.546, 192.0, 0.0, 0.0, 0.0, 0.0, 0.0, 0.0, 0.0, 0.0, 0.0, 1.6636601741926925E9, 0.0, 2022-09-20 12:49:34.192
248.0, 23603.308034337526, 45640.09405852485, 15093.887161479852, -9972.834285835539, -11239.12766446205, 42236.21395065951, 15912.34098819983, 6402.545440500431, 0.628, -0.596, 0.546, 192.0, 0.0, 0.0, 0.0, 0.0, 0.0, 0.0, 0.0, 0.0, 0.0, 1.6636601741927161E9, 0.0, 2022-09-20 12:49:34.192
249.0, 23802.506780923224, 45895.26157322664, 15198.62743599742, -9999.030530337159, -10042.907004702927, 42261.73964282747, 16052.933460823711, 8256.15325643459, 0.628, -0.596, 0.546, 192.0, 0.0, 0.0, 0.0, 0.0, 0.0, 0.0, 0.0, 0.0, 0.0, 1.663660174192738E9, 0.0, 2022-09-20 12:49:34.192
250.0, 22944.847994428637, 45262.70720514145, 14322.461405093838, -10601.678264341148, -11305.199421071939, 42288.78525361839, 14618.733777848933, 6494.768738123029, 0.628, -0.596, 0.546, 192.0, 19.0, 160.0, 237.0, 96.0, 17.0, 16.0, 0.0, 0.0, 0.0, 1.6636601741927552E9, 0.0, 2022-09-20 12:49:34.192
251.0, 22062.378771588657, 44463.90056179769, 13583.311567701288, -11028.507176459692, -13632.910088647615, 42274.77070984492, 13439.813368298217, 2761.5356757087325, 0.628, -0.596, 0.546, 192.0, 0.0, 0.0, 0.0, 0.0, 0.0, 0.0, 0.0, 0.0, 0.0, 1.6636601741928115E9, 0.0, 2022-09-20 12:49:34.192
252.0, 22625.62038011794, 44851.6362728639, 14170.536598031116, -10514.618219687727, -13290.838991503597, 42243.142991440654, 14413.030673626743, 3338.2106826556546, 0.628, -0.596, 0.546, 192.0, 0.0, 0.0, 0.0, 0.0, 0.0, 0.0, 0.0, 0.0, 0.0, 1.6636601741928282E9, 0.0, 2022-09-20 12:49:34.192
253.0, 23632.365302129427, 45665.977378604104, 15124.017313005605, -9957.16571297237, -11076.786944483156, 42244.93113099708, 15962.87828241328, 6542.377953812833, 0.628, -0.596, 0.546, 192.0, 0.0, 0.0, 0.0, 0.0, 0.0, 0.0, 0.0, 0.0, 0.0, 1.6636601741928442E9, 0.0, 2022-09-20 12:49:34.192
254.0, 23781.093809735037, 45880.50942188614, 15173.325261274013, -10017.850699168528, -9981.171486517369, 42262.54430562786, 16012.521506848516, 8268.87139902966, 0.628, -0.596, 0.546, 192.0, 0.0, 0.0, 0.0, 0.0, 0.0, 0.0, 0.0, 0.0, 0.0, 1.6636601741928604E9, 0.0, 2022-09-20 12:49:34.192
255.0, 22885.593519877617, 45211.61111731662, 14267.565520711605, -10639.072732814877, -11364.945634000975, 42285.90187858366, 14532.344285529172, 6306.254125386969, 0.628, -0.596, 0.546, 192.0, 0.0, 0.0, 0.0, 0.0, 0.0, 0.0, 0.0, 0.0, 0.0, 1.6636601741928763E9, 0.0, 2022-09-20 12:49:34.192
0.0, 22060.83650122124, 44456.189209960605, 13584.205637479501, -11021.779301378645, -13629.892603146149, 42275.75418660095, 13440.998010754349, 2675.3473490890683, 0.628, -0.596, 0.546, 192.0, 0.0, 0.0, 0.0, 0.0, 0.0, 0.0, 0.0, 0.0, 0.0, 1.6636601741928935E9, 0.0, 2022-09-20 12:49:34.192
1.0, 22684.740744202227, 44893.12111057295, 14224.001970768211, -10475.21209421302, -13138.824777463053, 42239.94669198355, 14498.593151401657, 3492.8847542863796, 0.628, -0.596, 0.546, 192.0, 0.0, 0.0, 0.0, 0.0, 0.0, 0.0, 0.0, 0.0, 0.0, 1.6636601741929097E9, 0.0, 2022-09-20 12:49:34.192
2.0, 23667.859872324454, 45689.91609691574, 15152.649897652853, -9942.659430820875, -10927.253774077151, 42243.74648854095, 16004.586637566881, 6689.810060240038, 0.628, -0.596, 0.546, 192.0, 0.0, 0.0, 0.0, 0.0, 0.0, 0.0, 0.0, 0.0, 0.0, 1.6636601741929257E9, 0.0, 2022-09-20 12:49:34.192
3.0, 23765.157015938406, 45867.813631035526, 15149.073618540004, -10027.819577195594, -9928.287259136112, 42270.278009209396, 15969.270881327497, 8298.554515666308, 0.628, -0.596, 0.546, 192.0, 0.0, 0.0, 0.0, 0.0, 0.0, 0.0, 0.0, 0.0, 0.0, 1.663660174192942E9, 0.0, 2022-09-20 12:49:34.192
4.0, 22833.960990185857, 45165.18654408295, 14215.57536310856, -10657.11059059031, -11419.439186983012, 42290.77455887492, 14448.569947310682, 6153.323489823758, 0.626, -0.592, 0.544, 192.0, 19.0, 144.0, 237.0, 128.0, 17.0, 0.0, 0.0, 0.0, 0.0, 1.663660174192958E9, 0.0, 2022-09-20 12:49:34.192
5.0, 22061.484701810445, 44450.400108146685, 13582.529256645354, -11002.154469746885, -13614.268733771889, 42268.60162837525, 13442.272060188301, 2632.14142705696, 0.626, -0.592, 0.544, 192.0, 0.0, 0.0, 0.0, 0.0, 0.0, 0.0, 0.0, 0.0, 0.0, 1.6636601741929855E9, 0.0, 2022-09-20 12:49:34.192
6.0, 22737.44615762784, 44935.47766631576, 14268.325480023084, -10442.869119986191, -12984.262464554604, 42239.34319488325, 14575.55020756128, 3656.1865992768526, 0.626, -0.592, 0.544, 192.0, 0.0, 0.0, 0.0, 0.0, 0.0, 0.0, 0.0, 0.0, 0.0, 1.6636601741930015E9, 0.0, 2022-09-20 12:49:34.193
7.0, 23694.03376508162, 45718.10164667388, 15170.508941472644, -9940.468959864254, -10773.250254780085, 42254.16240145712, 16038.673047861224, 6837.264518411698, 0.626, -0.592, 0.544, 192.0, 0.0, 0.0, 0.0, 0.0, 0.0, 0.0, 0.0, 0.0, 0.0, 1.6636601741930175E9, 0.0, 2022-09-20 12:49:34.193
8.0, 23733.909277189887, 45851.89918898335, 15108.661664564808, -10058.307356632633, -9876.364156766434, 42262.14197422767, 15915.269066723475, 8315.944172852538, 0.626, -0.592, 0.544, 192.0, 0.0, 0.0, 0.0, 0.0, 0.0, 0.0, 0.0, 0.0, 0.0, 1.6636601741930332E9, 0.0, 2022-09-20 12:49:34.193
9.0, 22768.425675442897, 45109.64245911151, 14152.163464088853, -10705.747986525057, -11473.88803647614, 42280.87273608121, 14360.168797989942, 5986.937104098452, 0.626, -0.592, 0.544, 192.0, 0.0, 0.0, 0.0, 0.0, 0.0, 0.0, 0.0, 0.0, 0.0, 1.6636601741930492E9, 0.0, 2022-09-20 12:49:34.193
10.0, 22054.309791840293, 44435.13386668371, 13578.26007345439, -11005.663693626368, -13591.894637572126, 42266.09823299626, 13446.161263723525, 2588.533173624656, 0.626, -0.592, 0.544, 192.0, 0.0, 0.0, 0.0, 0.0, 0.0, 0.0, 0.0, 0.0, 0.0, 1.6636601741930647E9, 0.0, 2022-09-20 12:49:34.193
11.0, 22789.346908253065, 44970.2122771993, 14316.113509668532, -10412.291933571332, -12816.803195095445, 42243.768840285404, 14655.547100966824, 3833.2794705962506, 0.626, -0.592, 0.544, 192.0, 0.0, 0.0, 0.0, 0.0, 0.0, 0.0, 0.0, 0.0, 0.0, 1.663660174193096E9, 0.0, 2022-09-20 12:49:34.193
12.0, 23719.581808994033, 45737.81588528346, 15188.636206225898, -9931.930593482328, -10607.646180110714, 42255.995244502454, 16066.948004597189, 7003.785014603736, 0.626, -0.592, 0.544, 192.0, 0.0, 0.0, 0.0, 0.0, 0.0, 0.0, 0.0, 0.0, 0.0, 1.663660174193112E9, 0.0, 2022-09-20 12:49:34.193
13.0, 23711.98221587923, 45838.13051439888, 15083.471248563677, -10074.065336473624, -9807.252562910624, 42279.17400350261, 15866.206987644076, 8346.878987178683, 0.626, -0.592, 0.544, 192.0, 0.0, 0.0, 0.0, 0.0, 0.0, 0.0, 0.0, 0.0, 0.0, 1.663660174193128E9, 0.0, 2022-09-20 12:49:34.193
14.0, 22711.07109917058, 45059.52984804271, 14106.990588544679, -10736.302821195462, -11521.117272510204, 42299.357628745754, 14279.099020850543, 5807.6090583335235, 0.624, -0.59, 0.54, 192.0, 19.0, 128.0, 237.0, 144.0, 16.0, 224.0, 0.0, 0.0, 0.0, 1.663660174193144E9, 0.0, 2022-09-20 12:49:34.193
15.0, 22055.673248252064, 44430.663517792644, 13587.513695658887, -10993.057309753574, -13554.030782464837, 42273.6754743666, 13459.907586563539, 2536.9229956773515, 0.624, -0.59, 0.54, 192.0, 0.0, 0.0, 0.0, 0.0, 0.0, 0.0, 0.0, 0.0, 0.0, 1.663660174193161E9, 0.0, 2022-09-20 12:49:34.193
16.0, 22837.38080708752, 45006.891489850466, 14363.387449191505, -10383.480534968441, -12638.54803306437, 42238.42677336059, 14737.980334517997, 3983.6620072915566, 0.624, -0.59, 0.54, 192.0, 0.0, 0.0, 0.0, 0.0, 0.0, 0.0, 0.0, 0.0, 0.0, 1.663660174193177E9, 0.0, 2022-09-20 12:49:34.193
17.0, 23737.329094091547, 45751.80807731248, 15205.24355235619, -9932.377628371434, -10450.893396245647, 42247.769802542905, 16099.447441035205, 7113.062693245733, 0.624, -0.59, 0.54, 192.0, 0.0, 0.0, 0.0, 0.0, 0.0, 0.0, 0.0, 0.0, 0.0, 1.6636601741931927E9, 0.0, 2022-09-20 12:49:34.193
18.0, 23673.82778809402, 45803.552365726515, 15043.573384710955, -10113.359703226055, -9779.759917230596, 42265.47238415151, 15808.897114860669, 8298.509812177397, 0.624, -0.59, 0.54, 192.0, 0.0, 0.0, 0.0, 0.0, 0.0, 0.0, 0.0, 0.0, 0.0, 1.6636601741932087E9, 0.0, 2022-09-20 12:49:34.193
19.0, 22643.90410708238, 44991.0217512872, 14044.15983488081, -10789.27645555454, -11614.122881188738, 42276.04475927887, 14188.127420917443, 5582.370529457394, 0.624, -0.59, 0.54, 192.0, 0.0, 0.0, 0.0, 0.0, 0.0, 0.0, 0.0, 0.0, 0.0, 1.6636601741932244E9, 0.0, 2022-09-20 12:49:34.193
20.0, 22050.957030171994, 44411.955107683556, 13581.970463033971, -10996.544181888603, -13578.930625788049, 42256.24111369147, 13460.354621452645, 2459.004814506151, 0.624, -0.59, 0.54, 192.0, 0.0, 0.0, 0.0, 0.0, 0.0, 0.0, 0.0, 0.0, 0.0, 1.6636601741932404E9, 0.0, 2022-09-20 12:49:34.193
21.0, 22885.1017814996, 45035.14409484197, 14409.834374169634, -10359.497113167896, -12546.861177308701, 42235.677508792585, 14815.02679765544, 4104.652000028133, 0.624, -0.59, 0.54, 192.0, 0.0, 0.0, 0.0, 0.0, 0.0, 0.0, 0.0, 0.0, 0.0, 1.6636601741932564E9, 0.0, 2022-09-20 12:49:34.193
22.0, 23759.300858891114, 45767.74487110911, 15226.72357877774, -9930.701247537285, -10389.224933293455, 42246.294587408855, 16127.81180474899, 7207.4541100804945, 0.624, -0.59, 0.54, 192.0, 0.0, 0.0, 0.0, 0.0, 0.0, 0.0, 0.0, 0.0, 0.0, 1.663660174193272E9, 0.0, 2022-09-20 12:49:34.193
23.0, 23649.68790408229, 45789.76133939759, 15018.181803009726, -10130.324677267632, -9822.496452629144, 42267.72991034149, 15758.046896224845, 8266.099782717203, 0.624, -0.59, 0.54, 192.0, 0.0, 0.0, 0.0, 0.0, 0.0, 0.0, 0.0, 0.0, 0.0, 1.663660174193288E9, 0.0, 2022-09-20 12:49:34.193
24.0, 22593.120943679925, 44951.74973627922, 14000.43982272623, -10813.505746544093, -11759.051592236949, 42285.67836113911, 14108.823431590014, 5373.426422289183, 0.632, -0.59, 0.54, 192.0, 19.0, 192.0, 237.0, 144.0, 16.0, 224.0, 0.0, 0.0, 0.0, 1.663660174193304E9, 0.0, 2022-09-20 12:49:34.193
25.0, 22062.378771588657, 44421.90163396617, 13599.874210342672, -10978.79689679109, -13629.60203046823, 42253.491849123464, 13476.850208860662, 2415.396561073847, 0.632, -0.59, 0.54, 192.0, 0.0, 0.0, 0.0, 0.0, 0.0, 0.0, 0.0, 0.0, 0.0, 1.6636601741933208E9, 0.0, 2022-09-20 12:49:34.193
26.0, 22932.085148344657, 45078.90881048546, 14461.466903861394, -10330.775121542827, -12485.930321923533, 42233.53174132487, 14884.09368802234, 4246.183245919138, 0.632, -0.59, 0.54, 192.0, 0.0, 0.0, 0.0, 0.0, 0.0, 0.0, 0.0, 0.0, 0.0, 1.6636601741933365E9, 0.0, 2022-09-20 12:49:34.193
27.0, 23778.36689691149, 45793.359970254896, 15245.767265053662, -9923.34752361149, -10357.060773022267, 42248.64152057666, 16144.352095645918, 7325.404265571149, 0.632, -0.59, 0.54, 192.0, 0.0, 0.0, 0.0, 0.0, 0.0, 0.0, 0.0, 0.0, 0.0, 1.66366017419337E9, 0.0, 2022-09-20 12:49:34.193
28.0, 23621.05531943504, 45777.28906599153, 14991.24795094108, -10150.843578677604, -9906.114328636448, 42261.247904449454, 15695.685529194538, 8233.10860790117, 0.632, -0.59, 0.54, 192.0, 0.0, 0.0, 0.0, 0.0, 0.0, 0.0, 0.0, 0.0, 0.0, 1.6636601741933858E9, 0.0, 2022-09-20 12:49:34.193
29.0, 22545.489376245663, 44915.31639281707, 13965.90637754278, -10833.018819453577, -11954.584652731974, 42285.83482335029, 14027.172509094777, 5167.186876200066, 0.632, -0.59, 0.54, 192.0, 0.0, 0.0, 0.0, 0.0, 0.0, 0.0, 0.0, 0.0, 0.0, 1.6636601741934016E9, 0.0, 2022-09-20 12:49:34.193
30.0, 22087.90446375662, 44448.61196859026, 13637.60395498323, -10940.776579472611, -13732.95649682957, 42263.3266166838, 13501.973569628426, 2389.0885578499506, 0.632, -0.59, 0.54, 192.0, 0.0, 0.0, 0.0, 0.0, 0.0, 0.0, 0.0, 0.0, 0.0, 1.6636601741934175E9, 0.0, 2022-09-20 12:49:34.193
31.0, 23004.03541374629, 45148.579197952655, 14540.793244933278, -10269.754859179839, -12477.056679374777, 42247.65804382063, 14974.707660044154, 4403.092491995393, 0.632, -0.59, 0.54, 192.0, 0.0, 0.0, 0.0, 0.0, 0.0, 0.0, 0.0, 0.0, 0.0, 1.6636601741934333E9, 0.0, 2022-09-20 12:49:34.193
32.0, 23809.61463566001, 45829.25687185012, 15285.97805332876, -9898.380625054911, -10396.422195008063, 42262.32078818331, 16172.694107615247, 7422.075560340352, 0.632, -0.59, 0.54, 192.0, 0.0, 0.0, 0.0, 0.0, 0.0, 0.0, 0.0, 0.0, 0.0, 1.6636601741934493E9, 0.0, 2022-09-20 12:49:34.193
