 EXG Channel 0, EXG Channel 1, EXG Channel 2, EXG Channel 3
5581.275293979084,2965.2271229299454,-24570.803293085493,-26477.45179861209
4997.134804384089,2887.9124388590385,-24394.98447120005,-26094.63347132605
7441.990964650031,4574.798592901063,-24084.094057571183,-25163.28098336232
10583.081612954333,6728.970316525736,-24056.75787410234,-24254.101425898247
8855.716449703748,5233.839778165791,-24500.261187584543,-25524.01578712652
5584.449241691737,2977.2076579579902,-24592.14920904031,-26473.09320844331
4984.7742897003045,2884.805546379751,-24411.0106719745,-26093.717049803385
7417.605211449291,4565.030880574093,-24098.62269146713,-25169.986506698908
10564.41790633415,6723.80706355656,-24064.22335675041,-24251.307457841333
8862.489028273705,5242.221682336532,-24498.1824753502,-25504.033327583475
5591.825317361989,2985.276637706356,-24584.370801969864,-26454.362446589763
4987.523554268308,2895.020293595826,-24400.237131147045,-26070.2030146364
7409.871507867755,4566.707261408242,-24082.864711626135,-25152.93212567951
10551.319784083342,6721.393075155387,-24052.33222870019,-24245.384245560675
8866.735859720215,5254.246920853487,-24488.995908379067,-25501.015842082008
5583.756337613623,2980.649826604108,-24581.420371701763,-26468.734618274524
4965.238865046366,2877.250656753857,-24399.186599157645,-26095.4604858709
7373.594626616791,4537.426476171789,-24092.81123790875,-25184.40338187258
10532.834891418805,6706.305647648054,-24055.215603734923,-24262.93036495809
8865.618272497448,5247.049659138877,-24498.718917217127,-25513.77868816599
5576.492020665649,2964.578922340741,-24601.26872077808,-26486.459551627584
4955.560559697218,2865.1807147479917,-24421.292474423943,-26105.74228832034
7352.963966484544,4520.394446896845,-24111.36318580665,-25199.066126235262
10501.765966625926,6677.673063000806,-24081.545958703275,-24282.66695531213
8865.014775397156,5244.479208526517,-24518.835487226905,-25516.550304478445
5588.919590582799,2972.200867200001,-24608.086002836942,-26483.08443821483
4956.07464981969,2859.771592589807,-24420.040776734448,-26108.64801509953
7355.445010119082,4521.4673306307,-24103.942406647493,-25193.99228024391
10521.502556979962,6698.102557432957,-24062.457568938444,-24263.98089694749
8879.208133126276,5255.409211565163,-24495.299100315464,-25502.24518802705
5586.729119626179,2966.210599685979,-24578.358182711385,-26473.67435379915
4937.567405410696,2847.902816284038,-24393.151628154712,-26099.439096383943
7333.585004041792,4506.536365334555,-24070.750066131364,-25182.525835338336
10502.056539303843,6684.624455526407,-24034.89786802505,-24253.56498403132
8893.915580977868,5273.916455974157,-24477.14948381776,-25482.53094941747
5589.031349305075,2976.380643413144,-24577.598223399906,-26471.41682760916
4930.951289051925,2852.060240752726,-24396.63850028974,-26100.042593484235
7316.821195700311,4502.088368187949,-24076.785037134297,-25192.181788943028
10491.953550810043,6681.852839213949,-24039.770548316308,-24261.455149824043
8897.983598468732,5275.749299019492,-24480.21167280813,-25485.8166558524
5602.084768066975,2985.5895621287304,-24575.20658674319,-26468.51110082997
4927.240899472345,2849.5344936292763,-24391.92228220967,-26105.3623086646
7293.77654716689,4481.949446433717,-24091.76070591935,-25209.862018807176
10474.161562223622,6662.898559915849,-24056.7802258468,-24270.887585984183
8911.260534675186,5288.668607314659,-24484.838483910386,-25478.440580182145
5585.566828914503,2976.7829748133395,-24591.590415428927,-26487.44302838362
4898.764777036283,2832.636574821064,-24408.864904506798,-26120.69560536094
7285.685215674069,4485.83864996894,-24078.17084529053,-25197.88148377913
10469.579454610284,6667.950054162748,-24037.4236151485,-24263.24328938047
8903.459775860283,5278.587970565316,-24475.674268683702,-25484.766123863
5577.497849166138,2959.706242049485,-24580.48159843464,-26488.158284206187
4886.136041419035,2818.532624069765,-24397.39845960122,-26121.701433861428
7257.4102589381055,4458.010728122083,-24079.19902553547,-25215.964045043474
10461.443419628553,6651.677984199284,-24031.56745810121,-24272.72042902952
8902.319836893063,5267.0544704263775,-24472.120341315316,-25486.19663550814
5575.687357865258,2951.860779745672,-24573.038467531023,-26483.08443821483
4885.3984338520095,2807.960248942405,-24390.20119788661,-26116.426422169978
7253.00696528041,4440.889291869318,-24070.303031242256,-25212.23130371944
10457.576567837785,6636.970536347692,-24038.87647853809,-24273.97212671901
8931.891194807435,5284.600589823794,-24479.85404489685,-25474.03728652445
5595.1780790302855,2965.7412130524176,-24584.39315371432,-26482.45858937009
4874.222561624356,2803.22167911788,-24406.897950994728,-26124.40599494052
7230.789331291835,4429.266384752558,-24094.82289490973,-25217.50631541089
10446.78067526587,6632.544890945541,-24052.198118233457,-24268.451245838554
8931.108883751498,5287.729834047536,-24486.023126366512,-25468.00231552152
5592.942904584755,2966.925855508549,-24581.86740659087,-26476.065990455867
4852.831942180627,2791.151737112014,-24413.558770842406,-26128.094032775647
7206.2247641354525,4414.268364223047,-24092.654775697563,-25221.66373987958
10447.272413643886,6633.751885146128,-24042.385702417578,-24257.61064977773
8955.315822996596,5306.371188923263,-24476.74715241756,-25445.404701877203
5592.339407484461,2967.4846491199314,-24579.54282516752,-26468.75697001898
4856.967014904859,2802.6181820175866,-24400.818276502883,-26110.50320988932
7188.052795893288,4412.524928155533,-24094.889950143093,-25218.71330961148
10421.031465653356,6625.481739697664,-24048.599487376152,-24258.3259056003
8960.590834688048,5324.096122276321,-24473.26028028253,-25434.8546784943
5599.827241876989,2987.288294707333,-24581.86740659087,-26463.32549611634
4839.085619340613,2798.6172197600868,-24412.59764583083,-26122.014358283803
7184.208295846975,4416.838814835407,-24080.49542671388,-25218.333329955734
10416.002323150911,6626.755789131616,-24033.310894168724,-24263.824434736307
8957.908625353411,5327.739456622536,-24467.828806379894,-25440.040283207927
5601.973009344699,2994.239687232934,-24577.17354025525,-26467.57232756285
4836.828093150627,2804.920411696484,-24410.1613056852,-26125.545933907742
7155.553359455271,4401.371407672335,-24092.20774080846,-25233.19724001852
10411.241401581932,6632.187263034256,-24033.80263254674,-24258.72823700049
8977.891084896455,5345.956128353611,-24466.666515668217,-25431.45721333709
5595.602762174936,2991.691588365029,-24589.645813661315,-26483.62088008176
4825.920441856438,2806.015647174793,-24410.854209763314,-26133.74902412284
7152.5135222093495,4410.312105454458,-24092.43125825301,-25234.493641196925
10410.280276570356,6641.664402683306,-24042.76568207332,-24257.722408500005
8989.961026902321,5365.335090796362,-24476.99302160657,-25425.77987024544
5611.137224571375,3008.835376362249,-24587.2541770046,-26474.85899625528
4820.734837142806,2807.088530908648,-24411.54711384143,-26136.632399157574
7139.214234258442,4412.793149088997,-24086.508045972358,-25241.69090291153
10390.677796683049,6643.340783517455,-24027.27592316579,-24272.27339414041
9005.763710232224,5394.146489399253,-24450.86383233832,-25417.822649219357
5631.991402148175,3035.501007497431,-24568.366952939865,-26461.917336215654
4829.452017480376,2817.0127054468044,-24408.619035317784,-26129.21161999841
7126.339629452184,4405.953515285672,-24095.515798987843,-25244.574277946267
10372.103497040687,6639.876263126882,-24038.161222715524,-24273.145112174167
8974.806544161624,5378.813192702913,-24467.784102890982,-25434.295884882915
5609.192622803763,3020.190062545545,-24582.649717646804,-26482.637403325727
4822.634735421507,2816.3421531131453,-24411.16713418569,-26137.50411719133
7114.806129313247,4405.819404818941,-24080.137798802592,-25240.03687382184
10357.418400933551,6638.1998822927335,-24031.478051123388,-24264.763208003427
8978.62869246348,5385.988102673066,-24471.539195959474,-25422.181239388137
5611.047817593553,3023.565175958297,-24583.29791823601,-26474.41196136617
4811.123587027024,2813.5928885451426,-24411.83768651935,-26132.094995033145
7089.280437145286,4395.962285514151,-24101.37195603513,-25247.70352217001
10339.894633280592,6636.612908436407,-24047.16897573101,-24272.2286906515
8990.944503658355,5401.343751113863,-24471.807416892934,-25415.74393698501
5614.937021128777,3028.16963531609,-24581.733296124137,-26474.56842357736
4804.552174157164,2809.4578158209106,-24408.75314578452,-26137.66057940252
7076.294073616752,4390.150831955771,-24090.464304740944,-25250.631600693658
10344.52144438284,6644.50307422913,-24025.398376631543,-24256.940097444072
9010.97166669031,5420.700361812158,-24450.059169537923,-25398.33192805433
5627.275184068106,3039.725487199484,-24570.646830874302,-26466.38768510672
4799.52303165472,2811.536528055254,-24413.51406735349,-26139.716939892405
7058.747954219336,4379.131421939304,-24097.639214711096,-25263.595612477737
10327.84704301918,6633.729533401673,-24027.23121967688,-24268.00421094945
9019.55473656115,5432.9938212625775,-24451.668495138707,-25396.29791930889
5640.485065041193,3053.404754806132,-24570.646830874302,-26463.05727518288
4792.526935640209,2808.7425599983408,-24416.12922145477,-26136.90062009104
7047.460323269406,4377.767965527531,-24101.081383357214,-25256.532461229857
10321.007409215856,6637.819902636994,-24028.59467608865,-24264.003248691948
9021.253469139752,5444.057934767954,-24456.36236147432,-25395.6944222086
5629.867986424922,3049.850827437738,-24589.42229621676,-26477.31768814537
4788.99536001627,2810.5306995547653,-24424.73464307006,-26142.75677713833
7041.291241799741,4377.790317271986,-24098.57798797822,-25259.348781031225
10318.459310347953,6636.635260180862,-24026.739481298864,-24261.499853312955
9042.107646716551,5459.167714019742,-24457.345838230354,-25383.512721480456
5648.531693045104,3067.4863538129757,-24585.197816514712,-26469.986315964023
4783.116851224524,2809.5919262876423,-24419.25846567851,-26152.949172609948
7030.651811439016,4373.811706758941,-24094.19704606498,-25270.591708492248
10306.434071830998,6633.304850257022,-24031.500402867845,-24277.39194362068
9033.524576845715,5453.8927023282895,-24462.240870266065,-25398.756611198976
5633.265451582129,3052.242464094456,-24580.280432734544,-26482.615051581277
4778.266522677723,2807.22264137538,-24403.88046549326,-26151.026922586792
7017.240764765831,4365.698023521665,-24078.61788017963,-25274.27974632737
10314.57010681273,6639.630393937874,-24006.175876399982,-24265.143187659167
9066.538103406205,5477.004406095077,-24447.756939859028,-25381.568119712847
5644.418972065327,3057.696289741551,-24570.937403552223,-26482.86092077028
4765.078993449091,2797.186708114947,-24392.235206632045,-26157.86655639012
7003.807366348192,4356.265587361525,-24076.71798190093,-25282.43813305356
10290.363167567632,6624.185338519256,-24007.60638804512,-24271.80400750685
9057.50799864626,5474.456307227172,-24431.93190478467,-25371.28631726341
5637.2664138396285,3056.3551850742324,-24558.666295846266,-26470.455702597585
4751.08680142007,2789.900039422517,-24390.44706707562,-26150.021094086303
6977.18643870192,4339.702944720143,-24070.325382986717,-25278.303060329326
10274.739298193372,6616.049303537525,-24000.99027168635,-24268.451245838554
9083.88305710352,5502.731263963136,-24423.72881456957,-25350.54389840888
5659.260530383651,3073.543676560364,-24553.9947812551,-26458.38576059172
4735.239414601257,2773.3597485255896,-24401.801753258915,-26153.530317965786
6947.615080787549,4317.820586898397,-24083.803484893266,-25276.358458561717
10239.222376253889,6592.311750925988,-24011.137963669054,-24266.216071393024
9054.26699570024,5479.396042751795,-24434.301189696933,-25350.476843175515
5650.252777368161,3071.397909092654,-24563.807197070983,-26449.84739420979
4748.248129874245,2794.8174232026845,-24399.32070962437,-26136.297122990745
6951.794857000692,4328.080037603383,-24079.690763913484,-25269.34001080275
10249.660640914515,6601.677131852763,-23999.872684463586,-24255.017847420917
9076.149353521983,5497.322141804951,-24422.11948896879,-25341.44673841557
5654.45490532576,3071.442612581565,-24556.364066167363,-26455.92706870164
4743.800132727639,2791.1964406009247,-24395.38680260024,-26142.06387306021
6945.4246098309295,4329.957584137629,-24065.877385840107,-25276.045534139343
10249.861806614615,6615.803434348516,-23980.828998187662,-24260.51637655692
9091.505001962782,5519.383313582339,-24404.930997482657,-25344.285409961398
5673.40918462386,3089.7710430349166,-24545.85874627337,-26465.873594984245
4743.777780983184,2789.765928955785,-24383.16039838319,-26158.55946046823
6935.791007970693,4320.9498311221405,-24057.607240391644,-25284.606252265723
10244.877367601082,6605.521631899075,-23991.535483781758,-24265.03142893689
9104.42431025795,5517.66222925928,-24429.473212894587,-25345.06772101733
5680.874667271933,3088.0276069674023,-24562.48844414812,-26466.633554295728
4748.024612429692,2791.3081993232013,-24410.47423010757,-26165.51085299383
6923.877528176014,4309.215165283104,-24088.363240762144,-25297.547912305345
10233.388570951054,6596.469175394675,-24021.240952162854,-24270.90993772864
9124.831452945644,5542.606776071403,-24448.67336138169,-25330.8296597993
5697.169088979851,3108.211232210545,-24586.650679904305,-26458.13989140271
4749.097496163547,2796.605562759109,-24437.07280600939,-26156.65956218953
6923.743417709282,4311.293877517447,-24118.091060887706,-25292.831694225275
10246.285527501766,6608.159137744801,-24036.641304092565,-24265.65727778164
9129.7041332369,5541.690354548736,-24474.75784716104,-25333.44481390057
5692.564629622058,3095.8954210156708,-24629.029587391567,-26468.04171419641
4738.011030913714,2781.4063765295004,-24479.943451874668,-26170.428236774
6909.572411724617,4295.178269765172,-24156.44665437301,-25307.44973509905
10226.347771447632,6589.093099724424,-24068.224319007917,-24275.13441743069
9137.99663042982,5551.2121976866965,-24486.20194032216,-25322.492459117468
5693.346940677994,3103.785586808394,-24628.73901471365,-26462.364371104763
4720.710780705307,2778.12067009457,-24477.79768440696,-26169.04242861777
6880.448088699352,4283.957694048607,-24152.311581648777,-25311.517752589916
10202.811384536191,6582.298169410011,-24066.369124218123,-24274.933251730592
9131.827548960156,5553.425020387772,-24483.497379243065,-25319.363214893725
5699.180745980829,3114.5144241469416,-24612.64575870583,-26454.72007450105
4725.874033674483,2784.64737947552,-24452.98724806157,-26163.856823904134
6880.783364866182,4286.70695861661,-24126.67413075854,-25303.20290365254
10199.458622867898,6585.449765378209,-24042.162184973025,-24265.76903650392
9133.012191416286,5560.041136746542,-24471.82976863739,-25314.714052047024
5687.490783630703,3106.5124996319414,-24610.52234298257,-26461.984391449023
4722.945955150838,2790.4588330339,-24445.41000669122,-26160.526413980297
6871.015652539212,4295.513545932001,-24123.030796412328,-25307.069755443303
10192.216657664378,6600.000751018614,-24043.302123940244,-24279.96239423304
9148.94898521292,5588.383148715871,-24473.640259938275,-25314.15525843564
5698.085510502518,3125.086799274301,-24618.747784942127,-26462.2973158714
4694.626294925964,2771.236332802336,-24462.240870266065,-26179.838321189683
6842.49482661424,4277.296874200925,-24118.806316710277,-25315.719880547516
10172.368308588066,6587.193201445723,-24021.822097518696,-24273.77096101892
9154.693383537937,5592.138241784363,-24442.92896305668,-25302.085316429773
5711.27303973115,3131.7699708664386,-24589.06466830548,-26458.51987105845
4706.137443320446,2784.937952153439,-24434.59176237485,-26180.84414969017
6840.103189957523,4282.661292870199,-24093.548845475776,-25323.34182540677
10170.267244609267,6585.002730489103,-23997.65986176251,-24278.822455265818
9162.650604564024,5594.105195296431,-24423.102965724825,-25311.24953165645
5710.468376930759,3123.8351015848043,-24568.165787239766,-26476.691839300616
4699.78954789514,2772.242161302825,-24417.939712755648,-26193.808161474248
6819.696047269827,4261.583597848845,-24094.71113618745,-25334.383587167693
10143.556909985176,6564.77440175705,-24006.734670011363,-24289.730106560008
9160.773058029778,5598.195564531751,-24419.124355211778,-25296.273862871392
5713.12823452094,3134.8098081123603,-24560.43208365823,-26450.67440875464
4688.233696011745,2774.387928770534,-24418.252637178022,-26169.46711176242
6794.2150585907775,4250.251263410004,-24105.95406364847,-25323.76650855142
10126.211956287856,6556.794828986505,-24017.932893983478,-24274.46386509703
9157.487351594847,5600.386035488372,-24440.71614035561,-25285.47797029948
5705.8862693174215,3138.766066880949,-24578.04525828901,-26447.299295341887
4677.482506928744,2782.1439840965254,-24422.007730246514,-26161.97927736989
6787.10720385399,4266.210408951093,-24093.705307686963,-25305.34867112025
10119.282915506712,6578.476021108154,-24002.97957694287,-24255.42017882111
9164.841075520644,5633.354858559949,-24424.891105281247,-25260.01933336489
5708.412016440871,3158.7932299129047,-24573.641964631315,-26435.40816729166
4666.038413767626,2782.188687585436,-24418.5655616004,-26164.41561751552
6762.76615414216,4254.051059967406,-24090.75487741886,-25318.737366048976
10115.14784278248,6576.531419340542,-23993.54714078273,-24262.215109135523
9173.692366324944,5632.729009715201,-24415.4139656322,-25275.71025797251
5705.595696639502,3149.4278489861317,-24570.66918261876,-26462.230260638036
4666.016062023171,2784.26739981978,-24421.69480582414,-26182.25230959085
6759.413392473864,4251.882940755241,-24099.650871712078,-25339.85976455924
10094.986569283792,6556.884235964327,-24006.93583571146,-24290.24419668248
9171.658357579512,5629.73387595819,-24434.144727485746,-25290.26124361292
5702.354693693483,3145.2927762618992,-24596.664261420283,-26478.85995851278
4636.958794231271,2757.7582308957853,-24444.627695635285,-26207.62153954763
6728.52328163663,4228.1453881437055,-24109.284473572312,-25354.120177521727
10075.115868463025,6544.903700936282,-24022.20207717444,-24297.106182230254
9158.962566728898,5620.994343876165,-24455.55769867393,-25296.743249504954
5694.062196500564,3143.1246570497347,-24596.9548340982,-26475.015458466467
4636.712925042263,2767.101260078104,-24437.341026942853,-26200.42427783302
6718.017961742636,4225.843158464809,-24103.875351414128,-25349.98510479749
10067.09159220357,6538.824026444439,-24007.15935315601,-24292.30055717237
9183.281264696272,5649.381059334405,-24421.89597152424,-25272.80453119332
5704.299295461095,3160.2237415580444,-24576.16771175477,-26464.30897287237
4618.742122500196,2762.407393742489,-24426.522782626485,-26193.629347518607
6686.367891593921,4212.566222258356,-24102.04250836879,-25354.388398455198
10053.837007741571,6537.259404332567,-24006.578207800176,-24290.3336036603
9188.377462432083,5649.157541889852,-24424.17584945868,-25268.110664857708
5708.724940863245,3158.8379334018155,-24575.67597337675,-26462.230260638036
4618.138625399903,2756.774754139752,-24419.97372150108,-26196.71388825344
6683.149240392357,4208.855832678775,-24093.10181058667,-25345.514755906435
10045.276289615187,6536.857072932372,-24002.621949031585,-24277.05666745385
9203.934276572976,5671.956321234265,-24418.252637178022,-25243.367283745683
5719.900813090899,3172.763070197472,-24577.53116816654,-26452.551955288884
4609.6896659957965,2754.6960419054085,-24439.755015344028,-26198.636138276597
6657.2212168242,4191.667341192644,-24118.359281821165,-25361.89858459217
10028.870109184994,6530.866805418349,-24003.448963576437,-24283.538673345887
9202.39200620556,5675.174972435829,-24417.71619531109,-25245.7589204024
5719.900813090899,3173.433622531131,-24575.787732099023,-26451.881402955223
4611.880136952417,2760.909826863984,-24425.06991923689,-26192.914091696035
6658.249397069144,4203.871393665242,-24090.37489776312,-25351.281505975905
10019.84000442505,6534.465436275654,-23983.622966244577,-24282.398734378665
9198.48045092588,5676.292559658595,-24407.188523672645,-25247.010618091896
5707.026208284642,3165.655215460684,-24573.261984975576,-26457.80461523588
4592.14354659838,2748.236387757825,-24433.60828561882,-26198.300862109765
6631.650821167329,4184.425375989124,-24099.15913333406,-25362.18915727009
10003.143251316937,6525.278869304522,-23987.3110040797,-24287.561987347843
9204.44836669545,5685.054443485074,-24412.262369664,-25244.708388413
5723.298278248105,3180.4520702900973,-24571.317383207963,-26454.161280889664
4592.679988465308,2751.343280237112,-24422.991207002546,-26200.62544353312
6626.152292031324,4185.766480656443,-24107.38457529361,-25361.87623284772
9996.527134958164,6519.199194812679,-24005.23710313286,-24286.44440012508
9216.697122656957,5691.335283677016,-24417.760898800007,-25228.99511206092
5719.319667735061,3167.3092445503767,-24581.17450251276,-26448.550993031386
4583.314607538535,2736.769942852252,-24425.896933781736,-26195.596301030677
6608.270896467077,4167.1027740362615,-24090.643118696586,-25358.903450835165
9980.2550649947,6506.659866173251,-23989.814399458697,-24286.37734489171
9223.022666337807,5699.448966914292,-24400.28183463596,-25226.201144004008
5725.131121293441,3179.9603319120806,-24551.357275409377,-26447.38870231971
4579.425404003311,2737.8875300750174,-24401.511180581,-26199.194931887974
6596.357416672399,4154.54109365238,-24075.57804293371,-25373.722657409035
9970.643814878918,6488.353787464355,-23974.12347485107,-24307.745612590985
9233.595041465169,5700.231277970229,-24372.92329942266,-25227.117565526674
5731.635478929935,3179.0662621338683,-24529.072586187434,-26449.400359320683
4578.643092947375,2731.5843381386208,-24385.97671818456,-26207.688594780997
6594.792794560528,4153.132933751695,-24054.36623744562,-25376.18134929912
9974.868294580972,6496.936857335193,-23947.97193383836,-24297.419106652636
9242.759256691845,5705.1263100059405,-24369.21290984308,-25230.403271961604
5740.464417989781,3178.932151667136,-24534.973446723638,-26458.341057102807
4573.882171378395,2726.0858090026154,-24392.592834543328,-26220.294978653787
6584.913323511282,4146.24859645946,-24062.301106727256,-25383.803294158377
9962.820704319562,6483.212886239635,-23954.4539397304,-24306.985653279506
9241.30639330225,5700.499498903692,-24368.20708134259,-25233.95719933
5729.243842273217,3165.8340294163263,-24530.81602225495,-26469.42752235264
4554.167932768814,2701.633000568509,-24388.43541007464,-26229.414490391555
6552.927977195737,4112.05042744284,-24058.2777927253,-25398.46603852106
9936.602108073486,6456.234330682079,-23950.050646072705,-24315.322853961334
9230.286983285783,5684.920333018343,-24364.250822574,-25231.006769061896
5718.090321790019,3151.730078665028,-24528.156164664768,-26463.101978671788
4538.5440633945545,2691.239439396792,-24392.0563926764,-26223.491278110894
6531.358543796367,4095.353674334726,-24065.363295717638,-25399.047183876897
9916.35142759698,6439.157597918224,-23960.377152011057,-24317.46862142904
9235.584346721693,5689.144812720396,-24371.671601733164,-25224.882391081144
5720.459606702281,3158.4803054905306,-24534.88403974581,-26463.437254838616
4524.931851021272,2687.3502358615683,-24397.957253212604,-26233.795432304792
6508.783281896506,4088.648150998134,-24066.369124218123,-25407.809067703376
9899.364101810945,6436.989478706059,-23949.648314672508,-24317.066290028848
9238.49007350088,5701.952362293287,-24361.747427195005,-25214.62294037616
5730.853167873999,3171.623131230251,-24530.48074608812,-26456.01647567945
4530.475083646189,2694.413387109445,-24387.697802507617,-26227.55929560176
6495.95338057916,4084.9154096740976,-24061.13881601558,-25407.384384558725
9883.360252780943,6432.005039692526,-23953.22459378536,-24317.71449061805
9244.703858459456,5713.888193832421,-24366.19542434161,-25210.24199846292
5735.457627231793,3183.134279624734,-24539.86847875935,-26451.47907155503
4518.651010829331,2694.413387109445,-24401.04179394744,-26224.38534788911
6489.069043286925,4090.212773110005,-24069.38660971959,-25398.242521076503
9876.721784677718,6439.716391529607,-23960.22068979987,-24311.21013298156
9243.027477625308,5726.293412005117,-24367.87180517576,-25200.966024513964
5731.456664974292,3186.777613970949,-24534.1911356677,-26453.110748900268
4516.862871272907,2696.603858066065,-24397.68903227914,-26228.63217933562
6468.61719711032,4077.986368892952,-24076.15918828955,-25411.6982712386
9860.784990881086,6432.1615019037135,-23962.56762296768,-24312.864162071248
9259.50071328887,5741.023211601164,-24365.748389452507,-25190.438352875517
5738.94449936682,3195.9194774531697,-24546.97633349613,-26452.149623888687
4505.172908922781,2696.894430743984,-24422.208895946613,-26226.91109501256
6460.838790039872,4086.100052130229,-24091.62659545262,-25400.231826333027
9860.874397858906,6444.432609609677,-23967.686172447942,-24303.52113288893
9276.756260008367,5761.609168244501,-24370.241090088024,-25176.44616084649
5754.143685596429,3212.3480096278204,-24545.322304406443,-26442.448966795084
4507.631600812865,2709.947849505884,-24411.34594814133,-26223.37951938862
6446.556025332931,4084.446023040536,-24083.28939477079,-25403.42812579013
9842.545967405556,6438.643507795752,-23963.282878790247,-24305.15281023417
9274.610492540658,5770.3934038154375,-24369.369372054265,-25173.04869568929
5744.912415136388,3213.979686973058,-24546.05991197347,-26448.461586053563
4494.377016350868,2705.5669075926435,-24398.27017763498,-26230.46502238095
6421.969106432093,4077.0475956258297,-24065.25153699536,-25415.02868116244
9821.781196806574,6433.636717037763,-23949.469500716867,-24315.05463302787
9274.87871347412,5778.976473686275,-24354.84073815832,-25169.114788665152
5754.523665252169,3231.25758543701,-24547.691589318703,-26435.9893126475
4506.312847890002,2725.1470357354924,-24402.20408465911,-26211.086059938203
6427.422932079188,4087.731729475466,-24067.82198760772,-25398.39898328769
9822.98819100716,6438.777618262484,-23948.30721000519,-24303.252911955467
9278.969082709442,5785.212610389306,-24351.219755556554,-25162.23045137292
5750.969737883775,3226.384905145753,-24533.989969967603,-26436.05636788087
4498.266219886091,2718.1732914654367,-24393.03986943244,-26217.165734430044
6407.708693469607,4071.839639167743,-24069.07368529721,-25416.012157918474
9806.89493499934,6426.640621023253,-23954.520994963765,-24321.648397642184
9286.926303735532,5797.349607628537,-24356.941802137117,-25169.047733431787
5755.99888038622,3237.2478529510327,-24544.249420672582,-26451.32260934384
4480.0271964105605,2709.4784628723223,-24419.16905870069,-26250.447481924
6401.785481188951,4078.343996804237,-24082.864711626135,-25430.56314355888
9813.04166472455,6441.303365385934,-23962.612326456587,-24322.72128137604
9306.752301067389,5816.236831693272,-24368.698819720605,-25162.90100370658
5768.828781703566,3248.624890878784,-24555.76056906707,-26447.1428331307
4488.319693603479,2718.2403466988026,-24418.096174966835,-26239.02574050733
6397.628056720264,4075.930008403064,-24091.96187161945,-25425.93633245663
9800.681150040764,6431.446246081144,-23975.12930335156,-24324.95645582157
9315.000094771398,5821.087160240074,-24373.236223845037,-25158.16243388205
5782.776270243678,3253.6093298923174,-24562.600202870395,-26447.299295341887
4466.727908459653,2700.604820323565,-24440.514974655507,-26259.20936575048
6362.4911144365215,4056.953377360509,-24107.3398718047,-25446.8575652668
9780.095193397428,6431.602708292331,-23968.69200094843,-24328.353920978778
9314.88833604912,5836.912195314431,-24369.25761333199,-25150.74165472289
5772.181543371862,3261.253626496032,-24558.62159235735,-26441.353731316776
4467.21964683767,2713.4347216409114,-24428.31092218291,-26242.534964386818
6360.099477779803,4063.2118658079935,-24096.54397923279,-25430.67490228116
9774.373146816868,6428.786388490962,-23967.440303258933,-24318.183877251613
9322.063246019274,5839.639108137979,-24366.17307259716,-25142.73973020789
5778.216514374794,3260.6054259068283,-24548.116272463358,-26446.606391263773
4472.896989929318,2711.7359890623084,-24409.40134637372,-26246.84885106669
6356.612605644776,4059.479124483958,-24086.843322139182,-25435.65934129469
9771.489771782131,6431.960336203616,-23963.68521019044,-24318.94383656309
9334.960202569986,5859.286291514193,-24361.412151028177,-25133.50845974785
5797.707235539822,3284.9464756186576,-24552.76543531006,-26432.27892306792
4486.12922264686,2731.830207327629,-24427.97564601608,-26239.51747888535
6352.343422453812,4064.150639075117,-24103.76359269185,-25436.687521539632
9753.36250702888,6427.534690801464,-23972.447094016923,-24325.448194199587
9331.383923457135,5864.516599716735,-24362.73090395104,-25135.698930704468
5790.845249992043,3279.3138360159205,-24560.588545869417,-26444.930010429624
4474.483963785644,2720.833149055618,-24430.523744883987,-26246.53592664432
6335.0208205009485,4056.863970382687,-24103.62948222512,-25441.89547799772
9744.041829591017,6429.166368146703,-23973.967012639885,-24321.78250810892
9341.598670673213,5879.715785946344,-24361.21098532808,-25121.17029680852
5801.842308264054,3296.524679246507,-24549.122100963843,-26426.22160032053
4467.018481137572,2722.174253722937,-24420.01842498999,-26242.15498473108
6328.5611663533655,4055.589920948735,-24085.032830838303,-25440.487318097035
9742.03017259004,6432.519129814998,-23951.16823329547,-24326.252856999978
9350.695830666522,5884.834335426609,-24351.465624745564,-25132.86025915864
5805.820918777099,3293.1272140893,-24543.422406127745,-26443.700664484582
4466.638501481832,2721.2131287113584,-24416.97858774407,-26256.705970371484
6312.311448134357,4042.7153161424776,-24087.022136094827,-25459.620411350777
9720.840718846408,6412.514318527498,-23945.334427992635,-24340.84854612929
9359.927101126565,5891.204582596371,-24333.87480185924,-25123.8301543987
5827.077427754096,3305.1301008618,-24531.978312966625,-26437.91156267066
4463.665719469276,2710.528994861721,-24404.32750038237,-26265.44550245351
6305.404759097667,4033.126417771151,-24079.93663310249,-25464.42603640867
9723.187652014214,6410.502661526521,-23948.530727449743,-24338.68042691713
9373.494610010936,5899.586486767112,-24349.90100263369,-25120.72326191941
5827.256241709739,3306.22533634011,-24560.67795284724,-26445.935838930112
4462.771649691063,2715.066398986149,-24452.94254457266,-26275.52613920285
6295.05590141486,4029.125455513651,-24130.80920348277,-25480.787513349955
9698.958361024665,6395.571696230376,-24005.684138021963,-24361.0992266058
9363.391621517138,5897.530126277224,-24402.695823037127,-25133.55316323676
5812.302924669138,3305.84535668437,-24608.06365109249,-26458.67633326964
4446.968966361162,2717.5921461095986,-24482.446847253665,-26276.666078170078
6272.815915681829,4028.521958413358,-24153.74209329392,-25477.8147313374
9687.201343441173,6397.918629398183,-24017.99994921684,-24359.57930798284
9373.628720477667,5913.891603218509,-24398.784267757448,-25126.288846288782
5825.088122497574,3318.541147534984,-24590.226959017156,-26447.1428331307
4447.416001250267,2718.463864143356,-24462.1738150327,-26269.58057517774
6260.745973675964,4022.7328565994335,-24135.1454419071,-25473.769065590983
9676.472506102624,6393.917667140683,-23999.023318174284,-24348.15756656618
9382.502363026424,5923.301687634193,-24385.619090273274,-25108.51920944681
5836.688677869878,3326.4983685610737,-24586.38245897084,-26444.304161584874
4440.643422680309,2712.4959483737885,-24462.062056310424,-26281.784627650337
6246.262043268925,4015.692057096012,-24132.55263955029,-25486.263690741504
9655.372459336812,6384.462879236088,-23996.721088495386,-24363.602621984795
9378.747269957932,5926.3638766245695,-24384.322689094864,-25118.93512236299
5848.915082086931,3344.111543191856,-24573.32904020894,-26445.801728463382
4449.4500099957,2730.287936960213,-24450.77442536049,-26283.013973595374
6244.831531623785,4021.4588071654807,-24122.270837100845,-25490.95755707712
9664.000232696562,6397.471594509077,-23980.672535976475,-24359.176976582647
9396.5169067999,5947.441571645924,-24363.04382837341,-25109.793258880767
5846.970480319319,3346.704345548671,-24558.01809525705,-26444.930010429624
4447.661870439276,2732.9701462948497,-24432.580105373872,-26275.794360136315
6239.288298998868,4024.677458367045,-24102.690708958,-25484.60966165181
9654.321927347411,6400.9361148996495,-23964.98161136885,-24362.328572550843
9410.598505806744,5968.474563178368,-24349.76689216696,-25103.937101833475
5871.0656608421405,3369.704290593182,-24551.13375796482,-26439.69970222708
4450.813466407474,2737.373439952545,-24430.61315186181,-26281.87403462816
6237.880139098184,4032.7017346265,-24099.181485078512,-25489.929376832173
9651.930290690696,6414.034237150459,-23958.99134385483,-24363.02147662896
9423.473110613002,5993.419109990491,-24335.037092570918,-25096.11399127412
5874.5301812327125,3383.9870553001238,-24540.00258922608,-26442.87364993973
4457.4519345107,2759.903998363495,-24414.45284062062,-26280.30941251629
6236.270813497403,4048.258548767394,-24089.16790356253,-25486.4648564416
9647.99638366656,6421.566775031898,-23948.59778268311,-24356.271249803456
9441.779189321898,6012.99923813334,-24333.91950534815,-25082.7699998343
5884.253190070772,3399.2756485075533,-24544.584696839414,-26433.307103312865
4445.672565182754,2754.025489571749,-24432.60245711833,-26278.521272959864
6201.804423547319,4023.381057188637,-24107.518685760344,-25493.25978675601
9606.511545957512,6394.051777607415,-23966.926213136463,-24364.250822574
9409.391511606158,5992.033301834262,-24356.85239515929,-25083.999345779343
5871.44564049788,3386.423395445752,-24569.216319229166,-26431.92129515664
4433.826140621441,2741.553216165688,-24453.90366958424,-26284.53389221834
6188.371025129679,4013.725103583945,-24121.46617430045,-25496.5678449354
9599.358987731814,6390.229629305557,-23979.286727820247,-24365.1001888633
9424.031904224385,6010.4734910098905,-24360.38397078323,-25072.97993576288
5876.519486489236,3398.2027647736986,-24568.657525617786,-26428.389719532697
4422.449102693689,2738.1781027529364,-24455.535346929475,-26287.81959865327
6168.835600475741,4004.2703156793496,-24135.72658726294,-25508.61543519681
9577.342519443337,6375.298664009412,-23987.288652335246,-24379.98645067053
9415.806462264833,5998.582362959667,-24368.229433087046,-25090.436648182476
5871.40093700897,3389.485584436129,-24583.23086300264,-26450.85322271028
4423.946669572195,2740.0556492871824,-24457.99403881956,-26297.386145280143
6168.187399886537,4003.3315424122266,-24123.43312781252,-25511.63292069828
9574.70501359761,6372.7058616525965,-23977.587995241644,-24384.277985605957
9428.658715326634,6008.931220642474,-24358.39466552671,-25084.15580799053
5882.755623192265,3397.2192880176653,-24568.52341515105,-26441.107862127767
4419.453968936678,2736.4346666854226,-24458.70929464213,-26297.72142144697
6148.316699065769,3989.8534405056766,-24133.93844770652,-25520.886542902776
9561.383373902248,6364.8380476043285,-23980.717239465383,-24387.04960191841
9432.279697928394,6012.731017199876,-24353.320819535355,-25081.96533703391
5884.990797637796,3400.2367735191315,-24570.33390645193,-26447.858088953268
4399.806785560463,2721.414294411456,-24462.88907085527,-26316.295721089333
6128.647163945099,3979.035196189308,-24131.524459305343,-25532.59885699736
9542.31733588187,6353.438657932122,-23976.403352785517,-24396.482038078557
9433.263174684427,6015.927316656986,-24352.180880568136,-25083.686421356968
5885.259018571261,3404.5059567100952,-24570.51272040757,-26450.42853956563
4413.664867122754,2738.7592481087745,-24458.99986732005,-26305.991566895435
6128.825977900741,3983.416138102548,-24133.983151195425,-25530.49779301856
9542.138521926228,6363.11696328127,-23974.637564973546,-24390.67058452017
9446.607166124246,6037.787322734275,-24348.269325288456,-25067.72727581588
5897.753643721777,3418.833424905947,-24564.88008080484,-26440.12438537173
4396.67754133672,2726.331678191624,-24448.919230570704,-26314.64169199964
6105.177832267026,3969.580408284713,-24127.47879355893,-25537.516240777524
9518.624486759243,6346.531968895432,-23975.5092830073,-24399.991261958035
9436.884157286186,6034.345154088158,-24348.805767155383,-25069.984802005863
5890.981065151819,3418.5652039724832,-24564.47774940464,-26440.347902816287
4392.63187559031,2727.4269136699336,-24451.69084688316,-26309.925473919568
6090.850364071174,3963.344271581682,-24129.713968004464,-25536.219839599114
9501.12307085074,6337.68067809113,-23978.99615514233,-24399.767744513483
9440.549843376855,6039.128427401594,-24346.123557820745,-25062.228746679877
5886.197791838383,3411.2561835355978,-24568.61282212887,-26444.304161584874
4387.267456921036,2720.006134510772,-24455.98238181858,-26308.58436925225
6086.11179424665,3958.538646523792,-24118.001653909883,-25529.24609532906
9500.631332472722,6338.35123042479,-23957.85140488761,-24390.424715331166
9448.194139980573,6043.2858518702815,-24334.366540237254,-25053.600973320124
5898.088919888606,3417.201747560709,-24554.48651963312,-26430.490783511494
4379.444346361679,2710.283125672713,-24447.55577415893,-26311.288930331342
6054.215854908926,3934.264652045328,-24128.305808103774,-25545.65227575925
9464.488561688491,6311.1268056782255,-23974.41404752899,-24406.227398661067
9439.544014876368,6038.010840178828,-24347.24114504351,-25057.87015651109
5891.830431441121,3412.0161428470783,-24569.84216807392,-26440.68317898312
4363.060517675939,2695.352160376568,-24454.306000984438,-26324.275293859875
6040.29071811327,3923.267593773317,-24117.66637774305,-25550.10027290586
9452.798599338365,6307.997561454483,-23951.324695506657,-24402.718174781585
9443.366163178223,6049.320822873214,-24310.51722890344,-25041.486327825347
5896.591353010101,3419.1016458394106,-24531.017187955047,-26427.27213230993
4362.166447897726,2700.20248892337,-24426.96981751559,-26316.69805248953
6024.309220827726,3918.350209993149,-24097.32629028872,-25546.88162170429
9441.622727110713,6306.745863764985,-23932.482174930832,-24395.11858166678
9444.662564356631,6054.372317120114,-24300.99538576548,-25032.70209225441
5911.902297961986,3432.803265190514,-24528.69260653169,-26419.7842979174
4370.861276490841,2707.690323315898,-24418.990244745048,-26308.360851807694
6028.645459252055,3924.4298844849927,-24087.603281450665,-25536.443357043667
9426.378837392193,6294.966494437039,-23934.73970112082,-24398.158418912702
9455.838436584289,6063.447125368968,-24301.218903210032,-25024.610760761592
5920.93240272193,3443.5321025290614,-24522.47882157312,-26414.03989959239
4363.462849076134,2709.500814616777,-24419.79490754544,-26316.00514841141
6010.786415432265,3918.461968715426,-24093.6382524536,-25552.9836479406
9415.53824133137,6293.401872325168,-23936.84076509962,-24409.244884162534
9446.651869613155,6060.764916034332,-24309.57845563632,-25034.892563211037
5900.927591434431,3431.4621605231955,-24538.23680141411,-26426.51217299845
4354.924482694207,2707.5562128491656,-24436.469308909094,-26316.139258878145
5996.526002469779,3908.828366855189,-24115.72177597544,-25555.598802041863
9399.646151023646,6280.594322752277,-23959.371323510568,-24411.949445241626
9456.374878451214,6071.605512095155,-24319.748499363483,-25024.99074041733
5914.271582874248,3444.023840907078,-24547.557478851973,-26421.70654794056
4343.636851744277,2698.593163322588,-24447.13109101428,-26321.70484324752
5980.589208673145,3901.1170150181074,-24121.935560934016,-25557.655162531755
9392.962979431508,6276.794526194874,-23957.85140488761,-24410.295416151934
9451.278680715404,6060.966081734429,-24324.174144765635,-25024.163725872484
5907.096672904096,3437.005393148112,-24546.819871284948,-26418.13026882771
4343.033354643983,2700.940096490395,-24437.36337868731,-26309.88077043066
5973.973092314374,3899.552392906236,-24113.46424978545,-25550.256735117047
9386.928008428577,6272.547694748366,-23954.543346708226,-24413.715233053597
9467.617805912234,6077.5063726313565,-24319.56968540784,-25023.69433923893
5920.530071321735,3450.3717363323854,-24554.151243466287,-26424.36640553074
4335.657278973732,2692.446433597378,-24446.639352636263,-26328.09744216173
5964.98769104334,3889.874087557088,-24115.05122364178,-25561.522014322523
9370.43242102056,6260.85773239824,-23952.03995132923,-24419.481983123063
9470.25531175796,6084.569523879233,-24307.49974340197,-25014.373661801063
5919.032504443229,3453.210407878209,-24544.025903228037,-26419.694890939583
4324.816682912909,2690.904163229962,-24441.76667234501,-26325.25877061591
5942.658298332489,3879.391119407549,-24114.62654049713,-25567.288764391997
9362.050516849818,6257.482618985488,-23956.10796882009,-24421.91832326869
9473.250445514972,6087.519954147334,-24312.014795781943,-25012.67492922246
5915.255059630283,3448.6283002648715,-24541.70132180468,-26421.594789218285
4325.531938735478,2694.703959787364,-24436.58106763137,-26323.02359617038
5936.578623840645,3881.4474798974375,-24119.47686904393,-25567.288764391997
9347.365420742684,6255.158037562137,-23943.389826225022,-24415.346910398832
9485.946236365586,6099.500489175379,-24286.75732454745,-24995.464085991876
5938.165597696972,3459.714765514704,-24520.444812827685,-26412.43057399161
4330.114046348816,2691.0159219522384,-24417.53738135545,-26326.197543883038
5926.922670235953,3868.327005902172,-24094.04058385379,-25575.000116229072
9335.22842350345,6243.512778700921,-23929.68820687392,-24427.39450066024
9480.49241071849,6099.96987580894,-24286.42204838062,-25004.42713551845
5926.922670235953,3460.49707657064,-24523.641112284797,-26423.293521796888
4321.732142178076,2690.2336108963027,-24412.55294234192,-26329.72911950697
5920.88769923302,3871.1880291924513,-24074.2816417553,-25565.232403902104
9328.098217022209,6242.797522878352,-23909.07989848613,-24419.146706956235
9476.06676531634,6095.790099595797,-24276.654336053653,-25002.61664421757
5930.543652837712,3457.613701535905,-24516.64501627028,-26417.213847305044
4323.721447434598,2689.227782395814,-24413.558770842406,-26325.169363638088
5902.134585635017,3864.326043644672,-24097.10277284417,-25572.34025863889
9303.332484165729,6232.493368684455,-23938.47244244485,-24427.03687274896
9482.705233419569,6104.194355510993,-24294.312214173344,-24998.45921974888
5933.807007528188,3459.580655047972,-24530.726615277126,-26418.62200720573
4317.038275842461,2682.902238714962,-24428.914419283203,-26329.371491595688
5894.914972175953,3854.1112964285967,-24097.77332517783,-25577.50351160807
9295.777594539832,6227.307763970824,-23933.040968542216,-24431.283704195463
9491.06478584585,6119.661762674065,-24288.56781584833,-24992.156027812485
5948.447400146413,3479.6972250577483,-24525.205734396663,-26413.056422836355
4314.71369441911,2689.0266166957163,-24421.65010233523,-26333.0148259419
5886.197791838383,3854.223055150873,-24102.4895432579,-25580.833921531907
9288.446222358492,6224.938479058562,-23941.78050062424,-24430.054358250425
9485.812125898854,6120.377018496635,-24291.697060072074,-24983.192978285908
5946.189873956428,3486.380396649885,-24522.50117331757,-26400.74061164148
4330.114046348816,2710.7972157951854,-24420.532515112463,-26311.378337309165
5886.443661027392,3863.387270377549,-24106.22228458193,-25569.590994070888
9288.334463636216,6233.029810551383,-23943.34512273611,-24424.622884347784
9506.59924824229,6136.939661138018,-24301.174199721125,-24980.01903057325
5960.874970063564,3493.577658364494,-24544.517641606053,-26411.871780380225
4308.343447249347,2689.0489684401714,-24440.76084384452,-26338.15572716662
5866.170628806428,3847.673994025468,-24105.931711904017,-25582.957337255164
9262.160570879052,6215.237821964958,-23931.40929119698,-24436.536364142463
9497.815012671354,6130.323544779247,-24287.09260071428,-24982.23185327433
5956.337565939137,3488.280294928586,-24534.77228102354,-26412.341167013787
4301.526165190478,2684.7574335047525,-24440.514974655507,-26340.03327370087
5849.16095127594,3837.481598553849,-24115.76647946435,-25590.06519199195
9251.029402140308,6208.264077694903,-23946.943753593416,-24440.492622911053
9503.559410996368,6139.5548152392885,-24293.61931009523,-24977.22506251634
5955.376440927558,3494.091748486966,-24537.90152524728,-26414.64339669268
4290.506755174012,2685.0703579271267,-24430.188468717155,-26345.375340625687
5829.178491732895,3832.653621751502,-24101.81899092424,-25595.384907172316
9236.38900952208,6205.961848016006,-23924.12262250455,-24440.20205023313
9505.839288930809,6153.3458415682135,-24271.446379595563,-24964.86454783256
5958.662147362488,3506.3852079373846,-24511.34765283437,-26393.94568132707
4288.472746428579,2689.428948095912,-24417.447974377632,-26331.092575918745
5810.961820001819,3825.3446013146167,-24099.226188567423,-25596.189569972703
9214.640762167068,6194.629513577165,-23926.044872527706,-24445.9688003026
9510.287286077417,6155.670422991565,-24267.71363827153,-24962.249393731287
5965.434725932447,3507.391036437873,-24520.310702360955,-26399.913597096634
4296.072339543383,2694.972180720828,-24430.188468717155,-26333.171288153088
5813.1299392139845,3824.383476303039,-24103.40596478057,-25592.836808304408
9214.797224378255,6190.60619957521,-23926.55896265018,-24436.9163437982
9510.35434131078,6151.043611889317,-24280.27531865541,-24956.70616110637
5973.861333592097,3508.9109550608346,-24524.781051252012,-26398.684251151597
4296.429967454668,2687.10436667256,-24417.40327088872,-26336.769919010392
5805.060959465619,3814.571060487159,-24095.87342689913,-25598.670613607243
9204.24720099535,6181.911370982096,-23917.41709916796,-24447.689884625663
9513.707102979077,6155.469257291467,-24255.97897243249,-24956.348533195083
5967.602845144612,3500.864327056924,-24503.770411464026,-26397.879588351203
4283.398900437224,2675.9731979338167,-24411.144782441235,-26336.032311443367
5791.873430236988,3813.0511418641977,-24091.917168130534,-25591.227482703627
9186.499915897835,6179.340920369736,-23922.6474073705,-24442.392521189755
9522.35722808328,6174.0659086782825,-24262.46097832453,-24945.396178411986
5988.680540165966,3532.089714060988,-24510.72180398963,-26394.75034412746
4284.650598126722,2686.6349800389985,-24414.989282487542,-26350.382131383674
5787.939523212854,3812.827624419645,-24088.944386117983,-25608.97476780114
9186.186991475462,6183.587751816243,-23912.991453765804,-24452.49550968355
9524.704161251087,6179.430327347556,-24251.28510609688,-24950.537079636702
5985.484240708857,3523.0372575565884,-24504.39626030877,-26403.020489575923
4287.042234783439,2677.67193051242,-24411.725927797077,-26354.69601806355
5778.909418452909,3796.8684788785554,-24093.280624542316,-25623.45869820818
9165.824552276676,6155.625719502655,-23923.16149749297,-24479.16114081873
9527.542832796911,6166.3769085856575,-24263.019771935917,-24970.541890924203
6002.739787428354,3524.847748857469,-24512.420536568232,-26411.76002165795
4281.789574836442,2662.159819860437,-24427.93094252717,-26373.40442817264
5767.800601458622,3781.334016482117,-24111.318482317743,-25633.76285240208
9156.079191694163,6144.271033319358,-23950.341218750626,-24484.927890888204
9539.165739913671,6173.350652855713,-24290.57947284931,-24960.282440219216
6015.8155579347085,3532.872025116924,-24540.85195551538,-26403.62398667621
4289.970313307084,2673.3356920880906,-24460.519785943008,-26364.24021294597
5756.7588396977,3781.043443804198,-24141.806261754784,-25631.57238144545
9151.340621869638,6147.713201965476,-23963.55109972371,-24476.99302160657
9547.41353361768,6182.894847738129,-24303.11880148873,-24952.74990233778
6014.206232333927,3530.1004088044656,-24554.97825801113,-26408.720184412028
4293.457185442113,2673.6486165104648,-24456.317657985408,-26365.13428272418
5755.708307708301,3782.429251960427,-24136.35243610769,-25631.237105278626
9141.371743842572,6140.828864673241,-23966.12155033607,-24481.105742586344
9553.157931942696,6192.014359475895,-24302.42589741062,-24945.53028887872
6024.264517338815,3546.216016556742,-24560.499138891595,-26395.577358672304
4278.883848057252,2669.602950764054,-24470.89099537027,-26364.374323412696
5729.668525417867,3765.978368041321,-24150.00935196988,-25636.26624778107
9126.641944246525,6133.721009936454,-23973.4082190285,-24478.42353325171
9557.248301178017,6193.042539720838,-24311.09837425928,-24932.78979453919
6027.863148196119,3543.064420588544,-24565.796502327503,-26389.631794647197
4270.211371208593,2658.6952994698645,-24470.93569885918,-26362.809701300823
5709.954286808287,3750.019222500232,-24148.198860669003,-25637.92027687076
9100.42334800045,6108.999980568884,-23966.143902080526,-24483.74324843207
9549.492245852023,6185.308836139302,-24289.439533882087,-24928.40885262595
6027.282002840281,3544.9419671227897,-24537.05215895798,-26382.635698632683
4274.502906144012,2663.076241383105,-24444.80650959093,-26357.400579142643
5715.6986851333,3750.086277733598,-24130.272761615845,-25636.31095126998
9108.76054868228,6114.006771326873,-23947.435491971435,-24481.19514956417
9559.461123879091,6193.199001932026,-24278.62128956572,-24932.231000927808
6031.439427308968,3548.182970068809,-24530.86072574386,-26393.588053415784
4264.51167637249,2654.739040701275,-24421.60539884632,-26363.27908793439
5700.454795414781,3739.111571206042,-24097.438049011,-25635.796861147508
9091.840278129612,6101.087463031705,-23922.78151783723,-24483.676193198706
9562.255091936004,6196.663522322599,-24259.46584456752,-24926.196029924875
6034.4792645548905,3546.148961323376,-24513.60517902436,-26387.866006835226
4267.573865362867,2649.0840493540823,-24423.37118665829,-26362.31796292281
5703.092301260508,3737.50224560526,-24102.86952291364,-25634.20988729118
9088.17459203894,6099.880468831118,-23926.40250043899,-24482.066867597925
9564.736135570543,6199.6586560796095,-24259.667010267614,-24922.999730467767
6039.351944846148,3547.3559555239626,-24515.4380220697,-26394.862102849736
4281.230781225059,2662.137468115982,-24415.391613887743,-26370.297535693357
5697.549068635592,3738.686888061391,-24096.96866237744,-25654.08058811195
9072.975405809331,6094.046663528284,-23919.40640442448,-24500.149428862267
9561.65159483571,6202.22910669197,-24252.6262107642,-24934.13089920651
6036.177997133494,3552.116877092943,-24515.929760447714,-26399.310099996343
4253.715783800577,2643.049078351149,-24432.378939673777,-26381.495759665464
5673.7891642796,3726.21461465533,-24113.799525952283,-25652.851242166907
9048.813170053145,6083.7872128232975,-23935.16438426547,-24498.450696283664
9553.761429042986,6204.0619497373045,-24272.005173206948,-24925.70429154686
6029.695991241454,3554.508513749661,-24544.070606716945,-26398.21486451803
4247.300833141903,2649.821656921108,-24456.40706496323,-26378.299460208356
5654.812533237045,3725.275841388207,-24131.591514538708,-25651.979524133152
9032.317582645128,6084.971855279428,-23945.26737275927,-24494.47208577062
9569.765278072988,6227.218356993003,-24271.714600529027,-24907.15234364895
6061.524875345812,3581.2635518626635,-24534.61581881235,-26382.702753866048
4246.2279494080485,2648.547607487155,-24448.248678237043,-26392.09048653728
5627.54340500157,3708.2661638577183,-24128.238752870413,-25677.16994013428
9004.467309053816,6063.983567235896,-23948.91070710549,-24519.215466882644
9556.711859311088,6219.015266777906,-24271.021696450916,-24923.40206186796
6040.313069857725,3568.813630201057,-24539.33203689242,-26397.79018137338
4234.560338802378,2643.9878516182725,-24450.28268698248,-26385.13909401168
5612.366570516417,3699.63839049797,-24125.936523191514,-25663.11069287189
8989.961026902321,6056.965119476929,-23938.27127674476,-24503.926873675213
9557.248301178017,6220.959868545517,-24265.61257429273,-24906.75001224876
6048.359697861636,3578.6483977613925,-24541.05312121548,-26388.98359405799
4235.141484158216,2653.196770333859,-24455.512995185018,-26386.860178334737
5611.740721671667,3708.556736535637,-24138.78877625332,-25670.84439645343
8990.430413535883,6067.7610120488425,-23951.816433884676,-24512.979330179613
9572.782763574454,6241.344659488757,-24281.10233320026,-24907.30880586014
6060.072011956217,3586.5162118096605,-24551.91606902076,-26393.8786260937
4243.769257517964,2653.8896744119734,-24461.1232830433,-26390.905844081142
5608.25384953664,3703.147614377453,-24148.44472985801,-25678.22047212368
8981.512067498215,6060.474343356413,-23960.82418690016,-24517.67319651523
9584.293911968936,6253.101677072248,-24275.782618019894,-24896.803485966146
6079.5850848657,3606.722188797258,-24547.62453408534,-26381.004021287445
4236.169664403161,2649.5981394765545,-24467.158254046237,-26396.31496623933
5606.06337858002,3701.694750987858,-24146.567183323765,-25673.168977876783
8983.233151821274,6052.897101986063,-23958.566660710178,-24509.89478944478
9584.47272592458,6246.127932802193,-24277.81662676533,-24891.841398697063
6064.072974213716,3593.311142124074,-24547.95981025217,-26379.215881731023
4224.613812519767,2644.0325551071837,-24467.158254046237,-26389.65414639165
5587.444375448749,3689.5801054930816,-24147.461253101977,-25673.28073659906
8971.364375515506,6046.504503071846,-23951.503509462294,-24508.75485047756
9581.365833445292,6244.09392405676,-24273.592147063275,-24887.48280852828
6052.29360488577,3583.588133286016,-24549.63619108632,-26381.808684087835
4221.484568296024,2645.6195289635098,-24461.436207465675,-26380.89226256517
5585.566828914503,3695.033931140176,-24132.3961773391,-25660.853166681907
8961.77547714418,6042.727058258898,-23937.086634288626,-24507.83842895489
9590.41828994969,6255.113334073226,-24258.772940489405,-24880.26319506922
6071.739622561887,3606.699837052803,-24545.90344976228,-26366.54244262486
4217.908289183175,2647.8547034090407,-24468.275841269,-26380.1770067426
5574.927398553777,3692.463480527816,-24145.471947845454,-25660.853166681907
8952.410096217405,6040.111904157628,-23957.292611276225,-24507.19022836569
9589.434813193657,6256.767363162919,-24281.549368089363,-24877.58098573458
6067.0010527373615,3605.023456218655,-24559.2474412021,-26367.950602525547
4206.665361722156,2647.519427242211,-24474.579033205395,-26383.999155044457
5556.57661635597,3690.7200444603022,-24148.80235776929,-25666.93284117375
8946.464532192294,6048.784381006287,-23950.60943968409,-24510.02889991151
9605.304551756924,6284.617636754231,-24268.94298421657,-24872.663601954413
6084.122488990127,3625.721171584269,-24552.0948829764,-26372.08567524978
4221.976306674041,2661.3328053155906,-24469.81811163641,-26387.68719287958
5550.742811053135,3689.9600851488217,-24158.90534626309,-25684.657774526808
8931.041828518133,6040.089552413172,-23961.00300085581,-24528.312626875955
9608.433795980667,6286.517535032933,-24274.799141263866,-24881.157264847432
6089.375148937124,3630.727962342258,-24560.78971156952,-26381.42870443209
4208.051169878384,2652.615624978021,-24485.307870543944,-26405.43447797709
5532.146159666319,3679.499468743738,-24165.744980066414,-25693.866693242395
8901.67163630386,6025.091531883661,-23981.74541971033,-24539.264981659053
9593.927513829174,6284.327064076312,-24294.938063018093,-24879.480884013283
6083.4966401453785,3634.416000177384,-24563.941307537712,-26369.64933510415
4196.607076717267,2649.106401098538,-24472.61207969333,-26394.146847027165
5517.595174025914,3673.48684948526,-24149.56231708077,-25686.98235595016
8889.75815650918,6023.52690977179,-23956.376189753555,-24529.676083287726
9592.541705672946,6290.116165890237,-24278.71069654354,-24872.86476765451
6080.367395921636,3636.6511746229135,-24556.9452115232,-26370.74457058246
4184.760652155955,2649.0169941207164,-24474.95901286113,-26394.213902260533
5486.123917832842,3664.00970983621,-24152.35628513769,-25687.33998386145
8867.629929498426,6025.627973750588,-23948.329561749648,-24520.824792483425
9587.020824792484,6299.459195072555,-24259.84582422326,-24860.370142503994
6072.656044084554,3635.24301472223,-24536.18044092422,-26363.63671584567
4194.997751116485,2657.756526202741,-24453.836614350872,-26383.865044577724
5500.272572073051,3679.007730365721,-24138.67701753104,-25675.13593138885
8871.18385686682,6027.393761562558,-23939.32180873416,-24519.50603956056
9600.767147632498,6311.752654522974,-24251.5756787748,-24853.84343312305
6090.939771048996,3655.2031225208193,-24534.794632767997,-26355.14305295265
4195.064806349851,2657.935340158384,-24456.474120196595,-26383.79798934436
5491.242467313107,3667.8765616269775,-24143.63910480012,-25681.059143669507
8849.234443811709,6006.114900841106,-23955.54917520871,-24531.46422284415
9591.04413879444,6304.5553928083655,-24266.73016151549,-24854.670447667893
6088.704596603465,3656.0301370656657,-24546.79751954049,-26355.45597737503
4185.431204489613,2657.130677357993,-24465.79479763446,-26391.15171327016
5478.680786929225,3667.8989133714335,-24144.846099000704,-25687.47409432818
8837.343315761485,6007.321895041692,-23949.380093739044,-24538.929705492224
9586.75260385902,6307.729340521019,-24259.33173410079,-24857.68793316936
6080.501506388368,3652.230340508264,-24543.13183344982,-26365.13428272418
4175.417622973636,2656.013090135228,-24459.55866093143,-26394.70564063855
5466.946121090188,3670.894047128445,-24140.576915809743,-25686.22239663868
8831.040123825089,6015.279116067782,-23951.078826317647,-24530.5925048104
9595.46978419659,6327.465930875055,-24270.552309817354,-24851.34003774405
6094.940733306496,3671.7657651622017,-24552.96660101016,-26360.41806464411
4179.172716042128,2663.769145461219,-24465.973611590103,-26400.74061164148
5446.628385380314,3660.746355145736,-24146.43307285703,-25703.343832891445
8808.666027625326,6000.23639204936,-23948.68718966093,-24547.870403274348
9595.313321985404,6329.924622765139,-24265.97020220401,-24853.374046489484
6104.060245044261,3683.522782745693,-24552.072531231945,-26360.619230344204
4172.757765383454,2662.808020449641,-24474.19905354965,-26407.066155322333
5439.386420176795,3656.00778532121,-24156.469006117462,-25704.84139976995
8803.41336767833,5998.694121681943,-23957.91846012097,-24543.66827531675
9599.783670876464,6335.06552398986,-24267.51247257143,-24841.70643588381
6097.175907752026,3679.790041421657,-24548.89858351929,-26354.584259341274
4169.270893248427,2667.1219071295154,-24465.45952146763,-26396.42672496161
5427.227071193108,3654.376107975973,-24147.193032168518,-25702.47211485769
8786.940132014768,5990.848659378131,-23947.189622782425,-24552.92189752125
9597.704958642122,6334.059695489371,-24249.60872526273,-24847.98727607576
6094.0019600393725,3679.812393166113,-24543.82473752793,-26362.0720937338
4157.782096598398,2658.784706447685,-24470.578070947897,-26409.74836465697
5412.8772512528,3646.910625327901,-24152.49039560442,-25710.786963795064
8773.573788830494,5986.981807587363,-23953.51516646328,-24558.554537123982
9604.119909300794,6348.096591007304,-24248.826414206796,-24840.58884866105
6110.609306169666,3696.039759640665,-24536.403958368774,-26353.35491339623
4154.58579714129,2655.3425378015686,-24468.16408254672,-26414.88926588169
5400.717902269113,3637.277023467663,-24153.67503806055,-25720.15234472184
8766.242416649153,5984.7019296529215,-23953.336352507635,-24560.566194124964
9601.638865666257,6352.231663731535,-24254.436702065075,-24847.026151064176
6098.517012419345,3692.798756694646,-24543.64592357229,-26366.140111224668
4154.429334930102,2663.389165805479,-24468.54406220246,-26409.860123379247
5394.325303354896,3644.563692160093,-24147.05892170178,-25711.03283298407
8748.53983504055,5986.80299363172,-23943.12160529156,-24556.31936267845
9597.079109797372,6364.391012715222,-24244.356065315733,-24831.424633434373
6114.096178304694,3717.564489551126,-24542.93066774973,-26345.375340625687
4146.427410415103,2665.7584507177417,-24476.031896594992,-26413.101126325266
5375.929817668178,3636.3606019449953,-24164.09095097673,-25715.48083013068
8737.810997702003,5983.427880218969,-23963.32758227916,-24552.76543531006
9597.99553132004,6372.191771530124,-24266.66310628213,-24826.306083954107
6109.737588135909,3720.984306452788,-24567.47288316165,-26349.331599394274
4142.96289002453,2668.1053838855487,-24498.048364883467,-26414.86691413724
5370.274826320985,3640.987413047244,-24173.992773770427,-25720.822897055496
8719.817843415482,5975.157734770505,-23965.003963113304,-24570.177444240744
9593.502830684523,6371.990605830027,-24252.89443169766,-24835.04561603613
6103.836727599708,3711.082483659087,-24548.33978990791,-26363.524957123394
4144.259291202938,2660.774011704208,-24477.99885010706,-26423.27117005243
5372.018262388499,3636.2935467116295,-24161.63225908664,-25728.17662098129
8709.49133747713,5961.746688097321,-23960.108931077597,-24575.139531509823
9589.188944004649,6361.708803380586,-24256.247193365954,-24835.06796778059
6115.63844867211,3719.9784779522993,-24551.96077250967,-26360.015733243912
4156.530398908902,2674.810907222141,-24478.021201851512,-26420.343091528783
5359.34482328234,3633.454875165805,-24161.967535253472,-25733.00459778364
8697.57785768245,5962.506647408802,-23942.11577679107,-24574.42427568725
9592.765223117498,6367.095573794315,-24233.85074542174,-24833.77156660218
6114.498509704889,3707.2826871016846,-24534.66052230126,-26360.999209999947
4139.967756267519,2650.425154021401,-24457.99403881956,-26421.013643862447
5349.957090611111,3621.831968049046,-24144.22025015596,-25724.24271395716
8687.76544186657,5951.4201821589695,-23937.176041266448,-24572.636136130823
9597.928476086674,6376.21508553208,-24233.135489599168,-24825.277903709164
6125.40616099908,3733.233062414296,-24535.08520544591,-26349.10808194972
4136.838512043776,2665.2443605952694,-24466.241832523567,-26420.074870595323
5335.651974159715,3625.0059157616993,-24151.864546759676,-25728.601304125943
8671.940406792213,5946.2569291897935,-23942.94279133592,-24579.900453078804
9599.314284242902,6379.769012900474,-24232.911972154616,-24820.114650739983
6125.249698787892,3731.847254258067,-24532.89473448929,-26345.822375514792
4139.207796956039,2668.865343197029,-24459.379846975786,-26417.0350333494
5326.532462421949,3619.23916569223,-24146.164851923568,-25728.109565747927
8669.928749791236,5944.535844866735,-23949.02246582776,-24575.743028610115
9605.57277269039,6383.747623413518,-24242.05383563684,-24818.594732117028
6127.931908122529,3735.378829882006,-24542.3942258828,-26353.64548607415
4130.24474742946,2659.9469971593617,-24476.0766000839,-26431.027225378424
5314.7754448384585,3611.796034788613,-24155.01614272787,-25730.702368104743
8646.973508235635,5935.192815684416,-23943.434529713933,-24578.71581062267
9601.080072054872,6391.727196184063,-24233.49311751045,-24808.62585408996
6131.5081872353785,3746.6888125763912,-24531.0395396995,-26339.765052767405
4113.905622232631,2658.4270785364006,-24453.9707248176,-26421.483030496005
5284.600589823794,3600.3966451164065,-24125.95887493597,-25735.82091758501
8627.527490559518,5928.844920259109,-23900.5415321042,-24579.34165946742
9601.03536856596,6396.041082863937,-24181.570015140776,-24804.33431915454
6127.64133544461,3745.571225353626,-24483.29621354297,-26347.923439493592
4117.571308323301,2662.092764627071,-24399.16424741319,-26430.46843176704
5282.432470611629,3603.9505724848,-24077.47794121241,-25744.314580478025
8622.587755034894,5930.118969693061,-23867.170377632425,-24592.48448520714
9624.504700244031,6417.4317023076665,-24139.66049428708,-24803.48495286524
6151.334184567236,3762.2232749728296,-24435.955218786625,-26345.107119692224
4120.745256035955,2660.0811076260934,-24371.15751161069,-26440.079681882824
5279.102060687788,3596.641552047915,-24055.64028687957,-25756.67509516181
8619.927897444713,5919.50189107679,-23842.181127331394,-24601.78281090055
9624.839976410864,6411.7990627049285,-24123.522534790343,-24808.558798856597
6157.771486970364,3769.979330298821,-24440.82789907788,-26347.25288715993
4123.1368926926725,2666.697223984864,-24389.105962408303,-26443.92418192913
5282.499525844994,3606.85629926399,-24085.05518258276,-25757.90444110685
8614.541127030985,5928.643754559012,-23875.82050273663,-24608.264816792587
9613.060607082916,6413.229574350068,-24169.365962668177,-24823.512115897192
6143.980460641439,3766.559513397159,-24481.172797819712,-26362.675590834093
4123.449817115047,2674.7885554776853,-24410.295416151934,-26446.405225563674
5273.42471759614,3605.023456218655,-24095.3369850322,-25758.77615914061
8596.458565766641,5918.160786409472,-23885.96819471934,-24605.470848735677
9622.917726387706,6427.221766379091,-24173.34457318122,-24802.74734529821
6171.942492955029,3795.080339322131,-24488.90650140125,-26341.396730112643
4117.347790878748,2675.883790955996,-24429.60732336132,-26449.690931998604
5257.309109843864,3605.671656807858,-24123.88016270163,-25760.296077763567
8581.013510348024,5919.613649799067,-23916.947712534395,-24607.97424411467
9613.57469720539,6432.899109470739,-24196.724497881474,-24804.44607787682
6161.660690505587,3795.236801533318,-24502.831638196905,-26345.800023770335
4121.415808369614,2686.925552716917,-24431.060186750918,-26444.03594065141
5250.111848129255,3600.575459072049,-24125.06480515776,-25764.207633043246
8569.1223822978,5907.4543008153805,-23919.808735824678,-24618.233694819653
9620.839014153364,6435.380153105278,-24195.852779847715,-24807.28474942264
6156.318623580769,3780.6411124040014,-24510.90061794527,-26356.26064017542
4125.081494460284,2679.124793902015,-24435.396425175244,-26446.628743008227
5248.033135894912,3595.211040402776,-24128.305808103774,-25771.874281391418
8561.925120583192,5903.609800769067,-23916.165401478454,-24621.094718109933
9625.19760432215,6437.503568828532,-24194.377564713668,-24799.39458362992
6193.3778158876685,3808.357275528583,-24504.66448124224,-26334.35593060922
4131.1164654632175,2680.4882503137887,-24436.268143209,-26444.48297554052
5241.551130002872,3587.8126129880684,-24124.72952899093,-25766.62162144442
8555.443114691152,5896.099614632084,-23912.72323283234,-24613.49512499513
9625.823453166897,6436.833016494873,-24192.164742012592,-24789.47040909176
6182.805440760308,3803.7304644263354,-24497.95895790565,-26331.62901778567
4120.611145569223,2675.9731979338167,-24429.74143382805,-26438.85033593778
5226.530757728906,3581.8894007074123,-24121.19795336699,-25763.402970242856
8541.495626151042,5889.97523665133,-23904.92247401744,-24617.54079074154
9626.784578178474,6443.94087123166,-24183.559320397297,-24794.2536824052
6196.4623566225,3819.75666520079,-24488.37005953432,-26329.17032589559
4130.557671851834,2688.132546917504,-24416.28568366596,-26435.095242869287
5231.6046037202605,3590.941857211812,-24105.417621781544,-25751.556545681546
8546.1671407422,5896.859573943565,-23891.35496513307,-24599.9052643663
9646.588223765875,6459.542388861464,-24166.63904984463,-24767.90097569239
6209.336961428758,3828.3173833271726,-24490.426420024207,-26317.748584478926
4121.214642669516,2681.4046718364566,-24436.290494953453,-26444.125347629237
5214.304353511853,3582.381139085429,-24123.276665601334,-25765.12405456592
8527.212861444099,5887.963579650353,-23906.129468218027,-24615.842058162936
9648.823398211409,6467.566665120919,-24179.223081972967,-24770.82905421604
6217.115368499204,3838.308613098695,-24506.162048120743,-26322.30834034781
4114.173843166094,2677.940151445884,-24442.79485258995,-26453.84835646729
5202.010894061434,3574.9827116707224,-24132.06090117227,-25773.39420001438
8519.814434029393,5883.940265648397,-23922.22272422585,-24616.5126104966
9650.05274415645,6469.5559703774425,-24199.987852571947,-24764.05647564608
6223.083284268771,3839.6050142771023,-24515.66153951425,-26314.73109897746
4126.109674705229,2681.2705613697244,-24447.2204979921,-26444.527679029427
5194.187783502077,3564.5220952656387,-24133.93844770652,-25776.52344423812
8500.122547164268,5864.404840994459,-23917.64061661251,-24625.229790834164
9636.373476549805,6456.65901382673,-24188.32024196628,-24770.67259200485
6201.782071802863,3821.1871768459296,-24509.403051066765,-26324.87879096017
4118.443026357058,2675.459107811345,-24447.466367181107,-26446.00289416348
5197.31702772582,3569.3277203235293,-24131.412700583067,-25766.442807488776
8492.433547071641,5866.260035784249,-23911.47153514285,-24619.083061108955
9635.76997944951,6458.380098149789,-24182.44173317453,-24768.90680419288
6220.021095278394,3837.2804328537504,-24498.271882328023,-26315.40165131112
4118.174805423594,2673.447450810367,-24439.37503568829,-26443.946533673592
5179.435632161574,3555.782563183613,-24133.089081417213,-25772.4330750028
8475.088593374323,5853.541893189179,-23915.293683444703,-24626.83911643495
9637.803988194944,6467.656072098741,-24188.767276855386,-24765.598746013493
6223.306801713325,3843.583624790147,-24511.14648713428,-26314.35111932172
4122.332229892281,2678.364834590535,-24452.94254457266,-26440.32555107183
5182.520172896406,3562.376327797929,-24141.58274431023,-25769.594403456977
8468.204256082088,5852.334898988593,-23929.46468942937,-24629.58838100295
9641.380267307792,6474.674519857707,-24199.87609384967,-24760.837824444512
6231.979278561983,3853.95483421741,-24522.121193661835,-26312.92060767658
4120.678200802588,2683.505735815256,-24462.97847783309,-26452.149623888687
5166.561027355317,3561.884589419912,-24166.192014955523,-25788.034592632604
8459.1965030666,5859.465105469836,-23943.143957036016,-24634.952799672225
9643.123703375304,6488.063214786436,-24211.119021310693,-24757.060379631566
6236.986069319973,3870.5398286032473,-24535.219315912644,-26306.505657017908
4120.164110680117,2695.083939443105,-24469.37107674731,-26438.00096964848
5152.725297537482,3560.8787609194237,-24172.15993072509,-25771.71781918023
8432.486168442509,5848.624509409012,-23958.85723338809,-24629.07429088048
9632.86425267032,6492.533563677498,-24226.5193732404,-24747.47148126024
6230.012325049916,3876.6642065840015,-24552.67602833224,-26308.070279129777
4095.376026079181,2682.72342475932,-24496.39433579377,-26458.363408847265
5128.1607303811,3550.529903236616,-24191.13656176765,-25788.28046182161
8422.874918326726,5848.892730342475,-23961.87471888956,-24633.20936360471
9632.23840382557,6497.473299202121,-24225.960579629016,-24749.393731283395
6232.918051829106,3878.1617734625074,-24555.84997604489,-26302.34823254922
4106.306029117826,2689.943038218384,-24501.691699229683,-26446.71814998605
5118.43772154304,3547.445362501784,-24197.01507055939,-25788.39222054389
8404.345322173276,5841.91898607242,-23967.485006747844,-24645.07813991048
9633.780674192987,6504.670560916729,-24229.156879086124,-24752.455920273773
6247.424333980601,3898.904192317032,-24553.74891206609,-26302.102363360213
4109.09999717474,2702.661180813453,-24499.121248617324,-26448.729806987027
5123.019829156378,3554.9108451498564,-24200.88192235016,-25784.882996664408
8401.37254016072,5837.381581947992,-23982.125399366072,-24645.391064332853
9639.43566554018,6505.564630694942,-24245.31719032731,-24750.220745828243
6244.585662434776,3891.706930602423,-24570.57977564094,-26307.377375051663
4100.785148237365,2692.2005644083697,-24506.698489987677,-26455.70355125708
5112.939192407035,3545.70192643427,-24193.30468097981,-25789.643918233385
8392.096566211769,5829.245546966261,-23957.18085255395,-24650.2190411352
9638.251023084047,6506.7716248955285,-24211.23078003297,-24752.36651329595
6234.415618707611,3887.3706921780936,-24547.06574047396,-26314.373471066174
4103.28854361636,2703.5999540805765,-24493.39920203677,-26447.83573720881
5108.111215604689,3556.184894583809,-24191.94122456804,-25783.31837455253
8380.652473050652,5834.274689468705,-23967.46265500339,-24645.055788166024
9638.832168439883,6522.462549503154,-24221.6690446936,-24731.691149674796
6252.85580788324,3915.019800069309,-24556.05114174499,-26288.1548748201
4097.275924357882,2706.1704046929367,-24504.70918473115,-26450.13796688771
5087.257038027888,3546.573644468027,-24197.28329149285,-25793.22019734624
8359.977109429492,5826.96566903182,-23964.80279741321,-24641.188936375256
9623.275354298992,6518.349828523377,-24223.859515650216,-24724.963274593745
6241.255252510936,3914.863337858121,-24554.821795799948,-26281.382296250144
4083.842525940243,2703.9799337363165,-24503.055155641458,-26443.834774951312
5071.163782020067,3544.2937665335858,-24202.93828284005,-25787.565205999043
8343.883853421672,5825.736323086778,-23983.287690077745,-24648.095625411945
9630.316153802414,6534.376029297832,-24243.059664137327,-24730.327693263014
6249.19012179257,3924.072256573708,-24581.688592635222,-26285.80794165229
4093.1408516336505,2711.914803017951,-24522.322359361933,-26438.448004537586
5078.942189090513,3552.094525348488,-24221.0655475933,-25779.876205906417
8344.353240055232,5824.886956797476,-23996.475219306376,-24644.07231140999
9641.581433007888,6537.840549688405,-24247.574716517294,-24718.145992534875
6260.5895114647765,3926.1062653191407,-24579.118142022868,-26279.527101460357
4083.5966567512346,2695.933305732406,-24529.161993165257,-26450.450891310084
5049.035555009313,3522.9702023232226,-24226.02763486238,-25799.590444516
8308.568097182286,5790.57702905858,-23994.731783238865,-24664.83708200897
9625.599935722345,6522.261383803057,-24242.83614669277,-24725.11973680493
6253.436953239078,3920.786550138778,-24580.19102575672,-26284.1539125626
4066.89990364312,2682.5222590592216,-24531.218353655146,-26462.654943782683
5042.218272950444,3519.2598127436418,-24227.21227731851,-25802.51852303964
8303.382492468654,5793.90743898242,-24001.884341464563,-24667.87691925489
9625.734046189076,6528.3410582949,-24247.150033372647,-24730.931190363317
6259.851903897751,3926.486244974881,-24580.48159843464,-26289.2054068095
4076.064118869796,2690.188907407392,-24543.087129960917,-26464.353676361286
5034.864549024648,3509.2462312276643,-24233.694283210552,-25808.128810897924
8292.564248152286,5778.23886611925,-23992.429553559967,-24675.16358794732
9625.152900833238,6521.076741346925,-24239.95277165804,-24729.47832697372
6257.214398052025,3912.7622738793225,-24580.682764134737,-26289.0042411094
4075.7511944474218,2674.1180031440263,-24531.48657458861,-26463.32549611634
5037.882034526114,3506.474614915206,-24226.5193732404,-25806.49713355269
8296.006416798404,5780.272874864683,-23992.161332626503,-24667.85456751044
9637.602822494844,6528.318706550444,-24236.68941696756,-24715.79905936707
6272.592398237276,3925.391009496571,-24571.317383207963,-26274.00622057989
4066.0728890982737,2670.519372286722,-24521.070661672435,-26457.20111813559
5007.193089388978,3486.045120483056,-24221.08789933776,-25809.2911016096
8268.938454263027,5766.370089813482,-23994.84354196114,-24672.54843384605
9620.704903686632,6521.300258791478,-24244.71369322702,-24721.67756815881
6255.985052106983,3911.44352095646,-24572.32321170845,-26283.57276720676
4064.620025708679,2672.218104865325,-24508.777202222016,-26452.753120988986
5007.70717951145,3491.409539152329,-24197.484457192957,-25800.30570033857
8258.276672157845,5759.1281246099625,-23961.382980511546,-24669.285079155576
9627.253964812036,6530.1291978513245,-24206.805134630817,-24709.8311435975
6272.592398237276,3933.1470648225622,-24553.25717368808,-26273.29096475732
4070.275017055872,2681.069395669627,-24503.725707975114,-26455.77060649045
5005.203784132455,3493.577658364494,-24200.32312873878,-25805.044270163093
8250.408858109577,5754.993051885731,-23972.60355622811,-24680.058619983032
9623.85649965483,6529.0786658619245,-24224.306550539324,-24724.18096353781
6265.99863362296,3932.029477599797,-24562.130816236837,-26288.69131668703
4059.926159373064,2680.398843335968,-24512.867571457336,-26468.1981764076
4976.392385529564,3474.73513778867,-24221.177306315574,-25829.385319874924
8207.895840155583,5727.098074805507,-23985.411105801,-24701.29277721557
9606.80211863543,6523.96011638166,-24206.44750671953,-24717.3860332234
6273.218247082025,3942.6018527271576,-24535.979275224123,-26273.380371735144
4050.046688323818,2673.4698025548223,-24488.39241127877,-26465.203042650588
4964.300091779243,3475.7856697780694,-24189.08020127776,-25816.15308715738
8208.924020400527,5738.788037155633,-23954.8562711306,-24684.327803174
9621.509566487022,6541.394477056799,-24190.22014024498,-24704.846704583968
6274.67111047162,3947.765105696333,-24534.32524613443,-26271.21225252298
4049.264377267883,2677.381357834501,-24486.26899555552,-26463.481958327528
4956.02994633078,3474.891599999857,-24184.54279715333,-25816.28719762411
8192.696653925974,5726.94161259432,-23965.071018346676,-24689.37929742089
9617.32979027388,6537.885253177316,-24208.59327418724,-24702.27625397161
6280.124936118715,3950.8496464311656,-24552.78778705452,-26267.01012456538
4042.5588539312903,2670.00528216425,-24507.100821387867,-26468.89108048571
4945.457571203419,3463.6486725388377,-24207.92272185358,-25826.21137216227
8178.972682830416,5714.670504888357,-23976.671573718977,-24698.40940218084
9616.94981061814,6535.091285120402,-24218.919780125598,-24711.216951753733
6278.403851795656,3944.188826583484,-24560.566194124964,-26276.91194735908
4034.579281160746,2660.2152180928256,-24509.872437700327,-26476.58008057834
4934.192291997944,3457.8819224693684,-24205.240512518947,-25826.367834373457
8166.232188490891,5706.892097817909,-23975.732800451853,-24699.10230625896
9611.875964626786,6533.280793819523,-24214.404727745623,-24698.655271369847
6291.189049624092,3958.44923954597,-24555.581755111427,-26261.77981636284
4036.903862584098,2665.8478576955627,-24506.676138243216,-26474.43431311063
4923.284640703755,3449.7905909765477,-24204.949939841023,-25830.167630930857
8154.341060440667,5699.22544946974,-23966.993268369828,-24695.570730635016
9615.787519906464,6538.287584577512,-24205.2628642634,-24696.107172501943
6292.708968247052,3958.762163968344,-24560.454435402684,-26266.16075827608
4035.316888727771,2663.567979761121,-24508.978367922115,-26477.72001954556
4906.856108529104,3439.9111199273016,-24199.674928149576,-25835.844974022508
8135.811464287218,5685.322664418539,-23955.54917520871,-24702.253902227152
9609.394920992248,6533.392552541799,-24183.581672141758,-24693.22379746721
6283.365939064734,3949.508541763848,-24539.77907178153,-26268.686505399528
4022.7328565994335,2648.860531909529,-24500.84233294038,-26480.58104283584
4899.435329369942,3434.6584599803045,-24203.45237296252,-25835.97908448924
8130.3129351512125,5686.2837894301165,-23966.926213136463,-24700.711631859736
9605.729234901575,6535.515968265053,-24206.73807939745,-24694.4307916678
6293.088947902793,3964.931245438009,-24547.512775363062,-26260.10343552869
4027.806702590788,2658.1812093473923,-24498.00366139456,-26476.28950790042
4897.11074794659,3436.088971625444,-24200.479590949966,-25833.520392599155
8130.603507829132,5695.425652912338,-23961.382980511546,-24701.538646404584
9619.09557808585,6554.716116752162,-24203.519428195887,-24687.21117820873
6300.822651484329,3974.564847298247,-24553.9947812551,-26259.187014006024
4037.1497317731055,2672.553381032155,-24503.70335623066,-26469.628688052737
4895.7249397903615,3444.4261723072736,-24203.83235261826,-25833.073357710047
8113.638533787554,5683.668635328846,-23968.580242226155,-24711.68633838729
9613.529993716478,6551.899796950794,-24195.495151936437,-24695.12369574591
6305.516517819944,3978.07407117773,-24538.81794676995,-26268.28417399933
4022.330525199238,2657.4659535248225,-24494.136809603788,-26494.66264184268
4883.990273951325,3433.920852413279,-24181.279442462856,-25845.92561077185
8098.439347557944,5672.02337646763,-23937.108986033083,-24718.995358824177
9610.445452981648,6549.150532382791,-24166.460235888982,-24695.347213190464
6311.931468478617,3981.806812501766,-24513.49342030209,-26266.20546176499
4035.8309788502434,2665.020843150716,-24463.000829577548,-26485.498426616006
4883.386776851032,3428.1317505993547,-24166.77316031136,-25850.507718385183
8100.160431881003,5671.285768900606,-23931.20812549688,-24727.80194613957
9625.734046189076,6563.902683723293,-24166.728456822453,-24700.733983604197
6316.91590749215,3987.3723968711374,-24520.020129683035,-26279.460046226985
4036.7921038618215,2673.3803955770013,-24484.12322808781,-26498.194217466626
4876.34597734761,3433.540872757539,-24199.45141070502,-25857.101482999504
8088.045786386227,5669.6093880664575,-23969.541367237733,-24729.590085695992
9617.195679807148,6560.996956944104,-24205.01699507439,-24696.21893122422
6316.714741792052,3990.367530628149,-24568.63517387333,-26270.63110716714
4033.41699044907,2668.932398430395,-24525.71982451914,-26498.90947328919
4871.853276712093,3427.192977332232,-24230.92266689809,-25859.73898884523
8091.309141076701,5668.514152588147,-23999.582111785665,-24726.0361583276
9627.365723534313,6563.433297089732,-24231.95084714304,-24686.182997963788
6323.10734070627,3990.45693760597,-24587.365935726877,-26261.824519851747
4037.641470151123,2670.809944964641,-24542.75185379408,-26488.515912117477
4857.190532349412,3415.3018492820083,-24253.11794914221,-25860.2530789677
8060.955472106394,5644.463675554237,-24015.362443371112,-24735.781518910117
9612.457109982624,6556.079573163936,-24233.58252448828,-24686.4288671528
6324.023762228938,3994.770824285845,-24582.649717646804,-26262.83034835224
4016.6978855965,2649.6651947099203,-24537.499193847085,-26509.303034460907
4826.501587212275,3389.932619325235,-24234.47659426649,-25872.300669229116
8037.217919494858,5624.570622989014,-23994.24004486085,-24741.548268979583
9603.00232207803,6541.014497401059,-24221.93726562706,-24692.28502420009
6314.904250491172,3979.2140101449504,-24578.26877573357,-26268.887671099623
4012.6298681056346,2645.3960115189566,-24530.41369085475,-26505.503237903507
4829.273203524734,3394.470023449662,-24228.03929186336,-25870.26666048368
8038.73783811782,5631.522015514614,-23982.013640643792,-24743.80579516957
9607.629133180277,6557.554788297986,-24208.995605587435,-24690.74275383267
6323.509672106466,3995.1061004526737,-24565.014191271566,-26257.1977087495
4010.975839015942,2649.106401098538,-24520.780088994517,-26497.702479088603
4813.358761472555,3385.976360556646,-24212.88480912266,-25866.64567788192
8021.817567565152,5621.262564809628,-23962.03118110075,-24737.212030555253
9611.875964626786,6560.371108099354,-24184.67690762006,-24676.54939610355
6328.762332053463,3991.708635295467,-24539.48849910361,-26259.11995877265
4015.4685396514574,2642.5349882286773,-24486.20194032216,-26492.852150541803
4812.352932972066,3377.125069752344,-24188.6108146442,-25862.04121852413
8011.356951160068,5609.639657692869,-23946.429663470943,-24738.84370790049
9611.09365357085,6558.828837731939,-24165.34264866622,-24674.40362863584
6335.266689689957,4000.448167377492,-24515.773298236527,-26251.542717402303
4006.4607866359697,2634.354249758035,-24465.03483832298,-26501.43522041264
4790.85055480606,3362.4623253896625,-24164.761503310383,-25873.284145985144
7987.015901448239,5589.634846405369,-23922.20037248139,-24745.929210892824
9603.7175779006,6551.162189383768,-24138.542907064308,-24666.24524190965
6334.797303056396,4003.3315424122266,-24498.56245500594,-26241.417377164053
4007.712484325467,2645.0830870965824,-24464.2748790115,-26495.333194176343
4792.079900751102,3370.9559882826798,-24175.155064482104,-25873.88764308544
7983.43962233539,5590.327750483483,-23931.16342200797,-24750.55602199507
9603.494060456043,6552.324480095444,-24151.64102931512,-24666.379352376385
6332.092741977303,3996.223687675439,-24520.9365512057,-26246.982961533424
4012.294591938805,2644.5019417407443,-24487.766562434022,-26491.064010985378
4793.398653673966,3373.615845872861,-24202.3124339953,-25862.801177835605
7980.891523467484,5592.3617592289165,-23955.92915486445,-24744.85632715897
9608.031464580472,6562.785096500528,-24165.566166110777,-24665.08295119798
6343.290965949413,4016.139091985118,-24528.267923387044,-26240.59036261921
4006.349027913693,2649.709898198831,-24493.28744331449,-26489.63349934024
4772.052737719147,3366.552694624984,-24212.057794577813,-25864.231689480745
7966.787572716185,5590.215991761207,-23955.86209963109,-24735.37918750992
9600.923609843683,6563.165076156268,-24176.45146566051,-24659.24914589514
6337.703029835586,4016.4967198964023,-24537.72271129164,-26240.83623180821
4002.5045278673806,2648.6370144649763,-24494.136809603788,-26491.33223191884
4768.342348139567,3367.2455987030985,-24201.105439794715,-25866.623326137465
7953.935319654384,5586.125622525886,-23956.376189753555,-24745.549231237084
9599.80602262092,6567.523666325053,-24166.460235888982,-24652.34245685845
6336.138407723714,4014.9544495289865,-24534.213487412155,-26235.516516627853
4004.65029533509,2653.4426395228675,-24490.448771768664,-26489.879368529248
4775.986644743281,3376.521572652051,-24199.38435547165,-25868.411465693887
7952.884787664984,5587.958465571221,-23959.41602699948,-24752.478272018227
9600.14129878775,6573.066898949969,-24174.35040168171,-24656.812805749512
6361.217065002569,4042.827074864754,-24533.85585950087,-26225.81585953425
4012.9204407835537,2661.6680814824203,-24502.496362030077,-26490.259348184987
4753.411382843421,3367.133839980822,-24214.717652167998,-25872.39007620693
7930.1530635539375,5582.929323068777,-23974.03406787325,-24750.243097572697
9597.704958642122,6580.375919386855,-24179.98304128445,-24648.58736378996
6350.309413708379,4042.7153161424776,-24540.807252026472,-26228.073385724238
4000.805795288777,2660.170514603915,-24503.45748704165,-26495.24378719852
4754.059583432625,3373.5040871505844,-24216.572846957788,-25868.947907560814
7917.323162236591,5575.888523565355,-23976.582166741155,-24762.357743067478
9587.80313584842,6575.704404795695,-24181.905291307605,-24661.037285451566
6355.003280043993,4046.090429555229,-24533.63234205632,-26228.341606657697
3991.775690528833,2651.207465077337,-24490.538178746487,-26493.679165086647
4737.765161724707,3359.8918747773023,-24194.39991645812,-25863.918765058374
7915.155043024426,5574.05568052002,-23943.36747448057,-24746.778577182125
9591.915856828196,6578.520724597064,-24157.698352062507,-24646.62041027789
6354.668003877164,4043.430571965048,-24518.790783737997,-26222.10546995467
4013.4345309060254,2669.044157152672,-24475.629565194795,-26484.51494985997
4748.94103395236,3373.280569706031,-24184.07341051977,-25863.918765058374
7915.04328430215,5580.045948034042,-23945.04385531472,-24751.204222584274
9603.158784289217,6595.061015493991,-24155.574936339253,-24642.731206742672
6374.136373297736,4066.5646274762894,-24518.433155826708,-26215.489353595894
4013.345123928205,2671.234628109292,-24482.737419931585,-26480.35752539129
4733.674792489385,3358.818991043448,-24195.02576530287,-25860.67776211235
7896.826612571074,5566.791363572045,-23943.054550058197,-24747.02444637113
9601.214182521604,6600.380730674355,-24140.040473942816,-24629.07429088048
6372.951730841605,4068.598636221724,-24505.24562659808,-26208.3367953702
4003.845632534699,2666.4290030514007,-24472.857948882334,-26492.025135996955
4723.683562717863,3359.981281755124,-24189.21431174449,-25880.906090844404
7877.89468501743,5555.369622155384,-23946.004980326292,-24770.33731583802
9587.646673637231,6587.193201445723,-24148.221212413457,-24645.391064332853
6374.4045942312,4067.838676910243,-24502.45165854116,-26212.829496005717
4004.6279435906345,2667.591293763077,-24461.16798653221,-26489.275871428952
4710.987771867249,3351.778191540026,-24172.763427825383,-25879.2073582658
7865.981205222751,5552.9779854986655,-23925.12845100504,-24765.531690780128
9586.75260385902,6593.295227682022,-24134.631351784632,-24638.573782273983
6380.707786167596,4077.114650859196,-24498.76362070604,-26208.29209188129
4003.398597645593,2667.546590274166,-24477.3282977734,-26495.71317383208
4710.831309656061,3354.5945113413945,-24187.40382044361,-25879.22971001026
7863.991899966229,5550.295776164028,-23938.76301512277,-24773.10893215048
9595.760356874507,6600.11250974089,-24136.1959738965,-24648.386198089866
6388.5532484714095,4086.480031785969,-24493.62271948132,-26228.25219967988
4000.6493330775897,2662.4056890494453,-24444.80650959093,-26513.72867986306
4703.946972363827,3340.937595479202,-24159.285325918838,-25901.000309109728
7852.123123660461,5535.387162612339,-23911.40447990948,-24797.517037095677
9578.527161899468,6577.649006563307,-24122.80727896777,-24673.621317579906
6369.934245340139,4059.389717506137,-24488.45946651214,-26247.452348166986
3989.9204957390425,2654.314357556624,-24441.431396178174,-26526.133898035758
4685.618541910475,3337.808351255459,-24153.56327933828,-25909.69513770284
7835.73929497472,5536.415342857283,-23906.196523451392,-24801.58505458654
9577.096650254329,6585.181544444746,-24114.67124398604,-24671.18497743428
6368.861361606284,4064.351804775215,-24477.03772509548,-26244.27840045433
3979.728100267423,2649.844008665563,-24446.50524216953,-26527.07267130288
4664.205570722291,3324.620822026828,-24155.887860761628,-25917.98763489576
7816.717960443254,5521.573784538959,-23911.53859037621,-24815.018453004177
9585.590313147344,6594.144593971324,-24118.67220624354,-24669.30743090003
6385.915742625683,4082.7249387174775,-24486.939547889186,-26243.451385909488
3987.573562571236,2658.494133769767,-24440.2691054665,-26533.10764230581
4661.389250920922,3321.9609644366465,-24156.96074449548,-25925.47546928829
7810.705341184776,5514.041246657521,-23911.806811309674,-24817.790069316638
9578.124830499271,6588.891934024327,-24116.90641843157,-24672.90606175733
6377.802059388407,4073.1807438350615,-24484.30204204345,-26246.91590630006
3972.5308385528137,2644.1219620850043,-24447.89105032576,-26537.9132673637
4655.220169451257,3320.999839425068,-24161.811073042285,-25922.12270761999
7795.997893333184,5506.218136098163,-23913.46084039937,-24817.16422047189
9573.98975777504,6585.785041545038,-24118.851020199185,-24667.966326232712
6397.069263108881,4091.28565684386,-24489.398239779264,-26234.80126080528
3976.1741728990287,2649.642842965465,-24456.317657985408,-26537.77915689697
4639.5068930991765,3308.3040485744536,-24174.059829003792,-25937.56776303861
7783.749137371677,5494.125842347842,-23926.69307311691,-24831.625799134472
9586.6631968812,6590.098928224913,-24123.25431385688,-24665.64174480936
6398.097443353826,4083.686063729056,-24491.454600269157,-26237.61758060665
3974.430736831515,2642.199712061848,-24445.342951457853,-26537.93561910816
4640.311555899568,3308.259345085543,-24154.658514816587,-25925.5201727772
7780.0610995365505,5489.8790109013335,-23904.944825761897,-24821.81338331859
9588.09370852634,6597.676169595262,-24086.44099073899,-24652.67773302528
6414.525975528476,4108.004761696429,-24453.61309690632,-26223.245408921888
3982.142088668596,2655.387241290479,-24423.92998026967,-26534.9628370956
4634.500102341188,3310.6509817422607,-24133.513764561863,-25926.101318133035
7772.707375610755,5493.455290014183,-23873.652383524462,-24825.14379324243
9584.226856735571,6600.1572132298015,-24070.079513797704,-24659.2714976396
6406.926382413672,4101.902735460131,-24442.683093867672,-26223.11129845516
3971.323844352227,2645.194845818859,-24423.43824189165,-26538.650874930725
4621.871366723939,3300.995028137568,-24132.35147385019,-25933.99148392576
7760.838599304986,5486.70506318868,-23870.25491836726,-24824.1603164864
9597.302627241925,6616.876318082371,-24058.79188284777,-24638.61848576289
6426.5288623009765,4122.913375248119,-24437.36337868731,-26210.95194947147
3981.9856264574087,2659.2764448257026,-24411.03302371896,-26532.72766265007
4618.608012033465,3308.7957869524703,-24127.232924369924,-25934.52792579269
7743.225424674204,5487.08504284442,-23883.30833712916,-24838.465432937795
9573.296853696926,6606.97449528867,-24073.85695861065,-24653.996485948144
6411.12851037127,4117.727770534489,-24449.343913715355,-26224.56416184475
3973.201390886473,2656.795401191164,-24422.45476513562,-26539.99197959805
4611.969543930238,3307.611144496339,-24141.2474681434,-25932.918600191904
7731.110779179428,5481.340644519406,-23895.66885181294,-24835.760871858703
9563.551493114412,6603.912306298293,-24096.29811004378,-24662.78072151908
6401.159632344203,4109.077645430284,-24459.55866093143,-26232.856659037672
3976.062414176752,2659.768183203719,-24419.303169167422,-26532.50414520552
4608.10269213947,3308.907545674747,-24138.69936927549,-25933.209172869825
7728.093293677962,5478.747842162591,-23888.96332847635,-24840.030055049665
9576.783725831954,6617.435111693753,-24078.43906622399,-24651.11311091341
6417.990495919049,4127.316668905815,-24450.70737012713,-26222.172525188034
3971.0109199298527,2656.996566891261,-24414.721061554083,-26542.16009881021
4591.696511709275,3298.245763569565,-24129.40104358209,-25939.981751439784
7707.90966843482,5468.778964135524,-23876.82633123712,-24841.43821495035
9559.572882601367,6604.895783054327,-24070.593603920177,-24653.97413420369
6425.791254733951,4132.524625363902,-24438.92800079918,-26216.204609418462
3988.422928860537,2672.1063461430485,-24400.147724169223,-26532.99588358353
4594.803404188562,3301.196193837666,-24122.226133611934,-25945.92731546489
7703.372264310392,5467.951949590677,-23876.37929634801,-24855.13983430145
9572.313376940892,6618.463291938698,-24060.51296717083,-24649.436730079266
6437.682382784175,4148.573177882812,-24425.248733192533,-26209.58849305969
3975.3471583541823,2671.6369595094875,-24401.846456747822,-26533.86760161729
4581.772337171118,3304.057217127945,-24125.06480515776,-25928.023568156197
7692.308150805015,5470.857676369868,-23887.778686020218,-24833.50334566872
9561.361022157793,6621.793701862539,-24083.311746515246,-24640.741901486148
6422.79612097694,4144.974547025508,-24444.381826446275,-26208.58266455921
3966.764088483345,2670.608779264543,-24410.183657429658,-26536.12512780728
4570.440002732277,3297.2399350690766,-24131.21153488297,-25945.346170109056
7690.184735081761,5468.600150179881,-23881.52019757273,-24851.63061042197
9583.80217359092,6639.920966615792,-24064.08924628368,-24640.943067186246
6442.845635753351,4159.793753599376,-24449.07569278189,-26216.249312907377
3972.776707741822,2674.4085758219453,-24412.73175629756,-26549.714988436102
4577.0561190910485,3311.098016631367,-24120.035662655315,-25943.80389974164
7679.813525654498,5469.449516469183,-23871.23839512329,-24852.90465985592
9574.436792664146,6636.747018903139,-24060.848243337663,-24644.988732932656
6440.901033985739,4165.649910646666,-24441.87843106728,-26214.81880126224
3970.9885681853975,2681.4717270698225,-24418.63261683376,-26547.8150901574
4566.640206174875,3307.678199729705,-24130.652741271584,-25944.496803819755
7678.271255287083,5468.287225757507,-23881.699011528377,-24856.860918624512
9573.855647308308,6634.422437479787,-24070.660659153546,-24651.426035335782
6440.409295607722,4169.516762437434,-24445.253544480038,-26214.61763556214
3968.999262928875,2687.931381217406,-24421.225419190578,-26543.1659273107
4557.788915370574,3305.3759700508085,-24144.846099000704,-25945.837908487072
7660.9039498453085,5458.653623897269,-23888.96332847635,-24852.72584590028
9581.388185189746,6646.961766119214,-24055.260307223834,-24629.96836065869
6448.433571867177,4176.602265429767,-24432.490698396054,-26207.66624303654
3961.645539003079,2679.5047735577555,-24407.389689372743,-26554.00652337152
4542.790894841063,3293.104862344845,-24115.922941675537,-25956.70085629235
7655.94186257623,5454.026812795021,-23856.66505773843,-24855.296296512643
9584.5621329024,6644.123094573391,-24051.03582752178,-24635.332779327964
6452.859217269328,4170.6343496602,-24441.45374792263,-26214.438821606494
3972.5308385528137,2678.588352035088,-24412.955273742115,-26553.045398359944
4542.209749485225,3281.9289901171915,-24140.398101854094,-25972.458836133344
7645.950632804708,5432.546786373471,-23886.214063908348,-24878.02802062369
9579.80121133342,6629.54975718853,-24065.430350951,-24649.92846845728
6455.742592304063,4170.567294426834,-24443.487756668063,-26220.09381295369
3967.054661161264,2674.1180031440263,-24416.822125532883,-26560.555584496928
4541.248624473647,3282.510135473029,-24141.806261754784,-25965.5297953522
7647.045868283018,5433.619670107326,-23892.15962793346,-24868.752046674737
9582.75164160152,6633.394257234843,-24080.11544705813,-24642.2171166202
6456.8154760379175,4169.047375803873,-24474.579033205395,-26221.077289709723
3970.429774574015,2670.7652414757304,-24446.460538680614,-26560.510881008016
4549.652880388842,3288.008664609035,-24163.39804689861,-25960.523004594208
7648.27521422806,5442.582719633904,-23908.25288394128,-24868.59558446355
9592.653464395222,6650.962728376714,-24090.62076695213,-24636.338607828453
6481.9388368056825,4192.82963190432,-24479.16114081873,-26207.46507733644
3978.364643855649,2671.2122763648363,-24467.35941974633,-26565.607078743826
4546.367173953912,3280.476126727596,-24183.73813435294,-25964.389856384976
7630.617336108367,5421.303858912452,-23935.454956943388,-24878.609165979527
9582.885752068252,6639.988021849159,-24111.72081371794,-24639.132575885367
6481.536505405486,4191.890858637197,-24497.71308871664,-26207.442725591987
3974.542495553792,2670.72053798682,-24482.424495509207,-26567.886956678267
4528.485778389666,3270.2390277670656,-24202.80417237332,-25981.06425774864
7614.658190567278,5417.593469332871,-23936.84076509962,-24889.13683761797
9574.28033045296,6639.809207893516,-24110.20089509498,-24638.573782273983
6484.621046140319,4198.372864529236,-24488.32535604541,-26196.155094642058
3977.671739777534,2676.8896194564845,-24459.670419653707,-26547.47981399057
4526.317659177502,3273.4353272241747,-24186.755619854408,-25960.075969705103
7608.287943397516,5413.346637886362,-23931.87867783054,-24875.3234595446
9581.70110961212,6647.878187641882,-24108.41275553856,-24625.118032111888
6494.880496845305,4202.932620398119,-24491.722821202617,-26192.93644344049
3987.6182660601457,2680.5329538026995,-24453.79191086196,-26547.546869223937
4521.042647486049,3271.356614989831,-24169.54477662382,-25964.859243018534
7594.541620557502,5412.541975085971,-23909.32576767513,-24878.810331679622
9573.542722885932,6644.41366725131,-24086.61980469463,-24626.034453634555
6498.233258513601,4209.682847223621,-24470.39925699225,-26190.142475383574
3966.764088483345,2671.1452211314704,-24435.418776919694,-26556.0181803725
4500.702560031719,3265.254588753532,-24151.1492909371,-25962.489958106275
7589.825402477432,5417.9734489886105,-23893.165456433948,-24872.77536067669
9581.209371234105,6661.0880686149685,-24074.10282779966,-24615.327968040463
6497.450947457665,4216.813053704865,-24462.531442943982,-26182.85580669115
3982.812641002255,2692.4911370862887,-24437.9668757876,-26544.81995640039
4509.218574669191,3277.190420292666,-24166.41553240008,-25965.730961052297
7579.45419305017,5406.864631994323,-23908.36464266356,-24883.906529415435
9570.145257728727,6648.660498697817,-24084.496388971376,-24627.64377923534
6492.71237763314,4214.779044959431,-24473.95318436065,-26196.468019064432
3974.877771720621,2689.943038218384,-24440.20205023313,-26560.10854960782
4497.305094874513,3273.949417346647,-24161.095817219717,-25980.036077503693
7568.859466178354,5410.105634940343,-23905.905950773475,-24895.46238129883
9582.595179390331,6667.972405907203,-24075.175711533517,-24625.520363512085
6519.601526212875,4244.551568573901,-24464.744265645066,-26184.934518925493
3980.175135156529,2699.509584845255,-24446.639352636263,-26560.10854960782
4501.440167598745,3282.510135473029,-24173.79160807033,-25970.80480704365
7578.828344205421,5416.565289087926,-23926.67072137245,-24890.030907396187
9589.211295749104,6673.537990276574,-24093.034755353303,-24623.575761744472
6517.031075600515,4246.742039530521,-24470.443960481163,-26186.968527670924
3982.45501309097,2705.2092796813586,-24445.36530320231,-26551.614886714804
4489.526687804066,3278.9785598490907,-24173.34457318122,-25968.2790599202
7554.822570660422,5410.597373318359,-23908.5434566192,-24881.380782291984
9571.776935073964,6672.50981003163,-24065.206833506447,-24608.57774121496
6523.423674514732,4258.119077458272,-24443.2195357346,-26168.46128326193
3974.542495553792,2704.091692458593,-24429.42850940568,-26552.620715215293
4484.564600534988,3285.393510507764,-24159.710009063485,-25968.346115153567
7545.233672289094,5411.916126241223,-23902.217912938348,-24885.940538160867
9568.111248983294,6677.091917644968,-24068.179615519,-24611.081136593955
6511.778415653517,4252.441734366624,-24464.252527267043,-26182.4311235465
3973.223742630928,2705.812776781652,-24446.818166591904,-26559.14742459624
4479.356644076901,3281.101975572345,-24173.992773770427,-25973.3305541671
7536.561195440436,5409.010399462032,-23915.137221233515,-24891.997860908254
9565.6078536043,6683.193943881267,-24093.77236292033,-24618.233694819653
6537.929956666227,4279.263827712993,-24490.404068279757,-26176.15028335456
3982.522068324336,2714.015866996749,-24477.21653905112,-26568.33399156737
4469.477173027655,3279.6714639272054,-24210.26965502139,-25988.440333418886
7519.707980121134,5404.2941813819625,-23952.710503662885,-24902.12320114651
9561.65159483571,6690.078281173502,-24111.40788929557,-24611.01408136059
6532.923165908238,4276.335749189348,-24504.239798097587,-26177.156111855045
3980.0186729453417,2710.998381495283,-24494.44973402616,-26569.16100611222
4461.9446351462175,3274.5976179358504,-24216.93047486907,-25988.79796133017
7507.593334626357,5397.521602812005,-23958.924288621463,-24908.87342797201
9566.837199549342,6700.449490600764,-24106.937540404502,-24608.197761559222
6537.0582386324695,4285.209391738104,-24491.34284154688,-26170.294126307264
3987.215934659951,2719.827320555129,-24469.1252075583,-26555.74995943904
4463.464553769178,3277.2127720371213,-24191.44948619002,-25976.23628094629
7506.319285192405,5399.913239468723,-23927.810660339677,-24898.412811566926
9549.291080151928,6685.026786926603,-24099.80733392326,-24616.15498258531
6538.689915977707,4292.697226130632,-24476.36717276182,-26160.012323857824
3983.997283458386,2726.0858090026154,-24455.60240216284,-26549.04443610245
4456.446106010211,3286.287580285976,-24182.15116049661,-25970.24601343227
7504.955828780631,5411.558498329938,-23922.490945159312,-24890.030907396187
9568.670042594676,6710.731293050206,-24089.77140066283,-24596.798371887016
6531.313840307455,4283.354196948314,-24488.32535604541,-26173.42337053101
3977.35881535516,2715.759303064264,-24465.03483832298,-26562.343724053357
4448.243015795114,3272.764774890516,-24190.3095472228,-25983.500597894265
7498.429119399681,5400.315570868918,-23922.312131203667,-24904.045451169663
9576.537856642944,6714.866365774437,-24079.355487746656,-24603.705060923705
6561.667509277762,4312.813796140408,-24473.863777382827,-26167.678972205995
3983.997283458386,2729.840902071107,-24460.9221173432,-26570.1221311238
4446.0972483274045,3282.510135473029,-24185.414515187087,-25988.61914737453
7487.365005894305,5398.147451656753,-23918.40057592399,-24913.61199779653
9567.775972816466,6711.513604106141,-24075.19806327797,-24613.67393895077
6538.2428810886,4293.256019742014,-24489.04061186798,-26188.734315482896
3957.868094190132,2703.689361058397,-24478.04355359597,-26588.651727277247
4411.742617099598,3251.240044980055,-24200.613701416696,-26011.19440927439
7470.735308019556,5380.646035748248,-23923.943808548906,-24918.37291936552
9569.251187950516,6705.121005191923,-24071.264156253837,-24605.224979546667
6541.930918923727,4295.267676742992,-24464.02900982249,-26177.20081534396
3963.388975070593,2714.865233286051,-24455.31182948492,-26570.949145668645
4414.313067711958,3261.812420107415,-24193.93052982456,-25997.693955623385
7456.832522968355,5375.236913590064,-23926.894238817007,-24925.972512480323
9559.170551201172,6707.445586615275,-24072.895833599072,-24611.036433105044
6554.514951052064,4318.938174121163,-24464.96778308961,-26169.1765390845
3974.676606020523,2726.644602613998,-24447.30990496992,-26563.30484906493
4411.139119999304,3250.1448095017445,-24190.5107129229,-25997.403382945467
7458.732421247056,5371.884151921768,-23920.054605013684,-24913.54494256317
9559.371716901269,6702.528202835108,-24075.75685688935,-24598.742973654626
6547.787075971017,4300.967371579096,-24474.534329716484,-26165.26498380482
3973.134335653107,2718.575622865632,-24448.2710299815,-26566.076465377388
4417.174091002237,3264.069946297401,-24178.73134359495,-25989.982603786302
7440.940432660632,5366.452678019128,-23918.244113712804,-24921.055128700154
9548.486417351534,6700.337731878488,-24072.314688243237,-24606.834305147448
6561.309881366477,4321.530976477978,-24461.235041765576,-26160.36995176911
3976.956483954965,2725.571718880143,-24439.53149789948,-26570.21153810162
4399.002122760073,3247.283786211465,-24170.438846402038,-26003.14778127048
7423.640182452224,5350.9405673671445,-23903.13433446101,-24926.68776830289
9556.309527910891,6709.859575016449,-24042.296295439755,-24591.16573228428
6568.842419247916,4326.38130502478,-24442.996018290047,-26155.45256798894
3974.229571131417,2725.638774113509,-24437.095157753847,-26573.139616625263
4399.91854428274,3255.97861480458,-24170.72941907995,-26000.823199847127
7420.265069039473,5357.44492500364,-23913.036157254715,-24932.387463138995
9539.635126547231,6701.187098167789,-24070.593603920177,-24611.68463369425
6562.986262200626,4322.849729400841,-24461.54796618795,-26168.03660011728
3965.914722194043,2716.385151909012,-24438.190393232155,-26580.2251196176
4387.043939476484,3245.5627018884065,-24167.913099278583,-26006.835819105607
7406.675208410646,5347.654860932214,-23905.011880995266,-24933.393291639484
9539.925699225152,6699.398958611365,-24063.91043232804,-24606.72254642517
6562.874503478349,4320.592203210856,-24449.947410815646,-26161.08520759168
3963.254864603861,2717.100407731582,-24431.2166489621,-26572.29025033596
4373.252913147559,3243.081658253868,-24169.969459768472,-26003.214836503845
7387.162135501163,5337.171892782676,-23904.29662517269,-24933.46034687285
9524.16771938416,6691.441737585275,-24056.444949679968,-24602.989805101133
6552.279776606533,4322.134473578271,-24448.896878826246,-26157.3748180121
3958.7845157128,2726.0858090026154,-24430.188468717155,-26566.814072944413
4361.942930453173,3242.366402431298,-24170.72941907995,-26002.432525447908
7378.400251674682,5335.540215437439,-23901.525008860237,-24933.52740210621
9541.087989936828,6708.943153493781,-24046.43136816399,-24591.07632530645
6569.334157625933,4333.9808981395845,-24444.962971802117,-26149.30583826373
3952.4366202874926,2715.044047241693,-24432.66951235169,-26572.49141603606
4360.199494385659,3238.790123318449,-24154.01031422738,-26003.81833360414
7373.974606272532,5333.48385494755,-23891.064392455148,-24940.009407998252
9539.322202124858,6712.51943260663,-24034.696702324956,-24591.52336019556
6568.082459936436,4341.580491254388,-24442.325465956383,-26153.79853889925
3945.418172528526,2720.2743554442354,-24433.943561785647,-26582.057962662933
4350.05180240295,3241.6958500976384,-24160.291154419323,-26003.61716790404
7359.848303776777,5329.013506056489,-23895.66885181294,-24935.36024515155
9534.22600438905,6711.759473295149,-24036.59660060365,-24586.784790371035
6576.866695507371,4347.324889579402,-24442.79485258995,-26146.087187062167
3948.7932859412776,2714.708771074864,-24438.436262421164,-26584.091971408365
4342.653374988243,3227.010753990502,-24161.766369553374,-26015.173019787435
7347.353678626261,5308.695770346614,-23903.335500161116,-24954.64980061648
9527.45342581909,6692.268752130121,-24047.258382708835,-24605.515552224584
6565.377898857343,4324.593165468355,-24457.07761729689,-26167.85778616164
3945.507579506348,2706.9080122599617,-24448.15927125922,-26592.473875579104
4334.718505706609,3222.696867310628,-24168.98598301244,-26019.82218263414
7333.115617408231,5302.660799343682,-23898.97690999233,-24956.639105873004
9520.703198993588,6692.693435274772,-24046.43136816399,-24601.3581277559
6576.844343762916,4340.418200542713,-24449.522727671,-26154.536146466275
3939.3384980366823,2703.9799337363165,-24442.75014910104,-26593.45735233514
4314.356066507825,3207.3188671253765,-24182.285270963344,-26032.92030488495
7322.789111469879,5297.81047079688,-23905.950654262386,-24956.75086459528
9526.626411274245,6700.605952811951,-24044.978504774397,-24590.361069483886
6591.64119859233,4352.376383826302,-24447.242849736554,-26145.55074519524
3956.750506967367,2716.6310210980205,-24440.96200954461,-26582.907328952235
4320.681610188676,3208.704675281605,-24174.43980865953,-26027.712348426863
7312.775529953901,5284.086499701321,-23904.386032150516,-24966.04919028869
9514.377655312735,6687.865458472426,-24044.553821629743,-24600.82168588897
6586.790870045527,4345.670860489709,-24438.637428121263,-26147.920030107503
3946.3345940511936,2707.10917796006,-24430.1661169727,-26589.34463135536
4309.6174966833,3202.5132420674854,-24173.568090625777,-26026.281836781724
7305.4218060281055,5286.254618913486,-23903.559017605665,-24955.70033260588
9520.658495504678,6702.952885979758,-24034.76375755832,-24585.26487174808
6593.339931170933,4359.327776351903,-24433.22830596308,-26136.006550312824
3954.560036010747,2719.8943757884954,-24425.1146227258,-26572.29025033596
4307.47172921559,3205.351913613309,-24161.386389897634,-26012.87079010854
7289.663826187114,5282.231304911531,-23894.73007854582,-24956.907326806468
9502.508879006968,6698.102557432957,-24033.24383893536,-24589.735220639137
6584.466288622176,4356.019718172517,-24434.681169352672,-26140.298085248243
3946.06637311773,2709.880794272517,-24431.149593728733,-26582.59440452986
4297.23463025506,3198.10994840979,-24170.774122568862,-26025.29836002569
7284.277055773385,5279.660854299171,-23894.953595990373,-24953.50986164926
9508.655608732175,6703.6457900578735,-24034.65199883604,-24576.458284432687
6606.214535977189,4373.476430592112,-24444.56064040192,-26128.54106766475
3951.54255050928,2718.799140310185,-24437.36337868731,-26578.660497505727
4289.523278417978,3201.2391926335326,-24171.645840602618,-26022.81731639115
7263.19936075203,5269.691976272104,-23905.123639717534,-24967.479701933826
9489.29899803388,6698.191964410778,-24044.799690818752,-24591.52336019556
6585.919152011771,4367.016776444528,-24451.44497769415,-26141.86270736012
3941.1489893375615,2717.9721257653387,-24440.15734674422,-26584.762523742025
4279.755566091009,3200.948619955614,-24180.92181455157,-26028.80758390517
7260.159523506109,5276.9786449645335,-23902.50848561627,-24962.361152453563
9496.898591148683,6706.529165092607,-24030.89690576755,-24580.056915289988
6594.032835249047,4370.749517768564,-24442.1690037452,-26137.99585556935
3928.58730895368,2701.543593590688,-24439.59855313284,-26599.805247760447
4274.257036955004,3188.29753259391,-24155.64199157262,-26036.02719736424
7251.174122235075,5258.717269744548,-23873.562976546644,-24976.66626890496
9489.12018407824,6692.46991783022,-24005.88530372206,-24590.87515960636
6596.625637605863,4367.9108462227405,-24404.483962593556,-26134.531335178774
3942.534797493792,2711.7136373178528,-24400.2594828915,-26589.45639007764
4274.3464439328245,3190.331541339343,-24138.00646519738,-26033.76967117425
7241.696982586024,5252.279967341419,-23874.434694580403,-24981.80717012968
9486.97441661053,6692.089938174479,-24008.254588634325,-24598.36299399889
6602.325332441966,4371.308311379947,-24418.54320985594,-26145.997780084348
3930.822483399211,2696.1791749214144,-24423.907628525216,-26612.07635546641
4263.930531016652,3177.7251574665497,-24159.575898596755,-26044.274991068243
7242.725162830969,5251.27413884093,-23883.73302027381,-24980.913100351467
9498.463213260558,6697.879039988404,-24024.97369348689,-24593.423258474264
6614.015294792092,4378.2373521610925,-24440.447919422146,-26140.07456780369
3959.790344213289,2724.25296595728,-24439.64325662175,-26594.910215724733
4264.914007772685,3183.983645914036,-24185.50392216491,-26046.130185858037
7229.895261513622,5241.282909069409,-23913.81846831065,-24985.495207964803
9492.651759702178,6691.061757929535,-24049.8288333212,-24588.729392138648
6608.606172633908,4376.091584693383,-24474.26610878302,-26137.772338124792
3949.016803385831,2719.2461751992914,-24471.60625119284,-26590.7751430005
4251.815885521875,3178.909799922681,-24214.114155067706,-26039.134089843523
7216.573621818259,5236.7678566894365,-23941.55698317969,-24984.22115853085
9501.860678417765,6702.908182490848,-24066.547938173764,-24581.95681356869
6636.679963669773,4401.952553028173,-24479.027030352,-26124.65186412953
3955.6329197446016,2724.1412072350035,-24484.682021699195,-26596.296023880965
4262.790592049431,3185.5706197703626,-24222.07137609379,-26049.7511684598
7224.709656799991,5240.366487546741,-23944.88739310353,-24998.45921974888
9500.474870261534,6706.730330792705,-24075.75685688935,-24599.122953310365
6629.058018810513,4398.733901826608,-24491.856931669347,-26148.098844063144
3949.910873164043,2718.6203263545426,-24486.827789166902,-26616.32318691292
4250.720650043565,3177.166363855167,-24226.005283117927,-26064.726837244853
7204.034293178832,5229.74940893047,-23954.722160663863,-25013.65840597849
9493.031739357915,6703.75754878015,-24079.84722612467,-24602.051031834013
6637.976364848181,4402.377236172823,-24486.336050788886,-26145.640152173062
3944.2782335613056,2710.3948843949897,-24487.61010022284,-26629.622474863827
4240.729420272043,3168.851514917793,-24212.191905044547,-26069.73362800284
7189.885638938623,5219.422902992118,-23928.883544073527,-25012.741984455824
9478.994843839984,6695.979141709703,-24058.09897876966,-24601.425182989264
6624.78883561955,4395.761119814053,-24473.08146632689,-26141.95211433793
3942.758314938345,2709.7913872946965,-24476.478931484096,-26614.915027012237
4232.973364946051,3161.631901458729,-24216.30462602432,-26063.07280815516
7183.805964446779,5214.594926189772,-23934.96321856537,-25005.18709482993
9482.593474697287,6697.342598121477,-24050.924068799504,-24588.63998516083
6626.308754242511,4392.430709890212,-24455.244774251554,-26135.537163679262
3955.387050555593,2717.7262565763303,-24443.0183700345,-26604.633224562796
4249.580711076344,3180.1838493566333,-24173.277517947856,-26047.448938780897
7194.110118640676,5226.46370249554,-23893.47838085632,-24991.7983999012
9480.805335140863,6697.163784165834,-24021.576228329686,-24577.888796077827
6634.243623524145,4400.767910572042,-24432.22247746259,-26121.83554432816
3950.044983630775,2711.7359890623084,-24425.472250637085,-26601.101648938853
4237.622527792755,3167.823334672849,-24158.59242184072,-26044.87848816854
7175.602874231681,5211.242164521475,-23889.11979068754,-25003.510713995784
9483.532247964413,6702.774072024116,-24007.360518856112,-24583.521435680563
6644.41366725131,4410.423864176734,-24420.040776734448,-26120.44973617193
3959.745640724378,2717.3239251761347,-24427.08157623787,-26597.88299773729
4215.717818226554,3152.557093209874,-24177.814922072284,-26061.999924421303
7154.078144321221,5198.725187626504,-23898.95455824787,-25006.148219841507
9460.487599430991,6690.592371295974,-24030.2710569228,-24581.487426935128
6634.69065841325,4412.591983388899,-24434.83763156386,-26116.60523612562
3931.87301538861,2712.4288931404226,-24434.234134463568,-26604.297948395964
4203.759634942965,3160.2460933024995,-24183.44756167502,-26055.62967725154
7140.577690670216,5206.660056908137,-23899.468648370344,-25003.309548295685
9455.480808673005,6702.908182490848,-24022.76087078582,-24583.2532147471
6631.606117678419,4423.4996346830885,-24437.765710087504,-26123.288407717755
3933.124713078107,2728.3656869370566,-24443.174832245688,-26602.71097453964
4189.633332447211,3161.8107154143718,-24198.24441650444,-26064.19039537792
7123.165681739532,5199.328684726797,-23922.937980048417,-25020.743908970824
9447.00949752444,6698.460185344242,-24044.53146988529,-24593.3562032409
6620.385541961854,4414.603640389877,-24448.65100963724,-26129.65865488752
3930.263689787828,2721.0790182446267,-24445.477061924583,-26607.494247853072
4195.288323794403,3162.190695070112,-24192.902349579617,-26061.73170348784
7127.010181785844,5195.417129447118,-23916.321863689645,-25014.70893796789
9465.092058788783,6703.265810402133,-24035.322551169706,-24577.821740844454
6643.3631352619095,4424.796035861496,-24456.18354751868,-26119.22039022689
3937.103323591152,2720.9225560334394,-24453.836614350872,-26606.53312284149
4184.1795068001165,3152.3112240208657,-24207.565093942296,-26066.313811101176
7109.1958414549645,5183.011911274423,-23933.26448598677,-25017.659368235996
9456.218416240026,6701.678836545806,-24043.23506870688,-24577.21824374417
6637.439922981253,4426.584175417921,-24459.11162604232,-26120.382680938565
3924.318125762716,2717.2345181983137,-24459.759826631525,-26612.79161128898
4187.509916723957,3165.7446224385053,-24190.06367803379,-26056.14376737401
7111.028684500299,5201.429748705596,-23923.541477148712,-25015.558304257196
9456.933672062596,6719.247307687678,-24044.799690818752,-24577.10648502189
6642.357306761421,4445.180826804737,-24452.719027128107,-26114.54887563573
3916.4726634589033,2724.1188554905484,-24454.060131795424,-26609.438849620685
4164.979358313008,3161.296625291899,-24186.26388147639,-26053.886241184027
7099.562239594727,5203.93314408459,-23897.72521230283,-24998.682737193438
9461.918111076133,6729.126778736923,-24007.025242689284,-24551.75960680957
6662.004490137636,4464.068050869471,-24423.72881456957,-26088.978479978858
3935.449294501459,2740.0556492871824,-24437.9668757876,-26593.45735233514
4171.886047349697,3165.364642782765,-24186.59915764322,-26052.165156860967
7090.666245301515,5193.2713619794085,-23909.348119419592,-25009.2551123208
9459.548826163867,6726.735142080205,-24017.79878351674,-24550.68672307572
6671.839257697971,4469.767745705574,-24434.390596674755,-26080.663631041483
3944.2782335613056,2742.246120243802,-24447.62282939229,-26594.150256413253
4178.859791619753,3169.119735851257,-24191.47183793448,-26054.98147666234
7081.703195774937,5188.555143899339,-23908.990491508303,-25018.24051359183
9440.10280848775,6715.894546019381,-24016.837658505163,-24570.24449947411
6649.263995798111,4459.038908367027,-24434.45765190812,-26103.44005864144
3930.643669443568,2740.9497190653947,-24436.424605420187,-26601.7274977836
4162.744183867477,3164.24705556,-24176.786741827334,-26052.589840005618
7075.154134649531,5187.929295054591,-23897.27817741373,-25006.639958219526
9440.10280848775,6719.895508276882,-24011.36148111361,-24557.012266756567
6650.180417320778,4461.318786301468,-24424.55582911442,-26092.24183466933
3928.363791509127,2739.250986486791,-24433.965913530104,-26591.132770911787
4152.797657584865,3156.8709798897485,-24191.337727467744,-26059.42947380894
7060.625500753582,5179.748556583948,-23909.5939886086,-25022.39793806052
9445.53428239039,6731.518415393641,-24003.80659148772,-24549.412673641764
6671.0122431531245,4485.078690657459,-24415.4139656322,-26068.750151246804
3926.7768176528,2741.68732663242,-24434.01061701901,-26588.718782510616
4135.698573076556,3150.232511786522,-24186.375640198665,-26060.323543587157
7051.081305871166,5183.190725230065,-23889.611529065554,-25007.95871114239
9432.34675316176,6724.723485079227,-23989.501475036323,-24549.72559806414
6661.356289548432,4477.590856264932,-24403.50048583752,-26081.37888686405
3932.320050277716,2750.1362860365257,-24399.25365439101,-26587.48943656557
4144.415753414125,3161.967177625558,-24148.4000263691,-26050.10879637108
7051.930672160468,5187.303446209842,-23872.892424212983,-25005.56707448567
9441.82389281081,6735.362915439954,-23988.58505351365,-24543.690627061205
6683.015129925625,4496.36632160739,-24403.16520967069,-26072.32643035965
3940.813713170733,2752.3714604820566,-24410.60834057431,-26588.58467204388
4146.941500537575,3162.525971236941,-24156.379599139644,-26052.411026049976
7051.617747738093,5186.610542131727,-23880.15674116096,-25013.65840597849
9445.86955855722,6741.889624820903,-23992.675422748976,-24550.463205631164
6674.566170521519,4496.187507651747,-24410.92126499668,-26077.132055417547
3926.933279863987,2754.1148965495704,-24424.131145969768,-26592.228006390094
4133.373991653203,3164.939959638114,-24163.75567480989,-26048.186546347923
7032.395247506529,5179.3015216948415,-23883.10717142906,-25013.23372283384
9453.647965627666,6757.960529084269,-23973.810550428698,-24528.51379257605
6696.783804510093,4523.3448771649455,-24391.363488598286,-26054.445034795408
3928.877881631599,2759.0099285852825,-24409.33429114036,-26589.83636973338
4134.558634109335,3168.493887006508,-24163.10747422069,-26051.606363249583
7040.374820277074,5184.732995597482,-23878.92739521592,-25006.70701345289
9448.06002951384,6749.131590024423,-23984.584091256154,-24538.01328396956
6693.363987608432,4515.298249161035,-24404.416907360188,-26062.22344186585
