 EXG Channel 0, EXG Channel 1, EXG Channel 2, EXG Channel 3
-17915.750195473458,-4699.968361850782,11228.532937590237,-3380.6566453762825
-17877.68517466607,-4666.843076568017,11053.496426760725,-3563.158638853865
-17845.990401028444,-4625.849977236984,10787.488315998116,-3767.7441558532905
-17887.519942226405,-4645.832436780029,10745.824664333424,-3723.957088465344
-17920.44406180907,-4695.855640871006,11151.128846541507,-3371.5371336385174
-17880.076811322786,-4679.985902307738,11250.102370989604,-3367.3350056809195
-17849.29845920783,-4650.1910269488135,11075.892874704943,-3539.644603686882
-17831.95350551051,-4619.815006234051,10779.93342637222,-3751.181513211908
-17877.30519501033,-4642.926710000838,10711.045349960965,-3707.2826871016846
-17903.97082614551,-4685.93146633285,11123.859718306032,-3358.61782534335
-17864.229424503974,-4670.128783002947,11218.072321185153,-3368.676110348238
-17829.67362757607,-4637.495236098199,11042.678182444355,-3554.396755027384
-17805.82431624226,-4601.508927525154,10757.402867961271,-3765.956016296866
-17849.34316269674,-4626.989916204205,10721.483614621597,-3712.289477859673
-17879.76388690041,-4679.985902307738,11119.970514770808,-3372.587665627917
-17842.39177017114,-4668.564160891076,11202.850783211086,-3389.351473969397
-17823.772767039867,-4647.687631569819,11004.814327337066,-3574.245104103697
-17818.90008674861,-4620.6643725233525,10704.988027213578,-3786.7207868958462
-17879.495665966948,-4655.957777018282,10694.817983486411,-3719.933774463389
-17927.21664037903,-4711.211289311801,11097.14938368194,-3375.895723807302
-17905.602503490747,-4701.465928729288,11172.363003774048,-3397.1075292953888
-17891.409145761627,-4681.394062208422,10991.805612064078,-3579.386005328418
-17893.711375440525,-4656.740088074218,10699.087166677376,-3793.5380689547146
-17960.498387872984,-4691.78762338014,10689.967654939612,-3719.754960507746
-18006.095946561807,-4749.097496163547,11096.970569726298,-3385.775194856548
-17973.529454890428,-4737.385182068966,11152.469951208825,-3424.3096022974973
-17937.029056194908,-4698.649608927919,10992.006777764176,-3603.3470753845063
-17918.298294341363,-4662.5738933770535,10717.46030061964,-3812.7829209307342
-17972.858902556767,-4698.604905439009,10706.798518514455,-3732.830731014101
-17994.13776327822,-4740.134446636969,11111.566258855612,-3393.799471116003
-17943.242841153486,-4715.279306802668,11169.189056061394,-3425.427189520263
-17897.287654553373,-4674.532076660643,10992.878495797931,-3601.469528850261
-17866.665764649602,-4634.433047107822,10729.194966458675,-3804.9374586269214
-17912.196268105065,-4662.730355588241,10727.40682690225,-3708.2661638577183
-17932.22343113702,-4701.711797918296,11129.559413142137,-3370.9559882826798
-17874.26535776441,-4673.347434204511,11187.45043128138,-3407.501090467106
-17827.281990919353,-4633.896605240894,10995.404242921382,-3588.7513862551914
-17801.130449906643,-4597.172689100825,10712.69937905066,-3795.236801533318
-17845.23044171696,-4627.839282493506,10738.40388517426,-3690.407120037928
-17853.187662743054,-4664.518495144665,11144.691544138375,-3358.2154939431543
-17810.13820292213,-4646.234768180224,11180.074355611128,-3410.2280032906538
-17786.75827822188,-4621.692552768297,10987.759946317668,-3598.541450326616
-17787.071202644256,-4596.882116422906,10697.343730609862,-3803.9986853597984
-17866.911633838612,-4642.256157667179,10724.0317134895,-3687.680207214381
-17910.095204126264,-4690.938257090838,11117.064787991618,-3361.9482352671907
-17887.430535248583,-4675.359091205489,11152.49230295328,-3420.129826084355
-17879.808590389322,-4656.673032840852,10968.69390829729,-3608.733845798236
-17880.926177612087,-4634.991840719204,10669.001718640531,-3818.773188444756
-17950.596565079282,-4679.270646485168,10704.988027213578,-3696.73266371878
-17973.015364767954,-4717.335667292556,11102.692616306857,-3371.961816783168
-17937.051407939365,-4701.175356051369,11137.293116723671,-3442.30275658402
-17919.997026919966,-4677.706024373296,10939.949564927763,-3627.7551803297024
-17909.871686681712,-4651.934463016327,10649.421590497685,-3835.5369967862366
-17963.44881814108,-4686.311445988589,10706.30678013644,-3700.063073642621
-17973.216530468053,-4714.139367835447,11114.20376470134,-3373.5934941284054
-17926.41197757864,-4687.8760681004605,11135.616735889524,-3440.715782727693
-17896.34888128625,-4656.382460162933,10916.904916394344,-3625.721171584269
-17874.91355835361,-4621.178462645825,10632.791892622936,-3824.763455958778
-17915.25845709544,-4650.101619970992,10734.738199083591,-3669.038852338654
-17923.081567654797,-4681.617579652975,11141.294078981173,-3354.125124707833
-17880.881474123176,-4660.53988463162,11146.434980205891,-3434.30083206902
-17842.52588063787,-4624.553576058576,10950.611347032947,-3614.4335406343394
-17830.522993865372,-4596.591543744987,10656.574148723384,-3818.28145006674
-17888.01168060442,-4635.4612273527655,10737.46511190714,-3663.272102269185
-17892.10204983974,-4661.031623009637,11144.244509249273,-3344.268005403043
-17856.33925871125,-4643.06082046757,11147.507863939749,-3426.8577011654024
-17836.602668357216,-4616.126968398925,10958.25564363666,-3603.280020151141
-17837.407331157607,-4597.262096078646,10668.174704095689,-3799.461281235371
-17914.11851812822,-4650.772172304652,10751.949042314178,-3639.62395663547
-17931.26230612544,-4688.6360274119415,11158.6837361674,-3332.935670964202
-17901.8250586778,-4672.185143492835,11154.615718676534,-3420.129826084355
-17887.229369548484,-4650.705117071285,10949.11378015444,-3606.9457062418114
-17886.134134070177,-4632.399038362389,10668.577035495882,-3805.876231894045
-17955.46924537054,-4687.518440189176,10759.436876706706,-3642.596738648026
-17974.22235896854,-4728.064504631103,11145.8314831056,-3352.448743873685
-17932.178727648108,-4704.21519329729,11127.234831718784,-3446.996622919634
-17909.60346574825,-4676.364919705978,10918.380131528394,-3632.851378065512
-17910.721052971014,-4654.214340950768,10616.877450570755,-3832.3854008180383
-17971.22722521153,-4697.755539149706,10740.281431708509,-3648.497599184227
-17982.961891050567,-4728.913870920404,11119.456424648337,-3356.248540431088
-17939.532451573905,-4705.399835753422,11098.691654049357,-3454.998547434634
-17904.797840690357,-4672.565123148575,10898.084747562974,-3634.9747937887664
-17888.615177704713,-4640.356259388478,10606.595648121316,-3822.237708835329
-17947.64613481118,-4687.540791933631,10731.921879282225,-3635.779456589157
-17938.772492262422,-4711.524213734176,11111.789776300166,-3347.8219327714364
-17887.25172129294,-4677.817783095573,11104.547811096649,-3448.248320609131
-17866.62106116069,-4647.955852503283,10892.317997493506,-3636.3158984560846
-17866.285784993863,-4622.586622546509,10602.1029474858,-3823.087075124631
-17932.111672414743,-4669.435878924833,10744.997649788576,-3619.663848836881
-17944.293373142886,-4698.046111827625,11137.941317312876,-3336.5343018215067
-17909.60346574825,-4675.739070861229,11106.850040775544,-3441.743962972637
-17891.11857308371,-4646.279471669134,10908.053625590042,-3619.887366281434
-17895.45481150804,-4631.124988928436,10629.707351888102,-3805.540955727215
-17968.36620192125,-4687.049053555615,10774.859580380868,-3598.653209048892
-17971.786018822913,-4717.492129503743,11162.21531179134,-3323.838510970892
-17927.0825299123,-4692.189954780335,11138.187186501884,-3434.613756491394
-17894.046651607354,-4655.957777018282,10940.754227728155,-3614.9699825012663
-17897.533523742382,-4643.105523956481,10653.757828922013,-3800.332999269128
-17958.75495180547,-4691.094719302025,10805.861449940376,-3587.320874610052
-17959.805483794866,-4717.201556825824,11176.386317776003,-3323.6820487597047
-17917.20305886305,-4691.765271635684,11131.705180609844,-3445.3649455743966
-17876.142904298653,-4652.605015349986,10917.575468728002,-3630.1915204753295
-17872.67838390808,-4631.147340672892,10629.9085175882,-3812.2241273193513
-17930.189422391584,-4674.956759805294,10803.872144683855,-3586.538563554116
-17927.708378757045,-4699.007236839204,11157.521445455724,-3332.5109878195512
-17884.815381147313,-4672.833344082039,11093.796622013644,-3465.8167917510027
-17846.951526040022,-4639.372782632445,10874.05662227352,-3659.606416178515
-17838.077883491263,-4614.919974198338,10606.1039097433,-3838.33096484315
-17895.96890163051,-4661.746878832207,10785.588417719417,-3612.0642557220767
-17894.851314407744,-4686.423204710866,11139.461235935836,-3360.4059648997745
-17861.77073261389,-4664.339681189023,11077.368089838994,-3492.124794974899
-17834.032217744854,-4628.889814482905,10863.350136679428,-3676.34787277554
-17837.72025557998,-4610.203756118269,10587.194333934109,-3844.254177123807
-17918.097128641264,-4672.721585359763,10775.79835364799,-3605.917525996867
-17929.652980524657,-4700.437748484344,11147.44080870638,-3358.7966392989924
-17906.094241868763,-4676.342567961522,11080.452630573824,-3484.1899256932647
-17888.01168060442,-4649.63223333743,10864.57948262447,-3665.999015092733
-17900.796878432855,-4637.674050053841,10600.046586995912,-3829.7255432278566
-17973.574158379335,-4693.575762936564,10807.873106941355,-3580.436537317817
-17975.049373513386,-4719.190862082346,11157.007355333251,-3345.3408891368977
-17946.863823755244,-4703.969324108282,11083.693633519844,-3487.967370506212
-17916.845430951766,-4671.469887670265,10874.369546695894,-3670.826991895079
-17913.49266928347,-4645.005422235182,10609.903706300702,-3825.970450159365
-17970.60137636678,-4692.815803625083,10832.57178456447,-3563.739784209703
-17956.40801863766,-4708.529079977165,11178.085050354606,-3334.924976220724
-17903.83671567878,-4671.894570814917,11107.118261709007,-3472.052928454033
-17862.597747158736,-4630.029753450126,10890.01576781461,-3651.425677707872
-17858.686191879056,-4613.780035231118,10619.71612211658,-3809.117234840064
-17909.02232039241,-4661.992748021215,10878.72813686468,-3542.2597577881525
-17896.773564430903,-4679.337701718534,11202.6943209999,-3321.3127638474425
-17843.82228181628,-4647.687631569819,11128.240660219271,-3463.0004719496337
-17800.795173739814,-4609.15322412887,10909.059454090531,-3651.0680497965873
-17793.732022491935,-4584.2757325501125,10653.646070199737,-3796.600257945092
-17844.157557983108,-4631.907299984372,10895.179020783786,-3521.025600555611
-17837.34027592424,-4655.3989834069,11210.65154202599,-3313.333191076898
-17814.116813435176,-4636.154131430881,11128.39712243046,-3463.2910446275528
-17810.585237811236,-4613.802386975573,10895.380186483882,-3658.0641458110986
-17830.925325265565,-4606.828642705517,10637.374000236274,-3800.780034158234
-17901.288616810874,-4664.339681189023,10882.304415977527,-3519.6844958882925
-17910.363425059728,-4689.172469278868,11182.197771334384,-3318.809368468448
-17891.67736669509,-4677.460155184288,11069.43322055736,-3474.9810069776786
-17866.665764649602,-4640.982108233226,10861.137313978352,-3665.462573225805
-17888.659881193624,-4635.416523863855,10604.539287631427,-3810.9947813743097
-17953.79286453639,-4691.429995468855,10866.38997392535,-3527.6864204032927
-17950.26128891245,-4712.93237363486,11164.159913558951,-3339.8870634898026
-17911.123384371207,-4681.505820930698,11061.833627442556,-3493.398844408852
-17879.58507294477,-4639.529244843632,10834.650496798811,-3682.405195522928
-17890.425669005595,-4623.413637091356,10584.57917983284,-3820.114293112075
-17948.36139063375,-4677.1919342508245,10864.24420645764,-3532.536748950094
-17934.145681160175,-4689.619504167975,11159.35428850106,-3350.61590082835
-17896.505343497436,-4660.897512542905,11049.09313310303,-3507.6816091157925
-17863.760037870412,-4625.112369669959,10815.517403545073,-3703.728759733291
-17874.310061253316,-4611.589564274498,10576.28668263992,-3832.9218426849657
-17927.88719271269,-4662.4621346547765,10861.00320351162,-3535.6883449182924
-17907.10007036925,-4675.3143877165785,11147.01612556173,-3360.897703277791
-17870.130285040177,-4649.4310676373325,11033.491615473224,-3525.69711514677
-17829.070130475775,-4606.850994449973,10828.079083928951,-3711.328352848095
-17835.887412534645,-4593.842279176984,10597.789060805924,-3829.23380484984
-17892.236160306475,-4652.649718838897,10888.54055268056,-3526.680591902804
-17877.461657221516,-4671.469887670265,11178.06269861015,-3361.4117934002634
-17843.9116887941,-4648.15701820338,11073.188313625851,-3520.243289499675
-17821.917572250077,-4614.450587564777,10841.691296302237,-3705.9415824343664
-17853.768808098892,-4618.742122500196,10614.351703447308,-3824.629345492047
-17925.741425244978,-4685.842059355028,10909.35002676845,-3518.8798330879017
-17917.761852474436,-4701.68944617384,11182.063660867652,-3356.76263055356
-17877.819285132802,-4666.731317845741,11076.675185760878,-3504.194736980765
-17858.0156395454,-4634.745971530196,10834.09170318743,-3694.832765440079
-17892.638491706668,-4639.126913443436,10583.014557720966,-3812.46999650836
-17947.46732085554,-4691.11707104648,10897.190677784763,-3498.807966567036
-17927.864840968232,-4699.431919983855,11179.649672466478,-3344.558578080961
-17896.035956863878,-4668.519457402165,11066.169865866885,-3505.2899724590748
-17876.34406999875,-4634.455398852277,10820.300676858507,-3701.381826565484
-17896.795916175357,-4631.326154628534,10600.851249796302,-3806.4797289943376
-17957.637364582704,-4693.6875216588405,10900.051701075045,-3494.248210698153
-17937.006704450454,-4697.420262982877,11151.464122708336,-3358.193142198699
-17897.64528246466,-4659.82462880905,11015.9007925869,-3527.7534756366585
-17854.394656943638,-4613.891793953395,10783.04031885151,-3716.201033139352
-17867.11279953871,-4605.15226187137,10579.795906519405,-3811.911202896977
-17908.59763724776,-4648.022907736648,10903.315055765515,-3487.8556117839357
-17874.26535776441,-4642.122047200447,11158.594329189578,-3349.408906627764
-17839.28487769185,-4614.0929596534925,11033.312801517584,-3514.275373730108
-17815.14499368012,-4583.00168311616,10789.209400321177,-3711.551870292648
-17841.676514348568,-4586.063872106537,10601.566505618872,-3796.264981778262
-17910.899866926655,-4655.086058984525,10925.420931031817,-3471.0470999535446
-17899.142849343163,-4673.101565015503,11161.20948329085,-3345.653813559272
-17866.10697103822,-4649.386364148422,11061.565406509091,-3510.0285422836
-17840.067188747787,-4615.858747465461,10819.42895882475,-3703.2593730997296
-17871.806665874323,-4622.363105101956,10632.926003089668,-3784.731481639324
-17934.391550349184,-4687.138460533436,10965.7881815181,-3456.1161346573995
-17922.522774043417,-4701.3765217514665,11197.240495352806,-3344.75974378106
-17890.44802075005,-4679.918847074371,11060.783095453156,-3526.166501780332
-17858.239156989952,-4639.797465777096,10809.415377308773,-3720.090236674576
-17883.25075903544,-4637.718753542752,10630.444959455128,-3791.794632887201
-17931.821099736822,-4688.54662043412,10983.334300915516,-3458.1724951472875
-17900.998044132954,-4685.417376210377,11209.489251314311,-3348.3807263828194
-17871.002003073932,-4659.4670008977655,11059.978432652764,-3528.1334552923986
-17834.903935778613,-4616.931631199316,10803.447461539205,-3723.241832642774
-17854.48406392146,-4613.556517786565,10625.48287218605,-3790.542935197704
-17910.274018081906,-4672.095736515014,10946.051591164063,-3466.576751062483
-17878.668651422104,-4668.586512635531,11155.889768110486,-3368.6537586037825
-17831.014732243388,-4627.906337726872,11036.732618419244,-3540.6504321873704
-17797.554170793792,-4580.520639481621,10779.441687994204,-3739.469199117327
-17822.364607139185,-4578.352520269456,10598.928999773145,-3797.94136261241
-17865.43641870456,-4630.923823228339,10955.282861624106,-3463.3133963720084
-17838.43551140255,-4635.550634330587,11157.879073367008,-3376.6556831187827
-17807.165420909576,-4609.376741573423,11004.70256861479,-3549.0993915914764
-17786.780629966335,-4577.0561190910485,10746.22699573362,-3743.604271841559
-17832.847575288724,-4594.62459023292,10593.206953192586,-3795.952057355888
-17903.25557032294,-4662.484486399232,10965.922291984833,-3456.049079424033
-17895.41010801913,-4677.169582506369,11157.499093711269,-3377.303883707986
-17872.72308739699,-4656.248349696201,11014.380873963935,-3549.546426480583
-17857.412142445104,-4630.119160427948,10761.336774985406,-3746.621757343026
-17900.863933666224,-4645.273643168645,10597.47613638355,-3788.6430369190025
-17953.681105814114,-4701.108300818003,10980.920312514343,-3439.6205472493825
-17924.512079299937,-4698.135518805447,11183.628282979524,-3357.8131625429587
-17891.520904483903,-4667.714794601774,11022.38279847894,-3529.832187871002
-17866.8669303497,-4630.476788339232,10772.93733035771,-3728.628603056503
-17901.266265066417,-4640.825646022039,10634.803549623914,-3763.832600573612
-17940.337114374295,-4691.385291979944,11010.89400182891,-3420.0180673620785
-17896.371233030706,-4679.829440096551,11193.08307088412,-3351.6664328177494
-17855.28872672185,-4648.738163559218,11034.743313162722,-3529.1392837928875
-17823.772767039867,-4609.063817151048,10764.309556997963,-3735.110608948542
-17852.472406920482,-4617.57983178852,10625.684037886149,-3764.9278360519215
-17886.290596281364,-4656.605977607486,11021.89106010092,-3414.027799848056
-17848.650258618625,-4645.854788524483,11190.713785971857,-3357.5002381205845
-17807.970083709966,-4607.3874363169,11030.742350905222,-3530.41333322684
-17775.358888549672,-4558.3253572375015,10761.493237196592,-3729.477969345805
-17808.148897665607,-4566.304930008046,10637.239889769542,-3753.729612079813
-17840.693037592537,-4613.400055575377,11012.726844874243,-3411.412645746785
-17803.924417963557,-4608.795596217585,11154.101628554065,-3372.699424350193
-17764.875920400133,-4579.5148109811325,11017.42071120986,-3549.769943925136
-17737.51738518684,-4545.13782800887,10751.144379513786,-3752.2543969457615
-17786.28889158832,-4577.436098746789,10619.33614246084,-3768.034728531209
-17850.840729575244,-4652.046221738604,11003.786147092122,-3427.282384310053
-17833.831052044756,-4655.667204340363,11156.895596610975,-3386.8480785904026
-17809.132374421642,-4635.975317475238,11003.450870925291,-3561.7281272087253
-17794.581388781236,-4608.952058428772,10727.920917024723,-3766.64892037498
-17853.210014487508,-4641.049163466592,10619.067921527378,-3773.846182089589
-17910.40812854864,-4701.108300818003,11008.211792494272,-3426.030686620556
-17881.30615726783,-4693.240486769734,11158.437866978393,-3388.233886746632
-17852.941793554044,-4667.915960301872,11000.500440657192,-3562.242217331197
-17838.167290469086,-4635.125951185936,10719.181384942698,-3768.727632609324
-17881.976709601488,-4646.413582135866,10631.361380977796,-3755.4059929139607
-17922.902753699156,-4692.949914091815,11037.716095175278,-3401.399064230808
-17898.24877956495,-4688.099585545014,11160.87420712402,-3379.583761642428
-17863.760037870412,-4652.090925227514,10995.001911521187,-3557.3248335510298
-17833.272258433375,-4607.990933417193,10737.55451888496,-3761.619777872536
-17880.993232845456,-4627.168730159847,10651.455599243118,-3742.866664274533
-17918.54416353037,-4672.654530126397,11060.42546754187,-3392.4136629597742
-17880.121514811697,-4657.634157852431,11181.951902145374,-3376.365110440864
-17842.682342849057,-4622.094884168492,11014.067949541564,-3553.390926526896
-17821.24701991642,-4584.409843016844,10729.709056581149,-3760.502190649771
-17871.9184245966,-4607.856822950462,10653.310794032908,-3733.16600718093
-17912.39743380516,-4658.036489252626,11055.306918061606,-3380.9248663097464
-17884.435401491573,-4651.040393238115,11159.644861178978,-3371.1348022383218
-17850.885433064155,-4615.255250365169,11002.51209765817,-3542.8856066329013
-17818.609514070693,-4572.295197522068,10726.222184446118,-3740.363268895539
-17860.474331435482,-4594.579886744009,10669.180532596176,-3696.0621113851207
-17908.038843636376,-4651.554483360587,11050.970679637276,-3357.1873136982103
-17869.01269781741,-4641.049163466592,11169.122000828029,-3361.255331189076
-17832.266429932886,-4611.947192185783,11014.246763497204,-3545.2325398007083
-17814.25092390191,-4585.303912795057,10721.103634965852,-3762.826772073123
-17865.14584602664,-4613.1541863863695,10664.151390093732,-3716.804530239645
-17894.40427951864,-4658.572931119554,11066.594549011535,-3366.99972951409
-17856.987459300453,-4647.3747071474445,11170.820733406632,-3381.349549454397
-17837.85436604671,-4628.845110993995,10986.843524795,-3572.903999436379
-17827.281990919353,-4603.5876397594975,10695.041500930964,-3789.268885763751
-17887.519942226405,-4638.612823320964,10641.665535171693,-3740.3856206399946
-17926.45668106755,-4684.612713409986,11051.104790104007,-3396.2134595171765
-17889.911578883122,-4669.033547524637,11137.6283928905,-3413.8266341479584
-17864.788218115358,-4646.637099580419,10953.047687178576,-3595.3004473805963
-17846.951526040022,-4615.545823043087,10671.885093675268,-3798.075473079142
-17896.840619664268,-4641.719715800252,10638.245718270033,-3728.8744722455112
-17924.802651977858,-4688.814841367584,11038.721923675766,-3390.781985614537
-17875.785276387367,-4666.932483545838,11140.601174903057,-3408.372808500864
-17849.857252819213,-4640.713887299763,10952.466541822738,-3591.701816523292
-17823.638656573137,-4606.850994449973,10663.123209848787,-3797.270810278751
-17869.77265712889,-4636.48940759771,10647.521692218985,-3721.878376231
-17902.8755906672,-4685.864411099483,11055.016345383689,-3384.0988140224
-17873.036011819364,-4675.426146438855,11114.226116445794,-3414.787759159537
-17852.472406920482,-4650.079268226536,10936.730913726202,-3596.3286276255403
-17838.614325358194,-4616.730465499219,10659.05519235792,-3799.416577746461
-17902.562666244827,-4650.749820560196,10637.619869425282,-3715.016390683221
-17936.51496607244,-4695.498012959721,11052.781170938157,-3379.449651175696
-17903.41203253413,-4678.577742407053,11111.320389666604,-3418.1181690833773
-17879.808590389322,-4649.900454270894,10932.618192746424,-3595.56866831406
-17869.616194917704,-4620.709076012263,10640.994982838034,-3806.747949927801
-17920.712282742534,-4650.816875793562,10641.15144504922,-3708.757902235735
-17942.795806264377,-4692.2793617581565,11068.04741240113,-3376.722738352149
-17888.43636374907,-4666.552503890098,11133.560375399637,-3413.424302747763
-17851.86890982019,-4634.142474429903,10950.700754010768,-3587.3879298434176
-17832.53465086635,-4599.452567035266,10660.73157319207,-3791.2805427647286
-17887.676404437592,-4632.421390106844,10671.8180384419,-3688.641332225959
-17908.910561670134,-4673.168620248869,11070.886083946954,-3362.261159689565
-17856.67453487808,-4643.507855356676,11129.58176488659,-3410.6303346908494
-17819.95061873801,-4607.812119461551,10946.722143497724,-3589.4889938222163
-17803.007996440887,-4579.067776092026,10664.039631371455,-3792.688702665413
-17865.21290126001,-4619.077398667026,10684.49147754806,-3686.3838060359726
-17889.26337829392,-4657.701213085797,11094.757747025222,-3355.801505541981
-17853.589994143247,-4642.68084081183,11126.988962529776,-3408.886898623336
-17828.488985119937,-4617.62453527743,10950.186663888297,-3589.265476377664
-17827.99724674192,-4595.33984605549,10656.372983023284,-3799.2824672797287
-17896.01360511942,-4638.0987331984925,10694.59446604186,-3682.695768200847
-17926.143756645175,-4684.16567852088,11099.67513080539,-3366.820915558448
-17891.766773672913,-4668.608864379986,11116.126014724496,-3433.4961692686284
-17862.620098903193,-4640.825646022039,10919.140090839874,-3615.439369134828
-17852.830034831768,-4616.238727121202,10636.032895568957,-3819.622554734058
-17905.35663430174,-4650.68276532683,10704.183364413186,-3680.482945499772
-17927.68602701259,-4691.3405884910335,11104.950142496842,-3360.741241066604
-17892.325567284297,-4672.743937104218,11118.450596147848,-3434.8819774248577
-17859.960241313012,-4638.702230298785,10922.425797274804,-3618.970944758767
-17850.125473752676,-4611.500157296677,10618.48677617154,-3822.416522790972
-17904.775488945903,-4651.040393238115,10684.267960103509,-3682.53930598966
-17923.662713010635,-4692.100547802514,11088.543962066648,-3372.0735755054448
-17877.68517466607,-4665.010233522682,11101.955008739831,-3449.544721787539
-17839.73191258096,-4626.744047015196,10895.648407417346,-3631.689087353837
-17821.694054805525,-4596.6585989783525,10615.469290670071,-3829.166749616474
-17878.266320021907,-4635.684744797319,10688.626550272293,-3675.565561719604
-17888.123439326697,-4664.786716078129,11085.884104476463,-3361.5682556114502
-17847.085636506752,-4635.282413397124,11098.266970904706,-3441.2298728501646
-17813.110984934687,-4598.267924579135,10920.816471674025,-3623.396590160917
-17810.272313388865,-4574.597427200964,10617.458595926597,-3823.735275713834
-17872.365459485707,-4617.333962599511,10716.387416885784,-3662.936826102356
-17890.157448072132,-4656.740088074218,11109.19697394335,-3360.875351533336
-17856.003982544422,-4638.702230298785,11104.39134888546,-3452.2045793777206
-17827.550211852817,-4605.845165949484,10908.120680823407,-3634.125427499465
-17826.14205195213,-4586.063872106537,10614.686979614136,-3833.4135810629823
-17895.946549886055,-4638.3446023875,10714.554573840447,-3669.619997694492
-17911.9280471716,-4677.549562162109,11101.91030525092,-3371.805354571981
-17868.744476883945,-4653.946120017305,11103.989017485264,-3458.0830881694665
-17839.776616069867,-4627.749875515685,10899.515259208114,-3644.697802626825
-17829.20424094251,-4604.81698570454,10609.657837111692,-3838.822703221167
-17887.83286664878,-4646.592396091509,10736.213414217642,-3650.621014907482
-17905.8260209353,-4686.087928544036,11123.43503516138,-3358.7519358100817
-17870.554968184828,-4672.051033026103,11099.563372083114,-3461.994643449145
-17840.313057936797,-4636.020020964149,10896.721291151202,-3643.043773537133
-17823.169269939575,-4600.167822857836,10629.662648399191,-3829.814950205678
-17883.518979968903,-4645.564215846564,10752.70900162566,-3644.9660235602887
-17895.83479116378,-4678.220114495768,11134.767369600222,-3358.99780499909
-17852.762979598403,-4649.922806015349,11110.24750593275,-3461.8158294935024
-17819.39182512663,-4617.065741666048,10912.032236103089,-3645.39070670494
-17822.789290283836,-4601.19600310278,10623.091235529331,-3837.9286334429535
-17891.49855273945,-4651.934463016327,10742.091923009388,-3642.86495958149
-17895.812439419322,-4670.844038825517,11128.710046852832,-3357.321424164942
-17849.678438863568,-4638.255195409679,11105.978322741788,-3458.373660847385
-17821.537592594337,-4604.4370060488,10895.424889972794,-3642.1944072478304
-17822.63282807265,-4583.158145327348,10598.638427095226,-3832.5642147736808
-17889.352785271738,-4630.521491828143,10735.095826994875,-3627.7998838186127
-17895.946549886055,-4658.751745075196,11117.712988580824,-3352.2475781735875
-17856.071037777787,-4635.081247697026,11091.203819656828,-3463.6486725388377
-17820.084729204744,-4600.011360646648,10894.15084053884,-3642.082648525554
-17816.46374660298,-4579.358348769945,10608.33908418883,-3825.881043181544
-17885.508285225427,-4637.674050053841,10760.465056951649,-3615.931107512845
-17885.1730090586,-4667.290111457123,11129.291192208671,-3345.0726682034338
-17845.610421372705,-4644.91601525736,11083.939502708854,-3462.329919615974
-17819.056548959798,-4616.10461665447,10878.214046742209,-3647.849398595023
-17811.94869422301,-4594.3116658105455,10604.852212053802,-3825.523415270259
-17873.505398452926,-4645.63127107993,10775.239560036607,-3603.481185851239
-17879.33920375576,-4672.296902215112,11137.58368940159,-3341.6975547906823
-17847.130339995663,-4650.705117071285,11082.464287574803,-3465.280349884076
-17823.325732150763,-4619.859709722961,10870.167418738296,-3649.928110829367
-17819.883563504645,-4595.563363500043,10594.704520071093,-3824.003496647298
-17878.132209555177,-4639.708058799274,10774.859580380868,-3587.2985228655966
-17875.29353800935,-4662.931521288338,11141.91992782592,-3328.42061858423
-17840.000133514422,-4641.786771033618,11080.229113129271,-3454.1044776564217
-17800.169324895065,-4602.984142659205,10879.935131065266,-3635.019497277677
-17793.48615330293,-4576.944360368772,10618.665590127182,-3801.629400447536
-17860.027296546377,-4626.565233059554,10802.463984783171,-3564.0750603765323
-17861.793084358345,-4647.821742036551,11164.11521007004,-3314.5401852774844
-17831.126490965664,-4622.698381268786,11110.76159605522,-3445.610814763405
-17819.503583848906,-4597.619723989931,10886.215971257208,-3640.026288035666
-17831.506470621403,-4583.426366260811,10606.66270335468,-3815.42042677646
-17899.50047725445,-4636.154131430881,10810.018874409065,-3570.7582319686694
-17902.137983100176,-4663.445611410811,11155.375677988017,-3333.1144849198445
-17853.43353193206,-4634.321288385545,11091.24852314574,-3463.5592655610167
-17821.470537360972,-4603.878212437417,10876.805886841525,-3652.766782375191
-17821.8058135278,-4591.785918687096,10604.695749842616,-3819.220223333863
-17878.243968277453,-4646.570044347053,10812.656380254792,-3565.639682488404
-17870.465561207006,-4670.1511347474025,11173.145314829984,-3336.243729143588
-17819.95061873801,-4639.909224499372,11099.608075572023,-3475.584504077972
-17778.488132773415,-4598.849069934973,10892.720328893702,-3657.952387088822
-17779.248092084898,-4581.19119181528,10624.320581474374,-3820.807197190189
-17838.837842802746,-4631.437913350811,10848.28506091655,-3556.7213364507365
-17832.311133421797,-4648.335832159023,11180.476687011324,-3330.387572096297
-17799.342310350217,-4622.139587657402,11092.522572579692,-3476.612684322916
-17779.09162987371,-4591.540049498088,10859.997375011131,-3667.742451160247
-17791.85447595769,-4575.424441745811,10593.072842725856,-3821.254232079296
-17851.421874931082,-4622.206642890768,10840.417246868285,-3543.9137868778453
-17849.58903188575,-4643.3960966344,11161.92473911342,-3328.8900052177914
-17813.535668079337,-4609.421445062333,11077.368089838994,-3474.153992432832
-17793.66496725857,-4572.518714966621,10865.85353205842,-3663.182695291364
-17815.68143554705,-4558.347708981956,10600.135993973732,-3810.950077885399
-17888.01168060442,-4612.371875330434,10829.621354296369,-3529.988650082189
-17875.82997987628,-4623.3689336024445,11163.534064714202,-3316.618897511828
-17841.117720737187,-4597.664427478841,11071.444877558337,-3465.2356463951646
-17814.63090355765,-4566.595502685965,10854.901177275322,-3653.146762030931
-17831.394711899127,-4561.298139250057,10600.963008518578,-3799.5059847242815
-17897.01943361991,-4621.804311490573,10851.10138071792,-3518.611612154438
-17883.720145669,-4639.641003565908,11167.110343827051,-3314.4060748107527
-17837.67555209107,-4616.395189332389,11080.787906740656,-3469.728347030681
-17806.651330787103,-4588.008473874149,10847.256880671606,-3666.5131052152046
-17811.680473289547,-4578.330168525001,10601.275932940953,-3808.1561098284856
-17868.744476883945,-4636.332945386523,10871.620282127891,-3520.7126761332365
-17851.39952318663,-4649.118143214959,11189.037405137708,-3326.5430720499844
-17808.327711621252,-4624.017134191648,11080.05029917363,-3487.4756321281952
-17780.410382796574,-4593.1940785877805,10838.450293356216,-3685.4450327688496
-17787.160609622075,-4584.879229650406,10581.271121653454,-3820.315458812173
-17836.982648012956,-4635.952965730782,10863.037212257052,-3520.377399966407
-17813.110984934687,-4642.993765234204,11186.913989414454,-3330.812255240948
-17772.073182114742,-4616.283430610112,11077.636310772456,-3493.8458792979577
-17737.80795786476,-4575.983235357194,10832.95176422021,-3686.7190822028015
-17753.342420261197,-4559.577054926998,10596.447956138609,-3811.419464518961
-17825.09151996273,-4613.556517786565,10884.360776467416,-3508.9333068052897
-17824.800947284813,-4620.463206823255,11177.392146276492,-3325.2019673826658
-17804.23734238593,-4591.249476820169,11060.29135707514,-3478.803155279536
-17795.9001417041,-4559.286482249079,10823.8546042269,-3667.5412854601486
-17823.258676917398,-4553.922063579806,10591.105889213788,-3786.072586306642
-17893.219637062506,-4611.589564274498,10876.671776374793,-3477.6185128234047
-17881.26145377892,-4621.178462645825,11160.337765257093,-3304.124272361312
-17842.972915526978,-4592.367064042934,11050.925976148364,-3458.7536405031256
-17808.506525576893,-4554.905540335839,10823.318162359974,-3645.725982871769
-17822.208144927998,-4553.050345546048,10598.884296284235,-3760.591597627592
-17885.620043947703,-4618.3397911,10890.887485848369,-3457.278425369075
-17869.459732706517,-4636.891738997905,11171.848913651576,-3307.454682285152
-17831.327656665762,-4612.640096263897,11055.79865643962,-3475.472745355695
-17804.259694130385,-4583.426366260811,10805.369711562362,-3679.141840832453
-17819.168307682074,-4580.453584248256,10595.442127638118,-3792.5098887097706
-17871.20316877403,-4632.846073251495,10901.996302842654,-3476.2997599005416
-17844.04579926083,-4640.177445432835,11169.077297339118,-3325.1125604048448
-17803.14210690762,-4613.53416604211,11054.993993639231,-3493.778824064592
-17772.587272237215,-4575.804421401551,10814.824499466957,-3692.530535761182
-17787.629996255637,-4566.148467796858,10604.539287631427,-3799.416577746461
-17835.99917125692,-4613.19888987528,10918.380131528394,-3481.574771591994
-17807.724214520957,-4611.276639852124,11177.526256743224,-3343.396287369286
-17764.85356865568,-4575.849124890462,11045.025115612165,-3512.286068473586
-17738.65732415406,-4538.164083738814,10800.944066160211,-3709.942544691866
-17763.735981432914,-4534.029011014583,10601.208877707586,-3804.244554548807
-17825.71736880748,-4588.701377952263,10926.225593832209,-3476.389166878362
-17814.362682624185,-4595.161032099847,11171.7371549293,-3343.418639113741
-17791.60860676868,-4568.607159686942,11032.776359650656,-3511.2355364841865
-17776.543531005806,-4534.453694159233,10783.50970548507,-3704.39931206695
-17807.947731965513,-4533.157292980825,10591.95525550309,-3780.216429259352
-17872.901901352634,-4591.741215198185,10914.312114037528,-3443.8897304403463
-17858.0156395454,-4595.831584433507,11150.59240467458,-3319.144644635277
-17825.404444385105,-4568.09306956447,11024.237993268727,-3489.911972273824
-17794.71549924797,-4531.458560402222,10785.677824697235,-3684.327445546084
-17824.1080432067,-4540.175740739792,10598.347854417309,-3762.558551139659
-17884.189532302564,-4602.693569981286,10939.860157949945,-3429.450503522218
-17861.43545644706,-4611.343695085489,11166.417439748937,-3316.4624353006407
-17818.207182670496,-4586.846183162473,11028.66363867088,-3491.49894613015
-17787.831161955735,-4554.369098468912,10776.8935891263,-3691.949390405344
-17817.782499525845,-4561.454601461244,10587.730775801036,-3766.134830252509
-17864.54234892635,-4611.947192185783,10937.669686993324,-3426.2765558095643
-17837.072054990775,-4615.478767809721,11155.710954154843,-3322.6315167703056
-17807.925380221055,-4595.496308266676,10990.688024841313,-3506.2734492151085
-17777.28113857283,-4559.912331093828,10734.089998494388,-3709.629620269492
-17801.42102258456,-4565.164991040825,10557.019478919445,-3775.589618157103
-17848.314982451797,-4619.658544022864,10887.44531720225,-3440.738134472148
-17814.76501402438,-4615.143491642892,11105.10660470803,-3349.1183339498443
-17776.074144372244,-4581.057081348548,10957.138056413896,-3527.0382198140887
-17756.203443551476,-4549.451714688744,10686.369024082309,-3733.9706699813214
-17790.75924047938,-4554.749078124652,10526.978734371512,-3790.878211364533
-17852.159482498108,-4612.260116608157,10885.67952939028,-3452.9198352002904
-17833.38401715565,-4612.349523585978,11083.380709097471,-3366.575046369439
-17805.980778453442,-4581.14648832637,10937.043838148576,-3542.438571743795
-17791.56390327977,-4552.960938568227,10683.06096590292,-3741.12322820702
-17830.031255487356,-4562.683947406286,10525.8834988932,-3781.378719971028
-17887.296424781853,-4619.837357978507,10892.206238771229,-3432.445637279229
-17867.49277919445,-4623.43598883581,11080.452630573824,-3357.90256952078
-17834.47925263396,-4597.731482712207,10927.276125821609,-3531.3521064939628
-17805.869019731166,-4559.800572371551,10667.34768955084,-3726.616946055525
-17836.066226490286,-4565.254398018647,10522.217812802532,-3753.036708001698
-17880.032107833875,-4620.306744612068,10904.58910519947,-3404.5283084545504
-17842.0117905154,-4613.645924764386,11100.882125005975,-3327.235976128098
-17803.76795575237,-4582.755813927151,10947.8844342094,-3499.567925878516
-17778.04109788431,-4549.876397833396,10675.01433789901,-3702.030027154688
-17799.834048728233,-4551.731592623186,10556.237167863508,-3723.063018687132
-17844.06815100529,-4607.432139805811,10932.864061935434,-3376.052186018489
-17812.105156434198,-4605.15226187137,11098.557543582623,-3321.558633036451
-17772.967251892955,-4572.853991133451,10945.73866674169,-3499.970257278712
-17743.08296955621,-4536.442999415755,10681.965730424612,-3704.332256833584
-17782.980833408932,-4554.838485102473,10545.865958436249,-3729.276803645707
-17831.573525854772,-4607.745064228185,10920.995285629664,-3380.0531482759893
-17808.551229065804,-4605.532241527109,11085.213552142806,-3333.0250779420235
-17783.539627020316,-4575.737366168185,10930.092445622977,-3516.801120853558
-17765.90410064508,-4539.214615728213,10647.365230007796,-3722.995963453765
-17812.70865353449,-4559.465296204722,10518.641533689684,-3736.630527571503
-17868.811532117314,-4613.645924764386,10914.15565182634,-3388.435052446729
-17848.71731385199,-4611.410750318855,11066.818066456088,-3346.391421126297
-17817.71544429248,-4580.006549359149,10905.796099400057,-3525.518301191128
-17799.118792905665,-4547.931796065784,10635.585860679848,-3726.885166988989
-17849.231403974463,-4573.211619044736,10520.98846685749,-3730.7073152908474
-17896.237122563973,-4629.806236005573,10895.223724272695,-3384.4340901892297
-17867.761000127914,-4627.727523771229,11039.504234731705,-3348.492485105096
-17832.467595632985,-4593.149375098869,10897.10127080694,-3517.4269696983065
-17805.846667986712,-4556.648976403353,10624.454691941106,-3721.4760448308048
-17835.730950323457,-4574.820944645518,10529.303315794865,-3716.089274417076
-17868.520959439393,-4625.20177664778,10939.949564927763,-3362.685842834216
-17831.573525854772,-4619.882061467417,11068.315633334594,-3340.155284423266
-17803.253865629897,-4596.09980536697,10893.72615739419,-3527.8205308700244
-17769.078048357733,-4550.010508300127,10637.39635198073,-3730.774370524213
-17805.936074964535,-4564.472086962711,10549.308127082364,-3720.559623308137
-17838.8601945472,-4613.1541863863695,10948.040896420587,-3375.4933924071065
-17796.99537718241,-4598.29027632359,11078.95506369532,-3353.6110345853613
-17762.774856421336,-4564.136810795881,10912.143994825365,-3532.4026384833624
-17739.55139393227,-4527.614060355909,10631.406084466707,-3742.285518918696
-17786.311243332773,-4549.786990855574,10554.314917840353,-3723.979440209799
-17834.881584034156,-4607.00745666116,10949.963146443744,-3386.1998780011986
-17805.33257786424,-4594.378721043911,11066.549845522624,-3376.7897935855144
-17779.67277522955,-4560.895807849862,10904.007959843631,-3556.810743428557
-17774.598929238193,-4533.626679614386,10613.52468890246,-3773.913237322955
-17835.462729389994,-4560.024089816105,10547.117656125743,-3742.486684618793
-17888.30225328234,-4614.852918964973,10956.7357250137,-3395.9899420726238
-17853.657049376616,-4602.872383936928,11057.944423907333,-3389.95497106969
-17817.000188469912,-4570.015319587626,10901.124584808897,-3566.2655313331525
-17805.1537639086,-4542.746191352152,10620.252563983508,-3775.6343216460136
-17863.424761703583,-4579.112479580936,10553.107923639764,-3737.345783394073
-17898.852276665246,-4632.801369762584,10946.252756864162,-3388.725625124649
-17855.176967999574,-4616.641058521397,11060.693688475334,-3391.541944926017
-17817.067243703277,-4585.616837217431,10896.006035328632,-3571.0041011576777
-17797.12948764914,-4557.14071478137,10607.422662666162,-3780.88698159301
-17846.191566728543,-4587.00264537366,10556.594795774794,-3725.141730921475
-17872.16429378561,-4632.063762195559,10962.614233805449,-3370.441898160207
-17824.823299029267,-4617.401017832878,11051.127141848465,-3381.036625032023
-17788.52406603385,-4587.159107584847,10881.34329096595,-3564.5891504990045
-17764.428885511028,-4551.441019945267,10602.9523137751,-3770.0687372766415
-17807.545400565316,-4574.977406856705,10570.0952494258,-3706.902707445945
-17830.25477293191,-4616.574003288031,10977.276978168127,-3363.33404342342
-17781.416211297063,-4597.485613523199,11060.581929753058,-3387.38452045733
-17741.630106166616,-4561.678118905797,10877.118811263896,-3570.42295580184
-17715.009178520344,-4521.109702719415,10597.409081150185,-3774.807307101167
-17765.971155878444,-4541.4721419182,10592.223476436551,-3697.0902916300647
-17816.173173925064,-4591.316532053535,10990.46450739676,-3360.7859445555146
-17794.42492657005,-4580.520639481621,11060.157246608407,-3388.725625124649
-17773.928376904532,-4548.848217588451,10884.696052634246,-3565.438516788306
-17768.60866172417,-4518.56160385151,10598.817241050869,-3767.587693642103
-17835.61919160118,-4554.771429869107,10589.116583957266,-3685.82501242459
-17875.941738598554,-4608.52737528412,11001.03688252412,-3352.582854340417
-17849.29845920783,-4602.872383936928,11062.28066233166,-3389.351473969397
-17826.298514163318,-4576.564380713032,10875.598892640935,-3569.841810446001
-17802.27038887386,-4539.348726194946,10604.2040114646,-3767.073603519631
-17851.801854586825,-4572.80928764454,10608.048511510911,-3676.8396111535567
-17882.088468323764,-4624.084189425014,11009.999932050698,-3348.0230984715345
-17843.688171349546,-4613.891793953395,11065.298147833128,-3392.9724565711567
-17812.82041225677,-4586.3320930400005,10872.268482717096,-3578.760156483669
-17787.85351370019,-4552.245682745657,10595.57623810485,-3781.51283043776
-17844.49283414994,-4592.14354659838,10611.088348756832,-3687.2555240697297
-17860.407276202117,-4637.003497720182,11016.794862365112,-3358.9531015101797
-17810.317016877772,-4616.059913165559,11063.19708385433,-3409.5350992125395
-17775.694164716504,-4582.375834271412,10877.409383941816,-3591.56770605656
-17757.90217613008,-4551.195150756258,10587.708424056582,-3801.1600138139743
-17809.780575010845,-4586.95794188475,10605.925095787656,-3695.816242196112
-17819.32476989326,-4625.760570259163,11011.676312884843,-3366.8879707918136
-17767.781647179323,-4603.051197892571,11039.481882987247,-3421.985020874145
-17730.163661261042,-4563.935645095783,10851.079028973463,-3602.8106335175794
-17716.909076799046,-4528.932813278772,10572.531589571428,-3805.786824916223
-17778.152856606586,-4562.773354384107,10606.752110332503,-3683.6121897235134
-17812.485136089937,-4600.726616469218,10998.801708078588,-3355.063897974956
-17780.388031052116,-4583.292255794079,11024.126234546453,-3411.032666091045
-17765.56882447825,-4559.398240971356,10853.783590052555,-3590.42776708934
-17770.508560002872,-4534.565452881509,10563.836760978313,-3787.972484585344
-17840.134243981152,-4573.636302189387,10603.466403897572,-3657.8406283665454
-17864.34118322625,-4614.763511987151,11002.065062769065,-3339.507083834062
-17819.43652861554,-4586.823831418018,11031.144682305418,-3396.772253128559
-17799.632883028138,-4560.247607260658,10836.729209033158,-3572.7922407141023
-17784.076068887243,-4530.609194112921,10553.890234695702,-3767.587693642103
-17841.698866093026,-4568.338938753479,10621.794834350923,-3623.865976794479
-17867.67159315009,-4613.467110808744,11020.818176367064,-3310.94155442018
-17824.353912395705,-4596.211564089246,11033.223394539762,-3385.3058082229863
-17783.76314446487,-4560.605235171943,10846.943956249232,-3558.665938218348
-17777.03526938382,-4539.952223295239,10550.738638727504,-3765.4419261743938
-17838.614325358194,-4589.416633774833,10631.026104810966,-3629.252747208208
-17853.232366231965,-4631.102637183981,11023.52273744616,-3324.9113947047467
-17797.040080671322,-4605.5769450160205,11029.110673559986,-3402.740168898126
-17752.694219671994,-4570.350595754457,10846.586328337948,-3586.0915286650097
-17732.55529791776,-4541.695659362753,10573.112734927268,-3788.888906108011
-17788.07703114474,-4583.962808127739,10647.432285241162,-3642.1273520144646
-17793.083821902732,-4616.037561421104,11037.827853897556,-3341.071705945934
-17745.765178890848,-4592.970561143227,11041.627650454957,-3430.925718656268
-17713.51161164184,-4559.085316548982,10842.33949689144,-3616.556956357593
-17715.523268642817,-4534.632508114875,10546.290641580896,-3816.13568259903
-17791.00510966839,-4578.173706313813,10646.24764278503,-3652.297395741629
-17827.57256359727,-4619.122102155937,11026.920202603364,-3359.198970699188
-17797.95650219399,-4595.876287922417,11025.243821769218,-3443.0627158955
-17786.534760777326,-4570.797630643562,10817.305543101496,-3626.615241362482
-17796.414231826573,-4551.150447267348,10513.724149909514,-3821.745970457312
-17861.10018028023,-4592.81409893204,10630.891994344234,-3638.439314179339
-17880.099163067243,-4628.509834827165,11020.505251944693,-3341.9210722352354
-17842.8611568047,-4605.778110716118,10995.180725476828,-3433.272651824076
-17814.317979135274,-4573.099860322459,10815.226830867152,-3610.85726152149
-17795.877789959646,-4538.745229094652,10542.267327578942,-3788.978313085832
-17857.38979070065,-4583.873401149917,10660.798628425437,-3599.9496102273
-17874.175950786586,-4625.358238858967,11036.352638763505,-3316.261269600543
-17834.255735189407,-4602.715921725741,11010.111690772974,-3417.8275964054583
-17795.989548681922,-4567.869552119917,10811.270572098563,-3594.048749691099
-17778.488132773415,-4539.169912239303,10533.438388519096,-3773.4438506893935
-17838.6590288471,-4583.4487180052665,10658.228177813076,-3577.799031472091
-17836.9602962685,-4610.986067174204,11035.369162007471,-3296.323513546409
-17786.66887124406,-4585.125098839414,11012.637437896425,-3402.986038087134
-17747.441559724994,-4546.814208843018,10810.152984875796,-3580.704758251281
-17727.28028622631,-4517.309906162012,10528.36454252774,-3758.9375685379
-17768.899234402088,-4553.251511246146,10688.023053172,-3552.698022448781
-17766.552301234282,-4578.821906903017,11058.816141941088,-3280.6102371943284
-17729.224887993918,-4561.52165669461,11014.403225708393,-3405.95882009969
-17696.59134108917,-4532.933775536272,10822.021761181566,-3594.495784580205
-17691.383384631084,-4509.285629902557,10542.982583401512,-3777.5565716691694
-17759.824426153235,-4557.14071478137,10697.366082354318,-3566.578455755526
-17782.913778175567,-4594.870459421928,11061.967737909286,-3304.4148450392304
-17764.294775044298,-4581.414709259833,11015.297295486604,-3430.5233872560725
-17749.27440277033,-4556.514865936621,10802.776909205546,-3617.272212180163
-17758.617431952647,-4544.064944275016,10521.927240124613,-3798.1648800569633
-17830.143014209632,-4598.513793768143,10704.853916746846,-3573.239275603208
-17847.86794756269,-4639.01515472116,11074.596473526535,-3312.684990487694
-17819.34712163772,-4620.038523678604,11020.66171415588,-3434.0102593911006
-17797.040080671322,-4584.074566850015,10814.198650622207,-3614.7464650567135
-17796.548342293303,-4559.889979349373,10528.27513554992,-3786.877249107033
-17858.686191879056,-4607.163918872348,10703.959846968632,-3554.1285340939207
-17854.417008688095,-4630.2979743835895,11071.444877558337,-3292.434310011185
-17812.28397038984,-4604.3475990709785,11039.928917876354,-3411.5691079579724
-17785.84185669921,-4568.920084109317,10822.915830959775,-3598.675560793348
-17788.389955567116,-4547.842389087962,10541.552071756372,-3777.0201298022425
-17852.137130753654,-4597.239744334191,10733.352390927364,-3544.8525601449683
-17844.44813066103,-4615.00938117616,11083.24659863074,-3293.50719374504
-17792.90500794709,-4578.4642789917325,11025.914374102877,-3424.9578028867013
-17754.884690628613,-4538.499359905643,10820.635953025336,-3615.864052279479
-17751.17430104903,-4516.952278250727,10544.122522368732,-3791.41465323146
-17800.951635951,-4557.766563626118,10737.710981096146,-3544.60669095596
-17795.162534137075,-4576.653787690853,11089.90741847842,-3298.737501947582
-17755.2423185399,-4547.171836754303,11023.27686825715,-3434.0102593911006
-17727.481451926407,-4513.085426459959,10805.637932495823,-3622.346058171518
-17734.142271774086,-4501.350760620923,10534.84654841978,-3791.839336376112
-17811.18873491153,-4565.097935807459,10726.356294912852,-3549.769943925136
-17818.073072203766,-4592.076491365015,11062.839455943044,-3315.5460137779733
-17783.80784795378,-4566.170819541314,11014.693798386312,-3450.0141084211004
-17763.981850621924,-4538.7228773501965,10793.970321890154,-3640.853302580512
-17772.363754792663,-4528.530481878577,10516.696931922072,-3803.5963539596023
-17838.994305013934,-4586.600313973465,10740.370838686327,-3549.3899642693955
-17837.273220690873,-4612.215413119247,11078.820953228587,-3321.89390920328
-17803.700900519,-4589.483689008199,11002.489745913714,-3458.4854195696616
-17777.012917639368,-4560.001738071649,10779.32992927193,-3651.3586224745054
-17792.301510846795,-4551.843351345462,10507.376254484208,-3814.526356998248
-17851.57833714227,-4603.989971159694,10749.266832979542,-3543.019717099633
-17846.839767317746,-4628.308669127067,11073.56829328159,-3328.644136028783
-17805.444336586515,-4603.1182531259365,10988.095222484497,-3476.7244430451924
-17774.50952226037,-4562.840409617474,10768.824609377934,-3660.2993202566295
-17786.445353799507,-4548.959976310727,10504.850507360758,-3812.6711622084576
-17849.030238274365,-4600.525450769121,10733.575908371917,-3537.8117606415467
-17845.92334579508,-4619.636192278408,11050.747162192722,-3324.397304582275
-17796.90597020459,-4583.918104638828,10980.98736774771,-3468.2754836410863
-17760.114998831155,-4542.992060541161,10764.823647120436,-3652.5432649306376
-17764.56299597776,-4524.440112643256,10516.249897032963,-3795.437967233416
-17821.738758294436,-4574.373909756411,10772.55735070197,-3508.9780102942004
-17801.53278130684,-4581.101784837459,11096.255313903728,-3294.6024292233506
-17765.479417500428,-4552.089220534471,11000.27692321264,-3448.360079331408
-17742.971210833934,-4521.13205446387,10763.057859308465,-3646.664756138892
-17751.17430104903,-4507.072807201482,10518.641533689684,-3786.363158984561
-17817.603685570204,-4564.740307896174,10777.452382737683,-3502.1160247464213
-17818.207182670496,-4588.835488418995,11078.016290428195,-3310.494519531074
-17779.13633336262,-4559.889979349373,10978.372213646438,-3461.1005736709326
-17745.27344051283,-4523.166063209304,10757.067591794445,-3649.972814318277
-17764.630051211127,-4521.333220163968,10498.256742746442,-3785.379682228528
-17830.120662465175,-4583.404014516355,10760.643870907292,-3496.282219443586
-17812.976874467957,-4598.223221090224,11099.04928196064,-3303.297257816465
-17780.790362452313,-4578.799555158563,10992.56557137556,-3465.123887672888
-17751.911908616057,-4549.205845499736,10755.234748749108,-3665.708442414813
-17763.42305701054,-4541.673307618297,10517.233373789,-3798.880135879533
-17831.394711899127,-4603.475881037221,10781.162772317264,-3508.9333068052897
-17818.96714198198,-4616.663410265853,11078.060993917108,-3333.7179820201377
-17780.76801070786,-4589.237819819191,10975.175914189327,-3495.6340188543822
-17748.98383009241,-4556.358403725434,10740.303783452962,-3690.4518235268383
-17756.315202273752,-4545.495455920155,10504.090548049278,-3809.899545896
-17806.718386020468,-4594.199907088269,10792.18218233373,-3503.3006672025526
-17778.66694672906,-4598.156165856858,11086.934636465863,-3329.1358744068
-17746.860414369155,-4576.452621990755,10958.680326781312,-3495.9022397878457
-17714.51744014233,-4539.348726194946,10716.49917560806,-3694.877468928989
-17730.722454872426,-4527.256432444624,10484.59982688425,-3814.928688398444
-17796.727156248948,-4578.240761547179,10791.310464299971,-3501.378417179396
-17797.732984749437,-4594.088148365992,11066.14751412243,-3338.5906623113947
-17775.247129827396,-4569.1883050427805,10938.74257072718,-3502.0266177686
-17758.796245908292,-4534.9677842817055,10691.711091007124,-3691.949390405344
-17784.299586331796,-4529.402199912333,10492.60175139925,-3798.1648800569633
-17848.314982451797,-4586.756776184652,10802.218115594163,-3483.2735041705973
-17830.38888339864,-4592.881154165406,11068.539150779146,-3331.549862807973
-17804.840839486224,-4572.4293079888,10923.96806764222,-3500.9760857792007
-17781.08093513023,-4544.869607075406,10707.06673944792,-3694.452785784338
-17790.669833501557,-4541.561548896021,10502.525925937403,-3797.337865512117
-17843.665819605092,-4600.279581580113,10810.220040109163,-3482.6476553258485
-17827.10317696371,-4613.824738720029,11069.835551957554,-3341.1834646682105
-17787.94292067801,-4583.538124983087,10948.554986543058,-3505.64760037036
-17756.739885418403,-4550.122267022403,10702.864611490324,-3707.461501057327
-17774.978908893932,-4554.145581024359,10492.445289188065,-3810.681856951935
-17828.33252290875,-4613.802386975573,10805.19089760672,-3489.241419940164
-17801.733947006935,-4618.071570166537,11063.979394910264,-3348.0901537049003
-17760.047943597787,-4584.499249994666,10931.21003284574,-3511.83903358448
-17726.45327168146,-4549.1164385219145,10676.713070477614,-3709.048474913654
-17738.679675898515,-4544.959014053227,10487.483201918983,-3798.65661843498
-17785.640690999116,-4593.551706499065,10821.530022803548,-3469.281312141575
-17757.45514124097,-4593.127023354415,11066.818066456088,-3341.6081478128613
-17715.299751198265,-4556.894845592362,10942.251794606662,-3504.641771869871
-17688.0753264517,-4518.852176529429,10688.58184678338,-3703.169966121908
-17714.74095758688,-4517.511071862111,10480.509457648928,-3790.140603797508
-17770.352097791685,-4566.863723619428,10819.451310569206,-3458.060736425011
-17759.109170330667,-4570.395299243367,11061.163075108896,-3343.932729236213
-17735.572783419226,-4542.589729140965,10919.11773909542,-3518.1645772653314
-17719.613637878138,-4507.475138601678,10669.225236085083,-3711.708332503836
-17765.412362267063,-4518.025161984582,10479.615387870715,-3788.978313085832
-17834.59101135624,-4577.90548538035,10830.068389185475,-3453.880960211869
-17825.71736880748,-4591.875325664917,11057.787961696144,-3345.363240881353
-17803.432679585538,-4574.686834178786,10917.106082094442,-3518.544556921072
-17785.081897387732,-4548.267072232613,10651.857930643311,-3717.6762482734025
-17813.58037156825,-4560.404069471845,10483.41518442812,-3787.547801440692
-17866.710468138514,-4622.206642890768,10851.168435951286,-3453.9480154452344
-17831.014732243388,-4618.786825989107,11068.00270891222,-3349.0512787164785
-17794.804906225792,-4592.09884310947,10925.666800220824,-3525.138321535388
-17778.264615328862,-4563.33214799549,10656.283576045464,-3739.670364817425
-17816.19552566952,-4572.585770199987,10483.92927455059,-3806.7032464388894
-17864.989383815453,-4624.195948147291,10844.082932958954,-3464.3415766169524
-17823.213973428486,-4616.10461665447,11064.515836777193,-3368.162020225766
-17783.47257178695,-4585.5050784951545,10913.39569251486,-3549.1664468248428
-17748.335629503206,-4544.489627419666,10649.578052708872,-3752.656728345958
-17772.60962398167,-4547.596519898953,10492.780565354891,-3801.584696958625
-17811.300493633807,-4596.345674555979,10855.303508675515,-3458.418364336296
-17774.978908893932,-4590.020130875127,11055.955118650809,-3377.3709389413525
-17730.297771727775,-4552.022165301105,10905.974913355698,-3553.1897608267977
-17695.58551258868,-4511.230231670169,10642.760770650002,-3757.819981315134
-17729.11312927164,-4517.444016628744,10491.528867665396,-3798.65661843498
-17780.835065941224,-4572.250494033157,10847.05571497151,-3448.807114220514
-17750.257879526365,-4568.227180031202,11054.14462734993,-3373.548790639495
-17727.526155415315,-4540.443961673255,10904.834974388476,-3557.302481806574
-17714.94212328698,-4507.430435112767,10637.374000236274,-3764.167876740441
-17762.104304087676,-4520.170929452292,10493.11584152172,-3795.9967608447982
-17825.04681647382,-4579.403052258856,10873.654290873324,-3444.5602827740054
-17807.165420909576,-4582.375834271412,11057.206816340306,-3379.181430242232
-17775.314185060764,-4553.340918223968,10905.34906451095,-3549.211150313753
-17752.13542606061,-4521.377923652879,10641.48672121605,-3756.300062692173
-17791.51919979086,-4538.208787227725,10522.664847691638,-3779.590580414603
-17849.63373537466,-4600.704264724764,10893.189715527264,-3431.6856779677487
-17826.34321765223,-4601.710093225252,11067.555674023111,-3379.360244197874
-17789.172266623053,-4574.306854523045,10926.11383510993,-3557.1013161064766
-17762.953670376977,-4542.522673907599,10656.462390001108,-3761.999757528277
-17800.683415017535,-4560.448772960755,10539.451007777574,-3777.243647246796
-17842.659991104603,-4609.756721229162,10927.164367099327,-3423.8849191528466
-17809.802926755303,-4598.647904234875,11084.319482364594,-3373.8170115729586
-17775.202426338485,-4566.550799197054,10931.433550290294,-3552.60861547096
-17748.42503648103,-4530.117455734904,10666.185398839163,-3760.323376694129
-17790.289853845818,-4551.597482156454,10541.820292689836,-3778.540048425204
-17832.892278777636,-4604.615820004442,10929.421893289316,-3432.7809134460585
-17793.575560280748,-4594.043444877082,11083.134839908462,-3396.034645561534
-17743.28413525631,-4555.129057780392,10933.601669502455,-3575.4297465598283
-17711.83523080769,-4515.164138694303,10658.406991768716,-3782.719824638346
-17752.068370827245,-4529.044572001048,10554.918414940646,-3780.730519381824
-17793.799077725304,-4583.158145327348,10944.26345160764,-3433.0491343795225
-17762.23841455441,-4574.262151034135,11074.57412178208,-3405.4670817216734
-17720.954742545455,-4530.542138879555,10930.427721789803,-3579.453060561784
-17712.03639650779,-4498.154461163815,10656.931776634668,-3790.744100897801
-17779.784533951824,-4528.105798733926,10540.479188022517,-3784.910295594966
-17828.9583717535,-4581.370005770923,10932.774654957611,-3431.1492361008213
-17801.84570572921,-4577.391395257878,11077.725717750278,-3400.3038287524973
-17783.18199910903,-4558.057136304037,10915.049721604551,-3574.2004006147863
-17768.474551257437,-4532.978479025183,10643.788950894948,-3777.623626902536
-17810.13820292213,-4558.571226426509,10565.84841797929,-3757.819981315134
-17848.270278962886,-4608.817947962039,10983.736632315711,-3407.7916631450253
-17817.402519870106,-4598.536145512599,11110.8733547775,-3389.776157114048
-17788.90404568959,-4574.262151034135,10947.236233620197,-3572.389909313906
-17769.636841969113,-4547.9988512991495,10664.598424982838,-3789.2912375082074
-17812.70865353449,-4572.585770199987,10595.017444493467,-3756.7918010701896
-17852.315944709295,-4624.218299891746,10983.289597426605,-3405.265916021576
-17812.060452945287,-4608.013285161649,11106.425357630893,-3395.095872294411
-17779.382202551627,-4577.503153980155,10943.995230674176,-3573.641607003404
-17755.37642900663,-4541.047458773549,10667.615910484305,-3779.814097859156
-17803.745604007912,-4563.823886373507,10602.438223652627,-3743.492513119282
-17847.890299307146,-4617.915107955349,10990.46450739676,-3401.510822953084
-17805.533743564338,-4599.564325757543,11101.91030525092,-3399.119186296366
-17771.447333269996,-4566.1931712857695,10928.661933977835,-3576.7261477382363
-17746.8380626247,-4531.413856913311,10630.713180388591,-3789.023016574743
-17783.56197876477,-4548.445886188256,10610.66366561218,-3738.64218457248
-17810.741700022423,-4588.768433185629,11019.097092044009,-3391.161965270277
-17766.03821111181,-4565.4779154632,11122.63037236099,-3392.883049593336
-17740.333704988207,-4534.766618581608,10937.7814457156,-3579.765984984158
-17719.0324925223,-4500.344932120434,10650.561529464903,-3789.55945844167
-17772.296699559298,-4533.537272636566,10615.536345903438,-3729.857949001545
-17822.67753156156,-4592.076491365015,11003.406167436382,-3389.8879158363243
-17803.164458652074,-4592.747043698674,11080.899665462932,-3410.7197416686704
-17768.31808904625,-4559.688813649275,10911.29462853606,-3583.699892008292
-17741.60775442216,-4525.021257999094,10649.10866607531,-3783.278618249729
-17794.491981803418,-4554.637319402375,10631.584898422348,-3710.3895795809726
-17829.450110131518,-4601.039540891593,11030.652943927402,-3362.059993989468
-17794.022595169856,-4589.617799474931,11105.933619252875,-3389.396177458308
-17772.47551351494,-4567.109592808437,10921.576430985502,-3580.9729791847444
-17757.90217613008,-4538.208787227725,10633.57420367887,-3793.783938143723
-17815.256752402398,-4569.434174231788,10612.138880746232,-3720.604326797048
-17845.073979505778,-4612.304820097068,11002.46739416926,-3382.623598888349
-17805.645502286614,-4595.138680355391,11076.943406694343,-3416.0394568490337
-17771.380278036628,-4562.773354384107,10909.64059944637,-3599.010836960177
-17749.27440277033,-4528.530481878577,10623.00182855151,-3804.244554548807
-17801.197505140008,-4559.085316548982,10619.67141862767,-3714.882280216489
-17828.533688608848,-4601.575982758521,11027.61310668148,-3376.81214532997
-17779.85158918519,-4576.09499407947,11091.472040590292,-3409.445692234718
-17743.79822537878,-4542.545025652054,10905.282009277584,-3592.6182380459595
-17717.087890754687,-4506.156385678814,10616.788043592936,-3798.075473079142
-17770.66502221406,-4537.605290127432,10623.024180295966,-3696.553849763138
-17794.871961459157,-4577.100822579959,11027.031961325642,-3364.0045957570787
-17752.962440605457,-4556.313700236524,11077.05516541662,-3411.971439358168
-17729.873088583125,-4530.22921445718,10889.434622458772,-3602.408302117384
-17714.13746048659,-4498.355626863912,10603.91343878668,-3810.972429629854
-17773.861321671167,-4532.4196854138,10616.38571219274,-3703.438187055372
-17807.701862776503,-4578.039595847082,11002.26622846916,-3367.37970916983
-17777.66111822857,-4565.768488141119,11060.514874519691,-3415.190090559732
-17757.142216818596,-4543.1261710078925,10899.24703827465,-3599.56963057156
-17741.138367788597,-4515.097083460937,10617.391540693228,-3805.9656388718654
-17800.52695280635,-4552.715069379219,10646.337049762851,-3692.798756694646
-17828.354874653207,-4597.172689100825,11047.32734529106,-3363.535209123517
-17794.67079575906,-4589.57309598602,11076.51872354969,-3428.802302933014
-17760.450274997984,-4560.672290405309,10888.451145702738,-3611.483110366239
-17750.90608011557,-4532.79966506954,10598.303150928396,-3814.973391887354
-17808.84180174372,-4567.489572464177,10641.732590405058,-3685.914419402411
-17821.38113038315,-4598.513793768143,11053.339964549536,-3351.33115665092
-17779.67277522955,-4577.391395257878,11083.514819564203,-3419.123997583866
-17747.08393181371,-4541.919176807306,10897.883581862878,-3600.1731276718533
-17736.153928775064,-4512.727798548674,10605.612171365285,-3805.987990616321
-17794.939016692522,-4551.373964711901,10648.438113741651,-3671.698709928836
-17815.52497333586,-4589.684854708297,11041.940574877332,-3354.348642152386
-17766.14996983409,-4558.794743871063,11091.13676442346,-3416.8888231383357
-17736.623315408626,-4526.98821151116,10888.227628258184,-3603.3694271289614
-17727.8837833266,-4500.613153053899,10588.267217667964,-3814.6828192094354
-17789.12756313414,-4541.695659362753,10665.201922083132,-3672.72689017378
-17817.022540214366,-4581.928799382305,11055.530435506158,-3360.8529997888804
-17767.42401926804,-4553.206807757236,11068.09211589004,-3435.8207506919803
-17737.584440420203,-4524.194243454247,10866.233511714165,-3622.882500038445
-17724.285152469296,-4496.209859396203,10583.752165287991,-3824.0258483917537
-17783.94195842051,-4534.856025559428,10664.978404638578,-3664.367337747495
-17809.28883663283,-4573.993930100672,11051.931804648852,-3353.2310549296208
-17782.198522353,-4560.918159594316,11058.257348329706,-3440.648727494327
-17755.868167384644,-4535.817150571007,10862.836046556957,-3631.554976887104
-17746.078103313223,-4509.732664791663,10570.76580175946,-3829.546729272214
-17820.82233677177,-4559.241778760169,10650.9638608651,-3665.149648803431
-17844.314020194295,-4592.2553053206575,11048.936670891842,-3353.409868885263
-17815.18969716903,-4572.563418455532,11062.057144887109,-3439.866416438391
-17792.43562131353,-4546.881264076384,10858.209235454708,-3632.247880965219
-17786.132429377132,-4524.395409154345,10564.909644712168,-3834.687630496935
-17843.37524692717,-4565.924950352305,10656.216520812097,-3661.260445268208
-17851.086598764254,-4597.91029666785,11045.650964456912,-3359.355432910375
-17814.42973785755,-4575.871476634918,11050.367182536982,-3452.49515205564
-17787.51823753336,-4544.109647763926,10852.129560962863,-3638.7745903461687
-17782.466743286463,-4518.248679429135,10550.381010816218,-3837.727467742857
-17835.01569450089,-4557.163066525825,10659.524578991482,-3652.587968419549
-17839.53074688086,-4587.472032007222,11065.320499577583,-3352.135819451311
-17796.77185973786,-4561.767525883619,11047.528510991158,-3453.523332300584
-17766.015859367355,-4533.805493570029,10837.042133455532,-3644.809561349101
-17761.500806987384,-4514.292420660547,10530.152682084166,-3841.884892211544
-17821.87286876117,-4560.672290405309,10650.136846320254,-3647.7152881282914
-17820.643522816124,-4583.806345916551,11055.530435506158,-3349.207740927666
-17785.439525299018,-4561.789877628074,11039.593641709524,-3452.025765422078
-17748.760312647857,-4525.4012376548335,10832.124749675364,-3633.074895510065
-17742.50182420037,-4503.69769378873,10543.206100846064,-3821.23188033484
-17816.776671025356,-4561.588711927976,10679.39527981225,-3625.274136695163
-17832.802871799813,-4593.976389643716,11047.528510991158,-3344.42446761423
-17793.642615514116,-4569.054194576049,11018.13596703243,-3456.339652101952
-17759.55620521977,-4534.788970326063,10827.162662406286,-3637.344078701029
-17759.578556964225,-4515.119435205393,10546.827083447824,-3819.957830900888
-17828.310171164296,-4561.9686915837165,10697.20962014313,-3606.163395185876
-17838.837842802746,-4593.641113476886,11067.935653678853,-3330.23110988511
-17796.481287059938,-4568.964787598227,11027.65781017039,-3445.7896287190474
-17767.46872275695,-4538.499359905643,10817.484357057136,-3636.33825020054
-17768.407496024072,-4519.388618396356,10523.245993047476,-3827.937403671432
-17826.298514163318,-4562.572188684009,10690.526448550994,-3604.7552352851912
-17830.746511309924,-4587.740252940685,11066.393383311435,-3333.874444231325
-17793.03911841382,-4565.097935807459,11023.008647323686,-3457.680756769271
-17761.724324431936,-4529.558662123521,10821.842947225923,-3649.928110829367
-17757.27632728533,-4505.910516489807,10540.769760700436,-3830.0831711391415
-17815.972008224966,-4549.228197244192,10696.78493699848,-3600.1954794163084
-17818.29658964832,-4571.468182977222,11074.61882527099,-3333.0250779420235
-17777.817580439758,-4546.5906913984645,11026.651981669902,-3457.5242945580835
-17746.56984169124,-4512.3701706373895,10818.534889046538,-3649.3916689624393
-17745.9886963354,-4488.140879647837,10535.338286797796,-3829.23380484984
-17801.62218828466,-4533.13494123637,10719.002570987055,-3592.171203156853
-17799.9011039616,-4559.509999693632,11079.692671262344,-3336.489598332596
-17763.110132588165,-4538.789932583562,11019.32060948856,-3467.2473033961423
-17731.772986861826,-4510.3138101475015,10811.18116512074,-3653.951424831322
-17731.661228139546,-4495.695769273731,10530.063275106344,-3830.5078542837928
-17786.37829856614,-4542.23210122968,10723.964658256133,-3576.502630293683
-17787.831161955735,-4568.696566664764,11092.790793513155,-3324.240842371088
-17755.912870873555,-4551.061040289526,11021.220507767262,-3464.229817894676
-17732.667056640035,-4523.546042865043,10800.98876964912,-3658.242959766741
-17737.94206833149,-4507.922173490783,10528.722170439029,-3830.4407990504255
-17808.394766854617,-4561.700470650252,10730.31255368144,-3580.3918338289063
-17805.645502286614,-4575.826773146006,11081.19023814085,-3330.767551752037
-17766.08291460072,-4547.440057687767,11018.091263543518,-3463.2686928830976
-17745.251088768375,-4518.829824784973,10787.801240420493,-3655.828971365568
-17758.95270811948,-4510.17969968077,10514.059426076345,-3829.6584879944903
-17822.319903650274,-4559.577054926998,10729.396132158772,-3571.697005235792
-17814.161516924087,-4571.803459144051,11075.80346772712,-3331.0134209410458
-17773.794266437802,-4541.13686575137,11009.396434950404,-3468.454297596729
-17743.530004445318,-4507.922173490783,10794.216191079164,-3660.4110789789056
-17746.815710880248,-4492.074786671971,10505.40930097214,-3829.0326391497424
-17804.90789471959,-4543.170874496803,10742.203681731664,-3565.416165043851
-17793.530856791836,-4559.979386327193,11090.443860345347,-3335.863749487847
-17749.09558881469,-4529.08927548996,11006.960094804776,-3483.049986726044
-17718.764271588836,-4497.103929174416,10783.956740374177,-3677.331349531573
-17724.195745491477,-4486.576257535966,10518.485071478495,-3836.498121797815
-17784.36664156516,-4541.159217495825,10748.931556812711,-3564.1644673543537
-17767.692240201504,-4553.51973217961,11080.720851507289,-3341.3399268793974
-17724.9333530585,-4527.435246400267,11002.26622846916,-3486.1345274608766
-17704.59326560417,-4505.195260667237,10782.61563570686,-3685.377977535484
-17721.826460579214,-4501.887202487851,10511.779548141903,-3842.868368967577
-17786.80298171079,-4554.61496765792,10755.055934793463,-3558.598882984982
-17777.482304272926,-4569.680043420797,11087.448726588336,-3345.0503164589786
-17744.200556778975,-4542.701487863242,10994.84544931,-3494.7175973317144
-17726.766196103836,-4515.812339283507,10761.98497557461,-3693.357550306028
-17749.9896585929,-4511.163176436803,10511.488975463984,-3847.9198632144767
-17824.71154030699,-4567.6013311864535,10756.620556905336,-3564.186819098809
-17817.737796036934,-4576.251456290657,11069.34381357954,-3355.645043330794
-17786.400650310596,-4550.189322255769,10988.251684695684,-3502.6524666133487
-17759.153873819574,-4517.600478839931,10755.100638282376,-3694.6092479955255
-17768.474551257437,-4501.84249899894,10490.54539090936,-3841.013174177787
-17828.80190954231,-4552.960938568227,10768.399926233284,-3546.3724787679294
-17813.24509540142,-4564.360328240434,11088.543962066648,-3350.168865939244
-17773.414286782063,-4538.298194205546,10986.46354513926,-3503.83710906948
-17743.0382660673,-4505.530536834066,10753.334850470406,-3701.3147713321177
-17753.65534468357,-4497.416853596789,10504.783452127393,-3837.23572936484
-17807.947731965513,-4548.445886188256,10781.676862439735,-3539.801065898069
-17793.083821902732,-4559.532351438088,11079.938540451354,-3355.198008441688
-17754.1917865505,-4534.610156370421,10983.915446271354,-3515.951754564256
-17720.999446034366,-4502.669513543787,10747.478693423116,-3710.791910981168
-17729.873088583125,-4492.566525049988,10509.879649863202,-3840.297918355217
-17789.596949767703,-4547.618871643409,10791.958664889176,-3531.799141383069
-17776.699993216993,-4563.130982295392,11069.612034513002,-3360.450668388685
-17733.449367695972,-4534.18547322577,10964.603539061967,-3524.5348244350944
-17692.948006742958,-4494.377016350868,10741.17550148672,-3713.719989504813
-17712.326969185706,-4487.470327314178,10507.286847506386,-3835.2464241083176
-17777.86228392867,-4543.439095430266,10804.788566206524,-3515.482367930694
-17769.145103591098,-4557.051307803548,11086.28643587666,-3345.296185647987
-17747.530966702816,-4540.958051795727,10966.682251296312,-3520.489158688684
-17730.230716494407,-4511.677266559275,10720.030751232,-3717.028047684199
-17746.927469602524,-4501.373112365379,10506.281019005895,-3823.087075124631
-17816.731967536445,-4555.799610114052,10804.855621439889,-3507.212222482231
-17806.62897904265,-4563.041575317571,11078.709194506311,-3347.71017404916
-17776.85645542818,-4536.711220349219,10968.31392864155,-3515.1470917638653
-17753.632992939114,-4504.0329699555605,10720.053102976455,-3714.1670243939193
-17771.246167569898,-4499.227344897669,10504.157603282643,-3824.4952350253143
-17827.95254325301,-4553.609139157431,10828.079083928951,-3498.316228189019
-17811.300493633807,-4562.28161600609,11098.490488349258,-3349.632424072317
-17779.963347907466,-4538.633470372376,10962.480123338715,-3524.423065712818
-17756.985754607413,-4505.754054278619,10703.959846968632,-3722.437169842383
-17772.0955338592,-4499.383807108857,10517.523946466918,-3822.058894879687
-17831.931153766054,-4561.208732272236,10828.52611881806,-3501.26665845712
-17801.063394673278,-4563.443906717766,11086.331139365571,-3360.7635928110594
-17758.93035637502,-4534.699563348242,10960.110838426452,-3533.6990396617703
-17724.46396642494,-4500.36728386489,10712.677027306205,-3732.763675780735
-17743.6864666565,-4500.590801309443,10507.08568180629,-3828.585604260636
-17795.318996348262,-4554.302043235546,10831.543604319526,-3498.964428778223
-17768.206330323974,-4554.346746724456,11078.552732295124,-3359.668357332749
-17726.87795482611,-4524.820092298995,10954.500550568171,-3527.5076064476502
-17694.534980599285,-4491.784213994052,10707.513774337029,-3725.655821043947
-17720.619466378626,-4497.640371041342,10507.26449576193,-3816.560365743681
-17779.42690604054,-4556.6266246588975,10838.494996845127,-3485.754547805137
-17762.506635487873,-4559.487647949177,11067.086287389551,-3358.886046276813
-17738.858489854156,-4536.107723248926,10939.681343994302,-3526.322963991519
-17721.49118441238,-4505.910516489807,10689.185343883675,-3723.398294853961
-17762.819559910247,-4514.918269505295,10492.422937443607,-3804.177499315441
-17824.376264140163,-4568.04836607556,10845.222871926177,-3463.7827830055694
-17808.171249410065,-4567.355461997445,11081.659624774413,-3344.0444879584898
-17773.414286782063,-4533.023182514094,10954.209977890252,-3513.671876629815
-17748.80501613677,-4499.3391036199455,10699.243628888564,-3719.68790527438
-17784.81367645427,-4510.269106658591,10515.624048188216,-3799.170708557452
-17835.418025901083,-4564.203866029247,10862.903101790322,-3462.2628643826088
-17814.720310535467,-4571.043499832571,11076.988110183253,-3361.90353177828
-17772.65432747058,-4538.275842461091,10940.038971905586,-3533.2296530282088
-17744.848757368178,-4502.22247865468,10679.060003645422,-3737.681059560902
-17772.497865259393,-4502.22247865468,10506.83981261728,-3797.203755045385
-17812.82041225677,-4549.496418177655,10869.519218149091,-3451.3105095995084
-17780.47743802994,-4549.675232133297,11072.026022914177,-3360.80829629997
-17735.237507252397,-4515.454711372222,10923.252811819651,-3536.381248996407
-17695.719623055415,-4473.12050737387,10687.911294449725,-3735.401181626461
-17724.41926293603,-4486.196277880225,10522.016647102431,-3798.142528312508
-17772.184940837018,-4539.795761084051,10876.492962419148,-3455.155009645821
-17737.472681697927,-4538.097028505448,11086.800525999131,-3364.6304446018275
-17692.612730576126,-4511.118472947893,10941.245966106171,-3540.60572869846
-17660.985012171866,-4476.853248697907,10687.888942705267,-3744.163065452941
-17703.78860280378,-4493.907629717306,10517.591001700284,-3795.4826707223274
-17760.51733023135,-4548.736458866174,10891.44627945975,-3445.275538596575
-17749.162644048054,-4551.619833900909,11095.875334247989,-3364.250464946087
-17735.058693296756,-4528.351667922934,10946.386867330892,-3544.561987467049
-17723.458137924452,-4491.158365149304,10686.100803148844,-3745.6829840759024
-17780.969176407954,-4507.98922872415,10520.586135457292,-3791.5040602092818
-17844.403427172118,-4567.824848631007,10885.7689363681,-3449.0306316650667
-17821.20231642751,-4565.768488141119,11062.303014076117,-3377.7062151081823
-17783.897254931602,-4531.972650524695,10919.430663517793,-3549.6581852028594
-17750.771969648835,-4490.711330260197,10658.406991768716,-3748.655766088458
-17784.768972965358,-4502.088368187949,10519.60265870126,-3776.6401501465034
-17830.81356654329,-4552.178627512291,10894.597875427948,-3425.2930790535306
-17801.733947006935,-4545.249586731146,11063.867636187988,-3367.6032266143834
-17760.539681975806,-4512.727798548674,10906.623113944905,-3550.440496258795
-17722.452309423963,-4470.55005676151,10644.034820083954,-3755.0260132582207
-17759.33268777522,-4485.078690657459,10508.091510306778,-3781.110499037564
-17798.33648184973,-4537.113551749415,10895.53664869507,-3428.0423436215337
-17757.70101042998,-4526.474121388688,11073.456534559316,-3376.81214532997
-17717.914905299534,-4497.08157742996,10904.946733110755,-3564.61150224346
-17693.1268206986,-4469.588931749932,10607.109738243787,-3780.88698159301
-17713.332797686195,-4480.250713855114,10501.274228247908,-3786.586676429114
-17739.283172998807,-4525.982383010672,10903.829145887988,-3428.3999715328187
-17699.206495190443,-4520.282688174569,11093.863677247007,-3378.555581397484
-17655.06179989121,-4493.907629717306,10936.462692792737,-3560.27526381913
-17634.006456614312,-4469.208952094192,10663.547892993438,-3770.918103565944
-17691.048108464256,-4501.149594920826,10548.212891604053,-3779.9929118147984
-17743.574707934225,-4556.604272914443,10940.64246900588,-3423.482587752651
-17726.967361803934,-4554.480857191188,11090.399156856438,-3387.1610030127767
-17714.852716309157,-4530.98917376866,10918.290724550572,-3573.3957378143955
-17711.2317337074,-4505.418778111789,10638.379828736764,-3784.351501983584
-17761.56786222075,-4520.930888763773,10544.413095046652,-3764.972539540832
-17818.453051859506,-4573.770412656118,10935.680381736802,-3406.9870003446345
-17794.67079575906,-4568.607159686942,11067.958005423308,-3380.231962231632
-17770.553263491784,-4544.80255184204,10901.124584808897,-3563.158638853865
-17753.029495838822,-4512.973667737683,10616.609229637294,-3778.763565869757
-17798.403537083093,-4532.285574947068,10525.682333193105,-3765.397222685483
-17836.893241035134,-4576.497325479666,10921.9787623857,-3402.8519276204024
-17805.55609530879,-4564.76265964063,11028.864804370976,-3384.769366356059
-17766.14996983409,-4526.094141732949,10887.735889880169,-3563.5609702540605
-17737.495033442385,-4483.335254589946,10615.648104625716,-3772.08039427762
-17783.22670259794,-4502.803624010518,10528.811577416847,-3746.889978276489
-17817.08959544773,-4549.608176899931,10932.30526832405,-3391.5642966704727
-17775.448295527494,-4537.739400594163,11052.132970348952,-3379.516706409062
-17726.632085637106,-4502.110719932404,10884.24901774514,-3562.1304586089204
-17696.993672489367,-4469.365414305379,10598.392557906218,-3783.569190927648
-17731.99650430638,-4489.280818615058,10546.111827625256,-3749.259263188752
-17765.1441413336,-4540.265147717613,10949.247890621173,-3393.352436226897
-17734.522251429826,-4536.442999415755,11053.85405467201,-3394.2688577495646
-17707.36488191663,-4511.27493515908,10882.952616566732,-3576.860258204968
-17683.336756627174,-4473.813411451985,10608.652008611203,-3785.983179328821
-17743.664114912048,-4506.0893304454485,10546.04477239189,-3751.941472523388
-17792.368566080164,-4559.398240971356,10944.531672541105,-3407.456386978196
-17763.981850621924,-4548.088258276971,11050.255423814706,-3408.0822358229443
-17748.357981247664,-4520.5285573635765,10859.57269186648,-3588.550220555094
-17737.159757275553,-4489.146708148326,10590.055357224388,-3794.2086212883737
-17799.9011039616,-4525.423589399289,10551.386839316709,-3747.806399799156
-17843.330543438264,-4579.246590047668,10955.282861624106,-3399.00742757409
-17808.61828429917,-4566.103764307948,11044.220452811773,-3413.4913579811287
-17778.21991183995,-4537.717048849708,10861.807866312012,-3602.922392239856
-17754.638821439603,-4500.32258037598,10575.750240772992,-3808.960772628877
-17808.081842432242,-4527.435246400267,10542.714362468048,-3747.69464107688
-17850.594860386238,-4577.301988280057,10944.59872777447,-3404.5953636879167
-17811.18873491153,-4559.174723526803,11024.215641524272,-3420.420398762274
-17774.57657749374,-4523.836615542962,10847.614508582892,-3604.710531796281
-17749.632030681616,-4488.945542448228,10564.574368545338,-3816.6944762104126
-17795.698976004,-4512.012542726105,10540.61329848925,-3745.526521864715
-17819.123604193166,-4552.491551934666,10945.090466152486,-3397.6216194178605
-17770.41915302505,-4532.330278435979,11019.342961233016,-3418.0064103611007
-17740.60192592167,-4507.832766512963,10814.28805760003,-3606.923354497356
-17699.36295740163,-4463.129277602348,10551.47624629453,-3809.430159262438
-17732.242373495385,-4486.062167413494,10559.724039998537,-3723.934736720888
-17752.247184782886,-4530.631545857375,10965.698774540278,-3378.153249997288
-17707.99073076138,-4512.996019482139,11036.643211441424,-3406.7858346445364
-17683.560274071726,-4488.4761558146665,10847.882729516356,-3591.791223501113
-17673.54669255575,-4464.090402613927,10554.918414940646,-3802.389359759016
-17735.103396785664,-4498.109757674904,10557.555920786372,-3709.1825853803857
-17766.46289425646,-4545.160179753325,10970.37028913144,-3370.7548225825817
-17731.728283372915,-4528.351667922934,11031.345848005516,-3408.506918967595
-17713.958646530944,-4501.574278065476,10844.798188781524,-3596.172165414353
-17709.26478019533,-4474.148687618815,10554.247862606986,-3807.8878888950217
-17765.680583200527,-4504.591763566943,10576.46549659556,-3701.582992265581
-17795.989548681922,-4547.0600780320265,10986.08356548352,-3360.629482344328
-17759.735019175412,-4525.110664976914,11037.023191097163,-3412.5972882029164
-17731.571821161728,-4493.013559939094,10855.884654031355,-3598.3849881154288
-17727.593210648683,-4472.025271895561,10552.236205606008,-3817.432083777438
-17789.887522445624,-4508.480967102167,10572.218665149054,-3706.723893490302
-17813.088633190233,-4543.99788904165,10978.953359002277,-3369.2349039596206
-17772.22964432593,-4521.310868419512,11013.285638485628,-3424.9354511422457
-17733.158795018055,-4487.760899992097,10840.976040479663,-3607.6162585754714
-17720.70887335645,-4462.794001435519,10534.55597574186,-3819.3766855450494
-17779.33749906272,-4500.657856542809,10560.036964420911,-3701.4265300543934
-17786.490057288418,-4534.878377303884,10984.56364686056,-3365.4351074022184
-17740.333704988207,-4516.818167783996,11027.27783051465,-3424.1978435752208
-17701.866352780624,-4487.045644169527,10839.701991045711,-3609.896136509912
-17686.466000850916,-4465.230341581148,10538.914565910643,-3818.952002400399
-17738.836138109702,-4505.619943811887,10579.013595463466,-3686.7190822028015
-17755.018801095342,-4546.925967565295,10983.267245682153,-3364.8539620463807
-17706.336701671684,-4523.143711464848,11019.387664721926,-3431.1045326119106
-17677.480599579885,-4495.740472762642,10820.792415236525,-3616.1099214684873
-17667.31055585272,-4472.1593823622925,10529.348019283774,-3821.790673946223
-17724.575725147217,-4506.603420567921,10598.638427095226,-3676.459631497816
-17758.32685927473,-4544.668441375308,10986.284731183618,-3352.6946130626934
-17736.51155668635,-4530.5644906240095,11006.043673282107,-3425.5389482425394
-17720.820632078725,-4506.156385678814,10821.23945012563,-3611.348999899507
-17722.11703325713,-4484.631655768354,10523.715379681038,-3816.985048888332
-17789.462839300973,-4526.429417899778,10595.911514271678,-3670.245846539241
-17814.09446169072,-4560.80640087204,11001.148641246396,-3351.9123020067577
-17776.632937983624,-4534.073714503493,11011.22927799574,-3426.7235906986703
-17749.676734170527,-4503.027141455072,10809.705949986692,-3613.76298830068
-17736.779777619813,-4472.785231207041,10513.098301064769,-3812.8723279085552
-17794.804906225792,-4508.03393221306,10587.484906612028,-3649.548131173626
-17812.23926690093,-4539.013450028116,10999.963998790265,-3337.830702999914
-17766.395839023095,-4516.192318939247,11012.995065807709,-3422.253241807609
-17723.458137924452,-4483.044681912027,10817.551412290504,-3606.923354497356
-17705.576742360205,-4455.797905421007,10524.452987248062,-3804.736292926824
-17757.969231363444,-4497.305094874513,10622.890069829236,-3640.67448862487
-17763.244243054898,-4528.485778389666,11015.632571653436,-3341.295223390487
-17717.534925643795,-4505.932868234261,11007.585943649525,-3437.2065588482096
-17681.92859672649,-4473.03110039605,10805.70498772919,-3623.418941905373
-17662.862558706114,-4447.952443117195,10515.333475510295,-3821.388342546027
-17711.79052731878,-4489.638446526343,10630.087331543844,-3640.294508969129
-17721.64764662357,-4526.898804533339,11007.630647138436,-3344.2009501696766
-17690.601073575148,-4512.236060170658,10972.27018741014,-3443.196826362232
-17667.467018063908,-4483.424661567768,10795.311426557471,-3625.8105785620905
-17677.190026901964,-4465.878542170352,10505.297542249864,-3827.624479249058
-17745.94399284649,-4508.771539780086,10625.751093119514,-3638.349907201518
-17771.380278036628,-4542.790894841063,11017.89009784342,-3341.071705945934
-17753.588289450203,-4529.066923745504,10985.524771872137,-3447.957747931212
-17745.921641102035,-4505.12820543387,10770.880969867823,-3637.411133934395
-17748.46973996994,-4482.374129578368,10488.086699019275,-3830.798426961712
-17820.82233677177,-4531.190339468759,10613.14470924672,-3636.0029740337104
-17827.9078397641,-4557.230121759191,11005.015493037165,-3345.318537392442
-17790.468667801462,-4532.03970575806,10976.069983967542,-3454.5962160344384
-17761.16553082055,-4497.84153674144,10780.84984789489,-3641.345040958529
-17757.410437752063,-4474.573370763465,10490.008949042434,-3834.687630496935
-17810.071147688766,-4515.365304394401,10628.634468154249,-3627.889290796434
-17808.506525576893,-4540.1310372508815,10998.13115574493,-3344.178598425221
-17757.432789496517,-4511.565507836999,10987.715242828755,-3452.070468910989
-17718.160774488544,-4475.400385308312,10789.052938109988,-3637.209968234297
-17717.087890754687,-4458.904797900295,10487.080870518788,-3835.112313641586
-17774.062487371266,-4507.363379879401,10642.49254971654,-3622.122540726965
-17767.669888457047,-4530.966822024206,11025.42263572486,-3341.9434239796906
-17716.149117487566,-4505.1505571783255,10992.722033586746,-3451.198750877232
-17679.53696006977,-4478.954312676706,10785.342548530409,-3637.43348567885
-17667.511721552815,-4456.73667868813,10503.330588737796,-3822.595336746614
-17728.040245537788,-4506.782234523563,10659.524578991482,-3607.9068312533896
-17723.011103035344,-4527.502301633633,11027.099016559008,-3337.204854155166
-17677.637061791072,-4501.529574576566,10990.375100418938,-3456.607873035416
-17653.407770801517,-4469.03013813855,10757.425219705729,-3644.831913093557
-17653.273660334788,-4445.247882038103,10487.684367619082,-3818.9743541448543
-17724.016931535833,-4492.387711094345,10659.703392947124,-3590.673636278348
-17739.283172998807,-4520.595612596942,11031.569365450068,-3334.544996564984
-17709.331835428697,-4493.348836105924,10974.93004500032,-3459.6924137702485
-17694.177352688,-4463.129277602348,10752.50783592556,-3649.615186406993
-17705.152059215554,-4447.863036139373,10471.41229765562,-3825.411656547983
-17780.27627232984,-4502.781272266063,10655.545968478438,-3587.9467234548
-17788.27819684484,-4530.698601090741,11017.688932143325,-3337.003688455068
-17759.46679824195,-4509.956182236217,10955.327565113015,-3473.192867421254
-17732.912925829045,-4477.79202196503,10743.12010325433,-3662.646253424437
-17732.778815362315,-4460.312957800979,10471.278187188887,-3834.732333985846
-17798.448240572005,-4511.409045625812,10668.085297117865,-3591.433595589828
-17796.61539752667,-4530.430380157278,11014.067949541564,-3347.196083926688
-17758.03628659681,-4507.117510690393,10942.140035884386,-3482.088861714466
-17716.573800632217,-4468.1137166158815,10754.497141182082,-3665.663738925903
-17708.326006928208,-4449.159437317781,10492.400585699152,-3819.42138903396
-17770.486208258415,-4504.100025188926,10699.310684121929,-3564.410336543362
-17766.194673322996,-4528.441074900756,11042.52172023317,-3327.4371418281967
-17720.373597189617,-4504.36824612239,10973.924216499832,-3465.8838469843686
-17677.033564690777,-4472.941693418228,10747.121065511832,-3661.6851284128575
-17674.530169311784,-4458.658928711287,10481.49293440496,-3826.417485048472
-17732.309428728753,-4507.698656046231,10712.386454628284,-3557.995385884689
-17731.54946941727,-4534.140769736859,11042.119388832974,-3335.819045998937
-17700.50289636885,-4514.113606704904,10963.441248350293,-3483.7875942930696
-17680.743954270358,-4480.69774874422,10745.467036422138,-3675.4538029973273
-17697.418355634018,-4465.945597403717,10472.596940111747,-3834.262947352284
-17765.70293494498,-4515.588821838954,10696.561419553927,-3560.7222987082364
-17770.575615236237,-4538.879339561384,11035.793845152122,-3337.51777857754
-17745.74282714639,-4519.65683932982,10955.439323835291,-3487.229762939187
-17714.11510874213,-4482.441184811733,10732.83830080489,-3671.274026784185
-17721.245315223376,-4468.069013126971,10471.389945911164,-3821.678915223946
-17782.71261247547,-4514.739455549652,10716.275658163508,-3542.215054299242
-17771.693202459002,-4527.0999702334375,11038.677220186855,-3332.7792087530147
-17734.70106538547,-4499.115586175392,10939.524881783114,-3482.8935245148573
-17706.44846039396,-4464.2915683140245,10713.54874533996,-3674.0679948410975
-17710.561181373738,-4448.041850095016,10463.030393484878,-3823.355296058094
-17766.641708212104,-4496.969818707683,10722.89177452228,-3540.7174874207367
-17759.064466841755,-4514.627696827376,11035.682086429846,-3344.111543191856
-17720.26183846734,-4487.023292425071,10943.101160895963,-3493.5553066200387
-17690.89164625307,-4456.289643799025,10713.9287249957,-3683.075747856587
-17700.949931257957,-4449.159437317781,10458.515341104909,-3824.159958858485
-17757.589251707705,-4507.3186763904905,10729.574946114417,-3540.5386734650942
-17741.384236977607,-4527.055266744526,11043.125217333463,-3348.604243827372
-17699.765288801824,-4503.295362388535,10946.856253964455,-3502.540707891072
-17668.405791331028,-4471.6899957287305,10712.162937183732,-3696.307980574129
-17679.872236236602,-4459.888274656329,10473.736879078971,-3835.313479341683
-17741.9877340779,-4515.499414861133,10748.59628064588,-3541.5668537100382
-17735.08104504121,-4531.011525513116,11043.125217333463,-3355.71209856416
-17702.8274777922,-4501.820147254485,10938.854329449456,-3506.9216498043124
-17685.54957932825,-4468.761917205085,10713.146413939765,-3697.7384922192687
-17705.532038871293,-4459.955329889694,10476.687309347071,-3827.535072271237
-17766.418190767552,-4509.4644438582,10754.340678970895,-3522.2996499895635
-17769.390972780107,-4527.368191166901,11040.286545787638,-3349.990051983601
-17738.947896831978,-4503.854155999918,10924.772730442612,-3512.755455107148
-17716.37263493212,-4474.863943441384,10689.319454350409,-3709.920192947411
-17739.21611776544,-4471.533533517544,10441.59507055224,-3843.1142381565855
-17792.56973178026,-4520.640316085854,10719.8295855319,-3536.090676318488
-17776.00708913888,-4526.876452788884,11028.03778982613,-3359.1542672102773
-17736.13157703061,-4494.846402984429,10930.40537004535,-3508.486271916184
-17703.766251059325,-4454.009765864583,10692.828678229893,-3693.536364261671
-17720.619466378626,-4452.154571074792,10462.426896384584,-3815.129854098541
-17773.682507715526,-4505.709350789708,10763.728411642123,-3502.585411379983
-17751.867205127146,-4512.951315993228,11040.04067659863,-3339.3729733673304
-17711.477602896404,-4487.626789525365,10922.090521107975,-3508.799196338558
-17672.20558788843,-4452.936882130728,10683.217428114109,-3706.723893490302
-17678.665242036015,-4443.862073881874,10468.30540517633,-3814.3698947870607
-17737.204460764464,-4500.568449564988,10777.139458315309,-3495.343446176463
-17719.613637878138,-4514.515938105099,11047.28264180215,-3346.8831595043134
-17684.387288616574,-4493.661760528298,10915.273239049106,-3525.473597702217
-17656.53701502526,-4460.067088611972,10674.343785565352,-3724.582937310092
-17673.300823366742,-4456.4237542657565,10476.240274457963,-3825.61282224808
-17737.495033442385,-4513.979496238172,10793.70210095669,-3499.031484011589
-17724.240448980385,-4521.2885166750575,11051.350659293015,-3354.415697385752
-17700.815820791224,-4492.633580283354,10917.575468728002,-3526.926461091812
-17684.007308960834,-4456.64727171031,10672.8685704313,-3726.706353033346
-17717.691387854982,-4458.793039178019,10464.393849896653,-3829.367915316572
-17791.22862711294,-4518.785121296063,10779.486391483117,-3505.669952114815
-17777.728173461936,-4524.909499276817,11027.076664814553,-3368.005558014579
-17741.27247825533,-4498.93677221975,10901.01282608662,-3537.141208307887
-17714.048053508766,-4464.738603203131,10651.05326784292,-3733.3448211365726
-17735.572783419226,-4459.865922911874,10448.233538655466,-3817.879118666544
-17795.833086470735,-4516.929926506273,10776.51360947056,-3481.418309380807
-17775.38124029413,-4522.853138786929,11034.206871295795,-3349.990051983601
-17733.248201995873,-4495.584010551454,10900.118756308408,-3522.0761325450103
-17695.294939910764,-4459.754164189597,10645.800607895924,-3722.303059375651
-17715.32210294272,-4459.910626400784,10445.506625831918,-3800.46710973586
-17760.584385464714,-4512.616039826398,10797.434842280729,-3460.318262614997
-17729.11312927164,-4512.012542726105,11039.347772520516,-3338.523607078029
-17687.851809007145,-4482.016501667083,10898.487078963171,-3513.604821396449
-17652.2678318343,-4446.365469260868,10648.840445141846,-3713.608230782537
-17674.44076233396,-4447.103076827893,10463.700945818538,-3784.865592106056
-17730.141309516588,-4505.575240322976,10810.644723253814,-3450.2376258656536
-17709.331835428697,-4508.726836291175,11031.435254983337,-3341.5634443239505
-17678.73229726938,-4481.122431888871,10884.472535189692,-3518.566908665527
-17656.291145836254,-4447.103076827893,10647.387581752251,-3720.1572919079417
-17693.50680035434,-4457.5413414885215,10472.708698834029,-3793.694531165902
-17756.315202273752,-4512.571336337488,10828.369656606872,-3447.3542508309188
-17749.94495510399,-4519.455673629722,11036.37499050796,-3352.828723529425
-17724.151042002566,-4491.337179104946,10891.356872481929,-3530.3909814823846
-17708.59422786167,-4464.4703822696665,10625.996962308522,-3739.2009781838633
-17745.586364935203,-4474.461612041189,10440.142207162644,-3803.7304644263354
-17796.436583571027,-4526.898804533339,10813.483394799638,-3456.5855212909605
-17773.794266437802,-4526.854101044429,11038.453702742305,-3363.781078312526
-17738.634972409604,-4495.427548340267,10893.972026583198,-3541.052763587566
-17710.98586451839,-4461.78817293503,10635.29528800193,-3749.8851120335
-17739.886670099102,-4469.097193371916,10467.232521442476,-3804.0880923376194
-17791.921531191056,-4524.551871365532,10820.9041739588,-3460.92175971529
-17762.484283743415,-4523.255470187124,11021.667542656369,-3371.939465038713
-17715.858544809646,-4491.27012387158,10872.53670365056,-3548.0712113465324
-17682.576797315694,-4457.988376377628,10606.752110332503,-3759.3622516825503
-17714.31627444223,-4469.767745705574,10449.082904944768,-3813.073493608653
-17755.488187728904,-4518.114568962404,10833.979944465154,-3462.7098992717147
-17722.78758559079,-4515.812339283507,11024.617972924469,-3386.8927820793133
-17687.136553184577,-4486.643312769332,10870.949729794233,-3562.1081068644653
-17657.520491781295,-4449.718230929164,10608.62965686675,-3760.0328040162094
-17697.50776261184,-4465.4091555367895,10456.660146315116,-3799.126005068541
-17748.22387078093,-4517.779292795574,10832.080046186453,-3447.3095473420085
-17730.431882194505,-4518.874528273885,11008.100033771996,-3380.81310758747
-17706.046128993767,-4493.281780872558,10875.554189152026,-3556.766039939647
-17688.50000959635,-4460.02238512306,10606.372130676762,-3762.804420328668
-17738.143234031588,-4480.295417344024,10459.431762627572,-3796.287333522717
-17788.300548589297,-4531.279746446579,10839.165549178786,-3441.587500761449
-17757.47749298543,-4521.310868419512,11018.359484476983,-3377.6838633637267
-17731.97415256192,-4492.722987261175,10863.953633779722,-3553.4579817602616
-17713.06457675273,-4458.591873477921,10588.624845579248,-3757.50705689276
-17759.33268777522,-4477.188524864737,10462.292785917853,-3782.205734515874
-17797.978853938443,-4525.960031266217,10845.66990681528,-3427.617660476883
-17756.985754607413,-4517.689885817753,11008.345902961006,-3375.582799384928
-17723.07815826871,-4491.448937827223,10838.964383478688,-3557.302481806574
-17699.92175101301,-4463.956292147194,10567.167170902154,-3770.538123910204
-17736.80212936427,-4481.50241154461,10460.526998105885,-3780.015263559254
-17764.361830277663,-4525.80356905503,10857.113999976398,-3424.2648988085866
-17726.430919937007,-4520.483853874666,11000.500440657192,-3385.7975466010034
-17687.315367140218,-4495.584010551454,10838.562052078492,-3566.0420138885997
-17655.285317335765,-4462.905760157795,10575.459668095073,-3772.4827256778153
-17698.155963201043,-4485.637484268843,10466.83019004228,-3778.27182749174
-17737.495033442385,-4532.844368558451,10855.325860419973,-3420.4651022511844
-17703.83330629269,-4517.153443950826,11001.908600557876,-3382.6683023772603
-17679.268739136307,-4487.2468098696245,10837.28800264454,-3567.092545877999
-17670.328041354187,-4456.177885076748,10558.85232196478,-3781.713996137857
-17729.26959148283,-4477.523801031566,10462.203378940032,-3773.846182089589
-17781.438563041516,-4530.653897601831,10850.073200472976,-3421.58268947395
-17749.766141148346,-4522.339048664457,10987.782298062122,-3393.777119371548
-17721.17825999001,-4494.354664606412,10823.407569337794,-3574.602732014982
-17703.565085359227,-4462.54813224651,10537.953440899068,-3781.8257548601337
-17748.67090567004,-4480.831859210952,10458.247120171443,-3760.233969716307
-17788.166438122564,-4525.17772021028,10872.760221095112,-3401.1084915528886
-17753.968269105946,-4517.287554417558,10999.494612156705,-3382.355377954886
-17725.335684458696,-4490.487812815644,10817.529060546049,-3567.2043046002755
-17697.373652145106,-4451.126390829849,10559.858150465268,-3772.728594866824
-17735.08104504121,-4467.26435032658,10496.379196212196,-3736.339954893584
-17770.597966980695,-4517.667534073297,10898.73294815218,-3383.4729651776515
-17736.936239831,-4515.857042772418,11010.089339028518,-3380.835459331925
-17699.586474846183,-4489.973722693172,10836.639802055335,-3564.477391776728
-17666.751762241336,-4454.769725176064,10554.51608354045,-3774.2261617453296
-17708.258951694843,-4479.222533610169,10492.110013021233,-3738.686888061391
-17732.443539195483,-4526.854101044429,10900.699901664246,-3384.8587733338804
-17678.866407736114,-4511.4313973702665,11013.41974895236,-3383.8752965778467
-17644.042389874743,-4482.329426089457,10840.976040479663,-3574.3345110815185
-17618.404938984506,-4448.2653675395695,10553.33144108432,-3790.766452642257
-17669.92570995399,-4474.461612041189,10494.725167122504,-3746.800571298668
-17720.932390801,-4524.7530370656295,10881.67856713278,-3403.9471630987127
-17688.991747974367,-4505.061150200504,10983.401356148885,-3407.7246079116594
-17671.646794277047,-4475.914475430784,10809.527136031047,-3589.556049055582
-17660.69443949395,-4439.21291103517,10541.485016523004,-3792.8451648766
-17730.32012347223,-4467.733736960142,10493.60757989974,-3736.0270304712094
-17782.71261247547,-4515.745284050141,10894.575523683492,-3385.0822907784336
-17754.258841783863,-4504.569411822487,10985.45771663877,-3396.548735684006
-17734.857527596658,-4480.116603388382,10799.938237659722,-3581.6882350073142
-17713.779832575303,-4445.40434424929,10533.50544375246,-3789.537106697215
-17769.27921405783,-4477.836725453941,10497.474431690507,-3730.103818190553
-17799.074089416754,-4521.579089352977,10901.81748888701,-3386.8257268459474
-17754.37060050614,-4502.289533888046,10994.84544931,-3402.8295758759477
-17723.97222804692,-4469.655986983298,10816.52323204556,-3583.699892008292
-17701.59813184716,-4435.793094133508,10540.143911855688,-3788.9336095969215
-17747.59802193618,-4463.3527950469015,10523.447158747573,-3708.310867346629
-17772.69903095949,-4511.073769458982,10924.325695553503,-3365.6362731023164
-17724.240448980385,-4499.27204838658,11005.21665873726,-3392.9724565711567
-17682.621500804606,-4471.64529223982,10834.471682843172,-3573.4180895588506
-17658.8168929597,-4445.06906808246,10533.259574563452,-3786.877249107033
-17704.548562115262,-4478.864905698884,10514.506460965453,-3705.740416734269
-17719.479527411404,-4519.790949796552,10949.985498188198,-3362.663491089761
-17671.17740764349,-4501.440167598745,11019.141795532918,-3397.643971162316
-17630.519584479283,-4465.163286347782,10841.08779920194,-3575.407394815373
-17610.872401103068,-4433.736733643619,10554.04669690689,-3783.7480048832895
-17669.25515762033,-4467.867847426874,10554.89606319619,-3695.525669518194
-17705.286169682287,-4511.476100859178,10951.505416811158,-3365.0551277464783
-17677.570006557704,-4494.824051239973,11006.066025026565,-3412.1502533138105
-17654.97239291339,-4461.341138045924,10822.558203048491,-3597.602677059493
-17649.049180632734,-4434.049658065994,10531.203214073565,-3806.815005161167
-17710.538829629284,-4468.918379416273,10543.362563057251,-3701.82886145459
-17747.55331844727,-4510.827900269974,10941.35772482845,-3367.6702818477493
-17719.054844266753,-4492.946504705728,10986.664710839355,-3417.291154538531
-17700.16762020202,-4466.5043910151,10797.52424925855,-3600.4413486053168
-17692.29980615375,-4438.698820912698,10506.102205050256,-3812.7829209307342
-17752.89538537209,-4472.002920151105,10518.865051134237,-3697.49262303026
-17773.615452482158,-4506.849289756929,10932.864061935434,-3358.394307898797
-17738.41145496505,-4492.275952372069,10986.195324205795,-3410.1385963128328
-17711.812879063236,-4465.699728214709,10789.9470078882,-3592.2829618791297
-17696.300768411253,-4443.1021145703935,10510.974885341511,-3802.9705051148544
-17750.302583015273,-4479.155478376803,10547.89996718168,-3677.621922209493
-17769.949766391488,-4519.925060263284,10954.791123246088,-3348.626595571828
-17725.84977458117,-4503.69769378873,10991.55974287507,-3413.424302747763
-17688.298843896253,-4474.416908552278,10799.222981837152,-3596.641552047915
-17668.159922142022,-4447.058373338982,10509.812594629837,-3800.534164969226
-17716.640855865582,-4484.162269134792,10559.031135920422,-3667.429526737872
-17729.64957113857,-4519.746246307641,10965.36349837345,-3344.357412380864
-17681.83918974867,-4495.427548340267,11001.618027879957,-3409.468043979173
-17648.244517832343,-4460.111792100882,10812.544621532516,-3590.4501188337945
-17636.286334548753,-4432.552091187488,10520.496728479471,-3790.721749153346
-17699.94410275747,-4473.053452140504,10583.126316443244,-3647.6705846393806
-17717.42316692152,-4502.356589121412,10984.295425927094,-3323.6373452707944
-17684.83432350568,-4482.55294353401,10994.621931865446,-3400.974381086157
-17657.229919103374,-4451.886350141329,10790.9975398776,-3588.2596478771748
-17641.695456706937,-4419.073989280938,10519.55795521235,-3789.738272397312
-17707.92367552801,-4458.927149644751,10593.363415403774,-3642.9096630704
-17731.951800817467,-4499.719083275686,10979.355690402472,-3337.830702999914
-17691.405736375542,-4477.836725453941,10999.494612156705,-3414.765407415081
-17668.517550053304,-4450.724059429653,10799.245333581608,-3597.110938681476
-17666.416486074508,-4433.155588287782,10506.526888194909,-3804.579830715637
-17734.365789218642,-4482.821164467474,10578.85713325228,-3646.955328816811
-17753.901213872578,-4521.556737608521,10983.401356148885,-3335.6849355322047
-17722.631123379604,-4505.016446711594,10985.390661405405,-3422.5885179744387
-17703.498030125862,-4480.451879555211,10786.281321797527,-3610.454930121295
-17697.68657656748,-4454.233283309136,10496.155678767644,-3809.363104029072
-17757.70101042998,-4494.399368095323,10598.973703262056,-3632.739619343236
-17768.653365213082,-4527.882281289373,10990.46450739676,-3328.0853424174006
-17720.619466378626,-4502.758920521608,10980.45092588078,-3422.1414830853323
-17685.9742624729,-4471.578237006454,10787.108336342377,-3607.1021684529983
-17671.289166365765,-4443.280928526036,10487.50555366344,-3803.797519659701
-17733.248201995873,-4485.928056946762,10606.372130676762,-3627.1516832294087
-17736.153928775064,-4510.671438058786,11006.17778374884,-3324.196138882177
-17696.50193411135,-4487.962065692194,10989.12340272944,-3427.528253499061
-17666.192968629955,-4455.127353087349,10778.167638560251,-3619.663848836881
-17661.364991827606,-4430.473378953145,10487.393794941165,-3815.554537243192
-17717.132594243598,-4466.8173154374745,10621.548965161915,-3622.3013546826073
-17719.814803578236,-4492.097138416426,11009.642304139412,-3327.8841767173026
-17680.0734019367,-4470.393594550324,10989.950417274287,-3424.8236924199696
-17649.853843433124,-4437.1789022897365,10796.09373761341,-3600.5531073275934
-17647.10457886512,-4413.77662584503,10509.678484163103,-3792.688702665413
-17718.384291933096,-4460.424716523256,10628.47800594306,-3598.116767181965
-17724.35220770266,-4481.323597588968,11016.660751898378,-3308.1475863632663
-17694.22205617691,-4464.0009956361055,10981.322643914538,-3421.985020874145
-17672.429105332983,-4440.062277324471,10751.881987080813,-3611.348999899507
-17659.88977669356,-4416.190614246204,10488.019643785912,-3794.901525366488
-17718.004312277357,-4462.145800846315,10653.24373879954,-3584.057519919577
-17720.75357684536,-4491.627751782865,11029.580060193546,-3301.6655804712277
-17683.202646160444,-4476.517972531077,10992.967902775754,-3414.9218696262683
-17652.44664578994,-4447.572463461454,10786.571894475448,-3601.8718602504564
-17654.279488835276,-4435.658983666776,10492.244123487964,-3798.8354323906224
-17715.143288987078,-4485.682187757753,10653.422552755184,-3581.732938496225
-17725.17922224751,-4518.114568962404,11020.147624033409,-3315.367199822331
-17680.16280891452,-4490.465461071189,10978.215751435251,-3429.0481721220226
-17653.1171981236,-4463.21868458017,10761.18031277422,-3621.720209326769
-17656.805235958724,-4448.533588473033,10478.0731175033,-3816.09097911012
-17713.355149430652,-4489.169059892781,10644.705372417617,-3594.8534124914904
-17708.54952437276,-4502.714217032697,11030.764702649678,-3324.9784499381126
-17677.88293098008,-4470.393594550324,10984.45188813828,-3446.482532797162
-17658.369858070597,-4429.646364408299,10771.596225690391,-3632.1361222429423
-17667.087038408165,-4406.10997749686,10489.807783342336,-3814.191080831418
-17738.143234031588,-4455.574387976455,10647.789913152446,-3588.1702408993533
-17738.389103220594,-4475.512144030588,11014.89496408641,-3329.068819173434
-17692.992710231865,-4445.78432390503,10978.707489813269,-3447.1754368752763
-17669.769247742803,-4422.0914747824045,10759.973318573631,-3637.925224056866
-17669.88100646508,-4409.574497887433,10482.387004183174,-3817.1862145884297
-17736.46685319744,-4466.9961293931165,10664.061983115913,-3583.8563542194797
-17736.824481108724,-4494.734644262153,11013.03976929662,-3332.131008163811
-17696.926617256002,-4471.153553861804,10959.50734132616,-3460.16180040381
-17666.103561652133,-4437.491826712111,10743.567138143437,-3654.979605076266
-17675.156018156533,-4425.935974828717,10462.02456498439,-3832.497159540315
-17742.680638156013,-4481.390652822334,10669.560512251915,-3580.704758251281
-17750.570803948736,-4513.733627049163,11017.979504821242,-3333.919147720236
-17718.540754144284,-4497.2827431300575,10937.289707337584,-3471.248265653642
-17683.984957216377,-4463.106925857893,10725.797501301467,-3654.085535298054
-17688.924692741002,-4448.064201839471,10468.283053431876,-3815.0180953762647
-17748.55914694776,-4499.204993153214,10681.652806002236,-3556.922502150834
-17738.970248576432,-4514.739455549652,11029.89298461592,-3316.4624353006407
-17693.395041632062,-4488.610266281398,10956.668669780334,-3456.4290590797737
-17663.041372661755,-4457.027251366049,10733.97823977211,-3650.8445323520345
-17658.280451092774,-4436.977736589639,10464.84088478576,-3809.4748627513486
-17713.019873263824,-4484.139917390337,10665.671308716692,-3548.540597980094
-17700.569951602218,-4495.919286718284,11030.362371249485,-3320.999839425068
-17665.902395952035,-4468.247827082614,10950.097256910474,-3469.4601260972177
-17645.517605008794,-4435.860149366874,10733.17357697172,-3662.53449470216
-17653.765398712803,-4418.939878814206,10476.799068069347,-3819.287278567229
-17723.18991699099,-4469.655986983298,10714.375759884806,-3545.523112478628
-17725.9838850479,-4492.052434927516,11042.722885933266,-3323.838510970892
-17695.74197479987,-4467.867847426874,10958.88149248141,-3472.7905360210584
-17675.133666412075,-4436.106018555882,10731.698361837667,-3667.362471504506
-17688.678823551993,-4426.3159544844575,10472.038146500368,-3820.337810556628
-17760.629088953625,-4485.793946480029,10710.419501116216,-3547.065382846044
-17751.062542326756,-4499.786138509052,11033.245746284218,-3333.6285750423167
-17719.32306520022,-4478.686091743242,10935.345105569972,-3485.061643727022
-17698.088907967678,-4452.333385030435,10699.243628888564,-3676.481983242272
-17703.430974892497,-4439.682297668731,10448.702925289026,-3818.080284366642
-17760.85260639818,-4491.024254682571,10695.376777097796,-3527.9769930812117
-17747.709780658457,-4506.156385678814,11019.7005891443,-3314.517833533029
-17705.174410960008,-4480.250713855114,10938.20612886025,-3463.9168934723016
-17668.361087842117,-4446.186655305226,10718.622591331316,-3657.2594830107073
-17674.351355356142,-4433.960251088172,10468.30540517633,-3797.7849004012232
-17731.99650430638,-4485.346911590924,10725.506928623548,-3505.64760037036
-17718.741919844382,-4501.350760620923,11025.46733921377,-3305.241859584077
-17675.40188734554,-4471.287664328535,10929.131320611395,-3459.2006753922315
-17640.801386928724,-4432.887367354318,10704.429233602195,-3651.649195152426
-17651.932555667467,-4424.237242250114,10461.085791717269,-3791.794632887201
-17713.198687219465,-4480.161306877292,10728.725579825114,-3498.763263078125
-17703.565085359227,-4495.740472762642,11017.174842020851,-3321.0221911695235
-17667.131741897076,-4464.671547969764,10923.453977519748,-3480.345425646952
-17646.29991606473,-4428.037038807516,10689.677082261693,-3676.4149280089055
-17671.870311721603,-4422.717323627153,10448.613518311206,-3811.330057541139
-17743.977039334422,-4481.211838866691,10727.183309457698,-3513.381303951896
-17748.0897603142,-4501.015484454094,11008.547068661102,-3344.625633314328
-17716.730262843404,-4474.595722507921,10904.20912554373,-3504.507661403139
-17689.751707285846,-4443.772666904052,10659.613985969305,-3699.4595765423273
-17714.69625409797,-4444.376164004346,10421.813776709292,-3828.876176938555
-17771.067353614253,-4495.025216940072,10749.758571357555,-3519.9080133328457
-17757.07516158523,-4506.89399324584,11028.507176459692,-3354.5274561080287
-17722.228791979407,-4483.1340888898485,10910.758186669134,-3516.4881964311835
-17699.385309146084,-4454.859132153885,10670.58869249686,-3712.758864493235
-17718.518402399826,-4452.489847241623,10435.984782693957,-3828.920880427466
-17763.46776049945,-4500.009655953605,10740.214376475142,-3511.45905392874
-17740.26664975484,-4506.335199634457,11027.031961325642,-3345.8102757704587
-17707.476640638906,-4481.368301077879,10913.596858214958,-3514.0742080300106
-17673.21141638892,-4443.325632014947,10675.997814655044,-3704.823995211601
-17687.293015395764,-4436.821274378452,10460.035259727869,-3809.050179606698
-17742.993562578387,-4491.068958171482,10772.42324023524,-3487.967370506212
-17723.07815826871,-4501.194298409736,11033.8045398956,-3336.7578192660594
-17679.58166355868,-4471.555885261999,10917.910744894833,-3502.8759840579014
-17645.785825942257,-4435.770742389052,10675.997814655044,-3700.688922487369
-17659.666259249003,-4431.881538853829,10449.462884600507,-3803.305781281684
-17712.70694884145,-4480.116603388382,10772.959682102166,-3478.8478587684467
-17695.518457355316,-4482.776460978564,11032.016400339176,-3337.920109977736
-17665.25419536283,-4452.623957708354,10899.314093508016,-3502.7865770800804
-17646.769302698292,-4420.0351142925165,10668.509980262515,-3694.2292683397854
-17684.409640361027,-4425.511291684066,10451.742762534948,-3795.236801533318
-17751.576632449225,-4480.653045255309,10768.355222744372,-3471.225913909187
-17739.75255963237,-4490.107833159904,11023.187461279327,-3331.4381040856965
-17710.292960440274,-4466.593797992921,10893.346177738453,-3496.1704607213096
-17685.1248961836,-4433.759085388075,10642.53725320545,-3695.168041606909
-17709.711815084436,-4439.369373246357,10447.697096788535,-3786.519621195748
-17768.631013468625,-4501.84249899894,10774.233731536118,-3459.580655047972
-17750.436693482006,-4512.012542726105,11008.591772150014,-3340.937595479202
-17708.527172628306,-4478.328463831957,10876.33650020796,-3514.7447603636697
-17676.586529801672,-4442.4986174701,10621.548965161915,-3716.916288961922
-17699.8770475241,-4444.219701793159,10434.151939648622,-3794.0968625660976
-17752.13542606061,-4498.243868141636,10777.586493204415,-3457.032556180067
-17729.60486764966,-4505.061150200504,11001.550972646592,-3345.095019947889
-17689.148210185554,-4480.563638277488,10873.207255984218,-3523.640754656882
-17651.664334734003,-4442.185693047725,10642.470197972085,-3721.0290099416975
-17672.0714774217,-4440.263443024569,10458.895320760646,-3789.6488654194914
-17724.911001314045,-4492.857097727907,10800.318217315462,-3444.3367653294526
-17701.240503935875,-4494.108795417404,11010.715187873267,-3338.6577175447605
-17658.123988881587,-4458.211893822181,10885.500715434637,-3512.174309751309
-17625.021055343277,-4420.593907903899,10632.724837389567,-3716.715123261824
-17648.82566318818,-4420.236279992614,10457.867140515702,-3780.574057170637
-17695.630216077592,-4464.068050869471,10813.729263988644,-3433.384410546352
-17682.241521148866,-4470.483001528144,11019.94645833331,-3338.836531500403
-17658.101637137133,-4446.387821005324,10872.58140713947,-3515.7282371197034
-17638.789729927747,-4408.658076364765,10616.8550988263,-3711.1048354035424
-17681.436858348472,-4421.420922448745,10453.64266081365,-3773.5109059227593
-17741.630106166616,-4478.619036509876,10815.495051800615,-3429.1822825887543
-17724.575725147217,-4484.586952279443,11017.778339121143,-3341.8987204907803
-17694.55733234374,-4461.765821190575,10876.33650020796,-3519.326867977008
-17674.798390245247,-4434.317878999457,10614.821090080868,-3725.722876277313
-17708.460117394938,-4444.063239581971,10451.87687300168,-3772.7956501001895
-17755.354077262175,-4496.947466963228,10812.969304677166,-3423.348477285919
-17731.99650430638,-4499.808490253507,11017.577173421048,-3343.910377491758
-17689.03645146328,-4465.230341581148,10881.164477010308,-3519.5950889104715
-17660.2697563493,-4432.105056298382,10619.984343050044,-3723.375943109506
-17694.55733234374,-4445.4490477382005,10460.92932950608,-3765.620740130036
-17746.860414369155,-4502.066016443493,10811.494089543115,-3421.448579007218
-17713.623370364116,-4496.835708240951,11006.066025026565,-3344.290357147498
-17674.172541400498,-4463.688071213731,10869.608625126912,-3519.5950889104715
-17640.86844216209,-4423.007896305072,10608.09321499982,-3722.101893675553
-17675.960680956923,-4433.2449952656025,10457.621271326694,-3754.824847558122
-17727.8837833266,-4491.515993060589,10822.178223392752,-3408.797491645514
-17691.673957309005,-4480.004844666105,11007.18361224933,-3341.3399268793974
-17646.29991606473,-4441.246919780603,10853.582424352458,-3518.365742965429
-17607.273770245763,-4394.151794213271,10591.932903758634,-3720.5372715636818
-17647.618668987594,-4403.20425071767,10456.011945725912,-3750.689774833891
-17699.139439957078,-4453.629786208843,10830.157796163296,-3397.487508951129
-17673.39023034456,-4448.444181495212,11002.75796684718,-3334.835569242903
-17651.977259156378,-4423.365524216357,10846.072238215476,-3515.2364987416863
-17646.523433509283,-4399.315047182447,10558.13706614221,-3732.78602752519
-17694.065593965723,-4420.772721859542,10449.887567745158,-3753.461391146349
-17744.647591668083,-4478.328463831957,10843.300621903018,-3400.0803113079446
-17712.70694884145,-4472.829934695952,11008.636475638925,-3348.0454502159896
-17679.514608325317,-4447.080725083438,10858.097476732431,-3524.423065712818
-17665.34360234065,-4424.013724805561,10582.008729220475,-3738.150446194464
-17710.516477884827,-4447.572463461454,10462.985689995969,-3753.1708184684303
-17750.50374871537,-4496.902763474317,10850.453180128716,-3398.515689196073
-17714.718605842427,-4488.878487214862,11011.050464040098,-3353.52162760754
-17681.749782770847,-4462.950463646706,10844.19469168123,-3537.6552984303594
-17654.391247557553,-4427.299431240491,10575.504371583984,-3747.918158521433
-17693.998538732354,-4443.169169803759,10477.111992491722,-3746.9346817654
-17732.80116710677,-4491.94067620524,10865.607662869414,-3392.0113315595786
-17695.78667828878,-4480.36247257739,11005.954266304288,-3360.025985244034
-17662.48257905037,-4446.276062283047,10841.400723624316,-3540.9410048652894
-17637.67214270498,-4411.049713021483,10560.640461521203,-3756.009490014254
-17668.361087842117,-4424.9077945837735,10459.565873094303,-3750.779181811712
-17693.59620733216,-4461.4528967682,10871.329709449972,-3394.9170583387686
-17657.1181603811,-4449.159437317781,10996.253609210684,-3370.039566760012
-17615.901543605512,-4411.697913610687,10849.380296394862,-3549.635833458404
-17586.66546185797,-4375.018700959528,10571.346947115297,-3760.368080183039
-17638.029770616267,-4400.857317549863,10472.418126156108,-3749.1922079553856
-17685.482524094885,-4448.824161150952,10868.111058248409,-3392.0336833040337
-17653.854805690626,-4437.514178456567,11005.239010481717,-3363.982244012624
-17635.235802559353,-4417.352904957879,10837.779741022558,-3549.4570195027613
-17627.0103605998,-4391.022549989528,10561.936862699613,-3763.184399984408
-17690.26579740832,-4423.946669572195,10482.655225116638,-3738.97746073931
-17731.97415256192,-4474.841591696929,10889.09934629194,-3381.595418643405
-17702.000463247357,-4468.516048016078,11004.70256861479,-3375.940427296213
-17669.143398898053,-4440.486960469122,10840.976040479663,-3558.554179496072
-17655.17355861349,-4413.06137002246,10554.04669690689,-3772.505077422271
-17699.340605657173,-4435.614280177865,10496.513306678928,-3730.886129246489
-17734.45519619646,-4482.754109234108,10895.20137252824,-3375.403985429285
-17703.07334698121,-4478.104946387404,11000.679254612834,-3380.678997120738
-17669.858654720625,-4447.416001250267,10830.38131360785,-3563.851542931979
-17646.836357931657,-4416.123559012837,10536.813501931849,-3776.6401501465034
-17687.471829351405,-4437.134198800826,10502.883553848693,-3728.203919911852
-17716.46204190994,-4478.306112087502,10905.7737476556,-3372.8111830724697
-17674.39605884505,-4460.111792100882,11002.51209765817,-3377.214476730165
-17640.041427617245,-4427.813521362963,10835.701028788211,-3556.766039939647
-17616.549744194715,-4394.464718635645,10547.9893741595,-3767.1183070085417
-17659.129817382076,-4417.129387513326,10512.159527797645,-3706.2992103456513
-17682.86736999361,-4457.5413414885215,10919.855346662443,-3354.505104363573
-17643.72946545237,-4437.78239939003,11006.781280849133,-3370.061918504467
-17610.71593889188,-4407.093454252894,10826.693275772725,-3556.1625428393536
-17587.29131070272,-4370.481296835101,10532.387856529696,-3765.240760474296
-17640.28729680625,-4394.487070380101,10499.061405546834,-3696.2856288296734
-17679.939291469967,-4442.789190148019,10915.362646026928,-3349.587720583406
-17647.149282354032,-4431.881538853829,10999.092280756508,-3374.420508673252
-17624.954000109912,-4407.96517228665,10818.534889046538,-3559.4258975298285
-17612.258209259297,-4377.2985788939695,10531.091455351288,-3770.7392896103015
-17674.172541400498,-4411.720265355142,10505.40930097214,-3694.3186753176064
-17714.51744014233,-4460.514123501078,10922.023465874609,-3349.163037438755
-17684.342585127662,-4449.651175695798,11002.534449402625,-3381.6401221323163
-17651.619631245092,-4420.728018370631,10816.411473323284,-3562.733955709214
