 EXG Channel 0, EXG Channel 1, EXG Channel 2, EXG Channel 3
12985.447107010736,-99783.46226018218,8810.387111948385,3079.3774818631987
12972.259577782104,-99799.063777812,8792.1257367284,3073.8342492382826
12970.51614171459,-99812.45247274073,8780.771050545103,3074.9965399499583
12976.931092373265,-99808.7644349056,8786.560152359027,3072.470792826509
12986.7658599336,-99796.560382433,8802.541649644572,3074.8400777387715
12987.99520587864,-99786.39033870582,8815.483309684196,3069.520362558408
12972.237226037649,-99805.2552110261,8796.886658297379,3074.348339360755
12968.348022502423,-99820.87908040037,8783.989701746666,3075.8459062392603
12981.177923819772,-99818.15216757682,8794.047986751555,3074.1695254051124
12992.085575113962,-99805.52343195956,8813.717521872226,3077.4775835844976
12989.738641946156,-99799.57786793444,8821.026542309111,3077.790508006872
12967.47630446867,-99816.8557663984,8802.385187433385,3073.007234693436
12961.396629976824,-99832.6584497283,8789.398823904852,3069.877990469693
12971.410211492805,-99827.87517641488,8798.473632153706,3070.526191058897
12984.262464554604,-99817.05693209852,8815.706827128748,3079.310426629833
12990.543304746549,-99808.25034478313,8825.854519111457,3083.3113888873327
12977.959272618207,-99827.71871420369,8809.046007281066,3083.154926676146
12976.70757492871,-99840.95094692124,8799.971199032212,3082.909057487137
12982.7648976761,-99839.43102829826,8804.866231067925,3083.557258076341
12999.640464739856,-99825.81881592498,8819.998362064167,3083.8031272653493
13003.931999675277,-99815.08997858645,8828.067341812533,3080.0927376857685
12981.826124408975,-99841.04035389904,8804.955638045745,3085.9712464775143
12978.294548785036,-99858.318252363,8794.584428618482,3091.8274035248046
12987.99520587864,-99854.94313895026,8801.98285603319,3083.981941220992
13001.42860429628,-99838.13462711986,8820.959487075745,3083.221981909512
12998.455822283724,-99833.97720265118,8827.79912087907,3085.166583677123
12981.513199986604,-99851.74683949316,8809.470690425718,3091.022740724414
12976.506409228614,-99867.46011584524,8797.132527486388,3100.1869559510897
12985.42475526628,-99866.78956351156,8802.318132200018,3097.7059123165504
13001.80858395202,-99852.30563310452,8818.634905652394,3096.7000838160616
13002.032101396571,-99843.25317660012,8825.832167367002,3094.576668092808
12982.653138953823,-99861.53690356456,8804.285085712087,3088.2958279008662
12978.495714485136,-99881.2287904297,8788.907085526835,3086.731205788995
12992.532610003069,-99881.0723282185,8797.959542031234,3101.438653640587
13008.603514266431,-99866.9236739783,8819.283106241597,3103.360903663743
13005.362511320414,-99863.81678149902,8821.138301031388,3101.2821914293995
12988.017557623096,-99885.18504919828,8797.64661760886,3095.984827993492
12987.57052273399,-99903.40172092937,8780.391070889364,3096.6106768382406
12999.126374617384,-99902.88763080689,8783.654425579838,3093.7273018035057
13016.96306669272,-99884.15686895336,8802.899277555856,3088.340531389777
13015.86783121441,-99880.08885146248,8802.742815344669,3084.406624365643
12991.57148499149,-99908.07323552053,8774.043175464056,3082.506726086942
12989.179848334772,-99922.17718627182,8762.39791660284,3090.016912223925
12997.360586805416,-99925.97698282922,8767.158838171821,3091.000388979958
13013.319732346505,-99912.72239836722,8788.817678549014,3096.3648076492323
13013.744415491155,-99903.04409301808,8796.529030386095,3090.106319201746
12995.483040271169,-99918.82442460352,8775.585445831472,3087.13353718919
12991.482078013669,-99933.39776198838,8761.25797763562,3085.948894733059
13000.33336881797,-99934.91768061134,8762.755544514126,3085.412452866132
13010.212839867216,-99924.85939560646,8773.551437086038,3081.925580731104
13013.498546302146,-99919.15970077035,8777.373585387897,3087.424109867109
12997.33823506096,-99936.32584051204,8758.441657834252,3089.748691290461
12991.057394869018,-99951.23445406371,8747.154026884322,3087.84879301176
12999.8192786955,-99950.42979126332,8751.311451353009,3081.6126563087296
13018.393578337858,-99936.72817191224,8771.11509694041,3092.341493647277
13015.33138934748,-99936.7952271456,8772.813829519013,3090.173374435112
12996.95825540522,-99959.25873032316,8751.758486242114,3084.004292965448
12996.33240656047,-99973.8991229414,8745.20942511671,3084.272513898911
13012.202145123738,-99974.97200667523,8752.026707175579,3095.7166070600283
13027.66955228681,-99964.62314899244,8767.53881782756,3093.794357036872
13019.354703349436,-99969.56288451709,8763.984890459167,3086.8876680001817
13005.966008420708,-99990.72998651623,8743.086009393455,3079.7574615189387
13000.847458940443,-100009.7513210477,8731.463102276695,3072.582551548785
13008.134127632871,-100015.78629205064,8736.358134312408,3081.210324908534
13024.205031896236,-100002.352893633,8760.676832279782,3080.137441174679
13021.902802217342,-99999.80479476508,8770.243378906653,3078.70692952954
13000.556886262524,-100022.42476015388,8749.791532730047,3073.431917838087
13000.623941495887,-100040.19439699584,8740.135579125355,3079.936275474581
13010.615171267413,-100043.43539994184,8746.617585017393,3083.758423776439
13022.819223740007,-100032.81832132558,8763.627262547883,3073.9013044716485
13019.935848705274,-100031.70073410282,8766.30947188252,3073.208400393534
13005.653083998332,-100052.37609772396,8749.568015285495,3081.433842353087
13003.596723508444,-100065.20599904133,8742.616622759893,3075.398871350154
13014.727892247189,-100064.75896415222,8752.183169386766,3073.6777870270957
13032.58693606698,-100052.93489133536,8772.769126030104,3076.404699850643
13035.112683190428,-100047.10108603252,8778.848800521946,3075.46592658352
13022.707465017733,-100064.80366764111,8759.82746599048,3075.2871126278774
13017.633619026376,-100080.38283352648,8748.785704229558,3075.980016705992
13024.495604574156,-100080.04755735963,8755.82650373298,3080.6962347860617
13038.95718323674,-100065.94360660836,8774.043175464056,3074.5271533163973
13035.112683190428,-100062.25556877322,8777.150067943343,3069.2968451138554
13015.934886447774,-100080.29342654864,8759.693355523748,3069.766231747417
13016.627790525888,-100092.83275518808,8752.987832187157,3072.761365504428
13027.177813908796,-100093.123327866,8758.553416556528,3069.185086391579
13043.606346083445,-100078.95232188134,8777.68650981027,3062.278397354889
13034.5762413235,-100079.4664120038,8777.552399343538,3058.568007775308
13015.420796325305,-100101.63934250348,8758.933396212267,3055.84109495176
13013.38678757987,-100117.9784677003,8750.77500948608,3059.283263597877
13028.518918576112,-100116.95028745536,8758.128733411877,3055.79639146285
13045.528596106602,-100102.75692972624,8776.59127433196,3057.070440896802
13037.213747169228,-100105.23797336078,8775.87601850939,3053.963548417514
13017.5218603041,-100127.92499398292,8755.357117099418,3053.874141439693
13016.627790525888,-100144.0406017352,8745.857625705914,3055.3270048292884
13028.898898231851,-100142.9900697458,8751.177340886277,3053.337699572766
13046.020334484618,-100133.95996498586,8765.191884659755,3052.845961194749
13044.746285050664,-100137.42448537642,8762.912006725313,3049.694365226551
13035.67147680181,-100152.71307858384,8746.327012339474,3053.2706443394
13035.96204947973,-100161.2961484547,8741.20846285921,3053.2259408504897
13045.260375173137,-100161.45261066587,8746.885805950858,3051.996594905448
13056.72682007871,-100145.35935465804,8764.029593948078,3047.682708225573
13046.623831584911,-100146.9463285144,8758.598120045439,3041.021888377892
13031.379941866391,-100163.2854537112,8742.30369833752,3050.879007682682
13031.20112791075,-100175.400099206,8737.162797112798,3052.823609450294
13039.6277355704,-100172.0920410266,8746.863454206403,3044.307594812822
13052.658802587845,-100158.1892559754,8764.87896023738,3040.150170344135
13047.026162985108,-100162.77136358872,8764.655442792826,3045.2016645910344
13033.548061078556,-100184.51961094375,8746.39406757284,3046.3192518137994
13039.068941959018,-100187.6041516786,8747.39989607333,3044.5981674907407
13049.931889764295,-100188.2523522678,8755.692393266248,3048.621481492696
13066.807456828054,-100175.31069222816,8774.780783031081,3047.213321592012
13060.861892802945,-100174.1931050054,8773.30556789703,3042.5194552563976
13046.668535073824,-100196.72366341636,8752.049058920033,3047.950929159037
13050.088351975484,-100211.11818684558,8744.941204183246,3051.594263505252
13062.270052703629,-100205.01616060927,8758.151085156333,3048.532074514875
13073.62473888692,-100195.60607619358,8775.227817920188,3054.0082519064254
13064.907558549352,-100198.66826518397,8772.813829519013,3049.023812892892
13053.597575854968,-100215.2532595698,8756.63116653337,3053.181237361579
13063.052363759562,-100223.23283234036,8754.820675232491,3058.143324630657
13075.05525053206,-100220.3047538167,8765.773030015593,3063.619502022207
13093.137811796403,-100199.31646577315,8790.136431471878,3068.022795679902
13081.224332001726,-100203.36213151958,8786.090765725467,3060.423202565098
13065.332241694005,-100223.03166664024,8769.617530061905,3061.339624087766
13068.6850033623,-100231.0112394108,8768.522294583594,3067.3298916017884
13080.531427923612,-100232.03941965572,8773.64084406386,3068.6933480135617
13093.7413088967,-100216.7061229594,8787.051890737044,3061.6078450212294
13087.795744871586,-100222.13759686204,8775.920721998302,3058.36684207521
13074.071773776028,-100244.69050701744,8750.909119952812,3056.690461241062
13069.936701051796,-100255.665213545,8742.840140204447,3049.672013482096
13083.660672147354,-100246.3668878516,8754.530102554572,3049.5155512709084
13100.670349677845,-100227.94905042042,8773.059698708023,3050.5213797713973
13086.722861137732,-100233.6040417676,8762.241454391653,3043.3911732901543
13073.15535225336,-100254.8158472557,8739.733247725158,3048.3532605592327
13082.565436669043,-100259.84498975814,8738.0121634021,3049.4708477819977
13092.02022457364,-100254.0111844553,8746.170550128289,3046.073382624791
13102.994931101195,-100242.6117947831,8759.179265401277,3038.9878796324588
13094.50126820818,-100246.99273669634,8751.333803097463,3046.3192518137994
13082.230160502217,-100264.67296656048,8733.407704044308,3051.236635593967
13083.414802958348,-100275.29004517676,8728.602078986416,3046.6098244917184
13098.859858376964,-100267.13165845055,8742.437808804252,3052.331871072277
13112.002684116684,-100252.2677483878,8759.82746599048,3051.7730774608945
13107.688797436813,-100252.64772804354,8758.620471789895,3054.6341007511737
13095.30593100857,-100269.65740557402,8743.980079171668,3055.215246107012
13100.536239211113,-100273.79247829824,8745.388239072352,3056.6457577521514
13109.186364315316,-100271.24437943034,8755.82650373298,3055.9081501851265
13123.223259833248,-100253.1171146771,8772.724422541192,3053.3824030616765
13109.5439922266,-100256.1122484341,8764.901311981836,3046.296900069344
13099.038672332606,-100278.53104812278,8746.081143150466,3052.689498983562
13105.855954391474,-100284.99070227036,8747.131675139866,3055.5505222738416
13121.41276853237,-100277.05583298871,8760.788591002058,3050.1861036045675
13129.280582580635,-100262.12486769258,8777.060660965522,3048.979109403981
13115.467204507257,-100272.45137363092,8770.511599840118,3048.532074514875
13107.97937011473,-100291.9197430515,8756.318242110998,3050.2308070934782
13116.40597777438,-100292.925571552,8762.241454391653,3058.344490330755
13127.715960468766,-100284.09663249216,8778.267655166108,3054.3211763287995
13145.060914166084,-100270.52912360778,8795.88082979689,3060.8031822208386
13136.366085572969,-100274.53008586528,8786.090765725467,3063.0607084108246
13124.631419733932,-100292.41148142952,8768.07525969449,3062.926597944093
13129.995838403209,-100296.05481577574,8768.49994283914,3066.011138678925
13141.506986797687,-100282.93434178048,8783.296797668552,3058.500952541942
13150.559443302089,-100266.39405088357,8800.351178687952,3062.4125078216207
13134.868518694464,-100276.47468763289,8789.488230882673,3063.6418537666627
13126.441911034814,-100294.89252506406,8770.958634729222,3070.213266636523
13130.55463201459,-100299.92166756652,8770.623358562394,3066.659339268129
13140.299992597103,-100295.2725047198,8783.520315113106,3068.022795679902
13149.665373523876,-100279.89450453456,8798.205411220242,3070.0568044253355
13140.724675741754,-100285.70595809292,8787.655387837338,3070.9285224590926
13128.475919780243,-100301.95567631192,8772.009166718623,3072.2696271264117
13135.002629161196,-100307.0742257922,8772.232684163177,3070.6826532700843
13145.038562421629,-100298.55821115473,8783.542666857562,3060.4902577984644
13155.275661382158,-100284.34250168117,8797.959542031234,3066.078193912291
13142.98220193174,-100293.88669656355,8786.336634914474,3061.5854932767743
13135.986105917227,-100308.5270891818,8769.21519866171,3060.9372926875703
13137.103693139994,-100316.01492357432,8764.87896023738,3058.970339175504
13144.390361832424,-100311.38811247208,8773.238512663665,3049.336737315266
13154.091018926028,-100296.61360938712,8787.230704692687,3044.441705279554
13141.238765864226,-100299.13935651055,8779.11702145541,3041.200702333534
13123.916163911364,-100317.423083475,8760.073335179488,3034.249309807934
13124.07262612255,-100328.39779000256,8755.781800244069,3034.450475508032
13142.959850187284,-100320.99936258786,8766.30947188252,3043.882911668171
13156.88498698294,-100303.07326353472,8778.669986566305,3039.501969754931
13146.98316418924,-100302.4697664344,8766.82356200499,3033.221129562989
13131.78397795963,-100318.65242942004,8747.757523984614,3032.9305568850705
13137.863652451477,-100316.79723463026,8751.557320542017,3033.891681896649
13149.46420782378,-100306.78365311428,8762.576730558483,3037.914995898604
13157.644946294422,-100292.85851631862,8775.205466175732,3030.091885339247
13141.663449008876,-100304.5261269243,8761.637957291361,3030.337754528255
13132.856861693486,-100321.1334730546,8746.25995710611,3033.154074329624
13140.41175131938,-100316.23844101888,8745.96938442819,3028.4155045050984
13149.620670034968,-100308.84001360416,8753.703088009726,3026.8955858821378
13159.6566032954,-100291.74092909586,8769.952806228734,3024.7051149255176
13153.129893914447,-100291.36094944012,8763.135524169866,3028.795484160839
13141.484635053235,-100308.5270891818,8743.175416371276,3033.690516196551
13139.942364685818,-100316.88664160809,8739.845006447436,3033.869330152193
13153.711039270289,-100307.45420544794,8754.574806043483,3032.729391184973
13167.099734199017,-100290.5786383842,8770.176323673288,3035.992745875448
13158.51666432818,-100298.91583906602,8756.474704322185,3043.748801201439
13150.447684579813,-100311.96925782792,8742.191939615243,3044.464057024009
13153.487521825737,-100316.5737171857,8742.638974504349,3041.8712546671936
13164.79750452012,-100304.50377517984,8761.056811935523,3053.4494582950424
13171.03364122315,-100289.63986511706,8776.703033054237,3050.3872693046656
13152.12406541396,-100302.44741468996,8761.615605546905,3042.9217866565928
13146.871405466964,-100313.89150785108,8750.819712974991,3056.824571707794
13154.962736959784,-100313.66799040652,8752.339631597952,3050.879007682682
13166.69740279882,-100299.96637105542,8767.225893405186,3044.2628913239114
13167.278548154658,-100292.09855700716,8779.295835411052,3051.907187927626
13148.816007234574,-100300.97219955592,8766.532989327072,3046.542769258353
13139.27181235216,-100312.81862411722,8750.797361230536,3048.956757659526
13148.950117701306,-100311.18694677198,8751.40085833083,3046.073382624791
13163.814027764089,-100293.43966167446,8770.086916695467,3044.844036679749
13170.676013311866,-100272.92076026447,8788.147126215354,3043.9946703904475
13157.220263149771,-100283.64959760304,8771.808001018524,3052.1530571166345
13157.712001527789,-100292.7691093408,8762.241454391653,3055.9528536740368
13167.703231299309,-100295.16074599752,8763.962538714712,3055.438763551565
13179.683766327356,-100282.15203072454,8777.485344110173,3061.7643072324167
13186.433993152858,-100263.1083444486,8791.522239628106,3056.824571707794
13170.094867956028,-100271.89258001954,8774.758431286626,3048.085039625769
13164.08224869755,-100283.49313539184,8765.013070704112,3052.8683129392043
13169.379612133458,-100283.35902492511,8769.796344017548,3060.758478731928
13177.783868048651,-100271.80317304171,8780.838105778468,3055.237597851467
13177.672109326377,-100260.7614112808,8788.392995404363,3047.973280903492
13166.65269930991,-100268.85274277364,8775.674852809292,3047.1239146141907
13158.114332927982,-100286.3765104266,8758.0169746896,3050.856655938227
13161.578853318557,-100289.79632732824,8757.25701537812,3047.7944669478497
13173.917016257885,-100274.95476900991,8772.523256841094,3045.782809946872
13183.684728584854,-100259.6661758025,8783.207390690732,3052.13070537218
13163.568158575075,-100273.59131259816,8765.661271293315,3055.5505222738416
13153.17459740336,-100295.94305705346,8745.812922217003,3046.341603558255
13163.12112368597,-100297.75354835436,8746.729343739671,3044.6205192351963
13176.778039548164,-100289.08107150569,8756.139428155355,3043.435876779065
13184.757612318708,-100276.29587367724,8764.811905004013,3034.7857516748613
13168.843170266531,-100289.9751412839,8747.77987572907,3043.6146907347074
13158.382553861447,-100308.43768220398,8729.876128420368,3034.986917374959
13168.843170266531,-100309.39880721556,8730.211404587199,3046.274548324889
13189.965568776795,-100292.5232401518,8746.885805950858,3044.17348434609
13191.396080421937,-100285.50479239284,8752.87607346488,3040.820722677794
13176.331004659058,-100300.70397862243,8734.43588428925,3043.145304101146
13171.234806923248,-100317.31132475274,8721.605982971905,3044.5534640018304
13177.694461070832,-100315.9255165965,8723.975267884167,3037.4456092650425
13189.764403076697,-100298.2676384768,8741.163759370298,3039.211397077012
13186.165772219394,-100291.24919071783,8748.15985538481,3034.4281237635764
13167.546769088123,-100305.30843798025,8731.217233087687,3037.4009057761323
13163.925786486365,-100324.5309382118,8716.420378258274,3046.8780454251823
13178.052088982116,-100327.25785103536,8722.25418356111,3050.4319727935763
13192.200743222324,-100312.84097586168,8738.0121634021,3044.88874016866
13192.871295555986,-100296.79242334276,8749.031573418568,3043.7711529458948
13171.234806923248,-100308.99647581537,8729.719666209181,3039.904301155126
13165.043373709128,-100325.11208356764,8715.861584646891,3042.3182895562995
13177.783868048651,-100323.16748180002,8722.209480072199,3044.776981446383
13197.922789802884,-100310.80696711624,8738.414494802297,3045.2687198244003
13202.080214271571,-100299.0723012772,8748.673945507282,3043.2794145678777
13181.293091928135,-100312.4833479504,8729.004410386611,3039.658431966118
13174.855789525009,-100329.56008071423,8713.58170671245,3048.465019281509
13181.360147161502,-100332.42110400452,8714.63223870185,3048.88970242616
13198.213362480805,-100313.22095551742,8734.793512200536,3042.273586067389
13202.90722881642,-100302.06743503422,8744.20359661622,3039.07728661028
13182.813010551095,-100320.3735137431,8721.851852160913,3038.831417421272
13172.307690657102,-100342.05470586476,8704.417491485774,3051.147228616146
13182.164809961892,-100342.90407215408,8707.81495664298,3045.067554124302
13195.28528395716,-100330.5882609592,8723.416474272784,3038.630251721174
13202.549600905131,-100316.79723463026,8735.15114011182,3039.9713563884925
13188.333891431555,-100330.8788336371,8717.448558503218,3042.430048278576
13180.957815761309,-100348.5814152457,8702.29407576252,3040.0384116218584
13187.864504797995,-100347.21795883392,8706.2056310422,3039.3678592881997
13195.307635701614,-100334.54451972776,8721.337762038442,3035.7468766864395
13200.627350881978,-100317.53484219727,8733.474759277673,3030.181292317068
13174.52051335818,-100334.65627845006,8710.2065932997,3028.3037457828223
13170.117219700483,-100347.59793848968,8695.745014637116,3039.524321499386
13184.13176347396,-100345.5415779998,8702.651703673804,3043.860559923716
13199.107432259016,-100330.47650223692,8721.069541104978,3034.7633999304057
13197.431051424868,-100326.31907776822,8723.572936483972,3026.6050132042187
13180.22020819428,-100339.12662734112,8703.925753107756,3028.527263227375
13177.023908737172,-100349.6319472351,8692.638122157827,3034.8751586526823
13187.976263520271,-100348.40260129009,8697.823726871458,3041.7147924560063
13197.27458921368,-100339.19368257448,8708.418453743274,3035.366897030699
13202.303731716123,-100325.9838016014,8717.605020714405,3032.371763273688
13189.339719932046,-100335.55034822828,8701.556468195495,3028.12493182718
13180.443725638836,-100354.61638624864,8683.071575530956,3041.3124610558107
13183.997653007227,-100357.29859558328,8683.742127864614,3043.100600612235
13203.42131893889,-100338.433723263,8704.261029274587,3037.6467749651406
13208.13753701896,-100326.7214091684,8712.844099145424,3037.914995898604
13195.732318846263,-100345.27335706633,8695.141517536822,3038.6749552100846
13191.776060077676,-100354.57168275974,8685.23969474312,3038.2279203209782
13196.268760713192,-100356.89626418307,8687.161944766278,3036.4621325090093
13205.835307340065,-100346.8379791782,8702.338779251431,3029.9577748725146
13201.342606704548,-100342.52409249832,8706.585610697939,3029.756609172417
13186.523400130678,-100360.00315666237,8687.027834299544,3030.2483475504337
13183.70708032931,-100372.944816702,8674.510857404573,3029.019001605392
13196.671092113387,-100366.77573523232,8685.686729632227,3033.310536540811
13208.070481785597,-100353.6329094926,8703.121090307366,3032.081190595769
13203.600132894531,-100350.6377757356,8706.071520575468,3028.5719667162857
13189.585589121056,-100365.63579626512,8689.464174445173,3029.801312661328
13186.27753094167,-100380.5891133057,8680.702290618694,3034.115199341202
13195.777022335174,-100381.79610750628,8688.078366288944,3028.728428927473
13208.293999230147,-100369.7932207338,8701.556468195495,3027.9014143826266
13208.04813004114,-100366.50751429886,8704.81982288597,3028.6166702051964
13192.915999044895,-100385.35003487467,8687.854848844392,3032.774094673884
13189.585589121056,-100396.1012239577,8678.020081284056,3035.3892487751546
13195.777022335174,-100397.91171525855,8677.61774988386,3030.047181850336
13211.959685320817,-100385.35003487467,8691.229962257143,3031.209472562012
13216.09475804505,-100378.57745630472,8694.985055325635,3026.0238678483806
13203.04133928315,-100392.16731693356,8676.701328361194,3031.209472562012
13201.007330537715,-100408.66290434156,8665.056069499979,3034.8751586526823
13211.222077753791,-100403.32083741676,8675.360223693875,3033.310536540811
13221.347417992049,-100391.943799489,8689.263008745076,3028.12493182718
13220.878031358485,-100384.97005521896,8692.794584369014,3021.3523532572217
13201.007330537715,-100406.2489159404,8671.202799225188,3022.3581817577106
13196.268760713192,-100422.63274462614,8661.81506655396,3022.246423035434
13202.4154904384,-100422.18570973704,8668.185313723721,3022.916975369093
13216.273572000691,-100411.0992444872,8684.055052286989,3023.0063823469145
13214.4183772109,-100409.75813981988,8685.53026742104,3010.1094257962022
13199.554467148122,-100424.13031150465,8669.347604435397,3004.074454793269
13194.301807201124,-100435.57440466576,8661.591549109406,2999.40294020211
13208.785737608165,-100433.67450638706,8672.56625563696,3009.796501373828
13223.00144708174,-100422.16335799258,8689.888857589825,3014.1997950315235
13219.492223202256,-100420.17405273604,8690.76057562358,3016.5690799437857
13199.643874125944,-100440.51414019038,8669.325252690942,3023.252251535923
13194.212400223303,-100455.9144921201,8659.021098497045,3024.079266080769
13204.315388717105,-100453.3663932522,8668.028851512534,3024.146321314135
13217.99465632375,-100440.7600093794,8683.183334253232,3024.302783525322
13216.85471735653,-100434.14389302062,8685.731433121138,3017.463149721998
13201.633179382468,-100450.214797284,8671.359261436375,3035.0316208638696
13200.247371226236,-100462.97764336797,8666.754802078582,3033.534053985364
13209.23277249727,-100462.8658846457,8675.874313816346,3027.40967600461
13224.700179660342,-100448.49371296092,8696.773194882058,3021.240594534945
13223.80610988213,-100443.57632918077,8699.81303212798,3018.401922989121
13206.4164526959,-100463.64819570162,8678.534171406529,3019.474806722976
13198.839211325552,-100480.52376276538,8669.660528857772,3020.7041526680177
13209.18806900836,-100478.6685679756,8679.025909784545,3018.848957878228
13223.76140639322,-100463.64819570162,8698.963665838679,3024.6157079476966
13220.922734847396,-100463.29056779036,8699.477755961152,3030.3601062727103
13201.744938104745,-100488.212762858,8675.092002760412,3024.50394922542
13196.916961302397,-100506.94352471156,8664.184351466221,3027.275565537878
13208.629275396976,-100511.61503930272,8667.403002667786,3021.6429259351407
13223.4708337153,-100496.6170187732,8685.060880787478,3015.116216554191
13221.66034241442,-100496.5276117954,8690.000616312102,3029.3542777722214
13211.020912053697,-100514.96780097102,8675.203761482688,3033.869330152193
13208.964551563806,-100526.6801150656,8667.447706156696,3032.751742929428
13219.04518831315,-100527.50712961044,8675.293168460508,3036.216263320001
13229.751673907242,-100516.21949866052,8693.062805302477,3029.9130713836043
13223.269668015202,-100514.29724863736,8695.253276259098,3034.0928475967467
13202.70606311632,-100536.1796064591,8675.628444627338,3036.7303534424727
13207.399929451934,-100549.72476359902,8669.213493968666,3035.07632435278
13220.721569147296,-100548.74128684298,8677.863619072868,3031.7682661733947
13236.345438521555,-100535.46435063652,8695.901476848303,3030.2036440615234
13236.278383288192,-100528.51295811094,8697.376691982352,3031.0306586063693
13216.675903400888,-100545.09795249676,8677.237770228121,3031.723562684484
13209.389234708457,-100558.57605440333,8667.872389301347,3032.2153010625007
13213.52430743269,-100562.66642363864,8675.583741138427,3034.405772019121
13234.33378152058,-100546.14848448616,8699.500107705606,3035.053972608325
13232.635048941976,-100546.57316763082,8698.427223971752,3039.1219900991905
13216.340627234058,-100568.3437667303,8678.24359872861,3035.3221935417887
13216.787662123164,-100578.24558952398,8674.801430082493,3039.7031354550286
13232.590345453063,-100572.47883945452,8684.613845898371,3032.7070394405177
13253.24335732977,-100551.490551411,8708.753729910104,3034.897510397137
13242.71568569132,-100550.84235082178,8710.2065932997,3038.4514377655314
13224.342551749058,-100569.81898186434,8693.554543680495,3040.910129655615
13224.253144771235,-100580.05608082488,8689.821802356459,3042.9888418899586
13233.52911872019,-100576.03276682291,8696.795546626514,3038.250272065434
13242.782740924686,-100561.70529862706,8713.29113403453,3039.4796180104754
13236.390142010468,-100557.30200496936,8716.599192213916,3038.7420104434505
13219.268705757702,-100576.34569124528,8696.080290803944,3042.5865104897634
13217.771138879198,-100588.70620592908,8690.849982601403,3054.3211763287995
13232.009200097227,-100581.30777851435,8702.808165884991,3047.7050599700287
13249.354153794546,-100563.35932771675,8720.689561449237,3050.990766404959
13244.61558397002,-100563.67225213912,8714.699293935215,3049.7837722043723
13227.963534350818,-100591.5895809638,8688.368938966863,3047.928577414581
13229.52815646269,-100604.57594449236,8682.557485408484,3051.3930978051544
13243.453293258346,-100600.01618862346,8696.639084415327,3047.995632647948
13255.992621897773,-100582.51477271496,8718.476738748162,3046.542769258353
13245.24143281477,-100582.49242097048,8716.621543958372,3040.440743022054
13226.4212639834,-100598.18334557812,8699.924790850257,3044.7099262130173
13228.14234830646,-100603.07837761384,8697.1531745378,3048.2862053258664
13239.519386234211,-100596.7975374219,8707.747901409615,3051.08017338278
13253.556281752144,-100581.39718549218,8724.422302773273,3051.527208271886
13246.515482248722,-100578.13383080171,8723.148253339321,3050.4766762824866
13222.263839514711,-100599.9491333901,8700.193011783722,3050.3202140713
13225.728359905286,-100606.07351137084,8698.829555371947,3058.2327316084784
13239.027647856194,-100599.85972641228,8707.636142687339,3054.835266451272
13254.964441652828,-100583.18532504862,8723.304715550508,3054.432935051076
13248.840063672074,-100584.10174657128,8719.77313992657,3048.8673506817045
13234.266726287216,-100605.4029590372,8699.164831538777,3050.923711171593
13233.506766975734,-100614.92480217514,8693.845116358414,3055.5728740182967
13238.155929822438,-100608.46514802756,8704.596305441417,3047.749763458939
13248.571842738613,-100590.67315944114,8722.96943938368,3042.6088622342186
13242.29100254667,-100591.20960130807,8717.627372458861,3040.8654261667048
13227.628258183988,-100610.25328758398,8699.43305247224,3041.245405822445
13222.934391848374,-100621.47386330056,8694.180392525244,3047.369783803199
13231.360999508024,-100615.46124404208,8701.936447851234,3042.3853447896654
13241.642801957463,-100602.60899098028,8714.475776490663,3042.3629930452103
13232.947973364351,-100604.3524270478,8708.552564210006,3033.93638538556
13219.067540057606,-100625.4971773025,8686.536095921529,3032.394115018143
13221.19095578086,-100641.03163969897,8677.483639417129,3042.5865104897634
13232.165662308416,-100634.9519652071,8688.81597385597,3040.88777791116
13239.206461811837,-100619.12693013274,8703.38931124083,3030.471864994987
13227.80707213963,-100629.49813956,8691.38642446833,3027.610841704708
13218.061711557117,-100649.03356421394,8673.080345759434,3037.959699387515
13215.75948187822,-100661.17056145318,8664.47492414414,3038.630251721174
13225.147214549448,-100655.20264568362,8674.421450426753,3030.717734183995
13243.274479302703,-100638.7517617645,8692.19108726872,3029.4213330055877
13230.846909385553,-100646.59722406832,8681.574008652451,3030.047181850336
13212.85375509903,-100667.83138130086,8661.18921770921,3030.985955117459
13217.547621434644,-100674.00046277052,8662.932653776725,3039.144341843646
13232.277421030692,-100664.74684056603,8676.567217894462,3033.109370840713
13243.90032814745,-100649.25708165848,8691.274665746054,3027.8343591492608
13236.345438521555,-100638.21531989756,8693.57689542495,3019.74302765644
13215.55831617812,-100661.63994808674,8671.33690969192,3023.7216381694843
13215.580667922575,-100677.6661488612,8664.117296232855,3026.850882393227
13230.444577985356,-100670.7594598245,8674.153229493288,3014.3339054982557
13237.15010132195,-100652.72160204907,8692.213439013176,3013.55159444232
13223.157909292926,-100655.31440440589,8687.29605523301,3013.015152575392
13208.539868419157,-100676.6156168718,8668.878217801835,3017.2396322774453
13215.04422605565,-100686.36097745431,8667.648871856794,3019.094827067236
13227.963534350818,-100679.99073028455,8681.216380741165,3019.07247532278
13236.837176899577,-100666.1102969778,8696.14734603731,3021.061780579302
13218.844022613051,-100675.43097441566,8682.15515400829,3014.982106087459
13203.644836383444,-100695.54754442544,8659.177560708233,3010.1094257962022
13204.42714743938,-100705.53877419696,8652.42733388273,3010.623515918674
13210.931505075874,-100703.9294485962,8660.205740953177,3006.711960638996
13223.13555754847,-100682.85175357484,8683.116279019867,3004.5885449157413
13206.505859673724,-100689.40081470025,8675.226113227143,3007.695437395029
13192.156039733416,-100711.14906205524,8656.450647884685,3000.408768702599
13197.252237469223,-100715.59705920186,8656.741220562604,2997.3242279677665
13210.238600997758,-100710.05382657691,8670.934578291724,2996.541916911831
13223.09085405956,-100693.4688321911,8691.431127957241,2999.7382163689394
13210.640932397955,-100699.6155619163,8683.138630764322,3002.4874809369426
13194.570028134587,-100723.64368720575,8663.782020066026,3002.7109983814958
13199.018025281195,-100730.9750593871,8663.96083402167,3007.203699017012
13211.982037065272,-100719.24039354808,8677.036604528023,3003.426254204065
13222.75557789273,-100699.59321017184,8694.739186136627,3005.817890860784
13206.259990484714,-100715.12767256828,8680.47877317414,3009.572983929275
13202.348435205036,-100726.99644887404,8667.470057901151,3010.3999984741213
13207.824612596583,-100729.7233616976,8667.2465404566,3011.7411031414395
13218.66520865741,-100719.79918715944,8680.81404934097,3007.8295478617606
13227.404740739436,-100703.68357940717,8695.879125103847,3011.919917097082
13213.99369406625,-100712.31135276692,8684.636197642827,3022.045257335336
13205.880010828974,-100728.96340238611,8670.264025958066,3020.8159113902943
13212.496127187746,-100731.10916985384,8671.493371903107,3021.039428834847
13219.224002268793,-100723.50957673904,8680.031738285033,3019.318344511789
13225.348380249548,-100708.55625969842,8692.794584369014,3009.4612252069983
13211.535002176166,-100719.39685575926,8679.316482462464,3000.9899140584366
13201.119089259992,-100738.95463215763,8663.089115987912,3011.852861863716
13205.47767942878,-100741.18980660316,8663.066764243456,3018.1560538001127
13212.13849927646,-100733.99254488856,8671.38161318083,3011.0929025522355
13216.38533072297,-100719.35215227034,8683.76447960907,3002.979219314959
13200.962627048806,-100727.73405644108,8670.688709102717,3002.822757103772
13191.910170544406,-100747.85062645086,8653.969604250145,3004.141510026635
13199.107432259016,-100751.44925730817,8653.410810638763,3003.716826881984
13209.366882964005,-100745.2801758385,8662.70913633217,2999.693512880029
13216.56414467861,-100736.07125712292,8676.05312777199,3006.622553661174
13198.258065969714,-100746.84479795035,8662.172694465244,3000.811100102794
13184.399984407424,-100767.31899587144,8638.859824998359,2990.283428464345
13192.42426066688,-100766.9837197046,8641.027944210524,2989.54582089732
13210.752691120231,-100753.52796954253,8659.691650830704,2998.911201824093
13229.841080885064,-100736.00420188956,8676.254293472088,2995.312570966789
13209.85862134202,-100750.62224276332,8659.42342989724,2991.8704023206715
13196.89460955794,-100770.6941092842,8641.340868632897,2990.8198703312723
13195.017063023695,-100781.9370367452,8636.021153452535,2992.049216276314
13208.159888763415,-100766.7825540045,8655.064839728457,2996.0948820227245
13212.943162076852,-100751.35985033034,8669.660528857772,3001.347541969722
13191.574894377578,-100771.029385451,8652.784961794016,3004.990876315937
13185.18229546336,-100790.25188568258,8640.267984899043,3001.347541969722
13195.352339190524,-100788.86607752634,8643.061952955955,2999.201774502012
13207.914019574408,-100781.24413266708,8652.80731353847,2998.531222168353
13214.865412100007,-100767.8330859939,8666.643043356305,2995.089053522236
13201.253199726723,-100778.00312972108,8652.33792690491,2998.6429808906296
13190.502010643722,-100794.40931015128,8637.1387406753,3008.276582750867
13196.157001990916,-100794.20814445116,8641.273813399532,3010.7352746409506
13206.28234222917,-100786.56384784746,8653.388458894307,3002.465129192487
13213.770176621698,-100770.91762672874,8667.984148023623,3000.6099344026966
13198.168658991894,-100776.61732156485,8657.769400807549,2994.664370377585
13185.763440819195,-100789.35781590435,8645.721810546138,2995.983123300448
13187.171600719885,-100792.62117059484,8647.532301847017,2997.7489111124173
13207.221115496292,-100774.65036805275,8669.81699106896,3003.8285856042608
13213.144327776949,-100762.51337081354,8681.976340052646,3001.034617547348
13193.318330445092,-100778.36075763236,8664.653738099783,3000.11819602468
13183.014176251196,-100796.13039447433,8647.08526695791,2996.944248312026
13190.613769365998,-100791.92826651673,8650.482732115119,2998.173594257068
13200.023853781684,-100781.19942917816,8663.893778788302,3001.504004180909
13204.628313139478,-100767.4754580826,8676.969549294658,2991.9374575540373
13182.56714136209,-100785.35685364688,8657.344717662898,2992.965637798982
13173.42527787987,-100802.36653117737,8640.826778510425,2991.758643598395
13183.260045440204,-100805.7416445901,8642.324345388932,2998.6429808906296
13201.744938104745,-100794.9904555071,8657.121200218344,2999.939382069037
13213.077272543584,-100776.61732156485,8676.433107427729,2997.726559367962
13195.732318846263,-100790.56481010494,8661.211569453666,2993.4573761769984
13183.79648730713,-100808.06622601346,8641.609089566362,2990.2387249754343
13189.540885632145,-100805.3393131899,8643.441932611697,2988.383530185644
13199.71092935931,-100793.38112990632,8655.62363333984,2993.300913965811
13205.27651372868,-100779.81362102197,8667.023023012045,2992.4291959320544
13190.99374902174,-100791.81650779444,8650.66154607076,2993.5467831548194
13181.18133320586,-100811.32958070392,8632.958964462157,3002.599239659219
13189.786754821152,-100809.38497893632,8634.836510996403,2993.2562104769004
13199.75563284822,-100798.70084508669,8642.771380278038,2990.574001142264
13204.76242360621,-100784.26161816856,8654.327232161431,2989.344655197222
13191.84311531104,-100796.2421531966,8643.486636100608,3000.520527424876
13185.629330352464,-100811.93307780422,8630.813196994448,2995.156108755601
13190.881990299464,-100812.6483336268,8634.121255173834,2987.8917918076268
13201.85669682702,-100802.7018073442,8649.678069314727,3000.252306491412
13203.018987538697,-100792.2411909391,8659.311671174964,2990.663408120085
13184.735260574254,-100806.05456901249,8641.430275610719,2986.729501095951
13176.554522103612,-100816.67164762875,8629.628554538316,2989.5234691528644
13185.584626863556,-100813.40829293829,8635.976449963624,2997.6595041345963
13201.700234615832,-100800.13135673184,8653.120237960844,2996.541916911831
13211.199726009338,-100786.85442052536,8665.52545613354,3001.2581349919005
13196.872257813486,-100799.90783928728,8648.918110003247,3001.6828181365518
13190.23378971026,-100814.95056330568,8635.66352554125,3008.902431595616
13195.665263612898,-100813.31888596046,8639.195101165187,3003.4486059485207
13212.18320276537,-100794.76693806254,8659.311671174964,3002.375722214666
13223.716702904308,-100774.71742328614,8676.231941727632,3012.6798764085624
13200.068557270592,-100795.72806307412,8654.438990883707,3011.875213608171
13191.127859488472,-100811.41898768175,8638.926880231724,3006.890774594638
13202.527249160676,-100810.18964173672,8647.062915213457,3012.322248497277
13220.296886002649,-100797.42679565272,8667.358299178875,3014.646829920629
13219.916906346907,-100783.14403094578,8681.998691797102,3006.600201916719
13202.929580560873,-100796.3986154078,8666.933616034225,3005.5496699273194
13196.671092113387,-100812.26835397106,8651.175636193233,3013.886870609149
13202.6166561385,-100811.10606325936,8655.62363333984,3019.474806722976
13220.363941236012,-100790.3412926604,8676.05312777199,3014.3115537538
13224.208441282326,-100777.80196402095,8686.022005799057,3013.6410014201406
13207.399929451934,-100790.96714150514,8670.264025958066,3017.6196119331853
13196.827554324576,-100805.67458935674,8656.025964740034,3007.047236805825
13203.622484638989,-100802.9923800221,8660.161037464266,3009.7741496293725
13218.53109819068,-100783.97104549065,8679.204723740188,3015.5408996988417
13216.13946153396,-100772.16932441824,8685.53026742104,3014.043332820336
13197.766327591698,-100787.05558622548,8666.173656722744,3015.2726787653783
13191.261969955203,-100800.86896429885,8654.684860072715,3014.8703473651826
13201.141441004447,-100799.90783928728,8659.535188619517,3016.814949132794
13218.821670868598,-100786.1391647028,8676.522514405551,3024.50394922542
13221.593287181056,-100777.95842623216,8684.680901131738,3019.74302765644
13205.701196873331,-100786.72031005863,8668.989976524112,3017.9995915889253
13193.206571722814,-100800.31017068746,8655.62363333984,3016.9043561106155
13196.738147346754,-100798.65614159778,8660.116333975355,3006.019056560881
13210.462118442312,-100781.95938848966,8679.472944673651,3010.020018818381
13208.025778296684,-100773.71159478564,8683.563313908973,3005.2590972494004
13194.145344989938,-100787.1896966922,8666.508932889574,3020.1006555677245
13193.921827545384,-100800.77955732105,8655.33306066192,3026.2920887818445
13202.013159038206,-100800.77955732105,8658.1940839522,3021.866443379693
13219.335760991067,-100781.86998151185,8680.47877317414,3023.4087137471097
13216.206516767326,-100777.84666750988,8684.792659854014,3017.172577044079
13204.605961395022,-100792.57646710592,8668.833514312926,3024.079266080769
13201.23084798227,-100808.40150218028,8655.198950195188,3028.214338805001
13208.98690330826,-100803.70763584466,8660.675127586737,3020.637097434652
13216.206516767326,-100786.34033040288,8677.237770228121,3018.5583852003083
13212.786699865665,-100775.43267910872,8680.81404934097,3007.270754250378
13199.912095059408,-100789.24605718208,8661.81506655396,3011.294068252333
13193.094813000538,-100801.60657186588,8651.823836782436,3017.664315422096
13198.70510085882,-100799.97489452064,8657.724697318637,3011.3611234856994
13214.597191166544,-100785.62507458033,8675.136706249323,3009.21535601799
13211.892630087452,-100781.06531871144,8679.070613273456,3014.155091542613
13193.340682189546,-100798.29851368647,8659.199912452688,3014.982106087459
13187.216304208792,-100814.07884527191,8645.252423912576,3021.039428834847
13195.397042679437,-100812.06718827096,8648.51577860305,3015.116216554191
13208.115185274504,-100796.8903537858,8666.017194511556,3011.8975653526268
13214.373673721992,-100783.12167920131,8676.746031850103,3017.463149721998
13197.431051424868,-100798.7455485756,8656.897682773792,3019.117178811691
13188.579760620569,-100813.31888596046,8643.598394822884,3019.9665451009923
13202.70606311632,-100805.76399633456,8655.534226362017,3025.152149814624
13214.127804532982,-100788.0390629815,8674.443802171207,3020.055952078814
13203.71189161681,-100786.27327516951,8674.779078338037,3016.12204505468
13186.098716986027,-100803.70763584466,8654.014307739057,3017.373742744177
13183.863542540495,-100816.82810983992,8642.436104111208,3019.8324346342606
13194.882952556964,-100810.21199348116,8652.51674086055,3017.5525566998194
13204.80712709512,-100794.9904555071,8670.979281780636,3019.5865654452523
13201.588475893555,-100788.0390629815,8675.919017305258,3020.4582834790094
13184.310577429604,-100806.12162424585,8656.629461840328,3034.115199341202
13180.667243083388,-100815.28583947252,8648.381668136319,3027.119103326691
13191.664301355398,-100810.88254581482,8657.076496729434,3020.8606148792046
13204.158926505916,-100795.50454562958,8672.901531803791,3011.4281787190653
13200.783813093163,-100791.41417639425,8672.990938781611,3011.294068252333
13183.304748929117,-100809.5414411475,8655.176598450733,3013.752760142417
13181.918940772885,-100818.52684241852,8651.510912360061,3017.1278735551687
13192.46896415579,-100807.73094984662,8662.329156676431,3014.736236898451
13203.71189161681,-100794.49871712908,8674.935540549224,3016.211452032501
13204.5165544172,-100784.88746701332,8676.544866150007,3014.2221467759787
13187.395118164435,-100797.24798169707,8657.389421151807,3008.589507173241
13181.449554139324,-100813.542403405,8642.301993644476,3005.817890860784
13192.670129855887,-100807.75330159107,8649.208682681166,3000.2970099803224
13202.393138693946,-100795.66100784075,8662.932653776725,3006.8684228501825
13204.918885817397,-100789.51427811554,8664.229054955133,3008.343637984233
13183.729432073766,-100810.9943045371,8639.038638954002,3011.249364763423
13179.326138416069,-100821.61138315336,8630.008534194058,3008.991838573437
13187.70804258681,-100817.38690345132,8635.149435418778,3002.9121640815933
13198.056900269616,-100802.7018073442,8652.114409460355,3000.520527424876
13191.329025188568,-100799.41610090923,8652.80731353847,2994.977294799959
13173.000594735217,-100814.1459005053,8632.333115617408,2999.246477990923
13175.325176158569,-100820.91847907526,8627.482787070607,3005.2143937604897
13186.456344897311,-100816.51518541756,8635.171787163234,3004.2085652600013
13194.838249068052,-100801.91949628825,8650.683897815215,3005.9072978386043
13188.5127053872,-100796.51037413006,8652.829665282925,3005.7731873718726
13171.190103434335,-100815.8893365728,8633.785979007003,3017.172577044079
13171.950062745818,-100824.40535121028,8627.99687719308,3015.697361910029
13182.27656868417,-100817.7445313626,8636.289374385999,3012.0987310527244
13195.240580468248,-100800.42192940974,8653.65667982777,3012.009324074904
13193.5641996341,-100791.1906589497,8657.344717662898,3008.589507173241
13172.41944937938,-100806.5016039016,8636.758761019559,3012.0987310527244
13169.245501666726,-100813.92238306077,8628.287449870999,3013.2610217644005
13176.7109843148,-100807.79800508,8635.149435418778,3018.111350311202
13182.969472762285,-100790.87773452733,8648.560482091962,3017.6196119331853
13174.52051335818,-100786.541496103,8647.688764058204,3010.1988327740232
13156.527359071655,-100804.46759515617,8628.063932426445,3008.276582750867
13159.41073410639,-100815.91168831728,8622.811272479448,3008.902431595616
13169.93840574484,-100807.08274925742,8633.070723184434,2998.3524082127105
13186.478696641769,-100789.62603683784,8651.108580959866,3010.3776467296657
13185.964606519296,-100785.87094376932,8650.147455948289,3006.6449054056297
13167.591472577033,-100806.65806611277,8630.522624316529,3007.270754250378
13164.909263242396,-100817.76688310706,8626.521662059029,3003.761530370895
13179.572007605078,-100810.05553126996,8640.446798854686,3000.140547769135
13194.681786856863,-100791.25771418308,8660.585720608917,2998.911201824093
13183.03652799565,-100794.9904555071,8658.775229308038,3003.694475137529
13165.93744348734,-100813.81062433848,8642.65962155576,3002.666294892585
13159.500141084212,-100829.81447336847,8631.930784217213,2998.2853529793447
13173.09000171304,-100823.1536535208,8643.151359933778,2999.559402413297
13190.747879832732,-100799.5949148649,8667.76063057907,2996.050178533814
13184.042356496138,-100794.11873747334,8666.978319523134,2994.418501188577
13163.814027764089,-100811.66485687076,8645.56534833495,2992.5186029098754
13161.5565015741,-100821.27610698654,8638.524548831529,2999.849975091216
13172.285338912649,-100814.48117667213,8647.420543124741,3003.8956408376266
13187.28335944216,-100795.14691771827,8666.732450334126,3002.2863152368445
13183.37180416248,-100791.99532175007,8669.414659668762,3001.4816524364537
13173.42527787987,-100803.3500079334,8659.602243852883,3009.3941699736324
13169.960757489296,-100813.76592084956,8654.61780483935,3018.916013111593
13181.583664606056,-100805.87575505684,8666.061898000467,3022.3805335021657
13192.379557177968,-100789.87190602683,8681.484601674629,3015.3173822542885
13184.243522196237,-100785.78153679152,8679.137668506823,3009.3494664847217
13168.977280733265,-100803.10413874438,8658.484656630118,3020.368876501188
13174.02877498016,-100815.17408075024,8653.097886216388,3019.2289375339674
13193.810068823108,-100804.802871323,8670.33108119143,3026.9402893710485
13207.064653285106,-100782.27231291204,8693.174564024755,3023.4534172360204
13194.927656045871,-100777.0867081984,8691.028796557046,3020.368876501188
13179.6614145829,-100791.6376938388,8672.0968690034,3026.783827159861
13184.13176347396,-100802.88062129985,8662.083287487423,3031.9694318734923
13197.22988572477,-100792.86703978384,8671.493371903107,3030.427161506076
13202.37078694949,-100779.09836519936,8685.798488354503,3020.279469523367
13195.486449657255,-100779.47834485512,8682.445726686206,3018.3125160113
13183.640025095943,-100791.1459554608,8667.626520112339,3019.2512892784225
13183.863542540495,-100804.4005399228,8658.775229308038,3027.722600426984
13198.883914814463,-100795.4374903962,8671.471020158651,3026.962641115504
13211.982037065272,-100776.4385076092,8690.045319801011,3019.74302765644
13198.123955502982,-100777.46668785416,8683.205685997687,3018.7371991559507
13178.722641315777,-100792.93409501722,8665.57015962245,3026.783827159861
13182.589493106543,-100803.52882188903,8661.926825276236,3028.1919870605457
13195.933484546362,-100795.72806307412,8676.969549294658,3031.3882865176543
13206.036473040162,-100779.76891753305,8695.81206987048,3021.7546846574173
13194.70413860132,-100780.77474603352,8691.319369234965,3020.078303823269
13176.778039548164,-100794.05168223998,8675.784906838526,3025.174501559079
13177.672109326377,-100794.9457520182,8674.95789229368,3023.0957893247355
13184.355280918511,-100789.73779556013,8678.936502806724,3025.174501559079
13197.3639961915,-100767.49780982708,8696.572029181962,3022.69345792454
13185.718737330288,-100768.525990072,8691.72170063516,3027.0073446044144
13166.02685046516,-100789.80485079349,8668.542941635007,3019.206585789512
13171.74889704572,-100800.6007433654,8659.982223508623,3013.283373508856
13181.404850650411,-100796.33156017444,8667.268892201053,3009.818853118283
13193.340682189546,-100784.12750770182,8681.328139463441,3007.7848443728503
13188.5127053872,-100780.77474603352,8680.791697596514,3012.4563589640093
13176.554522103612,-100793.47053688414,8664.407868910774,3019.74302765644
13177.314481415093,-100801.36070267686,8656.316537417953,3015.496196209931
13193.318330445092,-100791.54828686098,8668.632348612828,3016.814949132794
13207.578743407576,-100770.26942613954,8685.172639509754,3014.2892020093445
13194.391214178946,-100772.16932441824,8674.756726593581,3011.6516961636185
13181.248388439226,-100788.75431880409,8653.611976338861,3022.402885246621
13180.84605703903,-100794.11873747334,8647.197025680189,3024.1910248030454
13190.434955410356,-100785.26744666904,8657.255310685076,3029.443684750043
13200.672054370889,-100769.6435772948,8672.678014359239,3020.480635223465
13187.28335944216,-100772.66106279624,8664.452572399685,3019.74302765644
13171.614786578988,-100789.80485079349,8646.23590066861,3024.325135269777
13175.235769180748,-100795.72806307412,8643.754857034071,3038.3620307877104
13182.455382639811,-100785.42390888024,8654.059011227968,3029.086056838758
13189.65264435442,-100767.72132727165,8667.023023012045,3023.878100380671
13181.874237283975,-100771.20819940664,8660.317499675453,3027.2308620489675
13166.540940587634,-100788.95548450416,8636.915223230746,3024.436893992054
13171.279510412158,-100792.30824617248,8634.61299355185,3026.3367922707557
13186.411641408402,-100778.0925366989,8647.018211724546,3027.9014143826266
13188.780926320664,-100767.8330859939,8657.970566507645,3025.0627428368025
13180.13080121646,-100770.00120520606,8650.974470493135,3026.6720684375846
13166.384478376449,-100786.11681295834,8631.684915028205,3027.3649725156997
13161.422391107368,-100795.75041481858,8624.934688202702,3023.989859102948
13178.499123871225,-100783.792231535,8636.736409275105,3026.493254481942
13188.445650153835,-100766.29081562647,8651.399153637785,3025.509777725909
13175.861618025498,-100769.59887380588,8643.441932611697,3030.114237083702
13165.870388253974,-100786.07210946945,8627.236917881599,3034.3834202746657
13172.46415286829,-100788.50844961508,8628.913298715746,3040.3289842997774
13182.03069949516,-100782.31701640094,8637.876348242326,3034.7410481859506
13194.19004847885,-100762.96040570264,8655.221301939644,3029.175463816579
13180.242559938735,-100768.77185926105,8645.274775657032,3025.2639085369005
13164.864559753483,-100786.72031005863,8627.438083581697,3034.115199341202
13168.865522010983,-100787.56967634794,8630.075589427423,3037.914995898604
13183.528266373669,-100777.86901925431,8643.218415167143,3041.8712546671936
13192.80424032262,-100762.35690860236,8657.590586851906,3037.4009057761323
13178.007385493209,-100763.69801326968,8649.879235014825,3033.4893504964534
13165.803333020607,-100782.60758907886,8629.42738883822,3040.55250174433
13173.738202302242,-100789.6930920712,8624.957039947158,3038.630251721174
13185.495219885734,-100781.35589138936,8636.177615663722,3045.8498651802383
13195.620560123987,-100761.82046673544,8655.064839728457,3043.167655845601
13181.360147161502,-100767.52016157152,8644.85009251238,3041.468923266998
13163.791676019631,-100787.21204843666,8620.911374200747,3031.6788591955733
13163.389344619436,-100792.06237698343,8617.51390904354,3026.627364948674
13174.632272080456,-100782.36171988986,8632.578984806418,3030.3601062727103
13182.790658806642,-100762.49101906909,8654.953081006179,3033.154074329624
13168.79846677762,-100767.6319202938,8646.749990791082,3028.4155045050984
13160.930652729352,-100785.51331585806,8630.634383038805,3038.920824399093
13173.402926135414,-100782.5405338455,8635.819987752437,3039.233748821467
13186.65751059741,-100771.7446412736,8648.202854180678,3041.804199433828
13190.077327499072,-100756.72426899962,8662.329156676431,3038.6078999767187
13173.17940869086,-100765.21793189264,8651.309746659965,3034.2046063190232
13161.400039362912,-100783.21108617916,8633.09307492889,3041.3124610558107
13168.843170266531,-100785.8932955138,8633.115426673345,3041.6477372226404
13182.455382639811,-100772.19167616268,8647.174673935733,3039.07728661028
13184.17646696287,-100762.24514988008,8656.070668228946,3039.658431966118
13172.151228445917,-100768.30247262746,8646.079438457422,3048.152094859134
13160.170693417873,-100787.1896966922,8624.532356802507,3045.6039959912296
13161.109466684997,-100794.5881241069,8618.899717199769,3039.345507543744
13166.563292332088,-100791.97297000563,8626.65577252576,3037.7361819429616
13178.789696549142,-100778.22664716562,8641.430275610719,3028.5719667162857
13168.12791444396,-100783.03227222351,8632.46722608414,3022.7605131579057
13152.302879369605,-100801.45010965467,8612.261249096544,3025.3309637702664
13155.543882315622,-100805.42872016774,8612.149490374266,3025.7109434260065
13170.184274933848,-100789.044891482,8627.795711492981,3017.463149721998
13176.688632570344,-100770.44824009515,8640.469150599141,3018.178405544568
13159.164864917382,-100780.05949021096,8624.934688202702,3019.921841612082
13150.000649690706,-100790.90008627178,8613.490595041585,3020.8159113902943
13155.387420104436,-100793.87286828434,8614.094092141879,3024.950984114526
13173.246463924226,-100774.31509188596,8633.003667951069,3019.117178811691
13179.348490160524,-100756.07606841042,8648.873406514336,3016.6808386660623
13158.740181772731,-100764.86030398136,8634.344772618386,3016.6137834326964
13148.860710723486,-100782.00409197855,8617.670371254728,3030.2483475504337
13152.705210769798,-100784.57454259093,8615.681065998206,3023.475768980476
13166.719754543275,-100770.1353156728,8628.80153999347,3019.1395305561464
13183.148286717927,-100746.46481829464,8649.655717570271,3031.209472562012
13167.725583043764,-100751.06927765242,8638.703362787171,3038.4067342766207
13156.437952093836,-100762.26750162452,8624.197080635677,3031.5894522177523
13160.08128644005,-100760.90404521277,8621.447816067674,3024.8392253922493
13170.787772034142,-100749.32584158493,8629.85207198287,3025.3756672591767
13182.611844851,-100730.7291901981,8641.810255266459,3019.363048000699
13169.401963877914,-100736.09360886736,8629.494444071584,3015.5408996988417
13156.907338727397,-100753.59502477587,8610.674275240217,3015.4514927210207
13156.79558000512,-100755.00318467656,8608.282638583498,3007.181347272557
13166.22801616526,-100745.70485898315,8619.302048599964,3004.365027471188
13173.51468485769,-100727.51053899652,8635.238842396599,3005.1696902715794
13159.83541725104,-100738.5746525019,8618.51973754403,3005.7731873718726
13147.944289200816,-100754.55614978744,8600.66069372424,3002.018094303381
13149.039524679129,-100757.64069052228,8601.822984435914,2990.4175389310767
13157.80140850561,-100745.77191421652,8616.821004965426,2996.787786100839
13165.803333020607,-100721.29675403796,8634.61299355185,2989.031730774848
13147.139626400429,-100725.4765302511,8619.57026953343,2982.706187093996
13138.713018740777,-100735.44540827816,8601.957094902646,2994.6420186331297
13144.41271357688,-100731.08681810938,8603.387606547787,2993.2562104769004
13156.08032418255,-100711.64080043326,8619.525566044518,2994.060873277292
13166.831513265552,-100696.03928280344,8632.623688295327,2999.849975091216
13152.593452047522,-100707.48337596456,8616.843356709882,3002.040446047836
13141.417579819868,-100720.69325693768,8604.728711215104,3004.49913793792
13146.871405466964,-100724.58246047288,8608.617914750328,3004.566193171286
13163.36699287498,-100708.13157655376,8628.533319060007,3005.2590972494004
13169.446667366825,-100691.27836123448,8642.883139000314,3002.7109983814958
13146.804350233597,-100702.83421311788,8628.42156033773,3004.141510026635
13137.975411173751,-100718.5698412144,8614.339961330887,3007.807196117305
13143.07160890956,-100716.08879757988,8614.451720053163,2995.200812244512
13156.259138138192,-100704.68940790766,8625.940516703191,3002.7109983814958
13162.182350418849,-100693.75940486902,8635.350601118875,3007.561326928297
13147.586661289532,-100704.95762884112,8620.263173611544,3000.408768702599
13136.276678595148,-100716.02174234652,8608.573211261417,3006.846071105728
13143.116312398472,-100715.4182452462,8611.65775199625,3012.255193263912
13154.068667181573,-100704.5776491854,8622.386589334797,3004.0968065377247
13155.432123593346,-100689.2667042335,8630.522624316529,2997.145414012124
13145.910280455386,-100689.66903563368,8621.112539900845,3002.465129192487
13140.657620508387,-100702.67775090667,8605.980408904601,3007.8295478617606
13144.971507188262,-100704.44353871864,8607.254458338555,3011.1376060411462
13157.60024280551,-100685.98099779856,8627.125159159323,3007.561326928297
13160.148341673415,-100667.3172911784,8642.078476199922,3007.7848443728503
13146.871405466964,-100673.73224183706,8629.270926627032,3012.434007219554
13142.915146698377,-100686.7186053656,8615.099920642368,3017.3290392552663
13148.100751412005,-100690.33958796736,8613.937629930691,3011.9646205859926
13165.93744348734,-100668.0548987454,8635.28354588551,3007.248402505923
13163.188178919338,-100655.85084627282,8643.28547040051,3008.254231006412
13147.27373686716,-100666.87025628929,8624.510005058051,3007.7177891394845
13142.915146698377,-100672.92757903668,8612.283600840998,3011.0929025522355
13145.060914166084,-100674.3133871929,8611.255420596055,3010.3776467296657
13160.12598992896,-100656.72256430658,8627.952173704169,3008.008361817403
13166.250367909715,-100644.47380834506,8638.144569175789,3007.158995528101
13147.787826989632,-100656.47669511756,8621.537223045496,3006.980181572459
13141.730504242243,-100671.38530866924,8604.37108330382,3007.449568206021
13151.766437502676,-100669.12778247926,8608.41674905023,3008.589507173241
13160.37185911797,-100652.11810494878,8626.387551592297,3002.9121640815933
13166.295071398625,-100638.17061640866,8638.457493598164,3001.2357832474454
13153.37576310346,-100648.98886072505,8624.264135869043,3006.331980983255
13143.451588565302,-100663.02575624296,8609.534336272996,3003.761530370895
13150.604146791,-100663.76336381,8610.204888606655,2998.0394837903364
13161.020059707173,-100643.87031124475,8626.164034147743,2988.2270679744565
13163.970489975274,-100628.2464418705,8633.987144707102,2986.662445862585
13140.992896675218,-100643.91501473368,8614.786996219993,2993.1221000101687
13132.722751226756,-100658.1530759517,8600.03484487949,2992.5186029098754
13144.41271357688,-100652.18516018214,8606.27098158252,2996.83248958975
13163.925786486365,-100629.4087325822,8625.89581321428,2992.317437209778
13168.060859210596,-100609.53803176142,8637.965755220146,3001.504004180909
13147.944289200816,-100623.3961133237,8619.458510811151,3000.006437302404
13142.17753913135,-100634.21435764008,8610.361350817842,2995.3572744557
13144.569175788069,-100631.1968721386,8613.937629930691,2988.919972052571
13153.196949147816,-100619.86453769976,8627.840414981893,2984.270809205867
13155.32036487107,-100604.10655785876,8638.681011042716,2986.5506871403086
13135.136739627927,-100614.79069170842,8621.917202701236,2990.596352886719
13131.180480859335,-100627.03944766991,8608.46145253914,2983.9802365279484
13139.27181235216,-100621.83149121184,8617.46920555463,2975.218352701468
13147.653716522898,-100608.46514802756,8632.668391784238,2983.5779051277527
13151.185292146838,-100598.31745604484,8639.463322098652,2989.121137752669
13137.282507095637,-100614.16484286368,8621.045484667478,2995.916068067082
13137.997762918209,-100622.88202320124,8613.378836319309,2994.6420186331297
13146.446722322313,-100617.13762487622,8619.36910383333,2990.730463353451
13155.36506835998,-100602.83250842482,8634.322420873932,2995.02199828887
13156.08032418255,-100590.24847629647,8644.872444256836,2998.575925657264
13137.863652451477,-100603.83833692531,8626.722827759128,2994.150280255113
13131.024018648151,-100614.45541554158,8617.737426488093,3002.8674605926826
13135.024980905651,-100613.71780797456,8623.459473068651,3000.11819602468
13147.139626400429,-100594.42825250964,8641.653793055271,2999.760568113395
13149.195986890316,-100578.55851394637,8649.47690361463,2994.217335488479
13131.515757026167,-100591.45547049708,8629.203871393665,2994.262038977389
13128.610030246977,-100599.03271186742,8616.75394973206,2997.3242279677665
13135.963754172772,-100594.5847147208,8622.163071890243,2994.172631999568
13144.613879276978,-100577.6420924237,8636.937574975202,2990.1046145087025
13145.530300799644,-100569.97544407552,8643.039601211502,2989.612876130685
13128.677085480344,-100587.1415838172,8622.94538294618,2996.1395855116352
13123.111501110972,-100598.07158685585,8607.65678973875,2999.447643691021
13135.449664050302,-100592.8412786533,8609.310818828442,2997.4583384344983
13154.202777648305,-100572.4341359656,8622.61010677935,2991.4233674315656
13154.091018926028,-100558.66546138114,8625.471130069629,2984.7401958394285
13135.136739627927,-100575.3398627448,8604.46049028164,2987.5118121518867
13132.253364593193,-100586.0910518278,8594.379853532297,2984.6731406060626
13139.450626307802,-100581.50894421448,8602.001798391557,2989.568172641775
13150.157111901894,-100568.6343394082,8619.011475922045,2995.334922711244
13148.100751412005,-100557.90550206964,8628.399208593275,2989.54582089732
13128.274754080148,-100574.40108947767,8607.187403105188,2991.2892569648334
13124.586716245023,-100582.67123492614,8596.100937855355,2990.708111608996
13133.50506228269,-100576.07747031182,8602.381778047298,2988.987027285937
13149.598318290513,-100556.20676949104,8621.626630023316,2991.4233674315656
13146.491425811224,-100542.90748154015,8629.85207198287,2991.535126153842
13126.26309707917,-100554.70920261256,8615.569307275928,2992.697416865518
13122.01626563266,-100564.25339749496,8608.684969983695,2996.87719307866
13131.135777370428,-100564.61102540624,8613.311781085942,2997.3912832011324
13146.31261185558,-100544.74032458548,8631.70726677266,3002.532184425853
13146.69259151132,-100531.0387052344,8637.272851142032,2997.9947803014256
13132.476882037745,-100543.64508910716,8619.682028255706,3007.8295478617606
13128.542975013612,-100556.07265902431,8606.27098158252,3003.917992582082
13134.913222183372,-100552.60813863376,8612.060083396445,3003.694475137529
13147.720771756263,-100535.44199889209,8629.673258027227,3001.459300691998
13143.116312398472,-100524.89197550918,8635.507063330062,2995.603143644708
13121.524527254644,-100539.15238847166,8614.764644475537,2997.950076812515
13123.245611577704,-100549.25537696546,8604.12521411481,2997.503041923409
13132.052198893094,-100541.92400478412,8611.993028163079,2993.658541877096
13139.830605963542,-100524.19907143104,8627.393380092786,2994.977294799959
13144.74798974371,-100512.93379222558,8633.51775807354,3003.02392280387
13128.095940124504,-100528.69177206657,8611.255420596055,3003.716826881984
13123.335018555525,-100538.01244950444,8603.61112399234,3007.091940294736
13132.07455063755,-100531.15046395666,8613.334132830398,3006.287277494345
13146.156149644394,-100512.64321954768,8630.701438272172,3003.381550715155
13143.026905420653,-100505.75888225542,8634.65769704076,3006.063760049792
13128.095940124504,-100519.59461207328,8614.94345843118,3005.795539116328
13125.570193001056,-100529.85406277823,8604.37108330382,3003.2474402484227
13133.594469260512,-100523.08148420828,8613.825871208415,3016.792597388339
13145.150321143905,-100504.06014967682,8633.338944117897,3017.9325363555595
13143.004553676195,-100501.48969906446,8633.718923773638,3015.116216554191
13128.07358838005,-100521.2709929074,8611.65775199625,3016.9267078550706
13130.062893636572,-100530.81518778982,8603.544068758973,3012.6575246641078
13139.338867585526,-100524.46729236453,8611.389531062787,3011.8081583748053
13151.27469912466,-100505.35655085524,8629.874423727326,3007.7848443728503
13145.530300799644,-100495.8123559728,8630.880252227815,3001.436948947543
13122.776224944142,-100511.972667214,8608.260286839042,2999.8946785801268
13116.920067896852,-100524.4225888756,8594.156336087744,2995.089053522236
13124.542012756112,-100518.16410042813,8603.499365270063,3001.459300691998
13135.896698939408,-100503.99309444346,8622.096016656878,3012.434007219554
13138.444797807311,-100491.54317278184,8629.270926627032,3009.528280440364
13122.284486566126,-100503.85898397672,8611.300124084964,3005.572021671775
13121.725692954744,-100513.69375153708,8603.789937947982,3015.563251443297
13135.06968439456,-100505.78123399988,8613.80351946396,3012.277545008367
13146.536129300132,-100489.1738878696,8628.734484760105,3006.1084635387024
13145.083265910538,-100478.19918134205,8632.690743528694,3006.823719361272
13132.767454715664,-100490.24677160344,8614.004685164056,3006.331980983255
13130.487576781225,-100499.81331823031,8604.169917603722,3003.090978037236
13141.082303653038,-100493.26425710492,8611.74715897407,3007.158995528101
13159.120161428473,-100467.13506783666,8635.864691241348,3011.78580663035
13150.157111901894,-100462.57531196775,8634.009496451557,3014.4233124760763
13131.761626215177,-100480.6131697432,8610.137833373288,3012.8363386197498
13127.380684301936,-100493.17485012708,8599.386644290285,3013.886870609149
13138.735370485232,-100487.22928610198,8606.673312982717,3014.2892020093445
13155.633289293444,-100467.1127160922,8625.247612625077,3007.158995528101
13147.609013033987,-100462.28473928984,8624.018266680034,3003.5380129263417
13127.425387790849,-100482.17779185508,8601.912391413736,3001.816928603283
13130.88990818142,-100491.5208210374,8594.670426210216,3009.6847426515515
13138.668315251864,-100484.34591106724,8601.912391413736,3003.694475137529
13150.805312491097,-100463.67054744608,8622.051313167967,3008.857728106705
13138.422446062856,-100465.27987304686,8617.357446832353,3008.4553967065094
13119.98225688723,-100485.217629101,8595.340978543876,3006.5107949388976
13122.843280177509,-100492.03491115986,8591.563533730929,3006.667257150085
13130.375818058948,-100483.29537907784,8600.951266402159,3003.8732890931715
13139.875309452453,-100463.961120124,8618.475034055118,2999.3582367131994
13139.204757118792,-100452.78524789636,8625.09115041389,3011.0929025522355
13126.352504056991,-100468.54322773736,8606.740368216082,3015.138568298646
13125.480786023234,-100481.06020463232,8594.446908765663,3015.496196209931
13140.165882130372,-100471.24778881644,8600.66069372424,3014.780940387361
13155.74504801572,-100443.68808790304,8621.738388745593,3006.68960889454
13139.875309452453,-100447.08555306024,8616.105749142856,3014.378608987166
13122.73152145523,-100466.2633498029,8595.430385521697,3017.440797977543
13120.07166386505,-100471.35954753873,8591.764699431027,3019.474806722976
13131.493405281712,-100463.9164166351,8599.766623946027,3018.066646822292
13146.491425811224,-100444.91743384808,8615.055217153456,3008.053065306314
13143.250422865203,-100440.1118087902,8614.384664819798,3012.9928008309366
13124.07262612255,-100456.9650241095,8591.876458153303,3005.370855971677
13121.59158248801,-100466.79979166982,8583.919237127213,3004.141510026635
13135.69553323931,-100462.68707069004,8590.781222674994,2999.559402413297
13156.259138138192,-100442.27992800236,8610.294295584476,2995.334922711244
13146.290260111124,-100435.23912849891,8608.215583350133,2986.014245273381
13122.396245288402,-100456.49563747592,8582.153449315245,2988.405881930099
13129.146472113904,-100464.40815501312,8573.100992810845,2984.4272714170543
13142.512815298178,-100455.8027333978,8581.013510348024,2981.230971959945
13154.381591603946,-100438.16720702258,8599.878382668303,2978.1017277362025
13144.41271357688,-100440.40238146811,8590.803574419448,2976.0677189907697
13130.17465235885,-100456.49563747592,8570.55289394294,2979.1969632145124
13130.822852948051,-100462.99999511242,8565.367289229309,2980.694530093018
13142.244594364714,-100453.0087653409,8575.55968470093,2985.231934217445
13151.632327035944,-100437.6084134112,8589.306007540943,2982.505021393898
13144.7032862548,-100436.93786107752,8587.964902873624,2984.3155126947777
13133.996800660709,-100453.0087653409,8569.189437531166,2981.745062082417
13133.572117516056,-100460.09426833324,8563.98148107308,2986.8636115626828
13144.368010087968,-100453.45580023,8573.659786422228,2992.0939197652247
13154.94038521533,-100437.8542826002,8590.736519186083,2994.016169788381
13143.27277460966,-100438.32366923377,8586.444984250664,2993.882059321649
13132.007495404185,-100453.83577988576,8568.384774730775,2999.291181479833
13138.824777463053,-100452.06999207378,8567.468353208107,2988.8305650747498
13149.039524679129,-100446.97379433796,8571.692832910161,2994.217335488479
13161.198873662815,-100431.08170403024,8587.31670228442,2987.8470883187165
13147.720771756263,-100435.7085151325,8579.314777769421,2979.4428324035207
13136.902527439895,-100450.6171286842,8564.160295028722,2985.92483829556
13138.824777463053,-100456.04860258684,8563.2215217616,2986.058948762292
13148.503082812202,-100446.6608699156,8573.302158510944,2979.688701592529
13159.209568406292,-100426.18667199454,8592.569362231417,2981.6556551045965
13151.498216569213,-100421.22458472544,8588.903676140748,2983.868477805672
13134.64500124991,-100440.42473321257,8565.50139969604,2981.633303360141
13142.803387976095,-100446.34794549322,8561.053402549434,2987.310646451789
13162.137646929938,-100434.63563139865,8574.307987011432,2989.3223034527664
13180.622539594477,-100412.32859043224,8594.581019232395,2988.11530925218
13172.41944937938,-100405.53366011784,8592.636417464784,2983.533201638842
13153.80044624811,-100422.61039288167,8571.759888143526,2988.8305650747498
13157.309670127592,-100427.5948318952,8568.02714681949,2985.500155150909
13168.37378363297,-100416.68718060105,8582.22050454861,2990.082262764247
13179.03556573815,-100402.89615427212,8595.586847732884,2989.8587453196938
13172.330042401558,-100405.28779092882,8588.858972651837,2986.215410973479
13155.94621371582,-100422.67744811504,8568.36242298632,2984.7178440949733
13155.141550915429,-100430.43350344105,8563.422687461698,2987.467108662976
13168.306728399602,-100418.76589283538,8577.571341701907,2987.936495296537
13183.215341951292,-100400.32570365976,8597.03971112248,2992.78682384334
13173.268815668682,-100403.25378218338,8588.948379629657,2988.9423237970263
13157.488484083236,-100424.30912546028,8566.484876452074,2989.5234691528644
13157.443780594323,-100433.2051197535,8560.919292082703,2982.125041738157
13175.638100580944,-100421.42575042557,8575.939664356669,2982.594428371719
13184.981129763262,-100405.46660488448,8589.171897074211,2973.698434078507
13171.480676112256,-100407.2994479298,8581.192324303665,2965.987082241426
13160.46126609579,-100424.53264290484,8565.277882251488,2980.068681248269
13158.65077479491,-100431.12640751916,8561.679251394184,2978.928742281049
13174.14053370244,-100418.54237539084,8577.481934724085,2982.0356347603365
13183.349452418024,-100401.93502926052,8593.418728520719,2982.773242327361
13167.993803977228,-100408.37233166366,8579.89592312526,2979.1299079811465
13163.143475430426,-100425.09143651625,8568.630643919783,2990.4622424199874
13170.676013311866,-100430.36644820769,8570.84346662086,2994.217335488479
13184.60115010752,-100420.710494603,8585.148583072256,2989.6799313640518
13193.251275211724,-100399.453985626,8603.432310036696,2984.181402228046
13177.64975758192,-100402.47147112746,8593.865763409825,2994.865536077683
13164.395173119923,-100420.03994226932,8572.40808873273,2993.815004088284
13167.278548154658,-100424.197366738,8568.563588686418,2987.042425518325
13189.071498998585,-100411.3004101873,8585.327397027899,2996.921896567571
13204.203629994829,-100390.82621226624,8600.906562913247,2992.608009887697
13190.300844943626,-100398.31404665876,8589.41776626322,2990.7975185868168
13179.639062838443,-100415.61429686718,8575.447925978653,2992.697416865518
13185.13759197445,-100418.16239573508,8577.213713790621,2990.663408120085
13195.218228723792,-100413.80380556628,8584.0756993384,2992.004512787403
13206.684673629365,-100399.1410612036,8597.330283800398,2979.7781085703505
13195.464097912802,-100403.0526164833,8585.640321450272,2982.437966160532
13179.013213993694,-100424.13031150465,8564.495571195552,2978.6828730920406
13182.835362295553,-100428.6453638846,8560.98634731607,2977.006492257892
13195.955836290816,-100416.5977736232,8571.625777676794,2983.1308702386464
13206.841135840552,-100397.46468036946,8587.026129606502,2975.866553290672
13191.217266466292,-100400.41511063756,8575.693795167661,2973.7431375674178
13183.6623768404,-100423.19153823752,8556.046611791446,2983.466146405476
13196.671092113387,-100424.197366738,8560.293443237953,2981.4321376600437
13203.868353827997,-100416.24014571193,8570.798763131948,2979.1299079811465
13216.832365612074,-100401.77856704936,8584.41097550523,2982.996759771914
13208.673978885889,-100403.72316881696,8575.492629467562,2975.821849801761
13194.927656045871,-100417.35773293467,8556.895978080747,2975.2630561903784
13200.202667737329,-100423.7950353378,8552.380925700776,2977.5205823803644
13216.027702811683,-100416.01662826736,8564.160295028722,2980.247495203912
13223.13555754847,-100401.53269786033,8577.817210890915,2967.909332264582
13208.159888763415,-100409.93695377553,8564.115591539812,2974.994835256915
13195.41939442389,-100431.17111100808,8542.635565118262,2975.5312771238423
13197.609865380511,-100436.26730874387,8539.573376127884,2971.217390443968
13214.686598144364,-100424.13031150465,8553.319698967898,2971.01622474387
13230.198708796348,-100405.71247407349,8569.323547997898,2980.068681248269
13220.14042379146,-100414.56376487778,8555.130190268777,2981.566248126775
13207.578743407576,-100434.456817443,8535.907690037215,2982.147393482613
13208.85279284153,-100439.79888436782,8535.997097015035,2972.178515455546
13225.5718976941,-100425.96315455,8551.576262900384,2980.940399282026
13232.769159408708,-100412.86503229916,8563.132114783779,2980.7392335819286
13218.844022613051,-100419.3023347023,8550.861007077814,2980.850992304205
13205.47767942878,-100442.32463149128,8530.319753923388,2975.084242234736
13214.127804532982,-100448.06902981628,8532.420817902186,2976.246532946412
13226.555374450134,-100433.07100928677,8549.564605899406,2972.759660811384
13234.490243731769,-100411.52392763185,8567.423649719198,2979.1075562366914
13219.805147624633,-100416.64247711212,8558.393544959254,2974.212524200979
13210.640932397955,-100429.94176506302,8543.753152341027,2970.5468381103087
13211.602057409533,-100437.22843375546,8540.288631950454,2972.4243846445543
13221.637990669966,-100430.63466914116,8549.944585555148,2976.000663757404
13229.95283960734,-100418.02828526834,8561.098106038346,2970.6362450881297
13214.127804532982,-100429.7629511074,8547.240024476056,2965.629454330141
13212.09379578755,-100442.79401812484,8536.980573771069,2969.630416587641
13224.56606919361,-100444.44804721452,8541.920309295692,2973.2513991894007
13237.507729233232,-100435.88732908812,8554.906672824225,2973.139640467124
13242.693333946863,-100420.26345971388,8568.2730160085,2969.898637521105
13227.963534350818,-100427.0583900283,8555.398411202243,2969.630416587641
13220.363941236012,-100444.49275070344,8537.159387726711,2967.7081665644846
13229.19288029586,-100447.33142224923,8539.014582516502,2971.01622474387
13242.648630457954,-100433.78626510936,8554.459637935119,2968.11049796468
13249.376505539,-100415.34607593372,8569.636472420272,2968.468125875965
13232.567993708612,-100425.31495396078,8553.543216412452,2964.8694950186605
13227.270630272704,-100443.08459080274,8536.913518537704,2971.01622474387
13233.372656509002,-100446.48205595996,8538.478140649575,2972.513791622376
13244.727342692298,-100435.7532186214,8551.777428600482,2972.156163711091
13253.332764307592,-100426.83487258374,8563.93677758417,2984.4496231615094
13243.922679891906,-100434.76974186536,8555.085486779868,2980.627474859652
13235.80899665463,-100450.93005310655,8540.802722072927,2984.851954561705
13242.38040952449,-100447.77845713837,8547.843521576347,2985.142527239624
13255.880863175496,-100433.74156162042,8566.753097385537,2986.461280162487
13264.262767346236,-100418.83294806874,8580.901751625748,2985.813079573283
13253.444523029868,-100427.17014875056,8567.825981119393,2989.21054473049
13242.00042986875,-100447.82316062727,8547.441190176152,2991.4904226649314
13251.186996839882,-100451.5559019513,8548.536425654464,2987.288294707333
13267.414363314434,-100438.88246284515,8564.674385151195,2988.2047162300014
13274.209293628848,-100422.54333764833,8579.471239980609,2976.8723817911605
13262.072296389617,-100431.81931159728,8567.870684608304,2981.0074545153925
13254.673868974907,-100450.99710833991,8553.051478034435,2992.652713376607
13258.92070042142,-100455.26629153088,8554.92902456868,2984.9860650284368
13273.225816872817,-100448.47136121648,8565.724917140593,2987.5118121518867
13281.898293721471,-100434.23329999844,8579.001853347047,2987.40005342961
13260.91000567794,-100448.22549202749,8563.020356061501,2979.3534254257
13250.203520083847,-100466.64332945865,8547.329431453876,2982.929704538549
13262.09464813407,-100463.89406489064,8554.347879212843,2984.5837336282416
13277.606758786054,-100449.43248622803,8573.212751533121,2991.982161042948
13280.28896812069,-100437.54135817784,8586.668501695216,2990.037559275336
13267.86139820354,-100454.0145938414,8570.955225343136,2991.40101568711
13265.134485379993,-100472.74535569492,8556.940681569658,2991.624533131663
13275.326880851611,-100472.29832080584,8561.746306627549,2991.8033470873056
13287.128601924016,-100463.98347186846,8572.966882344113,2994.5526116553083
13295.242285161292,-100450.52772170636,8587.428461006697,2989.121137752669
13275.86332271854,-100465.2128178135,8572.765716644015,2986.148355740113
13267.637880758988,-100481.88721917717,8559.444076948652,2984.3155126947777
13271.750601738764,-100485.99994015694,8561.07575429389,2986.9306667960486
13291.666006048445,-100470.55488473832,8577.727803913094,2979.979274270448
13299.466764863344,-100457.43441074304,8589.529524985495,2988.383530185644
13285.049889689672,-100475.09228886275,8572.02810907699,2992.853879076705
13276.600930285564,-100494.4712513055,8554.012603046012,2990.350483697711
13283.932302466908,-100496.70642575104,8555.97955655808,2993.300913965811
13303.266561420747,-100481.19431509904,8573.615082933316,2990.6187046311743
13311.849631291583,-100466.8668469032,8582.734594671083,2990.8645738201826
13297.29864565118,-100481.32842556578,8563.422687461698,2993.882059321649
13293.320035138137,-100494.85123096124,8554.124361768289,2995.5807919002527
13303.221857931836,-100496.1252803952,8557.208902503122,2995.871364578172
13320.186831973417,-100478.95914065352,8573.79389688896,2994.999646544414
13323.427834919434,-100466.0621841028,8582.64518769326,2990.4175389310767
13310.217953946349,-100486.17875411258,8566.21665551861,2999.157071013102
13311.313189424658,-100499.9697804415,8559.108800781823,2997.883021579149
13315.604724360075,-100500.50622230842,8564.920254340203,2993.658541877096
13327.227631476837,-100489.44210880304,8581.259379537032,3001.21343150299
13329.64161987801,-100479.36147205372,8590.98238837509,3006.957829828004
13310.843802791096,-100491.63257975968,8574.93383585618,3002.9121640815933
13308.25100043428,-100507.23409738948,8560.807533360427,2999.984085557948
13318.82337556164,-100511.79385325836,8561.969824072103,3003.2027367595124
13333.486119924322,-100499.61215253022,8578.1748388022,3001.21343150299
13335.609535647576,-100492.63840826016,8583.382795260286,2999.6711611355736
13321.773805829742,-100508.88812647916,8564.383812473276,2997.3242279677665
13321.058550007172,-100523.39440863066,8551.822132089394,3001.369893714177
13329.798082089195,-100523.03678071938,8556.806571102927,2997.950076812515
13343.11972178456,-100512.08442593628,8571.536370698974,2997.54774541232
13344.416122962968,-100505.11068166622,8578.063080079923,3000.6546378916078
13326.177099487437,-100522.03095221888,8557.678289136684,2996.228992489456
13325.528898898232,-100533.229176191,8547.105914009324,2992.5186029098754
13336.72712287034,-100538.2806704379,8548.491722165552,2998.508870423898
13360.5540824597,-100520.73455104048,8570.329376498386,2998.6653326350847
13362.07400108266,-100509.67043753513,8582.376966759797,2994.954943055504
13345.578413674642,-100523.10383595274,8565.143771784757,2988.182364485546
13337.263564737268,-100542.2816326954,8548.178797743178,2992.071568020769
13343.812625862674,-100544.56151062984,8551.196283244644,2991.043387775825
13357.536596958233,-100530.971650001,8566.618986918806,2984.024940016858
13363.728030172351,-100519.19228067309,8576.051423078945,2977.699396336007
13351.16634978847,-100537.40895240416,8558.907635081725,2987.0647772627804
13349.624079421052,-100546.39435367518,8552.068001278401,2986.260114462389
13353.513282956275,-100550.14944674369,8554.1690652572,2981.812117315784
13372.467562254378,-100537.25249019296,8571.424611976698,2982.3038556938
13383.710489715397,-100523.7296847975,8584.612141205329,2989.411710430588
13376.64733846752,-100534.54792911386,8573.548027699951,2990.7751668423616
13373.205169821404,-100549.12126649873,8561.433382205174,2991.333960453744
13378.189608834937,-100546.84138856428,8566.641338663261,2983.242628960923
13386.146829861023,-100531.66455407914,8584.32156852741,2984.8072510727943
13387.97967290636,-100521.53921384088,8595.899772155259,2988.6741028635624
13374.41216402199,-100533.49739712446,8580.834696392381,2986.8636115626828
13372.624024465566,-100546.70727809756,8567.535408441474,2991.5798296427524
13377.653166968008,-100547.66840310911,8572.765716644015,2995.558440155797
13392.293559586236,-100531.01635348992,8590.289484296976,2993.077396521258
13392.65118749752,-100522.5226905969,8594.826888421403,2985.0084167728924
13376.759097189795,-100536.11255122571,8576.118478312312,2979.599294614708
13374.054536110703,-100552.25051072249,8561.41103046072,2985.477803406454
13383.79989669322,-100550.01533627692,8565.16612352921,2978.1017277362025
13396.071004399182,-100537.49835938196,8576.811382390426,2976.000663757404
13397.166239877492,-100525.11549295372,8582.041690592969,2970.3456724102107
13380.625948980563,-100538.75005707146,8560.74047812706,2972.469088133465
13380.782411191753,-100551.91523455564,8547.552948898428,2979.5098876368866
13396.898018944028,-100548.5848246318,8553.409105945719,2973.6090271006856
13415.427615097478,-100526.94833599906,8575.157353300734,2974.5925038567198
13412.27601912928,-100520.15340568464,8578.755984158039,2975.2630561903784
13396.473335799375,-100537.2301384485,8559.801704859938,2982.9744080274595
13393.589960764642,-100550.59648163278,8552.805608845427,2995.267867477878
13410.621990039586,-100541.14169372818,8564.607329917828,2992.1833267430457
13425.441196613456,-100520.1310539402,8583.338091771377,2989.076434263758
13420.948495977938,-100515.48189109348,8586.780260417492,2989.121137752669
13401.524830046275,-100535.71021982556,8565.50139969604,2989.612876130685
13397.814440466696,-100543.86860655172,8556.225425747089,2980.180439970546
13407.202173137925,-100543.39921991817,8556.873626336292,2985.0307685173475
13421.350827378134,-100531.5751471013,8570.910521854224,2984.9413615395265
13425.597658824645,-100526.61305983223,8573.570379444407,2977.7888033138283
13411.98544645136,-100545.8355600638,8554.057306534924,2982.147393482613
13408.297408616234,-100557.65963288063,8545.518940152997,2981.096861493213
13414.42178659699,-100559.1795515036,8548.782294843471,2976.2688846908677
13426.335266391668,-100545.47793215251,8564.853199106838,2968.982215998437
13427.050522214238,-100542.0804669953,8566.59663517435,2975.3301114237443
13414.08651043016,-100561.14650501568,8546.100085508835,2972.469088133465
13413.170088907493,-100574.37873773322,8538.07580924938,2978.5264108808533
13420.456757599924,-100571.89769409868,8545.474236664086,2967.1940764420124
13432.817272283706,-100556.3408799578,8560.204036260133,2965.92002700806
13433.778397295286,-100551.37879268872,8560.919292082703,2968.512829364876
13420.121481433092,-100567.47204869654,8543.619041874295,2975.039538745825
13416.94753372044,-100583.11826981524,8532.599631857829,2976.5371056243307
13427.631667570076,-100582.9394558596,8534.387771414253,2971.6867770775293
13444.820159056206,-100571.42830746512,8550.235158233067,2975.3301114237443
13446.697705590452,-100566.26505449596,8554.50434142403,2972.8714195336606
13438.807539797728,-100582.17949654812,8539.573376127884,2970.6362450881297
13442.830853799684,-100591.500173986,8532.30905917991,2969.5186578653647
13450.98924052587,-100586.06870008334,8538.522844138484,2963.1931141845125
13465.115543021626,-100566.82384810732,8555.845446091347,2962.343747895211
13456.823045828707,-100567.3379382298,8549.385791943765,2945.2223116424457
13443.724923577896,-100585.10757507176,8529.917422523193,2951.8384280012165
13444.84251080066,-100598.9433048896,8521.468463119087,2962.3884513841217
13457.113618506626,-100599.65856071217,8526.050570732425,2961.0026432278923
13474.369165226122,-100583.74411866,8544.244890719043,2958.566303082264
13475.486752448887,-100577.01624357895,8548.111742509811,2959.6838903050293
13462.4780371759,-100590.78491816342,8533.136073724756,2958.2310269154345
13462.075705775704,-100603.43600552512,8522.362532897298,2961.404974628088
13467.66364188953,-100600.41852002364,8527.704599822117,2960.6450153166074
13483.220456030424,-100581.41953723664,8547.061210520413,2958.0075094708814
13480.67235716252,-100577.97736859052,8547.888225065259,2960.3320908942333
13465.339060466178,-100599.5915054788,8525.245907932032,2961.941416495016
13466.993089555872,-100611.08030212884,8515.411140371698,2962.187285684024
13474.547979181763,-100612.26494458495,8518.763902039993,2956.10761119218
13493.47990673541,-100589.08618558482,8541.54032963995,2957.2251984149457
13491.222380545423,-100583.18532504862,8544.982498286068,2956.9793292259374
13477.09607804967,-100599.8373746678,8526.251736432521,2957.448715859499
13476.157304782548,-100608.6439619832,8521.557870096907,2960.667367061063
13484.449801975466,-100607.1016916158,8528.665724833694,2963.282521162334
13501.77240392833,-100590.89667688568,8547.396486687241,2969.563361354275
13499.24665680488,-100585.46520298305,8550.838655333358,2961.114401950169
13488.3837089996,-100603.19013633612,8537.1146842378,2971.507963121887
13492.585836957198,-100610.499156773,8534.141902225245,2973.6537305895963
13500.252485305367,-100601.2455345685,8541.78619882896,2969.183381698535
13506.019235374835,-100589.08618558482,8554.772562357493,2967.8422770312163
13509.52845925432,-100587.47685998405,8552.425629189685,2970.6362450881297
13503.784060929309,-100605.51471775946,8534.87950979227,2974.8160213012725
13506.734491197409,-100613.62840099672,8532.73374232456,2975.084242234736
13520.14553787059,-100608.73336896102,8540.176873228178,2975.6430358461184
13535.925869456038,-100592.1483745752,8557.275957736487,2971.5750183552527
13528.281572852324,-100594.04827285388,8553.207940245622,2970.055099732292
13513.015331389348,-100614.61187775276,8534.208957458612,2968.11049796468
13514.445843034488,-100621.20564236707,8531.124416723778,2962.522561850853
13520.413758804056,-100614.76833996396,8538.656954605218,2965.0930124632137
13531.142596142605,-100597.6916072001,8554.325527468387,2965.7412130524176
13527.186337374013,-100597.98217987802,8550.1681029997,2973.20669570049
13514.892877923594,-100616.8023487094,8528.576317855874,2971.2844456773337
13521.084311137714,-100618.00934290998,8527.212861444099,2969.2280851874457
13524.459424550463,-100615.46124404208,8532.242003946543,2966.4788206194426
13539.77036950235,-100604.4418340256,8548.961108799114,2966.0317857303367
13537.021104934349,-100599.97148513456,8549.855178577325,2969.92098926556
13528.907421697071,-100614.0530841414,8530.1632917122,2970.792707299317
13523.520651283345,-100629.67695351563,8517.467500861585,2971.0609282327805
13532.43899732101,-100624.58075577984,8523.681285820161,2964.981253740937
13545.403009105088,-100614.52247077496,8535.550062125929,2962.63432057313
13540.083293924725,-100611.9520201626,8535.035972003458,2964.8471432742053
13525.040569906305,-100632.51562506148,8514.74058803804,2965.897675263605
13529.332104841722,-100641.27750888796,8509.68909379114,2970.055099732292
13540.530328813831,-100638.1482646642,8518.629791573261,2973.944303267516
13547.660535295074,-100624.62545926876,8534.700695836627,2964.1989426850014
13545.87239573865,-100621.0491801559,8531.616155101796,2956.5769978257417
13535.38942758911,-100639.1093896758,8514.092387448834,2964.020128729359
13537.53519505682,-100648.31830839138,8511.63369555875,2973.5866753562304
13547.705238783985,-100644.33969787831,8525.715294565594,2972.6031986001967
13558.076448211248,-100629.6546017712,8545.943623297648,2966.925855508549
13554.20959642048,-100626.43595056963,8541.74149534005,2961.673195561552
13539.882128224628,-100648.58652932484,8518.11570145079,2967.4846491199314
13540.44092183601,-100661.1035062198,8512.147785681223,2967.618759586664
13548.979288217935,-100657.68368931816,8520.97672474107,2967.886980520127
13560.15516044559,-100639.8022937539,8536.667649348694,2960.980291483437
13547.526424828342,-100644.07147694488,8530.677381834672,2964.914198507571
13535.478834566931,-100662.77988705396,8513.265372903988,2965.7859165413283
13540.642087536107,-100671.3182534359,8509.152651924212,2965.674157819052
13554.5001690984,-100666.08794523336,8519.747378796028,2970.792707299317
13567.68769832703,-100647.37953512426,8541.182701728667,2968.222256686957
13560.44573312351,-100647.58070082436,8540.042762761446,2969.742175309917
13543.100779426191,-100670.02185225749,8519.121529951279,2961.2038089279904
13547.884052739628,-100681.8682768188,8515.92523049417,2963.304872906789
13560.088105212226,-100675.3639191823,8527.950469011124,2960.957939738982
13581.434021167044,-100653.74978229402,8550.391620444254,2966.657634575085
13569.811114050284,-100658.48835211854,8543.172006985189,2960.44384961651
13552.77908477534,-100680.16954424018,8519.277992162466,2968.0881462202246
13553.360230131178,-100686.9644745546,8514.338256637842,2961.941416495016
13565.273709925856,-100678.24729421704,8527.011695744002,2956.0405559588144
13575.73432633094,-100665.12682022176,8541.54032963995,2961.181457183535
13580.294082199822,-100663.00340449852,8536.93587028216,2967.216428186468
13572.515675129376,-100680.23659947356,8516.59578282783,2962.8131345287725
13569.58759660573,-100691.34541646784,8509.465576346585,2959.3486141382
13580.271730455368,-100681.24242797404,8523.703637564617,2961.986119983926
13587.78191659235,-100667.94314002314,8539.439265661153,2956.6887565480183
13576.337823431231,-100671.67588134715,8531.459692890608,2959.3262623937444
13560.78100929034,-100692.2171345016,8510.91843973618,2958.096916448703
13568.15708496059,-100697.42509095967,8509.554983324408,2965.607102585686
13570.92870127305,-100695.32402698087,8518.898012506725,2965.182419441035
13578.438887410031,-100681.68946286316,8537.092332493345,2969.3845473986325
13564.849026781205,-100686.98682629906,8529.224518445077,2964.690681063018
13549.716895784964,-100706.43284397516,8509.331465879854,2966.925855508549
13559.328145900745,-100708.3774457428,8507.833899001349,2975.1736492125574
13573.812076307784,-100699.3249892384,8521.557870096907,2978.2358382029342
13588.363061948188,-100680.28130296248,8543.59669012984,2977.1406027246244
13578.103611243205,-100682.1141460078,8538.50049239403,2976.3582916686883
13564.78197154784,-100704.24237301855,8514.628829315761,2973.9666550119705
13570.92870127305,-100714.43476849016,8508.526803079463,2977.609989358186
13583.535085145842,-100708.48920446506,8517.601611328319,2973.6090271006856
13594.39803295112,-100690.1160705228,8533.963088269602,2967.507000864387
13579.824695566262,-100693.89351533576,8524.821224787382,2974.1678207120685
13567.397125649111,-100713.60775394533,8504.525840821963,2975.687739335029
13573.63326235214,-100716.4687772356,8505.174041411166,2975.73244282394
13588.318358459275,-100699.5708584274,8521.133186952256,2973.474916633954
13600.03067255386,-100681.22007622958,8538.008754016013,2965.249474674401
13592.83341083925,-100684.03639603096,8529.44803588963,2970.502134621398
13579.824695566262,-100702.18601252866,8509.197355413122,2974.726614323451
13581.232855466946,-100712.46781497812,8504.101157677313,2966.1658961970684
13597.594332408233,-100702.5659921844,8516.148747938723,2968.3340154092334
13606.244457512434,-100687.59032339934,8530.856195790315,2961.807306028284
13594.062756784291,-100696.2180967591,8521.02142822998,2964.958901996482
13584.69737585752,-100713.7195126676,8503.229439643555,2965.0930124632137
13589.54770440432,-100719.28509703698,8499.2061256416,2960.130925194136
13599.896562087128,-100709.74090215456,8508.72796877956,2957.247550159401
13605.529201689864,-100697.29098049297,8520.864966018793,2956.82286701475
13594.912123073593,-100707.50572770902,8510.292590891433,2958.052212959792
13586.485515413942,-100724.98479187308,8494.042872672424,2962.008471728381
13589.033614281849,-100731.75737044304,8490.421890070664,2965.048308974303
13602.712881888496,-100720.98382961558,8503.274143132467,2965.3612333966776
13609.373701736176,-100700.95666658362,8521.088483463345,2955.5488175807977
13591.849934083217,-100708.8244806319,8510.784329269449,2965.830620030239
13581.948111289516,-100727.68935295218,8494.57931453935,2970.3903758991214
13587.983082292449,-100728.04698086344,8496.63567502924,2960.3544426386884
13597.080242285758,-100722.9731348721,8508.593858312828,2960.667367061063
13611.631227926164,-100706.768120142,8527.235213188555,2959.01333797137
13599.382471964656,-100711.46198647762,8518.093349706334,2953.604215813186
13583.959768290491,-100730.1256930978,8499.429643086152,2955.817038514261
13593.21339049499,-100733.21023383264,8495.2051633841,2964.690681063018
13604.03163481136,-100722.41434126072,8507.990361212536,2961.047346716803
13606.915009846094,-100707.90805910922,8521.624925330272,2952.956015223982
13592.051099783312,-100712.2219457891,8510.40434961371,2950.5867303117197
13585.747907846917,-100734.35017279984,8489.72898599255,2961.5167333503646
13595.225047495967,-100740.69806822516,8486.599741768807,2960.82382927225
13607.764376135396,-100728.2257948191,8500.614285542284,2957.3146053927667
13613.754643649418,-100714.81474814592,8514.628829315761,2951.1231721786467
13605.372739478677,-100723.9789633726,8502.40242509871,2950.7431925229066
13598.488402186442,-100742.8214839484,8485.862134201781,2947.6139482991634
13598.89073358664,-100751.06927765242,8483.403442311697,2945.1999598979905
13605.037463311848,-100744.16258861573,8492.72411974956,2941.511922062865
13614.447547727532,-100727.35407678534,8508.72796877956,2943.903558719582
13603.226972010969,-100734.21606233311,8500.01078844199,2944.641166286608
13591.961692805491,-100755.76314398804,8480.162439365678,2945.736401764918
13603.07050979978,-100755.45021956568,8484.498677790009,2949.692660533507
13614.469899471987,-100743.02264964853,8500.167250653178,2954.6770995470406
13616.727425661971,-100730.50567275354,8512.34895138132,2949.53619832232
13601.59529466573,-100738.86522517982,8497.865020974281,2938.4944365613983
13589.771221848872,-100752.74565848656,8478.329596320344,2932.2582998583675
13599.158954520102,-100750.7340014856,8479.87186668776,2935.320488848745
13613.128794804668,-100736.272422823,8496.166288395678,2942.24952962989
13616.056873328314,-100721.2296988046,8509.510279835496,2933.3311835922223
13600.522410931875,-100731.44444602066,8493.707596505594,2926.312735833256
13588.027785781358,-100753.77383873152,8473.81454394037,2930.112532390658
13593.727480617465,-100757.32776609992,8477.413174797675,2928.43615155651
13610.334826747756,-100752.99152767558,8489.661930759185,2932.3924103250997
13630.920783391091,-100735.73598095607,8506.224573400566,2923.3846573096107
13621.68951293105,-100739.24520483556,8496.814488984883,2931.2524713578787
13608.814908124794,-100759.94292020118,8478.888389931726,2933.4876458034096
13609.88779185865,-100767.4754580826,8477.34611956431,2934.2699568593453
13620.46016698601,-100759.1829608897,8487.739680736027,2929.620794012641
13632.239536313957,-100741.18980660316,8506.20222165611,2932.2359481139124
13618.336751262756,-100751.6280712638,8495.987474440035,2937.5556632942757
13611.050082570326,-100770.291777884,8479.111907376278,2935.991041182404
13618.1132338182,-100768.34717611638,8483.291683589421,2932.6829830030183
13628.350332778731,-100761.41813533525,8492.500602305008,2926.9385846780046
13635.3687805377,-100749.37054507382,8502.737701265538,2921.641221242097
13621.018960597392,-100760.65817602376,8488.432584814142,2934.694640003996
13612.54764944883,-100774.87388549732,8474.976834652047,2932.3924103250997
13608.680797658062,-100783.09932745688,8474.3509858073,2927.7432474783955
13620.281353030368,-100772.4822488406,8488.834916214337,2925.6421834995967
13635.480539259976,-100754.55614978744,8505.106986177801,2925.597480010686
13623.857632143216,-100766.00024294856,8490.935980193137,2927.3409160782003
13620.683684430562,-100774.9409407307,8479.2013143541,2930.1348841351137
13622.784748409362,-100777.62315006532,8480.520067276962,2933.018259169848
13631.680742702574,-100767.52016157152,8494.020520927968,2925.3516108216777
13640.464978273509,-100754.60085327637,8506.895125734225,2929.017296912348
13627.433911256065,-100766.71549877114,8490.690111004127,2930.6266225131303
13622.270658286889,-100778.1372401878,8474.507448018485,2929.3972765680883
13628.663257201108,-100779.52304834402,8474.976834652047,2929.7772562238288
13634.474710759489,-100775.3432721309,8483.738718478528,2937.823884227739
13642.968373652504,-100758.46770506712,8498.82614598586,2935.3428405932
13627.635076956163,-100768.54834181648,8484.006939411991,2935.7675237378508
13617.330922762269,-100787.07793796992,8466.594930481308,2940.3719830956443
13623.701169932028,-100790.92243801623,8468.248959571,2938.7179540059515
13631.010190368914,-100785.44626062468,8478.419003298164,2925.6421834995967
13637.514548005409,-100774.56096107497,8490.600704026307,2935.029916170826
13628.707960690015,-100781.64646406728,8478.374299809253,2927.765599222851
13617.152108806624,-100801.80773756596,8459.330613533331,2931.72185799144
13626.562193222308,-100804.93698178972,8461.029346111936,2930.179587624024
13641.22493758499,-100793.80581305096,8473.032232884436,2932.2359481139124
13647.215205099012,-100782.83110652342,8483.470497545064,2932.414762069555
13629.17734732358,-100796.95740901916,8464.069183357857,2928.81613121225
13615.54278320584,-100816.47048192866,8445.919566860148,2928.6149655121526
13620.929553619571,-100822.28193548704,8444.62316568174,2931.699506246985
13634.3182485483,-100809.85436556987,8460.112924589268,2924.4128375545547
13638.676838717083,-100798.5890863644,8470.551189249896,2932.5712242807417
13622.270658286889,-100812.2012987377,8454.793209408905,2926.156273622069
13619.610800696708,-100827.62400241185,8442.499749958486,2931.498340546887
13627.769187422897,-100832.22846176964,8445.070200570846,2935.991041182404
13641.403751540633,-100822.05841804248,8461.208160067577,2934.851102215184
13644.465940531009,-100811.77661559304,8473.747488707006,2926.6480120000856
13631.1666525801,-100819.35385696338,8462.52691299044,2925.1280933771245
13624.572887965784,-100839.76099965107,8446.187787793611,2938.1591603945685
13631.993667124949,-100844.11958981986,8450.680488429129,2942.853026730183
13645.136492864667,-100829.32273499043,8470.841761927815,2939.4332098285213
13649.048048144346,-100812.31305745996,8484.38691906773,2931.2301196134235
13633.446530514542,-100821.38786570882,8472.96517765107,2934.5605295372643
13635.03350437087,-100831.8484821139,8464.62797696924,2943.3671168526557
13641.671972474096,-100833.2566420146,8464.359756035776,2938.4944365613983
13643.728332963983,-100826.70758088918,8475.58033175234,2928.793779467795
13650.523263278395,-100816.4481301842,8488.477288303053,2941.0648871737585
13635.435835771064,-100825.12060703283,8474.485096274031,2944.529407564331
13627.277449044876,-100846.73474392114,8456.380183265232,2943.992965697404
13643.348353308244,-100845.28188053156,8463.398631024198,2941.601329040686
13657.586414526277,-100830.37326697983,8481.257674843988,2935.320488848745
13658.659298260129,-100825.45588319968,8484.431622556642,2937.801532483284
13644.689457975564,-100840.72212466266,8469.433602027131,2947.3457273657
13640.643792229152,-100857.03889811505,8457.788343165916,2955.481762347432
13649.36097256672,-100855.92131089228,8467.131372348234,2959.8403525162166
13659.79923722735,-100845.795970654,8483.626959756251,2951.480800089932
13660.738010494471,-100834.50833970409,8494.668721517173,2939.6790790175296
13643.147187608149,-100854.22257831368,8477.323767819855,2948.999756455393
13641.98489689647,-100872.88628493383,8466.282006058933,2962.321396150756
13652.669030746109,-100874.74147972364,8471.042927627914,2960.041518216314
13666.728278008495,-100863.4538487737,8486.420927813164,2955.861742003172
13671.310385621831,-100849.21578755567,8497.68620701864,2952.3972216125994
13651.685553990072,-100860.27990106105,8479.044852142913,2950.117343678158
13645.091789375758,-100871.72399422216,8469.366546793764,2957.985157726426
13649.472731288995,-100874.6073692569,8471.288796816922,2960.533256594331
13664.85073147425,-100861.66570921728,8487.58321852484,2962.701375806496
13669.231673387489,-100849.48400848912,8499.11671866378,2961.382622883633
13650.344449322754,-100866.89601741984,8481.123564377256,2955.928797236538
13641.94019340756,-100882.83281121646,8468.137200848723,2954.274768146845
13644.577699253286,-100885.20209612872,8471.780535194937,2958.454544359988
13659.41925757161,-100869.064136632,8491.226552871056,2956.5546460812866
13661.36385933922,-100859.81051442747,8499.384939597243,2957.6051780706857
13641.001420140436,-100877.58015126946,8479.827163198848,2954.7441547804065
13636.70988520502,-100895.64036078934,8464.873846158249,2958.834524015728
13646.477597531986,-100894.99216020014,8467.86897991526,2954.922968736049
13660.55919653883,-100878.63068325886,8483.783421967439,2950.63143380063
13659.486312804976,-100867.99125289814,8490.1536691372,2942.830674985728
13635.257021815423,-100882.63164551636,8471.355852050287,2940.662555773563
13630.630210713174,-100895.43919508925,8460.783476922927,2947.658651788074
13642.074303874291,-100891.92997120976,8466.639633970217,2949.15621866658
13657.541711037364,-100878.58597976997,8482.196448111112,2955.9735007254485
13660.581548283286,-100869.7570407101,8490.891276704226,2959.0356897158254
13637.089864860758,-100888.55485779702,8469.344195049309,2949.1785704110357
13628.439739756554,-100905.3633696274,8455.53081697593,2946.8092854987726
13641.291992818356,-100903.75404402665,8463.24216881301,2944.2611866308675
13659.016926171416,-100890.14183165334,8481.883523688737,2947.166913410057
13655.75357148094,-100886.18557288476,8484.588084767829,2936.929814449527
13635.70405670453,-100914.68404706528,8459.308261788878,2940.9978319403926
13642.007248640926,-100930.84435830644,8450.345212262298,2943.277709874834
13649.495083033453,-100932.34192518496,8453.228587297033,2933.8676254591496
13658.99457442696,-100924.98820125916,8464.695032202606,2935.745171993396
13661.922652950603,-100913.74527379817,8473.188695095623,2927.3409160782003
13646.075266131793,-100931.78313157358,8453.452104741586,2928.9502416789824
13646.008210898426,-100948.05520153703,8441.091590057802,2931.5653957802533
13656.491179047964,-100948.61399514842,8446.634822682718,2933.375887081133
13672.13740016668,-100933.19129147429,8467.131372348234,2935.029916170826
13667.957623953536,-100926.70928558224,8471.95934915058,2932.660631258563
13647.326963821288,-100946.11059976944,8449.697011673095,2932.8394452142056
13644.689457975564,-100958.06878305302,8440.108113301769,2936.125151649136
13655.105370891735,-100956.37005047442,8447.037154082913,2933.979384181426
13674.394926356665,-100939.11450375491,8468.606587482285,2929.620794012641
13668.337603609278,-100933.79478857457,8474.082764873834,2926.4915497888983
13647.148149865649,-100950.91622482732,8452.982718108025,2927.3185643337447
13643.147187608149,-100962.47207671072,8443.662040670162,2927.3185643337447
13653.764266224416,-100959.40988772034,8451.395744251698,2919.5178055188426
13667.331775108789,-100947.49640792566,8466.684337459128,2922.3564770646667
13673.903187978647,-100936.7228670982,8472.2499218285,2917.707314217963
13653.674859246596,-100958.47111445322,8445.919566860148,2912.566412993242
13646.74581846545,-100973.93852161628,8432.508520186964,2920.568337508242
13653.89837669115,-100967.16594304632,8442.030363324924,2921.663572986552
13668.94110070957,-100958.20289351976,8458.81652341086,2921.216538097446
13668.739935009473,-100954.581910918,8463.555093235385,2912.9463926489825
13648.13162662168,-100975.77136466165,8445.696049415596,2919.3389915632
13634.541765992852,-100996.20085909378,8431.055656797369,2917.506148517865
13640.755550951428,-100997.72077771674,8437.828235367328,2924.4128375545547
13661.408562828132,-100976.77719316212,8458.861226899771,2916.2768025728237
13658.927519193592,-100973.24561753818,8461.185808323122,2913.86281417165
13645.60587949823,-100993.27278057011,8442.85737786977,2922.1106078756584
13639.056818372825,-101011.71296974576,8432.53087193142,2914.4216077830324
13646.544652765351,-101014.30577210255,8437.090627800302,2918.400218296077
13660.246272116456,-101000.22417309572,8453.072125085846,2917.2602793288565
13661.252100616945,-100991.48464101373,8457.073087343346,2915.6733054725296
13643.907146919626,-101010.50597554517,8433.402589965175,2906.5090902458537
13643.661277730618,-101023.17941465131,8423.52311891593,2915.807415939262
13659.3745540827,-101011.17652787884,8434.922508588137,2924.993982910393
13673.925539723105,-100995.61971373792,8451.082819829324,2924.4128375545547
13662.481446561987,-100998.23486783922,8450.501674473486,2915.382732794611
13637.581603238774,-101023.91702221836,8428.90988932966,2921.6188694976413
13641.694324218552,-101036.0540194576,8423.746636360484,2920.4565787859656
13655.284184847378,-101029.16968216536,8436.241261511,2918.087293873703
13664.068420418314,-101014.1493098914,8456.089610587313,2911.962915892949
13658.435780815576,-101008.36020807746,8459.86705540026,2913.86281417165
13641.448455029542,-101022.93354546232,8442.835026125316,2922.065904386748
13642.78955969686,-101030.28726938812,8434.76604637695,2919.5178055188426
13652.691382490562,-101030.8013595106,8441.560976691362,2919.2719363298343
13662.146170395155,-101018.597307038,8456.2460727985,2914.0416281272924
13660.916824450116,-101013.1881848798,8457.810694910371,2914.3992560385773
13641.180234096078,-101034.73526653471,8432.19559576459,2910.018314125337
13636.59812648274,-101049.06273473056,8419.745674102984,2910.890032159094
13648.824530699794,-101045.46410387328,8426.786473606406,2909.213651324946
13664.917786707616,-101026.80039725309,8447.148912805189,2912.7228752044293
13662.392039584163,-101018.77612099364,8454.279119286433,2912.834633926706
13641.068475373802,-101041.7090108048,8433.357886476266,2920.9706689084373
13641.85078642974,-101051.6555370874,8428.015819551447,2919.71897121894
13651.79731271235,-101046.58169109604,8438.655249912174,2925.9104044330606
13663.308461106832,-101029.28144088764,8455.396706509198,2918.310811318256
13655.306536591834,-101028.40972285387,8454.39087800871,2917.416741540044
13637.112216605214,-101051.61083359848,8433.33553473181,2914.3098490607563
13635.3687805377,-101060.1044964915,8428.57461316283,2911.4041222815663
13642.342524807756,-101057.8022668126,8434.989563821502,2912.4323025265103
13657.318193592811,-101041.06081021558,8454.770857664449,2913.1028548601694
13654.971260425003,-101037.3951241249,8458.39184026621,2910.5547559922643
13637.067513116304,-101057.86932204595,8438.47643595653,2906.5090902458537
13634.832338670773,-101071.12390650796,8429.759255618961,2908.341933291189
13638.833300928272,-101071.03449953014,8431.48033994202,2909.660686214052
13650.009173155926,-101054.96359526676,8447.48418897202,2903.871584400128
13649.22686209999,-101048.21336844128,8451.216930296056,2902.508127988354
13633.64769621464,-101065.58067388304,8433.00025856498,2904.922116389527
13631.568983980296,-101078.8576100895,8425.557127661363,2914.3992560385773
13636.307553804822,-101078.70114787832,8429.245165496488,2904.6538954560638
13647.662239988118,-101061.98204302574,8445.405476737677,2898.5518692197647
13648.712771977518,-101055.4553336448,8446.992450594003,2901.055264598759
13634.832338670773,-101074.16374375387,8425.825348594826,2899.311828531245
13636.486367760464,-101081.1598397684,8421.310296214855,2892.2039737944574
13643.527167263886,-101076.86830483298,8428.887537585204,2896.227287796413
13656.647641259153,-101058.67398484636,8446.925395360637,2901.569354721231
13656.2229581145,-101053.77895281064,8450.501674473486,2905.5926687231863
13633.781806681372,-101071.99562454173,8427.032342795414,2900.6529331985635
13625.534012977363,-101087.99947357172,8413.598944377774,2907.7831396798065
13637.782768938872,-101085.607836915,8420.66209562565,2899.5800494647087
13653.496045290953,-101067.36881343948,8438.67760165663,2895.1991075514684
13650.500911533942,-101065.51361864968,8438.76700863445,2894.8414796401835
13637.64865847214,-101083.21620025828,8419.186880491601,2899.7812151648063
13636.441664271551,-101094.83910737504,8412.079025754812,2901.47994774341
13644.13066436418,-101087.53008693816,8421.958496804058,2900.161194820547
13655.261833102924,-101068.93343555134,8440.309279001865,2899.9823808649044
13651.84201620126,-101066.608854128,8440.666906913151,2906.151462334569
13642.163710852112,-101084.66906364787,8421.153834003668,2906.442035012488
13643.482463774975,-101092.58158118506,8415.14121474519,2902.9998663663705
13650.746780722951,-101086.52425843768,8425.847700339282,2903.603363466664
13660.223920372,-101067.59233088404,8446.701877916084,2899.155366320058
13642.074303874291,-101070.36394719649,8441.96330809156,2896.1602325630465
13623.052969342823,-101091.77691838468,8421.37735144822,2899.535345975798
13619.320228018789,-101103.0645493346,8416.95170604607,2893.8803546286053
13628.17151882309,-101098.99653184372,8427.233508495512,2892.6510086835638
13638.140396850158,-101086.94894158232,8444.064372070357,2896.115529074136
13630.116120590705,-101092.33571199606,8438.319973745343,2901.6140582101416
13618.828489640771,-101113.30164829514,8420.818557836837,2902.57518322172
13622.337713520255,-101120.47655826528,8418.71749385804,2903.223383810924
13634.295896803844,-101111.80408141665,8429.088703285302,2905.950296634471
13640.241460828956,-101097.20839228731,8446.008973837968,2900.6752849430186
13631.725446191484,-101097.36485449848,8438.588194678807,2901.6140582101416
13612.4135389821,-101121.5717937436,8413.353075188765,2903.089273344192
13615.676893672571,-101134.22288110528,8407.452214652565,2911.2923635592897
13625.846937399738,-101131.13834037048,8416.638781623697,2907.827843168717
13636.754588693928,-101115.4250640184,8433.089665542802,2910.152424592069
13627.925649634082,-101116.58735473006,8429.71455213005,2906.665552457041
13610.804213381316,-101139.7661137302,8408.972133275525,2907.358456535156
13613.866402371694,-101149.60088129056,8407.027531507914,2911.4041222815663
13625.757530421915,-101141.55425328664,8424.528947416418,2914.7792356943173
13637.782768938872,-101125.14807285643,8445.316069759854,2905.8832414011054
13629.73614093496,-101126.71269496832,8442.700915658585,2906.017351867837
13615.274562272378,-101147.20924463384,8421.757331103961,2904.2962675447784
13610.625399425677,-101157.31223312762,8414.828290322816,2900.116491331636
13620.907201875116,-101146.89632021144,8427.434674195609,2909.81714842524
13631.03254211337,-101130.624250248,8444.801979637383,2911.560584492753
13621.465995486498,-101131.31715432613,8441.650383669185,2915.405084539066
13604.12104178918,-101148.66210802342,8423.23254623801,2911.9405641484936
13607.3620447352,-101153.5794918036,8422.919621815638,2917.8861281736054
13620.862498386205,-101151.12079991352,8432.732037631517,2920.6130409971524
13635.88287066017,-101133.79819796064,8450.881654129225,2918.713142718452
13629.043236856847,-101130.95952641482,8450.300508773387,2914.913346161049
13614.02286458288,-101146.628099278,8434.43077021012,2920.9706689084373
13610.960675592503,-101156.95460521636,8427.680543384617,2922.289421831301
13618.493213473945,-101157.31223312762,8435.57070917734,2921.5071107753647
13635.301725304333,-101141.19662537536,8454.793209408905,2919.8530816856724
13625.757530421915,-101147.7233347563,8447.48418897202,2919.7860264523065
13610.93832384805,-101169.71745130033,8428.462854440553,2923.5858230097083
13615.967466350492,-101172.93610250187,8428.820482351837,2922.892918931594
13624.818757154795,-101168.62221582202,8439.616374923751,2922.021200897837
13631.680742702574,-101154.80883774864,8455.86609314276,2909.392465280589
13618.448509985032,-101161.1790849184,8449.272328528445,2917.416741540044
13601.774108621374,-101179.79808804966,8433.71551438755,2919.763674707851
13605.126870289669,-101188.7834893207,8431.81561610885,2923.965802665449
13621.063664086303,-101178.81461129364,8445.450180226586,2921.5518142642754
13633.804158425828,-101161.06732619612,8464.896197902704,2920.5236340193314
13621.823623397784,-101169.89626525596,8457.922453632647,2916.43326478401
13602.60112316622,-101196.45013766889,8436.62124116674,2915.852119428172
13603.763413877896,-101207.00016105178,8435.727171388527,2923.474064287432
13616.638018684152,-101199.3335127036,8449.249976783989,2921.2388898419013
13626.919821133592,-101186.41420440844,8465.365584536265,2921.5294625198203
13618.3143995183,-101191.71156784437,8459.755296677982,2924.837520699205
13606.535030190353,-101212.31987623214,8440.778665635427,2933.9123289480603
13615.855707628216,-101216.09732104508,8440.108113301769,2929.039648656804
13627.210393811512,-101211.76108262075,8449.786418650916,2932.280651602823
13640.084998617767,-101193.29854170069,8468.204256082088,2929.8666632016498
13625.466957743998,-101197.8359458251,8457.967157121559,2935.0746196597365
13605.640960412142,-101224.3451147491,8428.932241074115,2930.738381235407
13608.569038935786,-101229.642478185,8424.57365090533,2925.6868869885075
13617.93441986256,-101223.56280369316,8434.67663939913,2930.3360498352117
13631.613687469207,-101211.42580645392,8450.72519191804,2931.028953913326
13622.807100153816,-101214.55505067766,8444.936090104115,2935.052267915281
13607.764376135396,-101236.28094628824,8424.394836949687,2939.902596462083
13608.859611613703,-101243.9922981253,8423.187842749101,2930.984250424415
13619.856669885716,-101237.17501606644,8434.944860332593,2935.923985949038
13629.624382212683,-101222.86989961503,8449.138218061713,2928.257337600868
13615.811004139305,-101228.7931118957,8440.733962146516,2927.1397503781022
13601.483535943456,-101249.46847551686,8425.221851494534,2929.933718435016
13599.337768475743,-101261.98545241184,8423.970153805036,2930.9171951910494
13607.898486602127,-101255.5481500087,8435.436598710608,2933.040610914303
13619.968428607992,-101240.57248122364,8452.043944840902,2926.916232933549
13611.228896525969,-101247.7473911938,8444.734924404016,2930.380753324122
13596.186172507549,-101268.1992373704,8425.087741027803,2933.1747213810354
13597.102594030212,-101277.02817643023,8420.304467714366,2928.05617190077
13615.45337622802,-101264.48884779082,8434.788398121405,2924.7481137213845
13629.333809534766,-101247.45681851589,8451.999241351992,2923.362305565156
13612.055911070816,-101258.29741457672,8441.605680180273,2928.4585033009653
13600.947094076526,-101274.12244965108,8427.971116062536,2932.5935760251973
13606.378567979164,-101282.43729858844,8424.707761372061,2934.538177792809
13619.633152441163,-101273.2060281284,8438.521139445442,2937.0415731718035
13632.4183502696,-101251.90481566248,8458.347136777298,2931.855968458172
13616.325094261778,-101260.46553378888,8447.461837227564,2928.6149655121526
13604.4116144671,-101275.68707176294,8433.223776009534,2924.3904858101
13608.479631957964,-101274.34596709562,8435.436598710608,2931.744209735896
13612.637056426653,-101274.99416768482,8443.729095903527,2930.24664285739
13622.851803642729,-101261.02432740026,8459.1965030666,2922.915270676049
13615.40867273911,-101263.72888847937,8454.659098942173,2923.630526498619
13598.77897486436,-101286.75118526832,8433.402589965175,2916.567375250742
13603.472841199977,-101291.26623764828,8432.95555507607,2921.954145664471
13621.51069897541,-101279.9562549539,8450.76989540695,2926.312735833256
13627.769187422897,-101272.58017928364,8466.617282225763,2919.3613433076557
13611.65357967062,-101288.27110389128,8454.279119286433,2924.1446166210912
13600.567114420786,-101309.68407507944,8437.71647664505,2924.189320110002
13601.505887687908,-101317.70835133892,8434.721342888039,2919.115474118647
13613.776995393871,-101313.43916814796,8444.399648237188,2914.3545525496666
13624.46112924351,-101300.25163891932,8462.705726946084,2913.9075176605606
13612.346483748734,-101308.72295006788,8454.256767541978,2916.2991543172784
13600.50005918742,-101329.53242415575,8434.67663939913,2914.600421738675
13604.523373189377,-101334.67332538049,8434.274307998932,2918.891956674094
13608.50198370242,-101323.22923221935,8448.154741305678,2920.1660061080465
13618.381454751669,-101304.18554594344,8466.617282225763,2913.7510554493733
13611.139489548146,-101313.99796175932,8454.770857664449,2922.3564770646667
13596.11911727418,-101334.9191945695,8436.420075466642,2921.887090431105
13601.662349899096,-101336.75203761485,8440.823369124339,2923.5858230097083
13613.151146549124,-101328.3701334441,8453.72032567505,2923.250546842879
13622.672989687086,-101314.55675537072,8468.718346204561,2920.76950320834
13606.937361590548,-101320.8152438182,8457.944805377103,2915.248622327879
13591.916989316582,-101338.31665972673,8438.655249912174,2913.058151371258
13594.88977132914,-101346.676212153,8430.876842841726,2912.3652472931444
13609.664274414095,-101335.63445039208,8442.611508680762,2911.9405641484936
13618.269696029389,-101319.65295310652,8456.760162920971,2910.174776336524
13602.824640610772,-101329.68888636696,8441.605680180273,2911.158253092558
13592.49813467242,-101348.4643517094,8423.05373228237,2912.186433337502
13595.180344007058,-101354.0746395677,8420.595040392285,2913.885165916105
13607.384396479654,-101344.8657208521,8432.28500274241,2915.1368636056022
13615.989818094948,-101324.39152293104,8450.345212262298,2906.0397036122927
13595.515620173886,-101334.33804921366,8436.53183418892,2894.7520726623625
13586.485515413942,-101354.38756399008,8421.310296214855,2904.922116389527
13592.83341083925,-101361.0260320933,8420.527985158918,2908.185471080002
13606.155050534611,-101355.19222679046,8430.988601564002,2902.351665777167
13616.101576817224,-101339.68011613848,8448.042982583402,2896.651970941064
13595.001530051415,-101351.68300291098,8433.357886476266,2893.545078461776
13576.918968787071,-101378.39333753508,8409.843851309282,2896.249639540868
13583.423326423566,-101380.29323581378,8410.268534453933,2896.026122096315
13598.68956788654,-101369.94437813095,8422.76315960445,2897.747206419373
13610.424233725576,-101353.09116281166,8438.43173246762,2896.4955087298763
13594.3086259733,-101362.56830246071,8422.606697393263,2896.070825585225
13584.049175268314,-101379.22035207992,8403.495955883975,2899.7141599314405
13585.390279935633,-101386.99875915036,8400.254952937956,2906.062055356748
13593.34750096172,-101379.86855266913,8414.3365519448,2900.787043665295
