 EXG Channel 0, EXG Channel 1, EXG Channel 2, EXG Channel 3
-109331.81456706698,-10992.632626608924,-29975.38804714537,-40377.10760558934
-106911.76884314643,-10966.145809429385,-29987.83796880698,-40476.84108934893
-107944.68765791508,-11224.576678821646,-30303.73517319384,-40388.61875398383
-110331.9880762086,-11293.57651395518,-30316.430964044448,-40281.77741548746
-110805.64389296102,-11170.150181072971,-30143.339054982556,-40304.21856692059
-109260.60190923235,-11007.27301922715,-29968.861337764425,-40389.289306317485
-106860.04690647684,-10971.487876354204,-29994.118808998923,-40479.18802251673
-107967.57584423732,-11230.656353313489,-30317.19092335593,-40385.02012312653
-110353.28928867452,-11294.492935477843,-30328.925589194965,-40277.55293578541
-110804.12397433806,-11165.791590904188,-30154.939610354857,-40300.57523257437
-109218.021836045,-11004.79197559261,-29978.249070435653,-40392.03857088549
-106822.1159961362,-10984.56364686056,-30011.821390607525,-40488.62045867687
-107990.21816137056,-11229.56111783518,-30323.985853670343,-40386.71885570513
-110366.58857662542,-11284.747574895331,-30332.859496219105,-40285.46545332258
-110791.0482038317,-11154.660422165443,-30157.0183225892,-40308.73361930056
-109146.6080125103,-10982.41787939285,-29976.818558790517,-40397.55945176595
-106756.51362615988,-10965.184684417807,-30014.771820875627,-40488.79927263252
-108008.85951624627,-11233.115045203573,-30340.90612422301,-40388.90932666175
-110387.97919606917,-11271.09065903314,-30333.15006889702,-40279.38577883074
-110778.35241298108,-11142.165797014928,-30150.44690971934,-40305.470264610085
-109079.48572391104,-10973.41012637736,-29968.950744742247,-40399.0346669
-106689.2348753494,-10967.129286185418,-30014.525951686617,-40488.32988599895
-108012.1899261701,-11236.423103382958,-30341.53197306776,-40387.74703595007
-110398.7080334077,-11262.284071717748,-30327.986815927845,-40280.63747652024
-110755.77715108125,-11128.642991619468,-30146.11067129501,-40308.04071522244
-109003.80271718536,-10956.556911058058,-29964.011009217626,-40401.22513785662
-106628.72870310888,-10959.194416903783,-30015.91175984285,-40490.72152265567
-108013.8886587487,-11243.530958119743,-30342.090766679143,-40387.34470454988
-110411.38147251388,-11278.623196914576,-30322.46593504738,-40281.93387769865
-110750.70330508988,-11127.7265700968,-30137.147621768432,-40310.52175885699
-108942.04484725534,-10959.149713414874,-29959.563012071016,-40412.66923101774
-106561.02526915376,-10960.22259714873,-30020.404460478363,-40492.37555174536
-108028.3502374113,-11229.717580046366,-30347.07520569268,-40379.70040794616
-110424.47959476466,-11267.559083409202,-30323.874094948067,-40281.66565676519
-110741.382627652,-11137.002544045752,-30140.36627297,-40317.49550312704
-108885.38317506111,-10952.60065228947,-29957.21607890321,-40414.45737057416
-106513.52781218622,-10960.200245404274,-30029.680434427315,-40502.38913326134
-108055.3064412244,-11249.029487255752,-30364.107234967614,-40391.54683250748
-110438.7623594716,-11281.081888804662,-30328.88088570605,-40286.27011612298
-110722.49540358728,-11144.289212738182,-30143.741386382742,-40316.4673228821
-108803.35227291015,-10962.725992527725,-29960.25591614913,-40415.2396816301
-106447.05372417616,-10982.619045092946,-30039.42579500983,-40503.75258967312
-108055.59701390233,-11265.145095008029,-30369.62811584808,-40385.48950976009
-110441.28810659506,-11278.75730738131,-30327.696243249924,-40277.374121829765
-110702.1776678774,-11144.378619716004,-30141.260342748206,-40320.24476769505
-108734.37478952108,-10961.295480882583,-29957.39489285885,-40428.47191434764
-106394.32595900608,-10981.814382292556,-30046.75716719117,-40508.04412460853
-108064.91769134018,-11267.424972942468,-30369.29283968125,-40377.95697187864
-110454.43093233478,-11298.42684250198,-30323.203542614407,-40274.84837470632
-110690.01831889372,-11156.69443091088,-30133.63839788895,-40298.5635755734
-108658.08828569512,-10958.993251203688,-29944.25206711913,-40395.77131220953
-106340.59236533551,-10989.50338238518,-30044.56669623455,-40474.807080603496
-108094.8690289103,-11289.508496464312,-30376.51245314032,-40350.79960236545
-110468.40077261937,-11295.47641223388,-30323.181190869956,-40254.73180469654
-110669.05238259464,-11143.663363893436,-30136.49942117923,-40286.515985311984
-108588.50730520574,-10961.876626238422,-29952.656323034327,-40389.60223073986
-106291.95496940076,-10997.259437711173,-30054.759091706168,-40463.27358046456
-108098.44530802312,-11287.340377252149,-30376.73597058487,-40333.7675730905
-110469.60776681991,-11313.96130489842,-30321.46010654689,-40242.72891792404
-110641.04564679212,-11137.807206846144,-30132.29729322163,-40279.02815091946
-108509.13626064495,-10935.412160803338,-29942.665093262804,-40384.77425393752
-106248.63728864638,-10990.46450739676,-30061.084635387026,-40467.85568807789
-108128.8213287379,-11285.32872025117,-30385.475502666894,-40337.433259181176
-110485.8798367834,-11294.80585990022,-30323.42706005896,-40247.10985983728
-110631.4567484208,-11143.931584826898,-30130.77737459867,-40279.899868953216
-108447.73601862622,-10954.589957545992,-29944.475584563686,-40383.924887648216
-106209.99112248316,-10994.800745821089,-30066.42670231184,-40455.8975047943
-108153.1847301942,-11280.813667871198,-30384.64848812205,-40314.32155541439
-110487.46681063971,-11269.548388665724,-30305.836237172636,-40213.80576059887
-110599.73962303874,-11119.076444992595,-30116.226388958265,-40256.69875820861
-108366.64388974236,-10934.942774169776,-29929.96930241219,-40368.21161129613
-106170.13796211936,-10993.07966149803,-30060.458786542276,-40441.167705198255
-108172.67545135922,-11290.827249387175,-30382.41331367652,-40310.164130945705
-110495.4240316658,-11273.079964289662,-30299.577748725147,-40211.57058615334
-110578.05843091708,-11114.494337379258,-30107.173932453865,-40251.33433953933
-108306.5176971576,-10926.940849654777,-29931.511572779607,-40369.776233408
-106154.78231367854,-10986.59765560599,-30065.30911508908,-40436.295024907
-108210.47225123314,-11283.272359761282,-30373.53967112776,-40295.54609007193
-110509.03624403907,-11272.632929400555,-30293.31926027766,-40210.81062684186
-110560.7358289642,-11116.237773446772,-30108.179760954357,-40261.34792105531
-108242.59170801542,-10918.514241995126,-29923.2637790756,-40379.40983526824
-106127.33437148744,-10985.949455016787,-30067.454882556784,-40446.33095816743
-108250.48187380814,-11272.632929400555,-30377.674743851992,-40301.42459886368
-110532.37146525044,-11256.159693736994,-30293.676888188947,-40218.27610948993
-110545.76016017915,-11113.689674578867,-30102.92710100736,-40262.1525838557
-108173.97185253762,-10930.07009387852,-29923.2637790756,-40381.93558239169
-106102.00984501957,-10992.386757419916,-30077.826091984047,-40445.81686804496
-108257.83559773394,-11282.221827771882,-30382.837996821167,-40296.596622061326
-110529.51044196016,-11275.963339324397,-30291.24054804332,-40216.13034202223
-110522.46964245674,-11112.706197822834,-30102.167141695874,-40269.12632812576
-108111.78929946297,-10907.6736459343,-29921.11801160789,-40389.37871329531
-106090.49869662509,-10995.046615010097,-30077.982554195238,-40448.163801212766
-108322.1639182763,-11299.611484958112,-30384.69319161096,-40302.966869231095
-110555.08083761705,-11278.064403303197,-30284.535024706725,-40220.57833916883
-110508.90213357237,-11117.8247473031,-30094.411086369884,-40272.27792409396
-108054.747647613,-10918.536593739582,-29907.885778890348,-40390.80922494045
-106084.26255992203,-11001.953304046789,-30077.33435360603,-40455.60693211638
-108362.1288373624,-11293.263589532804,-30384.35791544413,-40315.46149438161
-110569.81063721309,-11276.388022469047,-30284.959707851376,-40240.22552254504
-110475.79920003406,-11121.333971182585,-30090.83480725704,-40288.81821499088
-107984.9431496791,-10928.125492110908,-29911.39500276983,-40412.55747229546
-106079.34517614188,-11020.572307178058,-30086.83384499953,-40468.81681308947
-108416.13065196642,-11300.058519847218,-30387.218938734408,-40319.08247698337
-110584.74160250922,-11270.80008635522,-30274.923774590945,-40243.91356038017
-110462.61167080542,-11109.509898365724,-30078.72016176226,-40295.63549704975
-107929.13084377418,-10910.758186669134,-29896.19581654022,-40414.61383278535
-106073.82429526142,-11017.264248998672,-30085.939775221323,-40462.96065604218
-108459.98477458772,-11313.76013919832,-30386.928366056487,-40312.42165713569
-110589.68133803384,-11273.32583347867,-30272.57684142314,-40242.50540047949
-110432.03448439056,-11097.305845893126,-30083.61519379797,-40291.43336909216
-107867.3059186108,-10907.383073256384,-29909.71862193568,-40412.22219612864
-106077.26646390754,-11025.489690958226,-30108.358574909995,-40460.47961240764
-108512.33256010206,-11311.234392074872,-30399.73591562938,-40304.151511687225
-110607.74154755371,-11266.530903164256,-30275.124940291043,-40229.80960962887
-110412.49905973664,-11097.685825548868,-30078.63075478444,-40282.58207828785
-107816.1427755526,-10910.668779691314,-29910.29976729152,-40416.849007230885
-106094.1420309713,-11047.394400524428,-30117.90276979241,-40467.0510252775
-108556.09727574556,-11338.90585171054,-30397.83601735068,-40309.27006116749
-110616.88341103596,-11274.264606745794,-30266.31835297565,-40229.42962997313
-110382.52537042204,-11090.086232434063,-30074.316868104564,-40285.35369460031
-107741.84557698316,-10892.608570171426,-29904.264796288586,-40406.790722226
-106083.70376631067,-11021.734597889734,-30121.367290182985,-40450.04134774701
-108600.66665418944,-11301.354921025626,-30394.907938827037,-40289.68993302464
-110631.32263795409,-11255.332679192148,-30262.7420738628,-40226.18862702711
-110359.25720444407,-11080.564389296102,-30070.62883026944,-40286.605392289806
-107687.44143097896,-10891.915666093311,-29906.119991078376,-40419.35240260988
-106092.4880018816,-11030.027095082653,-30127.335205952557,-40459.71965309616
-108640.1398348975,-11299.745595424843,-30396.941947572464,-40297.49069183954
-110637.15644325691,-11251.443475656924,-30263.63614364101,-40235.33049050933
-110329.97641920764,-11081.301996863129,-30062.984533665724,-40285.912488211696
-107617.43576734493,-10890.373395725894,-29890.67493565976,-40405.38256232531
-106093.046795493,-11043.862824900489,-30121.546104138622,-40437.5467225965
-108702.88118158357,-11321.560898013222,-30392.71746787041,-40277.66469450769
-110656.58010918858,-11254.304498947204,-30244.97243702083,-40213.17991175412
-110305.70242472916,-11083.604226542024,-30050.51226025966,-40273.99900841701
-107563.72452541885,-10887.646482902346,-29885.60108966841,-40396.88889943229
-106111.01759803506,-11044.622784211968,-30124.09420300653,-40425.07444919043
-108750.13276936208,-11320.95740091293,-30386.05664802273,-40262.68902572263
-110668.2700715387,-11242.972164508365,-30240.50208812977,-40203.56866163834
-110278.58975870488,-11060.313708819594,-30050.46755677075,-40264.231296090045
-107504.00066423423,-10879.82337234299,-29897.223996785164,-40396.71008547665
-106108.35774044487,-11039.95126962081,-30135.806517101115,-40420.38058285482
-108773.57974929568,-11310.005046129829,-30393.41037194853,-40260.20798208809
-110656.69186791083,-11239.93232726244,-30243.854849798063,-40206.09440876179
-110227.3148569244,-11072.651871758922,-30051.2945713156,-40272.94847642761
-107440.90168963691,-10891.848610859945,-29900.15207530881,-40411.2387193726
-106127.46848195416,-11052.7588191937,-30152.838546376057,-40429.3436323814
-108826.53103191032,-11318.09637762265,-30406.463790710422,-40268.38872055873
-110669.34295527256,-11254.975051280862,-30257.824690082634,-40222.56764442536
-110199.1069554218,-11081.86079047451,-30061.352856320485,-40287.11948241228
-107375.16520919386,-10907.807756401036,-29906.164694567287,-40417.36309735335
-106135.58216519144,-11061.006612897709,-30158.471185978797,-40428.293100392
-108864.08196259524,-11316.263534577314,-30401.76992437481,-40265.59475250182
-110659.8211121346,-11227.12477768955,-30240.47973638532,-40213.51518792095
-110164.77467593846,-11067.935653678853,-30044.969027634743,-40278.31289509689
-107317.34124628798,-10889.412270714316,-29894.050049072517,-40406.12016989233
-106160.97374689266,-11064.7617059662,-30152.54797369814,-40415.46319907465
-108917.32381788777,-11320.175089856994,-30390.325831213693,-40254.3518250408
-110672.9192343854,-11231.282202158238,-30228.99093973529,-40203.45690291606
-110131.2917627444,-11047.32734529106,-30036.31890253054,-40262.57726700035
-107267.34039394146,-10867.664023359304,-29889.892624603825,-40388.05996037245
-106171.14379061984,-11049.85309241451,-30157.06302607811,-40396.17364360972
-108952.43840842706,-11303.27717104878,-30393.87975858209,-40233.60940618628
-110683.80453393514,-11228.152957934495,-30239.07157648463,-40190.64935334317
-110109.36470143376,-11057.318575062583,-30046.80187068008,-40258.978636143045
-107217.8536317174,-10876.023575785586,-29900.44264798673,-40387.72468420562
-106190.79097399605,-11062.750048965225,-30170.809348918123,-40388.61875398383
-108992.13510657968,-11310.027397874284,-30399.8253226072,-40231.5977491853
-110673.25451055224,-11220.732178775332,-30234.0871374711,-40193.264507444444
-110065.44352357907,-11054.52460700567,-30041.50450724417,-40263.56074375639
-107154.46408444217,-10879.890427576354,-29898.162770052288,-40394.76548370904
-106198.14469792185,-11070.95313918032,-30169.46824425081,-40395.21251859814
-109018.66662724814,-11306.317008294704,-30389.9234998135,-40232.73768815252
-110661.5198447132,-11210.517431559258,-30223.671224554924,-40195.633792356704
-110019.13070906769,-11049.495464503225,-30034.95544611877,-40270.3556740708
-107094.15907790174,-10878.996357798143,-29901.58258695395,-40409.629393771815
-106212.02513122858,-11083.827743986576,-30183.393381046462,-40409.67409726073
-109055.70346781056,-11320.71153172392,-30390.638755636068,-40241.924255123646
-110664.8279028926,-11234.254984170791,-30222.620692565524,-40205.40150468368
-109983.74789759492,-11052.71411570479,-30030.932132116814,-40275.07189215087
-107033.98818182806,-10877.722308364191,-29892.73129614965,-40407.684792004206
-106223.55863136752,-11073.612996770502,-30173.31274429712,-40394.676076731215
-109078.47989541054,-11299.633836702567,-30379.75345608633,-40231.88832186322
-110647.88528059548,-11197.754585475275,-30209.27670112571,-40202.495777904485
-109931.6459812696,-11025.735560147234,-30015.42002146483,-40279.67635150866
-106961.97086119304,-10862.210197712207,-29884.036467556536,-40413.87622521832
-106238.8248728305,-11078.709194506311,-30182.7228287128,-40412.490417062094
-109111.58282894884,-11304.23829606036,-30381.42983692048,-40254.68710120763
-110642.27499273718,-11201.822602966144,-30204.180503389896,-40223.48406594802
-109875.69956489796,-11028.84245262652,-30011.150838273865,-40293.98146796006
-106895.47442143851,-10870.927378049775,-29892.932461849745,-40427.2425684026
-106255.4322189608,-11093.081366191074,-30201.855921966544,-40423.55453056748
-109140.75185546302,-11309.178031584985,-30386.39192418956,-40261.68319722214
-110628.7074838528,-11204.638922767512,-30202.817046978125,-40228.31204275037
-109825.922229996,-11023.52273744616,-30010.346175473474,-40304.33032564286
-106832.33074335229,-10868.066354759498,-29894.58649093944,-40434.68569930622
-106269.62557668993,-11102.133822695474,-30204.44872432336,-40412.31160310646
-109176.9169779917,-11323.371389314105,-30390.34818295815,-40250.57438022785
-110628.39455943044,-11201.21910586585,-30207.533265058195,-40222.09825779179
-109779.1623805955,-11020.885231600432,-30010.189713262287,-40295.18846216064
-106774.21620776848,-10873.095497261942,-29904.600072455414,-40427.264920147056
-106299.91219042684,-11090.823840001089,-30217.41273610744,-40398.65468724426
-109223.81093785894,-11305.42293851649,-30395.10910452713,-40240.76196441197
-110627.79106233014,-11204.974198934342,-30210.863674982036,-40220.62304265774
-109748.56284243618,-11035.503272474203,-30017.096402298976,-40302.3633721308
-106726.89756475658,-10873.542532151048,-29905.76236316709,-40432.04819346049
-106321.92865871532,-11106.827689031088,-30222.0842506986,-40404.44378905818
-109246.8332346479,-11309.446252518446,-30384.223804977395,-40243.66769119116
-110610.20023944382,-11193.105422628572,-30198.12318064251,-40226.25568226048
-109680.45707708086,-11000.500440657192,-30001.114905013437,-40298.89885174023
-106658.54593021226,-10862.545473879038,-29903.460133488195,-40438.48549586362
-106347.07437122756,-11119.411721159426,-30236.523477616727,-40419.151236909776
-109285.16647638875,-11312.463738019913,-30398.037183050776,-40256.07290936386
-110612.36835865598,-11196.636998252512,-30207.622672036014,-40234.97286259805
-109639.66514344992,-11018.001856565696,-30013.341309230487,-40314.3662589033
-106596.22926667088,-10868.759258837612,-29919.866313918392,-40444.319301166455
-106378.18799950936,-11111.543907111158,-30246.760576577257,-40406.29898384798
-109332.9098025453,-11307.85927866212,-30389.364706202115,-40240.31492952287
-110617.82218430308,-11201.666140754956,-30204.471076067817,-40226.903882849685
-109590.89363704844,-11010.022283795151,-30002.65717538085,-40297.53539532845
-106537.33242003112,-10877.722308364191,-29919.01694762909,-40434.77510628404
-106400.24917128672,-11136.5778609011,-30255.41070168146,-40397.47004478813
-109362.83878837097,-11301.354921025626,-30390.34818295815,-40232.91650210816
-110600.79015502812,-11179.91789339994,-30200.805389977148,-40223.126438036736
-109531.03566539714,-10989.324568429538,-30005.74171611568,-40303.793883775936
-106473.85346577804,-10860.511465133604,-29919.866313918392,-40434.88686500632
-106411.93913363686,-11126.564279385124,-30254.56133539216,-40394.1843383532
-109385.65991945982,-11310.563839741211,-30393.790351604268,-40235.57635969834
-110589.43546884484,-11176.431021264914,-30203.487599311786,-40225.69688864909
-109466.86380706597,-10975.779411289624,-29999.55028290156,-40309.940613501145
-106400.69620617584,-10847.48039811616,-29920.425107529773,-40441.81590578746
-106456.59791905856,-11123.770311328211,-30267.502995431783,-40398.76644596654
-109435.63842006188,-11290.447269731436,-30388.85061607965,-40241.96895861256
-110580.53947455162,-11160.449523979369,-30190.88121543899,-40236.35867075428
-109425.46837633471,-10984.585998605013,-29996.912777055837,-40324.53630263046
-106354.94218527582,-10868.021651270588,-29924.761345954103,-40451.42715590324
-106477.60855884656,-11150.167721529928,-30271.88393734502,-40399.36994306684
-109451.88813828088,-11314.38598804307,-30399.57945341819,-40247.86981914877
-110567.7542767232,-11171.49128574029,-30201.07361091061,-40233.81057188637
-109378.35089902292,-10986.441193394803,-30003.03715503659,-40316.936709515656
-106324.72262677224,-10869.630976871367,-29941.815726973506,-40447.69441457921
-106521.28386751222,-11134.096817266562,-30280.93639384942,-40379.81216666844
-109471.9376530573,-11285.641644673544,-30381.25102296484,-40219.30428973488
-110546.27425030163,-11149.050134307165,-30182.432256034885,-40213.80576059887
-109326.1595757198,-10962.614233805449,-29993.67177410981,-40304.82206402088
-106285.94235014229,-10853.269499930084,-29934.14907862533,-40429.365984125856
-106565.98735642283,-11131.63812537648,-30282.076332816643,-40367.04932058445
-109516.19410707882,-11296.035205845264,-30388.78356084628,-40221.941795580606
-110552.62214572694,-11176.632186965013,-30199.79956147666,-40224.53459793742
-109281.56784553143,-10986.12826897243,-29999.818503835024,-40309.113598956304
-106240.9259368093,-10870.033308271564,-29936.563067026505,-40433.61281557236
-106589.2555224008,-11147.999602317765,-30286.546681707703,-40371.05028284196
-109533.5614125206,-11302.316046037204,-30383.128569499087,-40227.41797297215
-110541.75919792168,-11158.97430884532,-30182.9239944129,-40229.4966852065
-109229.66709490622,-10967.151637929874,-29986.0274775061,-40324.60335786383
-106206.66071255931,-10865.272386702583,-29937.23361936017,-40450.64484484731
-106642.5197294378,-11156.135637299496,-30290.32412652065,-40383.99194288158
-109572.2075786838,-11304.484165249369,-30383.93323229948,-40236.87276087675
-110531.03036058311,-11147.68667789539,-30185.06976188061,-40232.40241198569
-109180.20268442664,-10969.74444028669,-29993.56001538754,-40323.30695668543
-106159.52088350308,-10876.783535097067,-29955.517346324606,-40446.50977212307
-106681.2776543233,-11157.007355333251,-30307.579673240147,-40373.15134682076
-109609.53499192416,-11286.155734796015,-30379.172310730497,-40221.941795580606
-110526.64941866988,-11153.431076220402,-30178.20777633283,-40220.98067056903
-109120.99291336452,-10973.432478121817,-29983.97111701621,-40315.752067059526
-106112.91749631376,-10878.974006053688,-29951.82930848948,-40437.52437085204
-106719.90146874209,-11175.469896253337,-30305.47860926135,-40361.30492225944
-109635.70888468134,-11295.252894789326,-30373.0702844942,-40215.30332747738
-110513.55129641909,-11158.996660589775,-30174.9220698979,-40226.278034004936
-109059.97265100152,-10962.927158227822,-29978.629050091396,-40320.24476769505
-106070.69505103768,-10880.404517698827,-29953.997427701644,-40444.45341163319
-106761.81098959578,-11176.945111387386,-30309.121943607563,-40366.13289906179
-109662.55332977216,-11277.706775391913,-30371.63977284906,-40227.41797297215
-110497.838020067,-11130.028799775697,-30168.73063668378,-40233.16237129717
-109002.66277821812,-10947.035067920098,-29969.75540754264,-40322.3681834183
-106029.61254472882,-10881.67856713278,-29957.84192774796,-40447.64971109029
-106814.94108616604,-11178.107402099062,-30317.682661733947,-40361.57314319291
-109706.5415628602,-11275.829228857663,-30365.42598789048,-40216.42091470015
-110487.89149378438,-11133.605078888546,-30165.042598848653,-40231.10601080728
-108938.08858848676,-10944.442265563282,-29971.722361054704,-40325.94446253114
-105976.37068943628,-10862.545473879038,-29963.74278828416,-40440.60891158688
-106836.51051956542,-11154.6827739099,-30317.92853092296,-40345.27872148499
-109712.4424233964,-11251.89051054603,-30356.48529010836,-40201.95933603756
-110468.60193831944,-11113.890840278966,-30159.745235412745,-40220.01954555745
-108874.78844818933,-10925.9797246432,-29958.758349270625,-40318.1660554607
-105935.26583138296,-10866.72525009218,-29958.043093448057,-40435.06567896195
-106884.49971491095,-11175.44754450888,-30317.23562684484,-40340.74131736056
-109744.13719703404,-11264.31808046318,-30349.42213886048,-40200.97585928153
-110457.53782481406,-11109.621657088,-30141.61797065949,-40213.38107745422
-108816.94213353898,-10919.073035606509,-29945.369654341896,-40316.17675020418
-105903.5934094898,-10874.39189844035,-29960.41237836032,-40440.36304239786
-106935.23817482452,-11177.615663721046,-30326.39984207152,-40347.71506163062
-109778.89415966204,-11266.173275252972,-30349.735063282857,-40211.81645534235
-110441.69043799526,-11123.39033167247,-30144.836621861057,-40230.30134800689
-108741.5720512357,-10924.571564742511,-29946.93427645377,-40332.69468935665
-105835.06296098985,-10864.82535181348,-29959.18303241528,-40443.559341854976
-106971.246835142,-11183.82944867962,-30336.256961376308,-40349.36909072031
-109811.08067167769,-11279.293749248238,-30357.714636053403,-40218.56668216785
-110426.49125176563,-11123.099758994553,-30150.603371930527,-40233.02826083043
-108661.28458515224,-10912.389864014373,-29945.54846829754,-40330.05718351092
-105786.15734412162,-10873.67664261778,-29969.59894533145,-40442.3970511433
-107017.09026301984,-11181.437812022905,-30334.58058054216,-40335.57806439138
-109833.49947136636,-11261.077077517162,-30342.29193237924,-40202.80870232686
-110410.84503064692,-11117.24360194726,-30141.908543337413,-40226.09922004929
-108598.6773489329,-10919.251849562152,-29945.88374446437,-40333.1193725013
-105750.39455299314,-10878.281101975574,-29978.2267186912,-40437.81494352996
-107063.38072578676,-11189.283274326715,-30339.58737130015,-40324.17867471918
-109853.19135823147,-11259.08777226064,-30337.44160383244,-40198.3383534358
-110385.72166987916,-11107.542944853658,-30136.45471769032,-40228.60261542829
-108526.34710387554,-10909.68530293528,-29942.709796751715,-40342.395346450256
-105705.1546222156,-10870.189770482752,-29982.540605371072,-40445.45924013368
-107107.97245597512,-11184.298835313182,-30348.662179549003,-40327.24086370956
-109873.21852126344,-11251.197606467917,-30342.20252540142,-40202.24990871548
-110360.4418469002,-11094.601284814034,-30129.77154609818,-40219.77367636844
-108449.14417852693,-10891.423927715294,-29927.510610522106,-40326.302090442434
-105671.98463344392,-10880.181000254272,-29983.211157704733,-40435.42330687324
-107140.04720926848,-11202.40374832198,-30348.975103971377,-40320.33417467287
-109884.14852430209,-11267.760249109298,-30331.697205507426,-40196.05847550136
-110337.84423325588,-11114.516689123711,-30121.166124482887,-40223.50641769248
-108364.18519785228,-10891.647445159846,-29916.424145272274,-40326.54795963144
-105621.1344148081,-10866.613491369902,-29985.915718783825,-40432.78580102752
-107205.06843388896,-11192.636035995012,-30362.229688433374,-40322.189369462656
-109918.3466933187,-11240.781693551742,-30329.23851361734,-40199.21007146956
-110315.9395236897,-11071.489581047248,-30121.0096622717,-40225.00398457098
-108293.88896154036,-10862.76899132359,-29923.219075586687,-40341.03189003848
-105587.09270800266,-10868.044003015042,-30001.65134688036,-40448.76729831306
-107240.29478315052,-11197.754585475275,-30370.186909459462,-40327.48673289856
-109930.03665566882,-11240.93815576293,-30334.82644973117,-40208.28487971841
-110290.36912803282,-11074.708232248811,-30122.998967528223,-40239.51026672248
-108218.63063795932,-10861.316127933997,-29921.92267440828,-40354.487640200576
-105556.5155215878,-10872.089668761451,-30006.479323682703,-40455.96456002767
-107276.39285044586,-11197.30755058617,-30372.533842627272,-40329.78896257746
-109946.57694656576,-11238.434760383936,-30332.14424039653,-40209.87185357474
-110273.47120922462,-11078.172752639384,-30128.00575828621,-40244.4500022471
-108153.76587555005,-10865.205331469218,-29926.750651210627,-40357.214553024125
-105533.33676258764,-10869.698032104736,-30016.492905198684,-40448.58848435742
-107333.45685404024,-11172.653576451969,-30376.60186011813,-40312.9133955137
-109968.7051735765,-11199.274504098235,-30328.09857465012,-40203.054571515866
-110254.09224678186,-11045.539205734636,-30128.966883297788,-40239.35380451129
-108083.80491540492,-10837.62327881137,-29926.929465166268,-40348.40796570873
-105508.32516054215,-10867.999299526133,-30024.27131226913,-40437.52437085204
-107389.96206402328,-11201.21910586585,-30377.96531652991,-40304.95617448761
-109995.10258377822,-11205.577696034634,-30319.13552512354,-40191.14109172119
-110233.79686281644,-11051.305955804106,-30121.143772738436,-40231.933025352126
-108007.92074297914,-10843.8594155144,-29922.72733720867,-40349.45849769813
-105484.38644223052,-10877.789363597556,-30029.27810302712,-40437.94905399669
-107440.14173032544,-11200.146222131994,-30383.8214735772,-40301.80457851942
-110013.7662903984,-11218.072321185153,-30316.676833233458,-40192.72806557752
-110205.87953399176,-11051.28360405965,-30105.832827786548,-40229.139057295215
-107932.59536416476,-10845.28992715954,-29908.33281377945,-40346.26219824102
-105466.147418755,-10886.551247424037,-30030.440393738794,-40434.08220220592
-107490.7237280278,-11199.922704687442,-30385.76607534481,-40300.32936338537
-110031.82649991829,-11202.291989599704,-30317.861475689588,-40201.37819068173
-110187.23817911604,-11034.698609673813,-30116.271092447176,-40244.025319102446
-107871.4186395906,-10824.502804816104,-29918.793430184534,-40361.550791448455
-105453.76455232676,-10870.726212349678,-30047.65123696938,-40445.12396396684
-107523.53608888818,-11184.96938764684,-30389.90114806904,-40296.68602903915
-110033.30171505234,-11184.96938764684,-30309.434868029937,-40196.840786557295
-110160.7960654254,-11026.920202603364,-30108.515037121186,-40243.26535979097
-107810.2419150164,-10830.940107219232,-29917.519380750586,-40365.43999498367
-105441.44874113188,-10891.558038182024,-30052.52391726064,-40446.62153084536
-107551.8333973686,-11212.953771704886,-30392.82922659269,-40302.20690991961
-110031.53592724036,-11213.490213571811,-30313.68169947645,-40208.59780414079
-110135.8962221022,-11035.65973468539,-30113.43242090135,-40251.98254012853
-107756.3295073902,-10826.201537394709,-29915.217151071687,-40369.91034387473
-105447.81898830165,-10890.865134103911,-30051.20516433777,-40442.218237187655
-107624.18599417045,-11220.17338516395,-30395.26556673832,-40304.08445645386
-110056.54752928586,-11218.497004329802,-30308.8537226741,-40208.68721111861
-110122.70869287357,-11038.029019597652,-30106.9057115204,-40253.7036244516
-107706.932152144,-10825.86626122788,-29915.217151071687,-40376.437053255686
-105440.7334853093,-10892.697977149246,-30060.928173175835,-40446.57682735644
-107652.90798579552,-11197.329902330626,-30397.67955513949,-40293.73559877105
-110048.63501174869,-11185.349367302582,-30308.496094762817,-40200.57352788133
-110085.9847767335,-11030.56353694958,-30116.561665125093,-40261.66084547769
-107647.83413980417,-10816.634990767836,-29926.99652039964,-40389.646934228775
-105452.46815114836,-10891.58038992648,-30080.105969918488,-40457.50683039508
-107694.99632060484,-11193.887733684507,-30407.179046533,-40306.61020357731
-110042.60004074576,-11163.243492036285,-30308.78666744073,-40216.0409350444
-110036.721531954,-11000.79101333511,-30113.76769706818,-40269.64041824823
-107557.55544394915,-10794.596170734903,-29925.856581432414,-40392.4856057746
-105418.00176119826,-10870.569750138491,-30085.179815909843,-40453.37175767085
-107733.15074839004,-11176.475724753824,-30406.88847385508,-40301.44695060813
-110062.15781714414,-11158.996660589775,-30305.322147050163,-40214.69983037708
-110011.88874386415,-10980.674443325335,-30098.81438002758,-40256.318778552864
-107473.0211464192,-10767.394097732797,-29909.58451146895,-40378.11343408984
-105399.628627256,-10877.230569986174,-30091.48300784624,-40444.72163256665
-107779.2400454569,-11198.6933587424,-30417.572607704715,-40295.05435169392
-110065.19765439008,-11145.898538338964,-30303.93633889393,-40202.67459186013
-109983.79260108384,-10976.628777578924,-30099.820208528068,-40248.80859241588
-107406.12237526446,-10773.004385591075,-29911.551464981017,-40372.14551832027
-105384.4741445153,-10878.214046742209,-30093.181740424843,-40436.92087375175
-107812.27592376184,-11183.78474519071,-30413.14696230256,-40284.571383544375
-110066.15877940164,-11146.457331950349,-30292.179321310443,-40199.52299589193
-109946.19696691,-10981.88143752592,-30092.84646425801,-40250.328511038846
-107328.7853394491,-10777.452382737683,-29905.538845722534,-40375.99001836658
-105369.7219931748,-10894.933151594776,-30097.562682338084,-40436.965577240655
-107850.63151724717,-11206.985855935318,-30414.219846036416,-40286.89596496773
-110061.80018923286,-11154.950994843364,-30295.241510300817,-40212.93404256512
-109902.3428442887,-10962.189550660796,-30092.690002046827,-40260.453851277096
-107258.60086185944,-10762.208493019163,-29908.131648079358,-40388.462291772645
-105379.86968515752,-10890.619264914903,-30112.87362728997,-40446.62153084536
-107886.0590322088,-11192.367815061549,-30416.522075715315,-40284.07964516636
-110060.23556712098,-11144.557433671644,-30290.32412652065,-40211.14590300869
-109880.75105914488,-10966.905768740866,-30102.0553829736,-40274.28958109493
-107201.8050791985,-10766.298862254484,-29921.18506684125,-40403.16973962423
-105386.86578117202,-10882.52793342208,-30121.590807627537,-40447.40384190129
-107943.41360848112,-11172.40770726296,-30416.20915129294,-40277.97761893006
-110076.2841196399,-11128.06184626363,-30289.78768465372,-40207.92725180712
-109840.80849180324,-10965.072925695533,-30095.81924627057,-40268.72399672556
-107122.7246073156,-10761.403830218773,-29917.675842961773,-40399.504053533565
-105393.81717369762,-10889.747546881146,-30136.72293862378,-40441.97236799865
-108011.47467034754,-11176.565131731646,-30426.669767698026,-40269.618066503775
-110096.33363441633,-11127.324238696605,-30296.47085624586,-40199.97003078104
-109815.7745380133,-10952.153617400363,-30102.63652832944,-40254.73180469654
-107080.21158936164,-10766.522379699038,-29926.63889248835,-40382.42732076971
-105404.16603138045,-10899.649369674848,-30141.64032240395,-40420.55939681047
-108013.28516164844,-11172.474762496324,-30428.50261074336,-40259.09039486532
-110068.43865733608,-11121.91511653842,-30295.241510300817,-40193.01863825544
-109773.5520927372,-10959.484989581704,-30104.82699928606,-40258.46454602058
-107012.19523098411,-10762.432010463715,-29929.49991577863,-40391.032742385
-105405.48478430328,-10905.438471488773,-30152.950305098333,-40427.86841724735
-108055.0605720354,-11177.950939887874,-30434.671692213025,-40268.94751417011
-110074.11600042772,-11115.902497279942,-30294.32508877815,-40206.407333184165
-109736.0458655412,-10950.20901563275,-30092.91351949138,-40266.8017467024
-106943.91065167316,-10765.65066166528,-29926.68359597726,-40406.03076291451
-105403.78605172467,-10912.7251401812,-30160.236973790765,-40436.205617929176
-108084.67663343866,-11192.300759828182,-30436.191610835984,-40271.96499967158
-110063.476570067,-11128.01714277472,-30298.84014115812,-40215.86212108876
-109704.88753377052,-10954.858178479455,-30099.350821894503,-40278.06702590788
-106899.54243892938,-10771.350356501383,-29936.13838388185,-40412.84804497338
-105416.01245594176,-10921.822300174512,-30172.083398352075,-40434.50688535057
-108116.70668324312,-11189.842067938098,-30436.571590491723,-40266.935857169134
-110061.3755060882,-11111.074520477596,-30289.497111975805,-40209.46952217454
-109669.50472229776,-10935.389809058885,-30097.450923615805,-40272.70260723861
-106817.22096410047,-10753.22309174813,-29936.25014260413,-40411.01520192804
-105422.1815374114,-10919.83299491799,-30186.41086654793,-40437.92670225223
-108188.8357626004,-11191.607855750068,-30453.514212788847,-40271.6073717603
-110074.8759597392,-11106.29124716416,-30292.246376543808,-40208.86602507425
-109624.5777159426,-10924.772730442612,-30100.803685284103,-40282.69383701013
-106727.90339325707,-10739.722638097124,-29940.653436261822,-40418.435981087205
-105418.3370373651,-10902.979779598689,-30183.125160113,-40429.58950157041
-108240.80356845898,-11163.712878669843,-30436.72805270291,-40265.01360714598
-110084.2860441549,-11080.542037551646,-30282.27749851674,-40217.51615017845
-109584.92572127888,-10905.930209866789,-30087.59380431101,-40282.17974688765
-106655.30492726625,-10726.289239679483,-29931.15394486832,-40420.9393764662
-105433.3350578946,-10899.8728871194,-30197.89966319796,-40438.5972545859
-108263.89292048132,-11150.927680841409,-30438.69500621498,-40262.84548793382
-110068.43865733608,-11075.557598538113,-30278.790626381717,-40212.6434698872
-109534.2096131098,-10918.06720710602,-30092.511188091183,-40285.53250855595
-106586.81918225516,-10721.9306495107,-29937.88181994937,-40414.63618452981
-105447.30489817917,-10909.975875613198,-30205.722773757312,-40422.012260200056
-108317.82767985198,-11173.905274141463,-30448.59682900868,-40256.43053727514
-110074.49598008348,-11056.7597814512,-30281.830463627637,-40201.735818593006
-109501.01727259366,-10886.998282313143,-30083.57049030906,-40267.49465078052
-106525.41894023644,-10700.271809133508,-29933.76909896959,-40401.538062279
-105464.78396234322,-10881.9691398107,-30211.422468593417,-40401.403951812266
-108363.96168040774,-11142.612831904034,-30450.764948220844,-40238.75030741099
-110065.59998579026,-11061.274833831172,-30288.73715266433,-40203.94864129408
-109448.02128649013,-10897.950637096244,-30100.513112606182,-40278.40230207471
-106455.4803318358,-10709.592486571371,-29955.629105046883,-40415.932585708215
-105481.70423289588,-10906.511355222628,-30236.61288459455,-40412.19984438418
-108403.21134367124,-11150.704163396857,-30462.65607627107,-40247.42278425965
-110070.6291282927,-11044.7568946787,-30288.826559642144,-40209.82715008583
-109405.59767551396,-10871.173247238785,-30087.5043973332,-40280.95040094262
-106399.19863929732,-10702.238762645577,-29944.87791596388,-40420.894672977294
-105509.19687857592,-10910.802890158046,-30235.18237294941,-40420.80526599947
-108429.7875678286,-11154.97334658782,-30450.273209842828,-40254.75415644099
-110059.05092466486,-11062.057144887109,-30279.215309526364,-40220.19835951309
-109367.2197302842,-10871.8661513169,-30079.882452473936,-40287.18653764565
-106337.06078971156,-10687.01722467151,-29942.2180583737,-40419.151236909776
-105519.12105311408,-10912.322808781006,-30237.23873343929,-40408.84708271588
-108459.2024635318,-11149.11718954053,-30444.21588709544,-40241.32075802336
-110040.78954944487,-11055.418676783882,-30275.013181568767,-40215.05745828837
-109321.86804078438,-10885.545418923548,-30091.371249123964,-40285.42074983368
-106304.87427769594,-10714.88985000728,-29961.19468941625,-40412.31160310646
-105560.13650418956,-10936.999134659663,-30261.020989539746,-40401.3368965789
-108485.84574292252,-11150.927680841409,-30455.39175932309,-40229.47433346204
-110029.74778768394,-11041.158263821397,-30272.353323978583,-40194.5385568784
-109272.58244426042,-10866.76995358109,-30079.56952805156,-40266.57822925785
-106243.09405602148,-10705.189192913676,-29952.83513698997,-40401.56041402345
-105574.75454506332,-10925.219765331718,-30256.50593715977,-40386.04830337147
-108514.50067931422,-11148.737209884788,-30448.909753431053,-40219.95249032408
-110021.58940095776,-11032.9551736063,-30263.70319887438,-40186.87190853023
-109223.6321239033,-10852.643651085336,-30069.779463980136,-40264.81244144588
-106180.2633023576,-10697.522544565503,-29952.812785245515,-40407.84125421539
-105601.55428666524,-10934.674553236311,-30261.42332093994,-40392.865585430336
-108560.7687903367,-11157.700259411367,-30443.27711382832,-40228.155580539176
-110021.3658835132,-11050.031906370152,-30268.330009976627,-40209.71539136355
-109177.00638496951,-10865.115924491398,-30078.29547861761,-40281.26332536499
-106124.02631330804,-10720.768358799023,-29966.201480174244,-40418.36892585384
-105614.8312228717,-10964.849408250975,-30284.155045050986,-40401.35924832335
-108563.04866827116,-11164.11521007004,-30465.159471650062,-40239.86789463376
-109992.5097814214,-11065.968700166786,-30286.032591585237,-40217.80672285637
-109128.61485822378,-10890.418099214805,-30087.32558337755,-40291.50042432552
-106092.59976060389,-10730.446664148172,-29967.810805775025,-40419.82178924344
-105658.39477281508,-10935.032181147595,-30279.37177173755,-40388.55169875046
-108599.7278809223,-11141.048209792163,-30456.531698290317,-40234.12349630875
-109978.33877543674,-11037.671391686368,-30279.148254293,-40217.35968796727
-109085.36423270276,-10858.522159877082,-30090.968917723767,-40297.55774707291
-106041.19074835668,-10698.908352721734,-29983.211157704733,-40429.05305970348
-105684.7474795279,-10939.323716083016,-30296.537911479227,-40395.793663953984
-108632.76375922724,-11144.892709838476,-30458.5880587802,-40236.06809807636
-109969.37572591015,-11032.709304417289,-30272.46508270086,-40217.31498447836
-109028.03200817492,-10855.370563908884,-30079.34601060701,-40298.31770638439
-105981.73510810555,-10709.324265637906,-29976.282116923587,-40428.315452136456
-105717.62689562164,-10965.095277439988,-30303.690469704925,-40403.907347191256
-108664.07855320914,-11165.97040485983,-30462.052579170773,-40249.546199982906
-109959.42919962756,-11035.32445851856,-30272.152158278488,-40225.65218516019
-108974.25371101544,-10849.00031673912,-30075.54621404961,-40300.68699129665
-105912.1541276162,-10714.621629073814,-29978.98667800268,-40429.969481226144
-105727.99810504892,-10961.988384960698,-30300.82944641465,-40390.87628017381
-108677.22137894886,-11146.97142207282,-30449.51325053135,-40236.336319009824
-109949.5944320672,-11039.124255075963,-30270.98986756681,-40225.74159213801
-108929.30435291582,-10854.454142386216,-30070.67353375835,-40301.44695060813
-105874.37967948672,-10704.49628883556,-29975.9244890123,-40431.06471670446
-105768.72298344648,-10963.21773090574,-30308.361984296083,-40392.35149530786
-108714.34762648912,-11139.461235935836,-30443.27711382832,-40236.895112621205
-109939.31262961778,-11028.66363867088,-30262.27268722924,-40235.01756608696
-108877.56006450178,-10846.38516263785,-30065.845556956003,-40316.534378115466
-105822.90361200616,-10700.316512622418,-29974.561032600526,-40437.256149918576
-105804.53047806388,-10969.051536208575,-30308.76431569628,-40390.80922494045
-108760.97336542288,-11160.49422746828,-30444.014721395342,-40242.974787113046
-109934.01526618189,-11016.057254798086,-30249.107509745063,-40229.4966852065
-108817.5903341282,-10819.943048947222,-30049.439376525806,-40310.097075712336
-105749.47813147046,-10693.87921021929,-29976.863262279425,-40447.53795236802
-105829.05034173136,-10962.681289038812,-30315.939225666432,-40401.582765767904
-108803.5310868658,-11138.656573135446,-30435.8339829247,-40244.91938888066
-109928.6955510015,-11019.789996122125,-30244.57010562064,-40240.09141207831
-108762.24741485684,-10836.684505544246,-30051.60749573797,-40327.79965732094
-105684.18868591652,-10708.094919692863,-29979.925451269803,-40453.95290302669
-105855.9394903111,-10983.267245682153,-30326.891580449534,-40400.64399250079
-108844.92651759704,-11152.268785508728,-30448.12744237512,-40253.27894130695
-109926.952114934,-11025.176766535851,-30251.163870234952,-40249.79206917192
-108714.95112358942,-10840.283136401553,-30055.40729229537,-40339.2213987376
-105648.69411572148,-10720.611896587838,-29996.242224722177,-40466.91691481077
-105908.75666245898,-11000.634551123923,-30347.20931615941,-40405.82959721442
-108884.98084366096,-11150.413590718936,-30445.28877082929,-40245.411127258674
-109927.37679807864,-11012.32451347405,-30246.537059132705,-40238.03505158843
-108666.53724509924,-10816.344418089917,-30056.23430684022,-40327.19616022064
-105602.5824669102,-10704.272771391008,-30000.93609105779,-40458.26678970656
-105943.6030320648,-10977.209922934762,-30346.270542892285,-40392.53030926351
-108919.98367547795,-11132.82276783261,-30443.701796972968,-40244.85233364729
-109920.26894334186,-11000.858068568476,-30248.906344044968,-40248.49566799351
-108614.10005260709,-10812.365807576873,-30059.05062664159,-40341.72479411659
-105556.13554193206,-10710.061873204932,-30014.79417262008,-40474.02476954756
-105985.33373896286,-11019.7005891443,-30368.242307691853,-40409.20471062717
-108956.72994336249,-11173.122963085529,-30452.709549988456,-40259.44802277661
-109918.23493459642,-11003.6967401143,-30251.54384989069,-40262.46550827808
-108571.45292418636,-10804.118013872863,-30048.411196280864,-40346.15043951874
-105515.6118292346,-10708.0278644595,-30003.394782947875,-40473.42127244727
-106035.46870177612,-11002.981484291731,-30364.59897334564,-40401.22513785662
-109004.20504858554,-11142.501073181758,-30445.15466036256,-40252.139002339725
-109925.70041724449,-11001.12628950194,-30244.391291664997,-40259.24685707651
-108518.14401366044,-10803.939199917222,-30042.42092876684,-40344.272892984496
-105485.3028637532,-10717.080320963898,-30010.52498942912,-40469.688531123225
-106092.15272571478,-11016.660751898378,-30366.63298209107,-40392.507957519054
-109038.71614202454,-11144.892709838476,-30437.420956781025,-40249.0991650938
-109913.07168162725,-11008.524716916649,-30240.88206778551,-40260.6550169772
-108469.26074853668,-10823.988714693633,-30052.00982713817,-40355.71698614561
-105443.54980511068,-10731.430140904204,-30018.303396499563,-40472.66131313578
-106130.41891222226,-11021.33226648954,-30373.472615894392,-40390.80922494045
-109076.82586632084,-11141.137616769984,-30447.345131319184,-40250.037938360925
-109916.8491264402,-10992.45381265328,-30248.70517834487,-40256.40818553069
-108421.85269854698,-10797.70306321419,-30049.99817013719,-40344.80933485143
-105398.24281909976,-10713.146413939765,-30020.94090234529,-40464.39116768732
-106156.39163927932,-11014.47028094176,-30382.86034856562,-40385.71302720464
-109085.2971774694,-11134.38738994448,-30444.39470105108,-40245.92521738115
-109895.8384866522,-10991.112707985963,-30240.94912301888,-40254.64239771872
-108356.80912218204,-10791.064595110964,-30039.917533387845,-40348.51972443101
-105361.92123435988,-10725.752797812558,-30025.36654774744,-40472.21427824668
-106217.63541908687,-11033.8045398956,-30394.147979515557,-40391.05509412946
-109128.97248613508,-11150.055962807652,-30449.46854704244,-40258.48689776503
-109887.61304469264,-10987.22350445074,-30245.24065795429,-40263.44898503411
-108305.19894423473,-10783.308539784974,-30041.14687933289,-40351.6266169103
-105335.0097340357,-10715.78391978549,-30034.642521696394,-40468.794461345016
-106264.70819290976,-11016.861917598477,-30391.711639369925,-40374.29128578798
-109154.7663992365,-11120.52930838219,-30430.1342880886,-40234.01173758647
-109870.04457355078,-10979.266283424651,-30229.63914032449,-40248.361557526776
-108250.41481857478,-10793.165659089764,-30042.06330085556,-40352.4759831996
-105310.57927734606,-10717.303838408452,-30040.31986478804,-40465.978141543645
-106311.95978068828,-11020.929935089343,-30400.62998540759,-40368.680997929696
-109187.31053916342,-11125.849023562554,-30442.22658183892,-40240.98548185653
-109876.4818759539,-10977.41108863486,-30245.8888585435,-40263.314874567375
-108212.41685300074,-10775.37367050334,-30047.04773986909,-40359.449727469655
-105294.46366959378,-10736.16871072873,-30055.2955335731,-40475.634095148336
-106386.4581449578,-11050.903624403909,-30423.339357774184,-40382.13674809179
-109235.25503102006,-11147.463160450836,-30445.02054989583,-40247.42278425965
-109876.2807102538,-10998.600542378492,-30243.05018699768,-40265.617104246274
-108165.2323204556,-10786.527190986537,-30040.43162351032,-40360.902590859245
-105265.24993959068,-10726.021018746022,-30052.076882371533,-40469.33090321194
-106417.66118021742,-11035.480920729748,-30409.660090167534,-40361.37197749281
-109240.44063573368,-11126.00548577374,-30427.720299687426,-40233.67646141964
-109843.8706807936,-10982.686100326311,-30229.303864157664,-40255.82704017485
-108092.6115027203,-10767.774077388534,-30032.94378911779,-40352.43127971068
-105240.4842067342,-10726.289239679483,-30064.50445228868,-40471.56607765747
-106458.20724465934,-11049.674278458868,-30427.809706665244,-40368.16690780722
-109241.781740401,-11106.470061119802,-30424.25577929685,-40228.60261542829
-109816.53449732476,-10959.417934348336,-30221.704271042858,-40254.374176785255
-108032.61942060226,-10768.154057044276,-30019.577445933515,-40358.89093385827
-105226.089683305,-10743.74595209908,-30066.024370911644,-40478.87509809436
-106511.02441680724,-11053.295261060628,-30423.87579964111,-40366.781099650994
-109267.6427087358,-11108.951104754342,-30419.181933305492,-40231.32952825183
-109799.5695232832,-10964.558835573058,-30223.26889315473,-40259.51507800997
-107975.64482398568,-10765.583606431916,-30025.992396592188,-40357.03573906848
-105203.15679349384,-10748.573928901424,-30073.355743092987,-40468.99562704512
-106558.79009470822,-11060.134894863952,-30429.57549447721,-40357.37101523531
-109290.1509154023,-11118.361189170026,-30420.36657576163,-40236.02339458745
-109785.71144172092,-10958.188588403296,-30214.10467792805,-40259.09039486532
-107914.64691336716,-10757.581681916916,-30021.36558548994,-40366.51287871753
-105167.9751477212,-10740.102617752866,-30070.405312824885,-40466.98397004414
-106591.98243522436,-11054.703420961312,-30427.36267177614,-40356.007558823534
-109296.92349397224,-11112.952067011842,-30414.15279080305,-40234.3470137533
-109771.5180839918,-10969.83384726451,-30220.36316637554,-40268.567534514375
-107867.32827035528,-10787.75653693158,-30025.61241693645,-40381.9802858806
-105160.71083077324,-10750.65264113577,-30078.027257684145,-40480.1044440394
-106664.24562504837,-11065.499313533224,-30430.02252936632,-40365.84232638387
-109341.91755556078,-11105.263066919217,-30405.83794186568,-40241.16429581217
-109758.93405186344,-10935.054532892053,-30195.68684049688,-40255.424708774655
-107798.23902824392,-10752.999574303578,-30006.099344026967,-40360.34379724786
-105133.84403393794,-10751.74787661408,-30072.975763437244,-40454.1987722157
-106701.17070688852,-11055.888063417444,-30421.573569962213,-40328.626671865786
-109355.95445107872,-11109.755767554732,-30397.12076152811,-40213.738705365504
-109745.657115657,-10961.429591349315,-30202.05708766664,-40247.55689472639
-107738.0234286813,-10753.670126637237,-30003.95357655925,-40351.53720993248
-105112.78869066104,-10754.161865015252,-30082.45290308629,-40449.549609368994
-106738.0510852398,-11064.471133288282,-30428.12263108762,-40325.83270380887
-109361.09535230344,-11103.921962251898,-30397.97012781741,-40216.398562955685
-109722.16543223448,-10944.68813475229,-30196.84913120856,-40251.088470350325
-107675.48324769536,-10739.65558286376,-29997.024535778117,-40359.49443095856
-105086.23481824814,-10760.84503660739,-30084.933946720837,-40461.28427520803
-106790.9576643655,-11082.263121874705,-30437.800936436768,-40344.16113426222
-109389.32560555048,-11120.372846171003,-30403.44630520896,-40240.873723134246
-109710.4978216288,-10958.143884914383,-30208.382631347496,-40283.96788644408
-107612.74190100931,-10747.679859123216,-30004.93705331529,-40390.764521451536
-105061.6926028362,-10763.236673264108,-30087.7502665222,-40476.86344109338
-106840.24326088945,-11072.04837465863,-30433.330587545704,-40345.34577671836
-109407.09524239246,-11093.10371793553,-30391.130494014087,-40239.64437718921
-109683.47456258233,-10947.63856502039,-30195.30686084114,-40280.34690384232
-107539.71875187384,-10754.407734204262,-30008.93801557279,-40393.73730346409
-105022.15236689478,-10770.053955322976,-30112.605406356502,-40478.11513878288
-106881.16930498712,-11071.221360113785,-30455.12353838963,-40339.82489583789
-109434.20790841676,-11089.952121967332,-30401.65816565253,-40235.68811842062
-109660.876948938,-10938.49670153817,-30212.204779649357,-40277.64234276323
-107456.54791075565,-10731.497196137572,-30009.47445743972,-40379.16396607924
-104996.89489566028,-10775.641891436802,-30116.047575002623,-40461.99953103061
-106924.79991016389,-11090.600322556536,-30464.73478850541,-40330.95125328914
-109443.05919922104,-11090.734433023266,-30406.7767151328,-40229.6978509066
-109644.11314059651,-10939.770750972122,-30206.393326090973,-40265.59475250182
-107395.594703626,-10736.034600262,-30010.614396406934,-40376.70527418915
-104978.54411346249,-10783.599112462893,-30125.256493718207,-40456.7468710836
-106978.93583523465,-11085.772345754189,-30464.958305949964,-40312.4663606246
-109465.1427227429,-11092.81314525761,-30398.998308062357,-40216.42091470015
-109617.33575073908,-10939.92721318331,-30199.821913221112,-40256.475240764055
-107313.76496717511,-10719.091977964876,-29992.285965953582,-40359.80735538094
-104954.31482247292,-10768.958719844666,-30121.277883205163,-40446.91210352327
-107014.07277751838,-11103.989017485264,-30469.093378674195,-40313.3157269139
-109467.80258033308,-11104.167831440906,-30392.53865391477,-40214.11868502125
-109573.92866300688,-10922.381093785894,-30191.41765730592,-40255.24589481901
-107234.68449529224,-10716.45447211915,-29999.75144860166,-40369.731529919096
-104938.73565658757,-10773.674937924736,-30131.827906588067,-40440.43009763123
-107063.35837404232,-11092.47786909078,-30468.914564718558,-40299.43529360715
-109483.98524331872,-11085.235903887262,-30384.76024684432,-40202.69694360458
-109566.9549187368,-10919.58712572898,-30188.154302615443,-40250.26145580548
-107179.60979695438,-10724.277582678507,-29997.002184033656,-40374.11247183233
-104932.1642437177,-10792.405699778285,-30140.790956114648,-40443.268769177055
-107127.10554922886,-11096.590590070557,-30470.009800196865,-40295.34492437184
-109502.55954296108,-11079.513857306703,-30378.25588920783,-40196.79608306838
-109535.48366254376,-10930.49477702317,-30183.9745264023,-40248.13804008222
-107104.1279559288,-10716.812100030436,-29992.151855486856,-40367.85398338485
-104927.9174122712,-10781.498048484094,-30152.10093880903,-40433.61281557236
-107177.15110506427,-11086.040566687652,-30478.056428200776,-40282.17974688765
-109514.98711287824,-11069.924958935377,-30376.95948802942,-40197.55604237987
-109507.87925814145,-10907.78540465658,-30177.06783736561,-40251.78137442844
-107032.42355971618,-10702.842259745868,-29991.4813031532,-40382.36026553634
-104912.38294987477,-10794.529115501538,-30154.2690580212,-40450.66719659176
-107230.6164778014,-11107.67705532039,-30479.88927124611,-40299.63645930725
-109539.41756956789,-11076.250502616227,-30372.377380416085,-40210.5424059084
-109486.75685963118,-10911.8757738919,-30178.54305249966,-40265.59475250182
-106950.68323024311,-10694.907390464234,-29989.246128707666,-40385.28834405999
-104902.19055440316,-10802.732205716637,-30163.925011625888,-40445.05690873348
-107295.34712974395,-11099.228095916284,-30482.951460236487,-40286.82890973436
-109555.17554940889,-11062.48182803176,-30370.67864783748,-40202.629888371215
-109463.51104539764,-10906.511355222628,-30179.727694955796,-40262.51021176699
-106880.40934567564,-10709.21250691563,-29991.637765364383,-40384.57308823742
-104893.6521880212,-10816.23265936764,-30173.580965230583,-40439.80424878648
-107347.35963909146,-11103.944313996351,-30492.83093128573,-40284.21375563309
-109575.29211941863,-11055.75395295071,-30370.16455771501,-40198.69598134708
-109433.336190383,-10896.63188417338,-30171.52460474069,-40259.71624371007
-106798.3560917802,-10704.608047557836,-29983.45702689374,-40389.91515516224
-104865.08665860732,-10798.306560314484,-30168.90945063942,-40439.13369645282
-107402.23317172924,-11106.559468097625,-30482.951460236487,-40284.6607905222
-109613.58065767058,-11068.29328159014,-30362.073226222183,-40208.2401762295
-109423.38966410038,-10895.603703928437,-30163.20975580332,-40263.76190945649
-106667.79955241676,-10693.946265452656,-29982.45119839325,-40401.09102738989
-104750.46691304052,-10821.820595481468,-30190.814160205624,-40450.8460105474
-107396.4440699153,-11126.340761940572,-30496.675431332045,-40281.911525954194
-109612.79834661464,-11063.80058095462,-30359.25690642082,-40204.64154537219
-109384.54233223703,-10895.313131250516,-30158.20296504533,-40266.82409844686
-106580.00190019632,-10691.867553218312,-29972.88465176638,-40399.41464655574
-104738.95576464605,-10827.989676951132,-30192.579948017592,-40446.62153084536
-107437.4595209908,-11131.548718398655,-30496.518969120854,-40275.96596192908
-109618.2745240062,-11078.843304973045,-30362.78848204476,-40206.92142330664
-109346.8572910854,-10896.520125451105,-30160.25932553522,-40267.91933392517
-106500.6308556355,-10684.960864181625,-29972.83994827747,-40397.62650699932
-104732.25024130943,-10825.709799016691,-30197.340869586573,-40436.63030107383
-107482.94532095735,-11133.694485866366,-30501.257538945385,-40267.74051996953
-109619.14624203996,-11079.670319517889,-30361.872060522088,-40195.991420268
-109307.45116561068,-10902.979779598689,-30158.001799345235,-40256.85522041979
-106428.18885185588,-10691.599332284848,-29973.66696282232,-40392.26208833004
-104728.33868602976,-10841.735999791146,-30209.969605203823,-40426.90729223577
-107515.40005390646,-11144.7809511162,-30503.716230835467,-40258.37513904276
-109621.35906474105,-11081.52551430768,-30359.52512735428,-40199.41123716965
-109278.28213909653,-10905.259657533128,-30158.0688545786,-40272.52379328296
-106363.4581999133,-10697.880172476787,-29973.711666311225,-40407.37186758183
-104736.69823845604,-10844.552319592514,-30206.572140046614,-40426.974347469135
-107559.09771431658,-11131.861642821032,-30500.184655211528,-40258.64335997622
-109617.11223329452,-11068.963833923795,-30352.41727261749,-40199.52299589193
-109232.50576645206,-10884.9195700788,-30149.552839941127,-40261.59379024432
-106311.06571091006,-10689.855896217334,-29978.0255529911,-40398.60998375535
-104774.04800344088,-10841.400723624316,-30227.627483323515,-40429.500094592586
-107604.76232823878,-11126.6760381074,-30502.352774423693,-40259.06804312087
-109617.67102690593,-11055.99982213972,-30346.71757778139,-40200.2382517145
-109191.44561188766,-10877.118811263896,-30142.82496486008,-40267.2040781026
-106233.63926811688,-10687.64307351626,-29972.21409943272,-40408.84708271588
-104774.71855577453,-10848.016839983087,-30226.420489122927,-40427.37667886933
-107647.38710491503,-11118.472947892304,-30501.88338779013,-40254.32947329634
-109616.37462572748,-11045.986240623744,-30342.24722889033,-40202.04874301538
-109155.95104169262,-10877.185866497262,-30140.790956114648,-40273.529621783455
-106165.57820625046,-10695.130907908788,-29975.96919250121,-40415.373792096834
-104788.77780303692,-10872.693165861749,-30238.69159682889,-40437.30085340749
-107679.88654135306,-11133.001581788252,-30493.07680047474,-40253.39070002922
-109606.0257680447,-11053.943461649833,-30334.37941484206,-40200.819397070336
-109097.79180261992,-10867.686375103758,-30130.218580987286,-40266.26530483548
-106075.21010341766,-10675.416669299206,-29966.179128429787,-40408.75767573806
-104789.76127979296,-10859.796209311036,-30237.64106483949,-40422.03461194451
-107734.89418445756,-11131.168738742916,-30494.015573741865,-40245.47818249204
-109612.5748291701,-11040.443007998823,-30330.356100840105,-40200.685286603606
-109066.05232549338,-10865.67471810278,-30133.481935677763,-40275.16129912869
-106011.32881776438,-10676.243683844052,-29972.370561643907,-40417.1395799088
-104801.7865183099,-10859.080953488465,-30249.26397195625,-40423.8898067343
-107782.27988270282,-11123.479738650292,-30497.97183251045,-40249.121516838255
-109616.24051526075,-11032.642249183924,-30327.092746149632,-40203.054571515866
-109021.77351972742,-10853.828293541466,-30123.66951986188,-40273.48491829454
-105925.38636033374,-10654.607195211316,-29956.23260214717,-40405.49432104758
-104796.84678278527,-10858.879787788366,-30251.007408023765,-40419.59827179888
-107813.77349064036,-11124.150290983953,-30495.98252725393,-40245.18760981412
-109615.39114897148,-11031.725827661256,-30319.604911757106,-40197.9360220356
-108976.71240290553,-10846.742790549137,-30118.796839570623,-40272.07675839386
-105828.60330684224,-10644.750075906524,-29949.25885787712,-40399.95108842267
-104794.94688450656,-10853.828293541466,-30251.23092546832,-40404.15321638027
-107872.98326170244,-11117.690636836369,-30493.68029757504,-40229.4966852065
-109624.89064036496,-11023.858013612988,-30314.77693495476,-40188.12360621973
-108932.6124110952,-10857.069296487489,-30119.89207504893,-40270.46743279308
-105759.89404438664,-10685.0726229039,-29970.202442431742,-40413.00450718457
-104812.76122483744,-10894.933151594776,-30276.08606530262,-40410.61287052785
-107911.13768948766,-11140.53411966969,-30506.89017854812,-40233.6988131641
-109617.33575073908,-11040.867691143476,-30320.342519324127,-40199.16536798065
-108878.4988377689,-10855.035287742054,-30111.89015053393,-40269.7074734816
-105676.76790675736,-10682.099840891344,-29965.84385226296,-40409.89761470528
-104821.5901638973,-10914.06624484852,-30285.94318460741,-40404.04145765799
-107947.2804602719,-11165.791590904188,-30514.51212340738,-40228.75907763947
-109619.1238902955,-11042.208795810797,-30320.61074025759,-40187.14012946369
-108836.5893169152,-10846.00518298211,-30109.856141788503,-40265.97473215756
-105606.73989137888,-10671.527465763982,-29971.83411977698,-40410.970498439136
-104844.0983705638,-10910.86994539141,-30294.32508877815,-40399.52640527802
-108001.61755104274,-11159.06371582314,-30507.71719309297,-40224.89222584871
-109606.83043084508,-11048.690801702836,-30315.06750763268,-40195.8349580568
-108778.20656039794,-10859.349174421928,-30110.99608075572,-40273.06023514989
-105527.74882647382,-10666.610081983816,-29966.06736970751,-40411.21636762814
-104859.38696377123,-10911.16051806933,-30299.980080125344,-40399.168777366736
-108036.19569971511,-11154.906291354451,-30506.398440170105,-40220.17600776864
-109603.7682418547,-11022.785129879134,-30307.13263835104,-40183.83207128431
-108722.84128938214,-10825.642743783324,-30101.51894110667,-40262.97959840055
-105453.16105522646,-10664.35255579383,-29969.93422149828,-40405.96370768115
-104866.94185339712,-10918.626000717402,-30306.126809850557,-40386.69650396067
-108049.98672604404,-11134.58855564458,-30503.42565815755,-40209.42481868564
-109585.64097710144,-11013.822080352556,-30302.28230980424,-40183.563850350845
-108665.5537683432,-10825.083950171942,-30094.612252069983,-40267.11467112478
-105374.75113567724,-10659.926910391678,-29966.91673599681,-40411.32812635042
-104895.82030723336,-10915.139128582374,-30312.899388420512,-40386.45063477167
-108114.7620814755,-11139.125959769006,-30504.118562235664,-40212.06232453136
-109591.09480274854,-11014.202060008296,-30305.14333309452,-40192.70571383306
-108621.54318351069,-10826.536813561535,-30091.50535959069,-40270.378025815255
-105317.41891114938,-10667.34768955084,-29972.50467211064,-40413.42919032922
-104923.0670837244,-10917.173137327807,-30324.32112983717,-40380.46036725764
-108148.64732606975,-11135.504977167247,-30509.03594601583,-40205.89324306169
-109577.4602386308,-11007.094205271507,-30292.82752189965,-40177.90885900365
-108550.84461579856,-10817.57376403496,-30084.129283920443,-40263.98542690104
-105241.98177361272,-10666.16304709471,-29980.394837903365,-40411.77516123953
-104979.41583149624,-10931.612364245935,-30342.850725990626,-40379.588649223886
-108220.53053623805,-11143.529253426705,-30508.633614615635,-40210.38594369721
-109592.63707311595,-11024.7520833912,-30303.846931916112,-40200.4394174146
-108532.9185167454,-10852.107209218408,-30105.63166208645,-40292.21568014809
-105202.7321103492,-10692.828678229893,-29992.487131653685,-40428.47191434764
-105015.11156739134,-10953.293556367584,-30349.24332490484,-40381.15327133576
-108258.2602808786,-11149.92185234092,-30508.700669849,-40203.836882571806
-109587.74204108024,-11020.66171415588,-30295.777952167748,-40186.3354666633
-108459.51538795418,-10815.696217500714,-30081.49177807472,-40266.73469146904
-105124.70217045573,-10663.436134271162,-29980.484244881183,-40410.88109146131
-105051.56726259796,-10949.918442954831,-30351.43379586146,-40372.70431193165
-108298.15814473132,-11148.87132035152,-30500.72109707845,-40198.0924842468
-109576.23089268577,-11016.213717009274,-30296.157931823487,-40187.36364690824
-108403.90424774936,-10822.558203048491,-30087.39263861092,-40274.40133981721
-105062.63137610334,-10672.8685704313,-29987.70385834025,-40409.919966449736
-105086.74890837062,-10966.79401001859,-30356.105310452615,-40359.27091351401
-108352.69640120224,-11165.612776948545,-30506.309033192283,-40193.2868591889
-109584.83631430106,-11026.048484569608,-30293.22985329984,-40185.91078351865
-108353.70222970274,-10825.530985061048,-30081.089446674523,-40277.32941834086
-105002.10285211836,-10681.094012390857,-29991.50365489765,-40417.787780498
-105127.65260072384,-10966.011698962651,-30362.09557796664,-40354.30882624493
-108395.65645404535,-11147.507863939749,-30494.7978847978,-40186.02254224093
-109570.93352924986,-11004.881382570433,-30277.58363218113,-40180.546364849375
-108289.1056882269,-10807.582534263436,-30069.48889130222,-40272.92612468316
-104943.34011594536,-10688.246570616551,-29996.108114255443,-40422.995736956094
-105166.9246157318,-10984.720109071744,-30372.735008327367,-40358.57800943589
-108424.42314915934,-11160.851855379566,-30491.378067896138,-40186.827205041314
-109558.39420061043,-11032.105807316995,-30278.410646725973,-40189.59882135377
-108234.38861780032,-10833.711723531693,-30069.28772560212,-40284.99606668903
-104895.4179758332,-10697.343730609862,-29998.343288700973,-40421.94520496669
-105210.10818601944,-10989.257513196171,-30378.926441541487,-40350.19610526515
-108460.58827168804,-11156.7838378887,-30490.305184162284,-40184.90495501816
-109555.66728778688,-11017.554821676593,-30278.835329870624,-40188.88356553121
-108175.93880604969,-10810.24239185362,-30060.9952284092,-40277.41882531867
-104835.42589371512,-10696.11438466482,-29995.191692732777,-40412.37865833982
-105254.00701212967,-11005.998969793198,-30389.029430035287,-40344.02702379549
-108502.72130998629,-11172.87709389652,-30494.641422586614,-40178.84763227077
-109548.44767432782,-11017.979504821242,-30274.76731237976,-40181.64160032768
-108119.0759681554,-10801.793432449513,-30058.71535047476,-40272.83671770534
-104782.54166633388,-10691.241704373564,-30001.04784978007,-40410.36700133884
-105293.03315794864,-11019.432368210835,-30402.30636624174,-40338.23792198156
-108530.14690043294,-11154.21338727634,-30494.30614641978,-40167.49294608748
-109528.08523512904,-10994.17489697634,-30273.672076901446,-40177.19360318108
-108054.79235110192,-10801.458156282682,-30066.471405800752,-40284.03494167745
-104736.96645938951,-10700.249457389053,-30012.31312898554,-40420.4923415771
-105336.37319044748,-11011.452795440293,-30398.79714236225,-40336.65094812524
-108560.00883102525,-11151.575881430612,-30479.73280903492,-40175.22664966901
-109516.39527277891,-11010.89400182891,-30269.916983832954,-40193.44332140009
-107992.38628058272,-10810.465909298173,-30058.44712954129,-40298.98825871805
-104681.17650522906,-10707.804347014946,-30020.583274434004,-40440.117173208855
-105379.6238159685,-11030.60824043849,-30424.41224150804,-40359.2262100251
-108587.27795926073,-11172.87709389652,-30502.263367445878,-40205.60267038378
-109504.52649647316,-11025.42263572486,-30286.814902641167,-40222.27707174744
-107925.30869547233,-10812.119938387865,-30077.04378092811,-40323.53047412998
-104625.38655106862,-10719.27079192052,-30048.56765849205,-40461.373682185855
-105414.04550242968,-11042.61112721099,-30448.32860807521,-40371.25144854205
-108620.40324454349,-11160.40482049046,-30510.667623361067,-40214.49866467699
-109493.99882483468,-11013.822080352556,-30285.406742740484,-40232.11183930777
-107865.74129649892,-10815.80797622299,-30074.875661715945,-40334.50518065753
-104585.39928023808,-10728.211489702642,-30053.35093180549,-40461.083109507934
-105466.95208155538,-11042.298202788616,-30456.844622712688,-40361.90841935974
-108661.86573050809,-11164.7857624037,-30511.584044883737,-40206.51909190644
-109481.30303398408,-11016.41488270937,-30293.94510912241,-40230.81543812936
-107798.52960092184,-10818.825461724457,-30089.38194386744,-40344.80933485143
-104538.86294828213,-10724.83637628989,-30068.55011803509,-40464.90525780979
-105528.62054450758,-11048.556691236105,-30463.08075941572,-40358.73447164708
-108690.83359132214,-11149.854797107551,-30502.196312212505,-40199.545347636384
-109455.37501041593,-11004.948437803798,-30280.98109733833,-40218.61138565676
-107719.49383252786,-10796.56312424697,-30066.2478883562,-40324.424543908186
-104486.44810753442,-10711.425329616706,-30058.648295241397,-40450.68954833622
-105551.19580640744,-11043.460493500292,-30457.090491901698,-40343.66939588421
-108694.32046345716,-11160.941262357386,-30499.96113776697,-40199.29947844738
-109420.21571638771,-11000.545144146105,-30279.70704790438,-40221.56181592486
-107642.8497007906,-10794.059728867976,-30069.66770525786,-40327.64319510975
-104435.7543511098,-10729.50789088105,-30068.81833896856,-40453.05883324848
-105607.0751675457,-11070.796676969132,-30472.73671302041,-40345.01050055152
-108732.94427787594,-11160.7848001462,-30500.430524400537,-40193.73389407801
-109412.14673663936,-11005.03784478162,-30277.82950137013,-40217.35968796727
-107575.05685985766,-10789.522324743548,-30064.52680403314,-40322.30112818493
-104398.42693786944,-10727.183309457698,-30075.59091753852,-40442.508809865576
-105643.19558658548,-11070.304938591116,-30477.922317734043,-40330.86184631132
-108750.42334204,-11170.641919450987,-30501.68222209004,-40186.91661201914
-109393.43832653026,-11008.70353087229,-30281.13755954952,-40211.05649603087
-107511.71201607132,-10802.776909205546,-30070.740588991717,-40319.35069791683
-104365.50281828675,-10748.328059712418,-30087.549100822107,-40438.28433016352
-105689.91073249708,-11075.37878458247,-30489.880501017637,-40323.12814272978
-108766.18132188098,-11163.7352304143,-30496.36250690967,-40179.13820494869
-109375.60163445491,-11004.121423258952,-30276.42134146945,-40209.02248728544
-107448.52363449616,-10796.697234713702,-30059.117681874955,-40319.17188396119
-104339.70890518534,-10756.754667372068,-30087.59380431101,-40437.07733596293
-105746.21477678,-11099.026930216183,-30489.142893450608,-40319.8647880393
-108797.51846760733,-11172.944149129886,-30490.931033007037,-40179.74170204898
-109367.2197302842,-11018.717112388267,-30273.292097245707,-40212.79993209838
-107392.35370068,-10810.354150575897,-30057.08367312952,-40324.64806135274
-104312.48448043875,-10760.554463929471,-30094.76871428117,-40439.491324364106
-105789.28658834536,-11097.10468019303,-30497.59185285471,-40318.769552561
-108813.34350268167,-11164.91987287043,-30491.66864057406,-40181.99922823897
-109348.60072715292,-11003.294408714106,-30271.101626289088,-40215.079810032825
-107340.00591516566,-10798.70889171468,-30053.686207972318,-40322.70345958513
-104304.6166663905,-10765.85182736538,-30096.1545224374,-40433.3445946389
-105837.02991450192,-11098.356377882526,-30495.624899342645,-40307.25840416651
-108828.78855810028,-11176.16280033145,-30487.8464922722,-40169.2810856439
-109331.76986357808,-10996.633588866423,-30265.73720761981,-40195.74555107898
-107286.29467323956,-10782.973263618143,-30053.41798703885,-40315.14856995924
-104287.3164161821,-10766.164751787754,-30109.364403410484,-40431.02001321554
-105896.9996448755,-11100.926828494888,-30501.168131967563,-40305.69378205464
-108853.82251189023,-11163.668175180934,-30477.967021222958,-40177.70769330355
-109311.02744472354,-11000.008702279176,-30257.37765519353,-40216.53267342242
-107214.29970434902,-10789.119993343353,-30046.131318346423,-40334.8181050799
-104265.07643044907,-10788.069461353954,-30113.63358660145,-40449.25903669107
-105949.54859608992,-11131.01227653173,-30507.47132390396,-40322.72581132958
-108875.950738901,-11170.999547362277,-30480.67158230205,-40194.38209466721
-109302.48907834162,-11013.240934996717,-30263.07735002963,-40229.98842358452
-107169.12682880484,-10801.011121393576,-30048.925286403333,-40343.20000925064
-104264.76350602668,-10782.436821751216,-30120.47322040477,-40447.247379690096
-106001.0246635705,-11118.405892658937,-30505.28085294734,-40310.67822106817
-108882.32098607076,-11174.844047408587,-30473.67548628753,-40191.99045801049
-109273.11888612734,-11008.547068661102,-30256.349474948584,-40227.01564157196
-107110.76642403204,-10790.975188133143,-30037.03415835311,-40336.00274753603
-104258.12503792348,-10796.406662035784,-30118.23804595924,-40440.65361507578
-106052.76895198452,-11130.63229687599,-30503.470361646458,-40296.44015985014
-108900.47060256849,-11182.242474823292,-30469.920393219043,-40178.42294912612
-109253.85168240688,-10999.248742967697,-30245.575934121127,-40209.87185357474
-107041.23014703156,-10780.0451850945,-30024.114850057944,-40322.189369462656
-104239.46133130328,-10803.76038596158,-30116.651072102915,-40427.890768991805
-106113.99038004762,-11139.528291169205,-30502.777457568343,-40292.19332840364
-108919.44723361102,-11167.31150952715,-30459.303314602774,-40169.90693448865
-109220.25701049056,-10984.206018949271,-30237.194029950388,-40198.62892611372
-106964.80953273887,-10774.41254549176,-30026.908818114855,-40320.62474735078
-104222.20578458378,-10795.110260857376,-30123.71422335079,-40424.113324178856
-106170.808514453,-11135.683791122889,-30503.827989557743,-40286.62774403426
-108942.02249551089,-11168.585558961102,-30455.816442467745,-40181.26162067195
-109211.4280714307,-11000.880420312931,-30249.30867544516,-40230.65897591817
-106894.06626153782,-10783.308539784974,-30040.94571363279,-40353.41475646672
-104185.90655158836,-10809.817708708968,-30143.29435149364,-40437.77024004105
-106218.37302665388,-11153.364020987035,-30520.61414964368,-40287.4100550902
-108957.8698823297,-11179.247341066282,-30458.40924482456,-40176.500699102966
-109182.59432108336,-11005.618990137458,-30245.575934121127,-40220.71244963556
-106811.96830415347,-10784.090850840908,-30029.3898617494,-40336.6732998697
-104168.09221125748,-10812.23169711014,-30143.62962766047,-40428.0919346919
-106273.20185580276,-11132.44278817687,-30517.1049257642,-40280.10103465332
-108986.83774314375,-11159.26488152324,-30457.671637257536,-40178.08767295929
-109173.00542271204,-10994.353710931982,-30241.70908233036,-40222.45588570308
-106751.9985737799,-10768.310519255465,-30025.76887914764,-40339.6237301378
-104161.45374315428,-10821.105339658898,-30156.884212122462,-40430.48357134862
-106339.72064730176,-11150.950032585864,-30520.122411265664,-40267.74051996953
-108997.99126362696,-11152.984041331298,-30438.292674814784,-40159.356911105744
-109143.6128787533,-10992.56557137556,-30232.45546012586,-40215.90682457767
-106680.89767466756,-10774.569007702949,-30019.55509418906,-40342.28358772798
-104142.11948420042,-10824.167528649275,-30152.592677187047,-40427.57784456943
-106386.72636589129,-11166.126867071018,-30522.13406826664,-40274.15547062821
-109019.11366213724,-11150.6818116524,-30435.49870675787,-40167.44824259856
-109120.63528545325,-10970.92908274282,-30225.951102489365,-40221.40535371368
-106604.7676330528,-10748.59628064588,-30014.280082497608,-40342.06007028343
-104139.97371673273,-10813.215173866174,-30163.992066859257,-40420.537045066005
-106446.96431719832,-11153.676945409412,-30525.822106101765,-40266.935857169134
-109038.04558969088,-11149.139541284983,-30433.755270690355,-40174.3325798908
-109094.1037647848,-10978.46162062426,-30222.15130593197,-40225.361612482266
-106543.61326022306,-10770.9927285901,-30020.627977922915,-40353.99590182256
-104143.01355397864,-10842.965345736187,-30177.73838969927,-40428.74013528111
-106528.14585306,-11163.44465773638,-30532.170001527076,-40266.89115368023
-109063.50422662547,-11149.29600349617,-30435.11872710213,-40172.52208858992
-109078.05521226588,-10986.195324205795,-30228.18627693489,-40227.23915901651
-106480.40252690346,-10784.42612700774,-30018.392803477385,-40356.49929720155
-104144.84639702395,-10870.145066993842,-30181.381724045485,-40434.66334756176
-106575.1962751384,-11193.731271473322,-30536.41683297358,-40278.11172939679
-109080.6927181116,-11171.625396207022,-30430.04488111077,-40181.30632416085
-109058.0951044673,-10998.332321445028,-30216.630425051502,-40231.48599046302
-106427.63005824448,-10791.645740466804,-30020.627977922915,-40361.79666063746
-104166.12525774544,-10873.497828662135,-30194.099866640558,-40427.30962363596
-106650.0299155748,-11204.661274511967,-30546.18454530055,-40265.08066237935
-109096.18247701912,-11167.91500662744,-30429.57549447721,-40163.69314953008
-109032.74822625496,-10999.65107436789,-30222.575989076617,-40221.785333369415
-106352.55054861913,-10785.834286908424,-30020.337405245,-40349.79377386496
-104156.089324485,-10870.301529205028,-30201.922977199916,-40413.3397833514
-106706.44571857998,-11191.16082086096,-30544.016426088387,-40254.30712155189
-109104.98906433451,-11157.92377685592,-30426.82622990921,-40171.78448102289
-109001.79106018438,-10981.009719492164,-30213.74705001677,-40227.28386250542
-106276.0405273486,-10762.186141274708,-30010.65909989585,-40354.04060531147
-104158.92799603082,-10884.606645656426,-30216.76453551824,-40423.93451022321
-106752.62442262463,-11205.17536463444,-30549.29143777984,-40253.25658956249
-109120.0094366085,-11161.030669335209,-30421.64062519558,-40164.34135011928
-108976.13125754968,-10990.620969607946,-30209.58962554808,-40221.0924292913
-106207.48772710416,-10771.551522201482,-30006.635785893894,-40348.117393030814
-104161.09611524298,-10877.789363597556,-30206.482733068795,-40403.8849954468
-106819.29967633482,-11198.469841297849,-30541.155402798107,-40241.32075802336
-109142.22707059707,-11163.936396114395,-30419.36074726114,-40163.89431523017
-108945.5540711348,-10990.240989952206,-30208.27087262522,-40221.83003685833
-106130.41891222226,-10778.771135660549,-30012.1343150299,-40353.37005297781
-104157.89981578587,-10899.425852230292,-30223.492410599283,-40400.979268667616
-106871.13337172668,-11227.325943389647,-30555.52757448287,-40241.90190337919
-109129.08424485735,-11177.414498020948,-30420.0312995948,-40170.3316176333
-108888.71358498496,-10993.593751620503,-30201.766514988725,-40228.96024333957
-106041.95070766816,-10781.006310106077,-30003.618300392427,-40365.08236707239
-104160.67143209832,-10912.233401803183,-30228.54390484618,-40411.43988507269
-106916.79798564888,-11226.07424570015,-30542.51885920988,-40238.996176600005
-109121.37289302026,-11163.332899014104,-30388.49298816836,-40158.68635877209
-108834.6894186365,-10968.157466430364,-30181.91816591241,-40215.52684492193
-105947.62634606675,-10773.47377222464,-29996.17516948881,-40353.28064599999
-104130.2730596391,-10906.891334878366,-30219.93848323089,-40395.77131220953
-106928.75616893246,-11215.524222317246,-30536.86386786269,-40232.51417070797
-109110.37583474824,-11157.901425111464,-30391.689287625468,-40171.56096357834
-108781.5816738107,-10984.474239882737,-30177.78309318818,-40231.53069395193
-105849.8374640748,-10780.17929556123,-29996.242224722177,-40367.45165198465
-104121.06414092352,-10919.028332117598,-30235.22707643832,-40401.71687623464
-106974.82311425485,-11220.329847375137,-30538.85317311921,-40230.30134800689
-109084.24664548,-11152.626413420012,-30384.894357311056,-40164.8330884973
-108710.43607120943,-10970.772620531634,-30180.331192056085,-40227.462676461066
-105744.33723024574,-10755.122990026832,-29987.41328566233,-40358.19802978016
-104089.3693672859,-10919.78829142908,-30232.1872391924,-40397.17947211021
-106977.66178580068,-11226.40952186698,-30539.791946386333,-40230.994252085
-109064.28653768142,-11142.72459062631,-30389.699982368948,-40173.03617871239
-108651.87450073654,-10969.498571097682,-30181.56053800113,-40233.050612574894
-105644.42493253051,-10775.217208292152,-29997.449218922764,-40365.48469847259
-104079.57930321449,-10952.779466245112,-30258.53994590521,-40406.8354257149
-106995.6102365983,-11254.080981502651,-30552.46538549249,-40237.81153414388
-109022.22055461652,-11181.326053300629,-30397.54544467276,-40178.869984015226
-108562.10989500405,-10998.689949356312,-30188.131950870986,-40241.76779291246
-105518.8081286917,-10791.46692651116,-30001.874864324916,-40375.16300382173
-104026.53861362203,-10965.11762918444,-30266.56422216466,-40398.587632010895
-106972.34207062032,-11253.008097768796,-30548.0620918348,-40219.550158923885
-108956.66288812913,-11164.048154836672,-30379.529938641783,-40162.91083847414
-108454.95563208529,-10994.264303954162,-30173.11157859702,-40234.928159109135
-105385.05528987112,-10805.213249351174,-30003.171265503323,-40373.285457287486
-103987.4454125697,-10985.144792216395,-30280.42230372695,-40394.63137324231
-106973.30319563187,-11255.936176292442,-30548.30796102381,-40216.21974900005
-108901.4093758356,-11170.865436895543,-30377.071246751697,-40164.8330884973
-108352.6740494578,-10980.607388091968,-30164.483805237272,-40234.07879281983
-105251.77183768414,-10787.980054376132,-29991.50365489765,-40373.3301607764
-103940.10441781336,-10984.295425927094,-30280.48935896032,-40401.22513785662
-106960.003907681,-11257.076115259662,-30546.586876700745,-40231.217769529554
-108844.0995030522,-11164.048154836672,-30372.355028671627,-40180.702827060566
-108265.0105077041,-10983.177838704329,-30171.7704739297,-40258.19632508711
-105135.4757112832,-10792.271589311553,-30005.026460293117,-40396.24069884309
-103899.93833302717,-11000.053405768083,-30293.386315511027,-40405.00258266957
-106941.42960803864,-11288.547371452734,-30557.829804161767,-40236.80570564338
-108774.2726533738,-11177.369794532036,-30379.64169736406,-40187.43070214161
-108141.13713993278,-10983.22254219324,-30169.73646518427,-40253.83773491833
-104991.50812524656,-10787.935350887225,-30004.020631792624,-40391.70329471866
-103856.9112249507,-10990.17393471884,-30302.70699294889,-40401.15808262325
-106919.4354914946,-11256.539673392734,-30551.03487384735,-40225.18279852662
-108704.06582403967,-11158.147294300474,-30370.05279899273,-40184.32380966232
-108032.753531069,-10975.98057698972,-30168.35065702804,-40264.81244144588
-104872.68625172212,-10797.0995661139,-30023.332539002007,-40414.03268742951
-103825.46232050208,-10993.481992898223,-30321.68362399145,-40411.64105077279
-106914.00401759196,-11243.866234286575,-30565.988190887954,-40234.90580736468
-108639.31282035266,-11139.952974313854,-30377.875909552087,-40189.86704228724
-107919.7654628474,-10958.07682968102,-30164.953191870834,-40259.38096754324
-104729.38921801916,-10797.9489324032,-30018.772783133125,-40404.17556812472
-103773.85214255478,-10994.867801054455,-30322.801211214213,-40392.84323368588
-106890.4229271916,-11236.110178960584,-30554.633504704656,-40209.357763452266
-108569.2177497408,-11137.270764979216,-30362.81083378921,-40166.777690264906
-107808.65494116009,-10962.681289038812,-30156.414825488908,-40237.47625797704
-104590.3390157627,-10785.65547295278,-30011.352003973963,-40373.218402054124
-103724.8347669643,-11022.695722901311,-30332.39010958554,-40369.17273630771
-106853.78841802936,-11282.80297312772,-30554.968780871488,-40201.31113544836
-108495.14406861592,-11175.425192764424,-30362.3190954112,-40170.17515542211
-107685.69799491145,-10992.900847542389,-30158.53824121216,-40250.70849069458
-104447.42196171546,-10815.517403545073,-30014.503599942163,-40388.462291772645
-103674.83391461778,-11041.404133010405,-30339.408557344505,-40380.52742249101
-106805.955684895,-11279.494914948336,-30554.275876793374,-40214.20809199907
-108389.84500048698,-11158.862550123044,-30361.067397721697,-40183.340332906286
-107546.7371996328,-10965.296443140083,-30156.101901066533,-40264.81244144588
-104296.52533489768,-10783.934388629725,-30011.821390607525,-40404.57789952492
-103609.2538963859,-11022.203984523296,-30336.748699754324,-40382.13674809179
-106754.7478383479,-11261.390001939537,-30547.99503660143,-40207.16729249565
-108302.27086571108,-11147.619622662023,-30361.045045977244,-40180.14403344918
-107407.61994214296,-10960.982556460209,-30155.654866177425,-40256.07290936386
-104109.59769601795,-10787.220095064651,-30024.338367502496,-40395.92777442072
-103492.24251416235,-11036.442045741323,-30371.416255404503,-40383.924887648216
-106657.92008136753,-11270.777734610763,-30571.062036879302,-40211.21295824205
-108164.47236114411,-11147.01612556173,-30370.745703070847,-40180.92634450512
-107235.62326855936,-10952.332431356006,-30162.15922381392,-40255.24589481901
-103925.03934205048,-10790.483449755127,-30037.30237928657,-40397.38063781031
-103379.36620466306,-11032.642249183924,-30371.3715519156,-40363.16011704924
-106571.21766462538,-11260.294766461226,-30562.45661526401,-40185.35198990726
-108065.34237448484,-11149.318355240626,-30372.712656582917,-40169.571658321816
-107094.270836624,-10962.45777159426,-30164.28263953717,-40255.75998494149
-103766.65488084016,-10810.018874409065,-30040.56573397705,-40403.4379605577
-103327.37604706002,-11073.411831070403,-30395.44438069396,-40381.823823669416
-106542.4509695114,-11279.316100992692,-30576.269993337395,-40203.00986802696
-107984.02672815642,-11159.846026879077,-30365.761264057317,-40179.94286774908
-106967.37998335125,-10968.604501319469,-30157.39830224494,-40267.53935426943
-103627.20234718351,-10811.695255243214,-30041.1915828218,-40413.49624556259
-103292.50732570975,-11068.874426945977,-30386.034296278274,-40369.61977119682
-106523.76491114676,-11284.14407779504,-30559.70735069601,-40194.62796385622
-107913.23875346646,-11158.817846634132,-30356.59704883064,-40173.99730372397
-106850.14508368316,-10962.54717857208,-30151.899773108933,-40257.45871752009
-103501.65259857806,-10808.677769741747,-30039.85047815448,-40394.78783545349
-103255.5151886362,-11089.169810911397,-30400.0264883073,-40352.252465755046
-106489.41027991896,-11279.338452737147,-30558.29919079533,-40168.85640249925
-107846.98818290094,-11145.675020894412,-30349.735063282857,-40151.98083543549
-106733.35721890416,-10950.49958831067,-30137.415842701896,-40234.168199797656
-103367.47507661284,-10800.318217315462,-30025.27714076962,-40370.53619271948
-103218.85832772953,-11085.347662609538,-30389.74468585785,-40325.43037240868
-106468.0867157086,-11287.09450806314,-30551.19133605854,-40156.16061164864
-107781.67638560252,-11158.616680934034,-30348.50571733781,-40149.81271622333
-106618.98334252636,-10968.69390829729,-30137.05821479061,-40238.97382485555
-103233.1634441809,-10831.901232230812,-30041.99624562219,-40383.85783241485
-103187.90116165893,-11137.226061490306,-30419.85248563916,-40340.83072433838
-106458.16254117044,-11343.823235490709,-30572.984286902465,-40174.80196652436
-107713.9282481585,-11200.660312254467,-30360.262734921307,-40164.81073675284
-106494.86410556604,-10992.297350442095,-30149.0163980742,-40254.53063899644
-103096.34841636998,-10834.762255521093,-30050.646370726397,-40394.05022788647
-103147.53391117262,-11136.309639967638,-30424.6804624415,-40345.03285229598
-106424.16553785391,-11324.53368002578,-30561.182565830062,-40178.08767295929
-107650.73986658336,-11175.31343404215,-30346.359949870104,-40167.7835187654
-106376.62337739748,-10961.31783262704,-30123.803630328614,-40251.6025604728
-102958.1475804028,-10825.821557738967,-30039.67166419884,-40400.9345651787
-103103.61273331796,-11129.358247442038,-30429.754308432857,-40339.95900630463
-106401.3667585095,-11292.28011277677,-30559.05915010681,-40167.15766992065
-107588.0432233862,-11155.912119854942,-30350.00328421632,-40171.98564672299
-106249.71017238023,-10952.444190078282,-30133.59369440004,-40262.53256351144
-102795.47158425707,-10796.026682380045,-30051.920420160342,-40394.58666975339
-103025.38162772436,-11103.117299451507,-30438.247971325876,-40323.53047412998
-106354.04811549762,-11286.960397596407,-30564.44592052054,-40155.87003897072
-107506.74992880224,-11150.100666296565,-30353.981894729364,-40163.559039063344
-106119.1536330168,-10925.68915196528,-30134.53246766716,-40256.74346169752
-102646.8771871182,-10793.366824789862,-30052.25569632717,-40390.1833760957
-102976.2524934116,-11117.668285091911,-30451.34609357668,-40320.04360199495
-106306.52830678562,-11287.18391504096,-30564.66943796509,-40154.70774825904
-107420.98628532724,-11146.01029706124,-30345.801156258723,-40163.11200417423
-105971.5650643784,-10945.470445808229,-30126.19526698533,-40258.50924950949
-102480.78137407082,-10827.967325206677,-30058.871812685946,-40393.96082090864
-102893.05930054896,-11153.8334076206,-30456.397587823583,-40316.75789556002
-106235.53916639557,-11312.106110108629,-30563.730664697967,-40149.63390226768
-107312.826193908,-11168.429096749916,-30343.07424343517,-40159.1780971501
-105913.02584564994,-10978.618082835446,-30130.86678157649,-40252.49663025101
-102739.18989171862,-10873.944863551244,-30083.19051065332,-40384.50603300405
-103248.1614647104,-11179.560265488655,-30451.92723893252,-40312.28754666896
-106315.4913563122,-11291.631912187566,-30532.19235327153,-40149.41038482313
-107276.3704987014,-11136.01906728972,-30325.215199615384,-40155.53476280389
-105861.52742642492,-10950.432533077304,-30127.29050246364,-40252.51898199546
-102690.32897833933,-10854.498845875129,-30081.42472284135,-40380.99680912457
-103257.81741831511,-11160.985965846296,-30456.17407037903,-40307.52662509998
-106307.35532133048,-11299.09739483564,-30539.233152774952,-40159.73689076149
-107221.36285559688,-11150.6818116524,-30339.25209513332,-40168.945809477074
-105753.99318385044,-10949.985498188198,-30136.834697346058,-40263.35957805629
-102599.37973015069,-10857.941014521244,-30100.401353883903,-40392.999695897066
-103260.25375846072,-11172.251245051772,-30477.11765493365,-40316.19910194863
-106297.96758865924,-11299.790298913753,-30544.128184810663,-40166.732986776
-107163.1365612908,-11148.87132035152,-30339.609723044603,-40179.562888093344
-105578.33082417618,-10941.715352739737,-30129.749194353724,-40277.88821195224
-102264.08121157662,-10858.05277324352,-30097.450923615805,-40416.02199268604
-103084.79256448658,-11184.276483568729,-30496.42956214304,-40328.73843058806
-106312.7420917442,-11300.349092525135,-30558.500356495424,-40171.29274264488
-107172.85957012889,-11150.97238433032,-30338.648598033025,-40186.08959747429
-105450.9929360143,-10942.520015540123,-30112.560702867595,-40285.44310157813
-102038.86503444494,-10848.396819638829,-30088.24200490022,-40420.537045066005
-102935.46055978068,-11189.17151560444,-30502.844512801712,-40322.27877644048
-106195.84246824296,-11320.979752657386,-30562.52367049738,-40162.37439660721
-107040.31372550892,-11172.49711424078,-30339.497964322327,-40180.38990263819
-105286.37233810096,-10961.228425649218,-30113.29831043462,-40289.64522953573
-101907.28031483656,-10870.659157116314,-30094.92517649236,-40417.89953922028
-102903.3411029984,-11224.643734055013,-30507.426620415048,-40313.248671680536
-106145.93102287424,-11336.313049353725,-30553.49356573744,-40154.14895464766
-106948.98449766453,-11147.68667789539,-30321.013071657788,-40163.31316987433
-105150.33962134596,-10956.623966291423,-30097.316813149075,-40273.77549097246
-101796.9744559496,-10884.114907278408,-30088.599632811503,-40405.44961755868
-102895.67445465025,-11197.888695942009,-30503.87269304665,-40301.13402618576
-106121.9923045626,-11303.52304023779,-30538.47319346347,-40151.75731799094
-106889.43945043556,-11153.073448309118,-30315.693356477423,-40171.42685311161
-105036.81511125746,-10936.328582326005,-30090.79010376813,-40277.441177063134
-101719.48095792304,-10865.9652907807,-30096.489798604227,-40403.16973962423
-102908.75022515656,-11211.657370526478,-30510.1535332386,-40293.40032260422
-106109.1400515008,-11315.48122352138,-30539.054338819307,-40141.85549519724
-106841.33849636777,-11150.77121863022,-30312.56411225368,-40164.90014373066
-104942.13312174476,-10938.049666649064,-30086.0515339436,-40279.58694453084
-101657.25370135948,-10892.899142849345,-30095.88630150393,-40407.30481234846
-102950.302118099,-11235.953716749396,-30509.482980904937,-40294.58496506035
-106122.72991212964,-11319.795110201254,-30533.37699572766,-40147.13050688869
-106797.55142897982,-11152.559358186649,-30311.692394219925,-40172.03035021191
-104842.57845194083,-10926.337352554485,-30082.8999379754,-40278.20113637461
-101590.1761162491,-10879.778668854078,-30110.034955744144,-40406.43309431471
-102971.4021648648,-11231.572774836157,-30527.498486935918,-40288.63940103524
-106122.66285689628,-11311.703778708432,-30535.81333587329,-40143.59893126475
-106754.3008034588,-11142.881052837498,-30310.977138397357,-40174.35493163526
-104748.0752763838,-10914.647390204358,-30086.76678976617,-40291.83570049235
-101532.44156032104,-10873.609587384411,-30120.20499947131,-40409.85291121637
-103008.43900542724,-11226.856556756087,-30534.00284457241,-40284.68314226665
-106137.3479530034,-11308.395720529046,-30534.76280388389,-40146.86228595523
-106722.89660249908,-11132.5768986436,-30305.769181939268,-40172.76795777893
-104663.25040617592,-10910.15468956884,-30083.14580716441,-40294.74142727154
-101489.9061906226,-10878.504619420126,-30125.43530767385,-40418.05600143147
-103060.00447988564,-11235.976068493852,-30534.740452139435,-40286.3595231008
-106153.39650552232,-11305.892325150053,-30523.363414211683,-40141.69903298605
-106694.28636959627,-11129.134729997484,-30300.80709467019,-40169.77282402192
-104567.76375386283,-10907.852459889944,-30068.952449435288,-40282.22445037657
-101435.45734112948,-10887.512372435614,-30120.45086866032,-40397.47004478813
-103111.61465783296,-11235.819606282665,-30541.870658620675,-40271.33915082683
-106174.69771798822,-11280.456039959912,-30518.06605077577,-40133.65240498214
-106654.9696510994,-11110.023988488198,-30288.535986964227,-40164.6319227972
-104477.2168370744,-10896.341311495462,-30067.723103490247,-40284.70549401111
-101392.7878609643,-10894.664930661313,-30133.12430776648,-40398.67703898872
-103135.3969139334,-11251.5552343792,-30536.685053907044,-40262.57726700035
-106172.12726737586,-11306.384063528069,-30510.55586463879,-40135.97698640549
-106622.53726989476,-11126.63133461849,-30286.479626474335,-40172.58914382329
-104392.30255988867,-10899.515259208114,-30067.14195813441,-40295.4119796052
-101357.427401236,-10896.184849284276,-30143.45081370483,-40406.27663210352
-103196.61834199648,-11249.342411678126,-30542.85413537671,-40256.475240764055
-106192.78027925258,-11305.75821468332,-30507.69484134851,-40130.43375378058
-106588.11558343358,-11150.480645952302,-30289.318298020164,-40174.75726303545
-104304.54961115714,-10915.563811727025,-30062.62690575444,-40291.567479558886
-101315.8084530602,-10908.858288390433,-30141.506211937216,-40395.2348703426
-103237.3655721385,-11274.197551512429,-30545.53634471135,-40251.8037261729
-106200.11165143392,-11323.885479436574,-30507.04664075931,-40133.71946021551
-106547.92714690296,-11130.095855009062,-30278.32123974815,-40171.09157694478
-104215.00852286918,-10904.365587754915,-30061.218745853752,-40300.6646395522
-101288.06993819115,-10921.039989118575,-30156.101901066533,-40405.00258266957
-103295.94949435588,-11284.926388850974,-30559.57324022928,-40260.029168132445
-106228.5207186366,-11322.186746857971,-30515.741469352422,-40142.66015799763
-106533.644382196,-11129.693523608868,-30281.070504316154,-40169.370492621725
-104141.73950454468,-10896.453070217738,-30052.970952149743,-40294.33909587134
-101260.04085064422,-10918.201317572752,-30161.242802291254,-40399.95108842267
-103349.0348874372,-11266.709717119898,-30562.926001897576,-40248.361557526776
-106243.58579439948,-11296.99633085684,-30505.482018647435,-40131.5736927478
-106513.21488776384,-11136.48845392328,-30289.452408486894,-40182.22274568352
-104064.53657919604,-10899.045872574554,-30062.33633307652,-40303.12333144228
-101241.91358589096,-10924.884489164888,-30172.977468130288,-40399.28053608901
-103394.63244612604,-11279.673728903976,-30563.127167597675,-40245.96992087006
-106242.51291066562,-11298.09156633515,-30493.009745241376,-40129.0702973688
-106477.2285791908,-11132.48749166578,-30272.71095188987,-40176.835975269794
-103992.0945754164,-10901.124584808897,-30059.117681874955,-40304.12915994277
-101232.43644624192,-10932.171157857318,-30177.179596087888,-40391.122149362825
-103464.03461265976,-11292.123650565583,-30562.702484453024,-40234.57053119785
-106271.50312322416,-11295.163487811506,-30483.353791636684,-40117.51444548541
-106464.68925055138,-11125.379636928992,-30272.8450623566,-40173.75143453496
-103925.9334118287,-10916.748454183156,-30060.34702782,-40316.109694970815
-101220.67942865842,-10929.421893289316,-30185.11446536952,-40401.1357308788
-103529.32405821372,-11275.38219396856,-30570.63735373465,-40241.34310976781
-106302.90732418386,-11297.599827957134,-30490.66281207357,-40130.7243264585
-106452.50754982325,-11125.91607879592,-30271.07927454463,-40177.19360318108
-103858.6546610182,-10902.53274470958,-30051.406330037877,-40304.68795355415
-101224.03219032672,-10956.64631803588,-30197.676145753405,-40391.390370296285
-103600.46966081495,-11319.52688926779,-30577.924022427087,-40233.2964817639
-106335.853795511,-11321.203270101938,-30494.93199526453,-40140.04500389636
-106437.33071533807,-11137.270764979216,-30269.46994894385,-40186.71544631904
-103793.36521546426,-10907.561887212025,-30047.539478247105,-40315.48384612607
-101228.07785607313,-10981.099126469986,-30207.063878424637,-40399.32523957792
-103662.45104818953,-11323.147871869549,-30577.029952648874,-40228.49085670601
-106343.6992578148,-11313.022531631295,-30475.687143288516,-40121.13542808717
-106414.08490110456,-11135.01323878923,-30254.40487318097,-40173.70673104605
-103725.34885708676,-10902.666855176312,-30035.13426007441,-40306.3643343883
-101229.68718167391,-10977.053460723577,-30200.20189287685,-40381.600306224864
-103741.5315200724,-11321.829118946687,-30573.38661830266,-40217.76201936746
-106386.72636589129,-11309.558011240722,-30466.41116933956,-40118.22970130798
-106402.4172904989,-11125.49139565127,-30250.426262667926,-40176.45599561405
-103663.45687669002,-10888.026462558088,-30034.15078331837,-40309.00184023403
-101231.76589390826,-10966.190512918296,-30209.00848019224,-40380.12509109081
-103811.76070115098,-11308.462775762411,-30578.706333483024,-40211.10119951978
-106411.78267142568,-11287.116859807596,-30465.07006467224,-40116.44156175156
-106382.23366525576,-11117.109491480527,-30243.497221886784,-40178.1323764482
-103591.7524804774,-10893.323825993995,-30031.84855363948,-40312.86869202479
-101241.37714402404,-10982.12730671493,-30219.625558808515,-40381.48854750259
-103884.13564969727,-11324.66779049251,-30577.49933928244,-40206.697905862085
-106436.99543917124,-11301.220810558892,-30458.07396865773,-40114.206387306025
-106352.61760385249,-11114.494337379258,-30233.617750837537,-40166.732986776
-103526.0830552677,-10885.00897705662,-30031.625036194928,-40314.209796692114
-101261.91839717848,-10987.60348410648,-30230.26498916924,-40381.91323064724
-103955.86239765436,-11329.4734155504,-30583.95899343002,-40211.32471696434
-106449.71358176632,-11287.832115630164,-30449.7367679759,-40115.70395418453
-106331.62931580894,-11110.091043721564,-30232.813088037143,-40178.06532121484
-103451.38352529806,-10883.779631111578,-30027.69112917079,-40318.54603511645
-101256.12929536456,-11000.65690286838,-30232.991901992787,-40380.03568411299
-104018.91666876276,-11346.125465169604,-30585.613022519712,-40209.38011519672
-106477.4297448909,-11286.401603985025,-30455.54822153428,-40113.58053846128
-106316.72070225724,-11094.131898180474,-30238.46807938434,-40169.348140877264
-103387.904571045,-10876.805886841525,-30029.09928907148,-40309.962965245606
-101275.3070921072,-10993.839620809513,-30242.49139338629,-40360.209686781134
-104095.33728305549,-11331.5744795292,-30583.48960679646,-40184.34616140678
-106503.0895475256,-11283.652339417022,-30443.23241033941,-40097.35317198672
-106286.43408852031,-11098.155212182428,-30221.14547743148,-40150.41621332362
-103314.65790446496,-10880.851552587934,-30021.87967561241,-40291.94745921463
-101289.2992841362,-11009.70935937278,-30253.957838291863,-40346.03868079647
-104159.4867896422,-11356.876654252608,-30590.88803421117,-40173.88554500169
-106522.91554485746,-11309.133328096072,-30445.64639874058,-40096.14617778613
-106270.4749429792,-11116.148366468951,-30224.162962932944,-40157.12173666021
-103250.35193566704,-10884.53959042306,-30016.17998077631,-40300.48582559655
-101300.8104325307,-11018.918278088366,-30251.901477801977,-40347.44684069715
-104230.4535782878,-11352.38395361709,-30580.85210095073,-40172.20916416754
-106546.16135909095,-11286.334548751658,-30432.101241600663,-40106.76325640241
-106241.99882054316,-11094.064842947108,-30213.702346527854,-40176.67951305861
-103183.0061296232,-10898.040044074063,-30022.505524457163,-40327.82200906539
-101317.4624821499,-11043.415790011382,-30266.675980886936,-40367.38459675129
-104279.47095387828,-11345.901947725051,-30588.47404580999,-40188.54828936438
-106548.91062365896,-11278.37732772557,-30430.626026466613,-40119.41434376411
-106209.58879108296,-11096.590590070557,-30220.16200067544,-40189.37530390922
-103117.24729743568,-10883.82433460049,-30024.360719246957,-40332.270006212
-101347.167950531,-11054.055220372107,-30284.400914239995,-40373.06193984293
-104351.7788471912,-11356.72019204142,-30601.7733337609,-40189.95644926506
-106573.54224604872,-11281.774792882776,-30443.701796972968,-40119.30258504184
-106196.98240721016,-11103.05024421814,-30227.962759490343,-40189.15178646467
-103058.1269333514,-10886.01480555711,-30030.082765827512,-40330.906549800224
-101368.15623857452,-11054.077572116565,-30297.096705090607,-40364.99296009457
-104432.66981037497,-11367.225511935416,-30609.19411292006,-40186.558984107854
-106590.86484800158,-11298.04686284624,-30446.093433629685,-40119.68256469758
-106166.65108998433,-11113.264991434216,-30230.063823469143,-40186.08959747429
-102993.41863315328,-10891.982721326676,-30040.45397525477,-40333.18642773467
-101393.0784336422,-11068.248578101227,-30316.162743110985,-40359.82970712539
-104485.9563691564,-11381.15064873107,-30624.05802298284,-40182.5356701059
-106612.72485407889,-11296.102261078628,-30455.727035489923,-40117.04505885185
-106136.31977275846,-11094.645988302946,-30231.293169414184,-40182.37920789471
-102928.2409463216,-10894.173192283297,-30047.315960802556,-40338.34968070385
-101423.49915784589,-11067.958005423308,-30327.47272580537,-40355.98520707908
-104554.88914905656,-11370.622977092622,-30616.39137463467,-40170.51043158894
-106634.2719357338,-11292.369519754591,-30442.9865411504,-40115.99452686245
-106116.87375508234,-11105.553639597136,-30224.25236991076,-40182.647428828175
-102866.99716651406,-10883.600817155935,-30037.525896731127,-40321.22824445108
-101453.58460588272,-11074.440011315348,-30330.89254270703,-40340.04841328245
-104627.86759470316,-11376.792058562289,-30612.34570888826,-40153.38899533618
-106644.5760899277,-11274.08579279015,-30422.378232762607,-40090.62529690567
-106082.96615874364,-11096.85881100402,-30210.371936604017,-40168.36466412123
-102804.25581982802,-10890.909837592822,-30032.340292017496,-40314.96975600359
-101479.69144340653,-11089.795659756144,-30333.306531108206,-40328.15728523222
-104682.27174070738,-11374.06514573874,-30614.893807756165,-40146.012919665925
-106643.68202014948,-11276.790353869244,-30434.626988724114,-40098.33664874276
-106029.14315809526,-11093.729566780275,-30211.86950348252,-40174.55609733535
-102720.28031590943,-10879.644558387346,-30032.586161206505,-40316.42261939319
-101506.40177803062,-11089.974473711787,-30346.628170803568,-40324.89393054175
-104751.29392758536,-11377.77553531832,-30616.07845021229,-40139.48621028497
-106677.5896164882,-11285.08285106216,-30428.16733457653,-40096.45910220851
-106015.26272478852,-11101.91030525092,-30215.199913406363,-40179.96521949354
-102670.19005658508,-10892.385052726871,-30041.45980375526,-40327.06204975391
-101549.18301691808,-11105.643046574956,-30363.52608961178,-40334.23695972407
-104834.26360300346,-11381.97766327592,-30621.666386326124,-40151.82437322431
-106692.43117480652,-11279.874894604076,-30424.322834530216,-40113.08880008326
-105977.4659249146,-11080.85496197402,-30206.058049924144,-40186.80485329686
-102604.81120405332,-10876.269444974596,-30041.75037643318,-40333.90168355724
-101586.3763196917,-11111.588610600067,-30374.67961009498,-40338.68495687068
-104883.92917918316,-11378.334328929704,-30620.124115958708,-40145.43177431009
-106704.85874472364,-11279.673728903976,-30423.20524730745,-40103.52225345639
-105940.13851167425,-11096.791755770657,-30205.96864294632,-40182.87094627273
-102544.59560449072,-10881.365642710403,-30044.00790262317,-40329.78896257746
-101614.76303514994,-11118.070616492108,-30374.85842405062,-40322.68110784068
-104934.4217699077,-11384.771631332833,-30618.67125256911,-40142.61545450872
-106729.44566362449,-11273.705813134413,-30422.64645369607,-40105.28804126836
-105919.1055201418,-11074.149438637429,-30199.285471354186,-40186.35781840776
-102494.70651086648,-10874.90598856282,-30039.984588621213,-40332.78409633447
-101675.4480213461,-11130.520538153713,-30378.278240952284,-40315.95323275962
-105034.31171587846,-11390.314863957748,-30607.8753599972,-40126.27632931189
-106747.21530046646,-11264.720411863376,-30401.121723785607,-40091.25114575042
-105890.51763898344,-11064.158208865909,-30180.420599033907,-40172.07505370081
-102445.01858294231,-10879.0187095426,-30033.45787924026,-40327.26321545401
-101718.09514976684,-11130.565241642624,-30381.42983692048,-40307.66073556671
-105091.46512645068,-11382.089421998196,-30599.448752337543,-40119.81667516431
-106760.31342271728,-11263.491065918335,-30389.85644458013,-40090.44648295004
-105837.25343194646,-11060.80544719761,-30175.16793908691,-40180.30049566037
-102371.61545415108,-10884.114907278408,-30031.692091428293,-40333.49935215704
-101740.04456282196,-11142.992811559774,-30383.843825321652,-40308.66656406719
-105120.16476633128,-11379.407212663558,-30597.660612781125,-40121.09072459826
-106758.23471048292,-11250.728219834356,-30388.738857357366,-40092.77106437339
-105807.23503914298,-11059.039659385642,-30169.82587216209,-40180.00992298245
-102328.74480828582,-10889.658139903324,-30033.681396684817,-40331.51004690052
-101799.09787167286,-11153.453427964858,-30396.69607838346,-40303.43625586465
-105202.8885725604,-11398.182678006016,-30606.71306928552,-40126.164570589615
-106767.19776000953,-11261.390001939537,-30390.70581086944,-40098.56016618731
-105761.68218394306,-11039.23601379824,-30163.83560464807,-40177.61828632573
-102264.43883948788,-10862.25490120112,-30032.384995506407,-40328.02317476549
-101823.46127312914,-11138.097779524063,-30395.80200860525,-40295.18846216064
-105225.15091003788,-11374.735698072398,-30594.86664472421,-40115.949823373536
-106760.11225701716,-11251.666993101477,-30380.62517412009,-40094.42509346308
-105706.47337513843,-11047.506159246705,-30160.48284297977,-40187.22953644151
-102194.79080376517,-10883.354947966927,-30039.626960709928,-40338.193218492655
-101854.37373571083,-11162.997622847275,-30407.89430235557,-40294.09322668234
-105266.05460239109,-11371.87467478212,-30588.183473132078,-40109.80309364833
-106755.37368719264,-11240.200548195906,-30378.25588920783,-40100.19184353255
-105661.70283099449,-11041.918223132876,-30162.87447963649,-40194.940888278594
-102142.6665356954,-10863.841875057446,-30034.396652507385,-40342.57416040589
-101909.85076544892,-11158.080239067109,-30416.49972397086,-40303.19038667565
-105335.6579346249,-11380.077764997215,-30588.563452787814,-40119.70491644203
-106756.6477366266,-11247.889548288533,-30373.271450194294,-40106.45033198004
-105602.11308027664,-11036.732618419244,-30147.563534684603,-40191.72223707703
-102072.57146508354,-10862.925453534775,-30029.09928907148,-40338.10381151483
-101929.0062104471,-11159.15312280096,-30417.974939104908,-40297.15541567272
-105345.13507427396,-11379.362509174647,-30583.422551563093,-40120.017840864406
-106735.74885556089,-11247.5542721217,-30366.67768557998,-40107.43380873607
-105539.9081754575,-11049.204891825306,-30150.290447508152,-40203.52395814943
-102006.70087417377,-10886.417136957303,-30037.36943451994,-40344.09407902886
-101964.45607715324,-11177.302739298671,-30425.552180475257,-40286.739502756536
-105381.30019680264,-11381.418869664534,-30579.354534072227,-40105.06452382381
-106716.95103847396,-11237.652449328,-30358.765168042803,-40097.21906151999
-105461.140627997,-11034.60920269599,-30136.745290368235,-40191.14109172119
-101926.94984995722,-10892.653273660337,-30038.06233859805,-40344.205837751135
-102005.60563869544,-11206.516469301758,-30435.07402361322,-40290.56165105839
-105428.95411598137,-11403.278875741826,-30577.09700788224,-40110.67481168208
-106697.50502079786,-11256.114990248085,-30354.943019740946,-40106.60679419122
-105387.08929861656,-11055.083400617052,-30136.45471769032,-40205.155635494666
-101851.84798858738,-10908.008922101131,-30048.388844536406,-40353.75003263355
-102017.29560104555,-11191.943131916898,-30446.62987549661,-40286.49363356753
-105444.06389523316,-11379.742488830389,-30581.7685224734,-40111.14419831565
-106681.52352351233,-11241.429894140949,-30368.801101303237,-40117.96148037451
-105317.08363498255,-11026.428464225348,-30140.63449390346,-40214.27514723243
-101787.4749645561,-10889.747546881146,-30059.00592315268,-40362.64602692676
-102057.81931374304,-11193.708919728866,-30455.771738978838,-40290.98633420304
-105476.13864852652,-11366.06322122374,-30580.24860385044,-40117.916776885606
-106661.65282269154,-11213.780786249732,-30351.90318249502,-40112.03826809386
-105241.80295965709,-11005.596638393004,-30121.23317971625,-40205.31209770586
-101711.30021945242,-10880.404517698827,-30043.2926468006,-40352.94536983316
-102102.03106427564,-11200.50385004328,-30451.323741832228,-40276.81532821839
-105524.23960259432,-11372.880503282608,-30562.8142431753,-40102.874052867184
-106655.3719824996,-11229.538766090724,-30342.04606319023,-40117.42503850759
-105183.01787173962,-11021.667542656369,-30117.545141881128,-40218.09729553429
-101651.12932337871,-10897.414195229316,-30044.36553053445,-40361.97547459311
-102130.37307624496,-11215.010132194771,-30454.22946861142,-40284.9066597112
-105535.59428877763,-11373.104020727162,-30561.271972807885,-40110.85362563773
-106621.12910999409,-11212.752606004788,-30331.697205507426,-40113.04409659435
-105092.18038227325,-11007.384777949426,-30111.68898483384,-40218.65608914568
-101578.8214300658,-10895.20137252824,-30058.156556863378,-40360.58966643687
-102162.91721617187,-11227.325943389647,-30467.953439706976,-40274.513098539486
-105561.1199809456,-11378.44608765198,-30556.75692042791,-40101.93527960006
-106599.42556612796,-11216.910030473477,-30327.539781038737,-40109.64663143714
-105014.57512552442,-11006.423652937849,-30105.25168243071,-40218.76784786795
-101514.5601647568,-10901.191640042263,-30057.351894062984,-40359.98616933658
-102201.89865850194,-11238.479463872847,-30471.37325660864,-40271.24974384901
-105566.14912344803,-11387.565599389744,-30554.275876793374,-40098.068427809296
-106554.31974581716,-11235.886661516031,-30330.02082467328,-40108.216119792
-104926.79982504844,-11010.692836128812,-30104.98346149725,-40209.67068787464
-101443.191044711,-10909.908820379833,-30061.509318531676,-40345.03285229598
-102237.77320835272,-11264.653356630011,-30486.661849816068,-40259.2021535876
-105606.3822634676,-11406.385768221113,-30562.54602224184,-40095.20740451901
-106544.5520334902,-11231.304553902692,-30328.724423494867,-40103.65636392312
-104851.78737065644,-10995.918333043854,-30095.23810091473,-40202.65224011568
-101384.428308538,-10910.8252419025,-30065.823205211545,-40341.88125632778
-102265.62348194404,-11248.22482445536,-30490.014611484363,-40247.78041217094
-105615.01003682734,-11385.15161098857,-30555.639333205145,-40093.4639684515
-106510.06329179564,-11226.27541140025,-30319.62726350156,-40109.55722445932
-104758.96057593354,-11010.17874600634,-30092.06415320208,-40214.02927804343
-101329.26420322232,-10933.601669502455,-30077.60257453949,-40353.83943961137
-102321.01110470427,-11273.638757901044,-30496.697783076503,-40254.17301108516
-105645.9895546424,-11374.44512539448,-30550.40902500261,-40095.72149464148
-106491.04195726418,-11222.341504376114,-30323.628225759057,-40119.30258504184
-104694.3640344577,-11006.6471703824,-30099.01554572768,-40228.55791193937
-101278.1010601641,-10919.475367006704,-30083.50343507569,-40358.13097454679
-102362.09361101312,-11268.676670631969,-30501.81633255677,-40251.69196745062
-105666.24023511892,-11382.91643654304,-30546.408062745104,-40098.80603537632
-106460.48712259378,-11209.757472247777,-30312.295891320216,-40117.42503850759
-104603.07951010222,-10992.207943464273,-30084.08458043153,-40230.97190034055
-101225.0380188272,-10925.823262432012,-30091.90769099089,-40366.26700952852
-102407.08767260169,-11276.6115399136,-30516.479076919448,-40250.52967673895
-105688.25670340736,-11386.269198211336,-30554.25352504892,-40102.35996274471
-106441.44343631786,-11207.343483846604,-30317.481496033848,-40118.90025364164
-104529.676381311,-10983.468411382248,-30083.52578682015,-40222.45588570308
-101177.04882348166,-10921.375265285404,-30090.343068879018,-40351.31369248792
-102466.74447855288,-11283.920560350483,-30513.28277746234,-40239.554970211386
-105721.8513753237,-11381.97766327592,-30540.66366442009,-40091.29584923934
-106425.46193903232,-11188.612721993057,-30309.256054074296,-40109.110189570216
-104462.41998224496,-10977.299329912585,-30080.597708296504,-40224.31108049287
-101151.85840748054,-10940.888338194887,-30106.81630454258,-40357.1251460463
-102542.31572655628,-11306.987560628362,-30535.41100447309,-40244.27118829146
-105773.19333233754,-11409.984399078416,-30553.985304115453,-40103.47754996748
-106424.70197972083,-11240.155844706997,-30332.926551452467,-40137.58631200628
-104388.32394937564,-10998.958170289776,-30097.137999193437,-40241.27605453444
-101103.48923247925,-10955.081695924007,-30116.11463023599,-40358.13097454679
-102583.80056426532,-11312.128461853084,-30530.784193370844,-40232.42476373015
-105781.4187742971,-11379.228398707915,-30532.035891060343,-40086.49022418144
-106390.8614386155,-11204.527164045236,-30293.408667255484,-40110.63010819317
-104328.86830912452,-10979.333338658016,-30067.9466209348,-40226.70271714959
-101095.39790098644,-10939.92721318331,-30107.352746409502,-40350.486677943074
-102665.7867629274,-11311.5696682417,-30530.85124860421,-40224.42283921514
-105835.10766447874,-11378.200218462973,-30524.07867003425,-40083.69625612453
-106396.02469158468,-11197.17344011944,-30295.666193445468,-40119.97313737549
-104257.610947801,-10987.044690495097,-30077.312001861574,-40245.05349934739
-101060.32801393606,-10951.773637744624,-30121.456697160807,-40355.85109661235
-102730.56211835888,-11307.792223428754,-30537.04268181833,-40214.00692629897
-105868.05413580588,-11374.467477138936,-30524.793925856826,-40073.459157164
-106382.77010712268,-11208.036387924718,-30298.32605103565,-40110.38423900417
-104188.342891734,-10995.381891176929,-30071.969934936755,-40236.85040913229
-101037.03749621364,-10962.346012871983,-30126.329377452064,-40350.66549189872
-102798.69023545863,-11303.031301859774,-30531.387690471136,-40206.58614713981
-105904.95686590158,-11373.148724216073,-30512.522818150857,-40075.73903509844
-106377.91977857587,-11212.573792049145,-30280.8469868716,-40115.68160244008
-104127.5237950711,-10984.250722438184,-30046.578353235527,-40236.78335389893
-101029.90728973238,-10973.11955369944,-30119.176819226366,-40354.44293671166
-102863.55499786796,-11329.808691717231,-30535.12043179517,-40216.53267342242
-105938.41742735116,-11386.850343567176,-30506.778419825845,-40088.72539862697
-106371.03544128365,-11220.665123541969,-30281.405780482983,-40132.8253904373
-104057.58518667045,-10962.36836461644,-30049.30526605908,-40249.32268253835
-101016.56329829256,-10961.161370415852,-30132.20788624381,-40357.01338732403
-102954.72776350114,-11336.916546454018,-30555.14759482713,-40218.58903391231
-105980.52811390498,-11376.277968439814,-30518.870713576165,-40089.32889572727
-106363.4134964244,-11181.147239344984,-30288.22306254185,-40121.470704254
-104007.02554071257,-10942.385905073394,-30053.440338783308,-40235.95633935408
-101011.19887962328,-10965.989347218198,-30147.608238173518,-40343.088250528366
-103027.99678182564,-11335.15075864205,-30556.108719838707,-40191.655181843664
-106013.34047476535,-11369.505389869855,-30506.867826803667,-40063.22205820347
-106350.15891196238,-11187.472783025836,-30280.17643453794,-40105.15393080162
-103937.288098012,-10936.708561981746,-30042.19741132229,-40228.6473189172
-100998.07840562802,-10963.061268694551,-30146.669464906397,-40335.77923009148
-103083.94319819727,-11340.783398244786,-30564.20005133153,-40193.30921093335
-106032.29475406346,-11375.272139939323,-30514.8026960853,-40075.09083450924
-106331.8975367424,-11197.97810291983,-30287.44075148592,-40120.37546877569
-103869.4729053346,-10961.876626238422,-30052.81448993856,-40250.48497325003
-100990.72468170222,-10968.984480975208,-30161.30985752462,-40352.31952098841
-103159.98383283424,-11332.803825474242,-30564.892955409643,-40202.42872267112
-106064.86124573484,-11361.034078721295,-30497.547149365804,-40083.98682880245
-106309.07640565353,-11183.181248090415,-30268.28530648772,-40131.23841658097
-103795.71214863208,-10960.982556460209,-30044.633751467914,-40263.8066129454
-100976.9783588622,-10995.583056877023,-30162.606258703025,-40352.4759831996
-103218.70186551832,-11352.652174550554,-30557.60628671721,-40193.46567314454
-106067.92343472522,-11364.073915967218,-30480.22454741294,-40076.387235687645
-106272.62071044692,-11189.55149526018,-30256.304771459672,-40124.84581766675
-103713.61419124772,-10968.179818174818,-30038.554076976077,-40269.908639181696
-100959.92397784282,-11016.303123987094,-30171.479901251783,-40359.89676235876
-103271.8319620886,-11377.194389962482,-30568.133958355666,-40202.18285348211
-106087.28004542353,-11383.989320276896,-30487.55591959428,-40091.85464285072
-106240.05421877556,-11200.995588421296,-30255.142480748,-40133.58534974878
-103616.62997205617,-10958.032126192107,-30029.99335884969,-40259.2021535876
-100936.8793293094,-11009.150565761396,-30174.385628030974,-40345.05520404044
-103324.98441040333,-11364.655061323056,-30565.22823157647,-40182.44626312808
-106092.53270537053,-11367.20316019096,-30474.23427989892,-40068.005331516906
-106205.54312533655,-11184.567056246646,-30254.807204581168,-40114.42990475058
-103527.84884307969,-10942.40825681785,-30030.12746931642,-40241.87955163474
-100915.60046858796,-11011.162222762374,-30192.78111371769,-40328.626671865786
-103386.67522509996,-11357.30133739726,-30583.71312424101,-40159.08869017228
-106101.0934234969,-11350.43935184948,-30480.51512009086,-40049.051052218805
-106150.6025374654,-11169.099649083571,-30252.437919668904,-40102.69523891154
-103419.12995804906,-10930.047742134064,-30036.05068159708,-40235.5987114428
-100884.48684030616,-11010.290504728617,-30201.855921966544,-40317.67431708268
-103409.09402478865,-11357.368392630624,-30581.634412006668,-40152.47257381351
-106086.16245820076,-11339.464645321925,-30480.55982357977,-40054.19195344352
-106101.33929268592,-11156.269747766228,-30247.967570777844,-40100.705933655016
-103326.90666042648,-10927.387884543885,-30024.65129192487,-40236.98451959903
-100869.55587501,-11025.08735955803,-30209.544922059173,-40318.27781418298
-103466.69447024996,-11383.430526665512,-30583.89193819665,-40147.28696909988
-106101.96514153066,-11371.87467478212,-30471.66382928656,-40056.78475580034
-106075.23245516211,-11179.247341066282,-30249.912172545457,-40112.79822740534
-103252.14007522346,-10944.06228590754,-30027.02057683713,-40244.67351969165
-100868.4159360428,-11036.218528296771,-30212.204779649357,-40318.88131128327
-103529.34640995818,-11378.5354946298,-30577.63344974917,-40147.354024333246
-106110.86113582388,-11353.166264673027,-30457.2916576018,-40054.437822632535
-106033.6805622197,-11169.21140780585,-30236.59053285009,-40112.64176519415
-103161.66021366838,-10932.037047390586,-30022.572579690528,-40252.250761062
-100858.06707835998,-11041.158263821397,-30228.767422290734,-40324.80452356393
-103573.11112560167,-11387.811468578751,-30593.369077845706,-40153.88073371419
-106121.03117955104,-11360.162360687538,-30475.731846777424,-40075.470814164975
-106007.86429737382,-11172.698279940878,-30251.141518490494,-40135.32878581629
-103090.80518374506,-10950.276070866115,-30031.20035305028,-40268.0534443919
-100866.53838950854,-11071.690746747345,-30246.55941087716,-40334.192256235154
-103651.20812072852,-11409.82793686723,-30604.723764029,-40159.11104191674
-106129.03310406604,-11353.926223984508,-30469.428654841027,-40075.98490428745
-105968.4134684102,-11147.127884284006,-30242.51374513075,-40129.00324213544
-103039.91026162032,-10932.864061935434,-30034.55311471857,-40271.428557804655
-100890.67827352029,-11055.485732017249,-30246.134727732508,-40324.67041309719
-103664.0156703014,-11392.885314570109,-30591.29036561136,-40150.19269587907
-106105.00497877656,-11358.418924620024,-30463.773663493837,-40070.77694782936
-105922.39122657671,-11167.289157782694,-30240.45738464086,-40125.65048046714
-102957.02999318004,-10939.904861438854,-30030.932132116814,-40264.32070306787
-100904.13402368236,-11078.888008461954,-30258.405835438472,-40318.00959324952
-103751.6345085662,-11413.78419563582,-30606.28838614087,-40144.8282772098
-106134.5539849465,-11363.895102011576,-30462.007875681866,-40065.01019775989
