 EXG Channel 0, EXG Channel 1, EXG Channel 2, EXG Channel 3
-18137.568907447923,-19451.35974304196,-30673.388322995703,-16911.039282207406
-18142.9333261172,-19468.52588278364,-30680.384419010214,-16923.668017824653
-18144.855576140355,-19440.921478381333,-30676.91989861964,-16921.25402942348
-18139.088826070885,-19455.51716751065,-30671.801349139376,-16917.744805543996
-18128.73996838808,-19453.32669655403,-30675.33292476332,-16920.270552667447
-18123.219087507616,-19435.221783545232,-30675.6905526746,-16920.806994534374
-18136.406616736247,-19459.339315812507,-30684.56419522336,-16921.634009079222
-18140.38522724929,-19443.13430108241,-30682.93251787812,-16917.83421252182
-18150.667029698736,-19439.51331848065,-30676.45051198608,-16913.49797409749
-18143.17919530621,-19448.9904581297,-30668.247421770982,-16906.12189842724
-18125.00722706404,-19449.52689999663,-30673.7906543959,-16907.95474147257
-18124.739006130578,-19462.602670502984,-30683.044276600394,-16916.090776454304
-18136.58543069189,-19464.882548437425,-30689.191006325604,-16917.744805543996
-18130.03636956649,-19446.71058019526,-30684.899471390185,-16911.709834541063
-18121.810927606934,-19436.42877774582,-30681.434950999614,-16908.647645550685
-18130.97514283361,-19454.310173310063,-30686.66525920216,-16917.45423286608
-18136.205451036152,-19469.3976008174,-30694.86834941725,-16928.11601497126
-18145.079093584907,-19483.85917947998,-30699.0481256304,-16931.245259195002
-18160.948832148177,-19515.397490906416,-30696.008288384477,-16931.06644523936
-18152.656334955256,-19505.585075090537,-30699.539864008413,-16935.469738897056
-18135.40078823576,-19464.27905133713,-30704.300785577398,-16937.839023809316
-18141.14518656077,-19480.1487899004,-30714.113201393277,-16942.421131422656
-18178.31613758995,-19528.696778857324,-30733.55921906939,-16957.3520967188
-18171.163579364253,-19490.967034216766,-30725.691405021124,-16946.489148913523
-18155.69617220118,-19474.38203983093,-30720.21522762957,-16941.86233781127
-18162.669916471237,-19518.19145896333,-30722.673919519657,-16945.1480442462
-18159.07128561393,-19512.44706063832,-30725.91492246568,-16949.5513379039
-18149.25886979805,-19451.18092908632,-30719.812896229378,-16944.11986400126
-18154.57858497841,-19458.288783823107,-30708.92759667964,-16937.97313427605
-18164.279242072014,-19476.10312415399,-30713.062669403876,-16939.694218599107
-18177.757343978566,-19496.37615637495,-30722.562160797377,-16948.277288469948
-18183.61350102586,-19496.1526389304,-30727.83717248883,-16957.396800207713
-18187.43564932772,-19491.72699352825,-30725.624349787755,-16953.887576328227
-18168.59312875189,-19487.837789993024,-30717.018928172463,-16942.44348316711
-18135.758416147044,-19484.507380069183,-30711.11806763626,-16940.856509310783
-18137.188927792184,-19484.574435302547,-30714.873160704752,-16948.321991958856
-18146.464901741136,-19491.548179572605,-30727.479544577545,-16959.609622908785
-18167.47554152913,-19511.37417690446,-30732.061652190885,-16964.437599711135
-18185.580454537925,-19521.03013050916,-30725.199666643104,-16960.146064775716
-18170.537730519503,-19495.57149357456,-30723.612692786777,-16951.898271071706
-18167.69905897368,-19507.507325113693,-30726.205495143597,-16953.485244928033
-18178.20437886767,-19516.492726384728,-30734.18506791414,-16960.079009542347
-18172.16940786474,-19488.396583604408,-30735.928503981653,-16955.720419373563
-18175.45511429967,-19494.498609840703,-30728.15009691121,-16946.6009076358
-18173.13053287632,-19476.371345087453,-30720.25993111848,-16941.236488966526
-18163.5863379939,-19462.91559492536,-30720.774021240955,-16943.270497711957
-18169.64366074129,-19498.14194418692,-30736.64375980422,-16958.626146152754
-18189.380251095325,-19536.00579929421,-30743.03635871844,-16965.622242167265
-18193.40356509728,-19524.114671243988,-30740.93529473964,-16957.866186841275
-18189.62612028433,-19505.76388904618,-30740.13063193925,-16955.58630890683
-18190.40843134027,-19512.22354319376,-30733.73803302503,-16952.859396083284
-18176.55034977798,-19495.035051707637,-30735.257951647996,-16957.50855892999
-18174.583396265916,-19504.1545634454,-30734.073309191863,-16963.364715977277
-18182.18298938072,-19514.97280776177,-30726.138439910228,-16960.526044431455
-18176.46094280016,-19492.933987728837,-30722.96449219757,-16960.146064775716
-18174.292823587995,-19495.415031363373,-30727.74776551101,-16964.236434011036
-18177.913806189757,-19515.129269972957,-30736.68846329313,-16978.385088251245
-18177.243253856093,-19524.33818868854,-30739.102451694307,-16983.771858664975
-18173.465809043148,-19509.496630370217,-30733.760384769488,-16974.048849826915
-18177.623233511837,-19516.984464762743,-30736.21907665957,-16970.941957347626
-18201.45019310119,-19540.610258652003,-30745.24918141952,-16972.59598643732
-18208.78156528253,-19550.9144128459,-30755.910963524697,-16979.30150977391
-18187.81562898345,-19566.56063396461,-30758.99550425953,-16978.921530118172
-18192.04010868551,-19557.30701176012,-30749.00427448801,-16967.477436957055
-18164.793332194487,-19477.310118354573,-30735.45911734809,-16952.993506550018
-18142.77686390601,-19456.880623922425,-30731.07817543485,-16944.432788423634
-18152.92455588872,-19496.778487775147,-30739.683597050145,-16953.01585829447
-18174.851617199376,-19518.14675547442,-30750.6583035777,-16960.97307932056
-18175.34335557739,-19500.04184246562,-30743.259876162992,-16955.295736228913
-18168.704887474167,-19501.13707794393,-30733.00042545801,-16952.76998910546
-18171.61061425336,-19529.322627702077,-30735.05678594789,-16959.631974653243
-18174.78456196601,-19530.44021492484,-30740.912942995183,-16967.477436957055
-18177.377364322827,-19522.035959009645,-30742.09758545132,-16969.60085268031
-18183.72525974813,-19529.30027595762,-30732.531038824447,-16960.77191362046
-18179.791352724,-19536.72105511678,-30727.45719283309,-16957.195634507614
-18167.31907931794,-19528.1603369904,-30724.149134653704,-16957.5532624189
-18158.758361191554,-19516.13509847344,-30733.55921906939,-16963.476474699553
-18160.322983303427,-19503.081679711544,-30741.4046813732,-16967.61154742379
-18175.298652088484,-19507.417918135878,-30736.71081503759,-16960.302526986903
-18176.080963144417,-19509.451926881306,-30730.005291701,-16950.601869893297
-18155.740875690088,-19494.163333673878,-30726.451364332603,-16948.07612276985
-18154.35506753386,-19518.48203164125,-30728.64183528922,-16951.87591932725
-18157.21609082414,-19517.52090662967,-30731.614617301777,-16953.686410628132
-18151.53874773249,-19494.498609840703,-30728.26185563348,-16945.63978262422
-18153.103369844364,-19505.272150668163,-30718.31532935087,-16937.839023809316
-18160.72531470362,-19519.644322352928,-30724.059727675885,-16944.276326212446
-18171.45415204217,-19554.35658149202,-30736.934332482146,-16956.05569554039
-18170.56008226396,-19534.552935904616,-30736.10731793729,-16956.3015647294
-18175.16454162175,-19502.0534994666,-30721.623387530257,-16941.169433733157
-18172.012945653554,-19509.96601700378,-30711.05101240289,-16928.205421949082
-18152.87985239981,-19486.63079579244,-30708.30174783489,-16924.62914283623
-18140.38522724929,-19484.149752157897,-30712.23565485903,-16928.987733005015
-18148.767131420034,-19510.61421759298,-30714.001442671,-16930.64176209471
-18164.30159381647,-19510.16718270388,-30706.781829211934,-16922.192802690603
-18151.87402389932,-19485.51320856967,-30698.8469599303,-16915.040244464904
-18152.902204144262,-19493.89511274041,-30701.372707053742,-16920.762291045463
-18148.07422734192,-19479.47823756674,-30702.8479221878,-16922.125747457238
-18139.04412258197,-19462.312097825063,-30703.45141928809,-16918.236543922012
-18143.961506362142,-19470.76105722917,-30698.17640759664,-16912.6933112971
-18136.518375458523,-19480.12643815594,-30694.018983127957,-16907.06067169436
-18140.698151671662,-19506.81442103558,-30698.735201208023,-16913.609732819765
-18136.92070685872,-19477.10895265448,-30706.781829211934,-16919.465889867057
-18132.58446843439,-19463.653202492384,-30710.98395716953,-16925.567916103355
-18146.867233141333,-19486.18376090333,-30710.78279146943,-16925.657323081174
-18150.242346554085,-19500.1536011879,-30702.73616346552,-16918.169488688647
-18157.32784954641,-19516.58213336255,-30701.573872753845,-16918.169488688647
-18150.331753531904,-19486.72020277026,-30706.871236189752,-16922.77394804644
-18142.48629122809,-19467.85533044998,-30711.498047292003,-16928.406587649177
-18143.626230195317,-19458.13232161192,-30710.13459088023,-16921.745767801498
-18147.40367500826,-19477.66774626586,-30704.83722744432,-16913.699139797587
-18151.7846169215,-19499.48304885424,-30705.060744888877,-16908.737052528508
-18153.125721588814,-19502.36642388897,-30713.97909092654,-16910.972226974038
-18157.12668384632,-19477.57833928804,-30721.89160846372,-16916.001369476482
-18147.560137219447,-19456.23242333322,-30701.104486120283,-16899.706947768565
-18139.02177083752,-19478.0477259216,-30691.426180771137,-16892.554389542867
-18133.567945190425,-19470.62694676244,-30694.89070116171,-16899.684596024108
-18129.63403816629,-19460.099275123983,-30696.880006418232,-16906.54658157189
-18135.646657424768,-19467.98944091671,-30700.07630587534,-16915.4425758651
-18135.959581847143,-19477.86891196596,-30690.01802087045,-16909.988750218006
-18139.714674915635,-19491.704641783792,-30680.71969517705,-16904.758442015464
-18124.493136941568,-19468.61528976146,-30679.825625398837,-16900.91394196915
-18112.26673272452,-19465.48604553772,-30684.944174879096,-16906.256008893968
-18116.06652928192,-19466.693039738304,-30689.638041214712,-16914.861430509263
-18127.39886372076,-19459.38401930142,-30693.996631383496,-16914.883782253717
-18132.58446843439,-19464.72608622624,-30691.917919149157,-16912.53684908591
-18138.194756292676,-19475.83490322052,-30698.914015163664,-16915.800203776384
-18149.102407586863,-19497.113763941976,-30710.6486810027,-16926.596096348298
-18143.73798891759,-19525.03109276665,-30719.58937878482,-16938.241355209513
-18146.30843952995,-19529.948476546822,-30717.197742128104,-16937.056712753383
-18140.38522724929,-19461.149807113383,-30709.32992807984,-16926.01495099246
-18127.622381165314,-19446.017676117142,-30705.440724544613,-16919.957628245073
-18123.375549718803,-19461.75330421368,-30712.325061836847,-16924.45032888059
-18114.77012810351,-19461.03804839111,-30718.717660751063,-16928.67480858264
-18143.670933684225,-19514.637531594937,-30718.427088073146,-16930.328837672336
-18154.60093672287,-19528.585020135048,-30711.31923333636,-16924.78560504742
-18133.612648679336,-19448.23049881822,-30703.071439632356,-16915.48727935401
-18122.280314240492,-19452.969068642746,-30705.46307628907,-16919.130613700225
-18116.53591591548,-19473.48797005272,-30713.21913161506,-16926.841965537307
-18121.810927606934,-19458.2440803342,-30710.93925368062,-16918.81768927785
-18136.630134180803,-19470.872815951447,-30706.133628622727,-16909.96639847355
-18140.58639294939,-19495.347976130008,-30704.300785577398,-16912.827421763828
-18121.945038073663,-19472.862121207967,-30702.40088729869,-16910.793413018397
-18130.10342479985,-19468.63764150592,-30712.36976532576,-16919.06355846686
-18122.03444505149,-19468.61528976146,-30710.00048041349,-16921.745767801498
-18117.63115139379,-19454.22076633224,-30693.571948238845,-16908.468831595044
-18120.760395617534,-19460.456903035272,-30700.389230297715,-16911.128689185225
-18118.234648494083,-19465.55310077108,-30702.69145997661,-16913.699139797587
-18107.237590222077,-19448.878699407425,-30702.40088729869,-16914.14617468669
-18116.78178510449,-19462.200339102787,-30697.97524189654,-16908.558238572867
-18130.863384111333,-19478.76298174417,-30695.002459883985,-16901.808011747362
-18136.27250626952,-19475.454923564783,-30694.73423895052,-16898.634064034708
-18128.67291315471,-19456.366533799952,-30697.192930840607,-16894.34252909929
-18135.579602191403,-19474.203225875288,-30711.72156473656,-16898.231732634515
-18148.92359363122,-19473.063286908065,-30715.186085127127,-16896.44359307809
-18154.198605322672,-19459.093446623498,-30706.088925133816,-16888.10639239626
-18137.30068651446,-19465.70956298227,-30700.098657619797,-16892.174409887124
-18126.01305556453,-19461.060400135568,-30708.12293387925,-16902.25504663647
-18132.897392856765,-19466.73774322721,-30718.22592237305,-16913.49797409749
-18150.845843654377,-19488.97772896025,-30714.06849790436,-16909.96639847355
-18155.31619254544,-19486.295519625608,-30698.69049771911,-16898.92463671263
-18145.12379707382,-19480.1487899004,-30691.672049960143,-16896.10831691126
-18142.285125527997,-19493.15750517339,-30696.16475059566,-16902.076232680825
-18141.167538305228,-19488.128362670945,-30698.46698027456,-16905.384290860213
-18141.189890049685,-19462.245042591698,-30694.220148828048,-16900.377500102222
-18140.519337716025,-19462.177987358333,-30688.78867492541,-16895.77304074443
-18136.22780278061,-19450.71154245276,-30691.26971855995,-16900.265741379946
-18119.64280839477,-19441.100292336974,-30689.50393074798,-16903.81966874834
-18110.97033154611,-19451.449150019784,-30702.490294276515,-16909.295846139892
-18122.660293896235,-19471.85629270748,-30705.083096633327,-16906.34541587179
-18135.646657424768,-19479.23236837773,-30699.763381452965,-16897.71764251204
-18132.718578901124,-19481.57930154554,-30697.25998607397,-16894.901322710673
-18105.360043687822,-19433.90303062237,-30701.417410542657,-16896.600055289276
-18083.835313777367,-19413.04885304557,-30704.300785577398,-16899.684596024108
-18098.229837206585,-19435.914687623343,-30708.972300168552,-16902.76913675894
-18116.737081615574,-19447.26937380664,-30703.876102432743,-16904.24435189299
-18126.25892475354,-19454.824263432536,-30703.8984541772,-16908.44647985059
-18128.807023621444,-19459.406371045872,-30709.776962968943,-16909.899343240184
-18131.9809713341,-19476.46075206527,-30718.248274117504,-16917.230715421523
-18145.861404640844,-19489.894150482916,-30715.141381638216,-16917.275418910434
-18154.69034370069,-19493.604540062493,-30708.346451323803,-16911.68748279661
-18145.23555579609,-19502.209961677785,-30707.295919334403,-16907.552410072378
-18139.938192360187,-19498.767793031668,-30714.8508089603,-16903.998482703984
-18134.976105091107,-19469.91169093987,-30720.86342821877,-16906.3901193607
-18154.176253578215,-19454.26546982115,-30729.22298064506,-16907.798279261384
-18172.281166587018,-19462.51326352516,-30715.23078861604,-16900.19868614658
-18152.097541343875,-19458.400542545383,-30700.03160238643,-16896.15302040017
-18136.563078947434,-19454.064304121053,-30700.94802390909,-16898.567008801343
-18141.949849361165,-19472.303327596583,-30708.36880306826,-16906.568933316343
-18153.460997755647,-19495.68325229684,-30710.08988739132,-16905.29488388239
-18158.51249200255,-19474.829074720037,-30708.480561790537,-16900.176334402124
-18140.340523760384,-19430.61732418744,-30707.07240188985,-16895.169543644137
-18124.15786077474,-19439.625077202927,-30704.07726813284,-16884.932444683607
-18125.29779974196,-19458.646411734397,-30713.688518248626,-16893.470811065534
-18127.80119512096,-19436.7864056571,-30713.88968394872,-16892.889665709696
-18126.325979986905,-19427.398672985877,-30703.18319835463,-16875.589415501287
-18124.58254391939,-19437.8369376465,-30707.94411992361,-16876.595244001775
-18134.372607990816,-19482.652185279392,-30712.436820559124,-16884.73127898351
-18139.669971426723,-19466.55892927157,-30715.588416527324,-16895.4377645776
-18147.82835815291,-19446.84469066199,-30716.70600375009,-16895.974206444527
-18141.659276683247,-19449.95158314128,-30710.78279146943,-16893.38140408771
-18132.226840523104,-19469.263490350662,-30706.334794322825,-16896.041261677892
-18121.31918922892,-19455.22659483273,-30708.480561790537,-16898.835229734806
-18127.331808487397,-19438.127510324422,-30717.868294461765,-16905.652511793676
-18138.462977226136,-19442.687266193305,-30721.064593918876,-16908.222962406035
-18136.71954115862,-19447.55994648456,-30715.096678149308,-16901.919770469638
-18146.57666046341,-19456.835920433517,-30718.762364239978,-16911.575724074333
-18143.626230195317,-19476.974842187745,-30718.494143306518,-16918.3930061332
-18123.666122396724,-19490.028260949643,-30715.87898920524,-16919.510593355964
-18121.54270667347,-19459.406371045872,-30709.709907735574,-16913.945008986593
-18132.94209634568,-19466.670687993847,-30703.339660565816,-16910.704006040574
-18132.718578901124,-19477.89126371041,-30704.9489861666,-16915.666093309654
-18115.239514737077,-19432.65133293287,-30704.390192555213,-16916.716625299054
-18106.7235000996,-19422.704806650258,-30709.03935540192,-16923.15392770218
-18122.03444505149,-19450.666838963847,-30716.191913627616,-16924.919715514152
-18129.566982932924,-19492.95633947329,-30712.61563451477,-16918.080081710825
-18115.999474048556,-19468.23531010572,-30706.67007048965,-16905.697215282587
-18102.7225378421,-19420.447280460277,-30702.31148032087,-16899.841058235295
-18102.543723886454,-19446.84469066199,-30706.69242223411,-16905.071366437838
-18100.95675003013,-19473.443266563805,-30712.77209672596,-16909.25114265098
-18105.6729681102,-19463.094408881,-30708.100582134797,-16901.20451464707
-18098.989796518064,-19447.20231857328,-30700.657451231174,-16890.699194753077
-18100.53206688548,-19452.36557154245,-30707.854712945787,-16896.465944822543
-18101.71670934161,-19454.779559943625,-30707.98882341252,-16896.86827622274
-18101.269674452506,-19433.56775445554,-30709.10641063528,-16896.01890993344
-18116.133584515286,-19442.70961793776,-30700.188064597616,-16894.63310177721
-18108.623398378302,-19455.65127797738,-30695.36008779527,-16894.5883982883
-18114.211334492127,-19496.398508119408,-30697.97524189654,-16903.037357692403
-18124.604895663848,-19516.91740952938,-30699.11518086376,-16908.558238572867
-18117.742910116067,-19462.870891436447,-30701.149189609197,-16908.11120368376
-18115.39597694826,-19405.60572214195,-30692.230843571528,-16897.87410472323
-18109.852744323343,-19402.69999536276,-30690.867387159757,-16891.660319764655
-18105.516505899013,-19437.009923101657,-30697.751724451988,-16896.62240703373
-18102.856648308836,-19446.0400278616,-30703.16084661017,-16900.712776269054
-18098.520409884502,-19427.041045074588,-30698.802256441388,-16897.11414541175
-18112.646712380258,-19429.924420109324,-30690.241538315004,-16890.47567730852
-18119.48634618358,-19448.923402896333,-30690.93444239312,-16889.134572641204
-18127.9800090766,-19470.559891529072,-30703.004384398984,-16900.10927916876
-18136.764244647533,-19479.58999628901,-30707.87706469024,-16905.87602923823
-18131.33277074489,-19455.20424308828,-30703.56317801037,-16904.646683293187
-18125.230744508597,-19422.570696183528,-30694.466018017058,-16893.716680254543
-18126.795366620467,-19446.84469066199,-30697.237634329515,-16897.985863445505
-18109.361005945328,-19454.824263432536,-30694.30955580587,-16897.62823553422
-18098.810982562423,-19435.19943180077,-30693.773113938943,-16901.20451464707
-18108.131660000287,-19458.08761812301,-30695.494198262,-16916.738977043507
-18120.805099106445,-19472.258624107675,-30695.11421860626,-16921.49989861249
-18102.476668653093,-19435.31119052305,-30683.71482893405,-16915.062596209358
-18096.531104627986,-19432.47251897723,-30681.949041122087,-16914.05676770887
-18099.01214826252,-19445.88356565041,-30689.146302836696,-16920.516421856453
-18102.275502952994,-19441.256754548165,-30697.304689562883,-16927.467814382057
-18111.21620073512,-19422.727158394715,-30693.571948238845,-16920.96345674556
-18131.802157378454,-19445.727103439225,-30695.60595698428,-16921.946933501593
-18123.621418907813,-19457.03708613361,-30697.97524189654,-16928.495994627
-18098.028671506487,-19434.685341678305,-30691.71675344905,-16926.73020681503
-18106.79055533297,-19437.36755101294,-30696.321212806848,-16934.888593541218
-18129.701093399657,-19449.973934885733,-30695.06951511735,-16931.468776639555
-18130.30459049995,-19442.486100493206,-30688.98984062551,-16927.579573104333
-18115.73125311509,-19440.34033302549,-30688.47575050304,-16930.865279539263
-18111.842049579867,-19470.246967106697,-30692.476712760537,-16939.537756387923
-18120.134546772784,-19494.92329298536,-30696.58943374031,-16946.57855589134
-18113.451375180648,-19465.32958332653,-30695.36008779527,-16941.705875600084
-18109.89744781225,-19430.17028929833,-30687.31345979136,-16935.69325634161
-18100.375604674293,-19404.91281806384,-30686.821721413344,-16935.11211098577
-18094.877075538287,-19430.28204802061,-30695.471846517547,-16940.185956977126
-18104.644787865254,-19460.456903035272,-30699.919843664156,-16945.058637268383
-18109.182191989683,-19445.66004820586,-30690.66622145965,-16936.78849181992
-18101.649654108245,-19405.11398376393,-30683.71482893405,-16924.226811436034
-18094.58650286037,-19405.762184353134,-30688.20752956957,-16925.545564358898
-18092.753659815036,-19406.857419831445,-30690.196834826093,-16929.5465266164
-18101.40378491924,-19424.582353184505,-30692.387305782715,-16931.35701791728
-18125.230744508597,-19443.044894104587,-30693.84016917231,-16934.64272435221
-18124.20256426365,-19422.36953048343,-30688.47575050304,-16927.11018647077
-18122.14620377376,-19422.682454905804,-30689.392172025706,-16930.5970586058
-18123.48730844108,-19446.35295228397,-30699.71867796405,-16943.650477367697
-18116.06652928192,-19444.43070226082,-30702.11031462077,-16941.035323266427
-18123.82258460791,-19452.164405842355,-30702.55734950988,-16933.25691619598
-18125.00722706404,-19452.65614422037,-30697.25998607397,-16929.993561505504
-18114.34544495886,-19409.40551869935,-30696.567081995858,-16929.12184347175
-18120.15689851724,-19419.396748470877,-30704.054916388384,-16939.537756387923
-18139.245288282076,-19477.824208477046,-30712.5485792814,-16952.658230383186
-18149.08005584241,-19484.28386262463,-30713.17442812615,-16953.64170713922
-18116.53591591548,-19427.398672985877,-30694.86834941725,-16934.776834818942
-18105.382395432283,-19417.69801589227,-30691.180311582128,-16929.188898705113
-18105.44945066565,-19410.27723673311,-30694.577776739334,-16930.01591324996
-18105.96354078812,-19434.864155633943,-30699.092829119305,-16933.323971429345
-18125.946000331165,-19467.22948160523,-30690.30859354837,-16932.094625484304
-18105.71767159911,-19399.570751139017,-30672.44954972858,-16918.527116599933
-18086.65163357873,-19367.38423912337,-30668.44858747108,-16915.15200318718
-18092.261921437017,-19398.16259123833,-30677.54574746439,-16921.231677679025
-18112.803174591445,-19420.76020488265,-30686.285279546417,-16935.82736680834
-18125.00722706404,-19419.84378335998,-30686.35233477978,-16937.30258194239
-18121.8779828403,-19402.610588384938,-30685.05593360137,-16933.167509218158
-18129.90225909976,-19421.453108960763,-30686.88877664671,-16937.39198892021
-18138.39592199277,-19443.00019061568,-30693.661355216667,-16940.700047099595
-18142.37453250581,-19455.51716751065,-30697.25998607397,-16941.325895944345
-18132.003323078552,-19458.13232161192,-30693.996631383496,-16937.459044153577
-18121.09567178436,-19427.733949152705,-30688.431047014124,-16924.047997480393
-18119.374587461305,-19425.766995640635,-30689.66039295917,-16924.763253302965
-18121.63211365129,-19434.43947248929,-30689.77215168144,-16927.646628337698
-18124.44843345266,-19445.771806928136,-30694.10839010577,-16933.949820274094
-18138.35121850386,-19441.74849292618,-30694.398962783693,-16930.328837672336
-18136.92070685872,-19452.969068642746,-30688.58750922531,-16927.53486961542
-18129.857555610844,-19439.781539414114,-30687.581680724823,-16930.507651627977
-18128.471747454616,-19431.95842885476,-30688.65456445868,-16931.178203961637
-18133.81381437943,-19463.13911236991,-30688.49810224749,-16932.094625484304
-18121.29683748446,-19423.64357991738,-30681.479654488525,-16923.846831780294
-18119.419290950216,-19425.31996075153,-30683.558366722868,-16922.55043060189
-18127.06358755393,-19425.99051308519,-30689.5933377258,-16922.505727112977
-18114.7254246146,-19399.391937183373,-30680.518529476947,-16912.67095955264
-18110.43388967918,-19394.83218131449,-30684.63125045672,-16917.543639843898
-18126.43773870918,-19422.928324094813,-30685.63707895721,-16912.402738619177
-18131.422177722718,-19448.90105115188,-30678.998610853985,-16908.066500194847
-18109.517468156515,-19419.0838240485,-30675.86936663024,-16905.026662948927
-18104.66713960971,-19403.661120374338,-30682.329020777823,-16909.497011839987
-18113.138450758277,-19432.02548408812,-30688.65456445868,-16913.945008986593
-18123.48730844108,-19436.56288821255,-30684.050105100883,-16906.211305405057
-18126.504793942546,-19422.257771761157,-30676.47286373053,-16904.222000148537
-18131.913916100733,-19442.150824326374,-30681.50200623298,-16910.279322895924
-18144.565003462438,-19483.9485864578,-30688.67691620313,-16918.616523577755
-18143.805044150955,-19465.240176348707,-30694.8459976728,-16922.416320135155
-18155.49500650108,-19452.767902942647,-30689.816855170357,-16913.430918864124
-18178.58435852341,-19511.57534260456,-30685.7935411684,-16914.10147119778
-18147.895413386275,-19462.42385654734,-30680.98791611051,-16910.77106127394
-18099.325072684893,-19388.50663763364,-30677.03165734192,-16911.709834541063
-18100.755584330032,-19394.921588292316,-30682.97722136703,-16919.48824161151
-18117.519392671515,-19422.704806650258,-30684.85476790128,-16922.237506179514
-18129.410520721736,-19441.256754548165,-30686.59820396879,-16923.06452072436
-18124.604895663848,-19439.759187669657,-30688.60986096977,-16922.21515443506
-18113.92076181421,-19451.80677793107,-30694.577776739334,-16926.283171925923
-18116.33475021538,-19453.90784190987,-30702.244425087505,-16932.92164002915
-18124.671950897213,-19452.36557154245,-30704.010212899477,-16927.11018647077
-18115.999474048556,-19460.52395826864,-30693.32607904984,-16912.2909798969
-18123.464956696625,-19460.211033846263,-30693.68370696112,-16912.805070019374
-18126.34833173136,-19445.213013316752,-30698.31051806337,-16914.68261655362
-18130.706921900142,-19453.75137969868,-30703.16084661017,-16922.416320135155
-18128.58350617689,-19468.011792661167,-30700.27747157544,-16922.863355024263
-18128.58350617689,-19475.61138577597,-30695.94123315111,-16920.382311389723
-18121.92268632921,-19451.918536653346,-30699.11518086376,-16919.555296844876
-18112.780822846988,-19432.360760254956,-30698.109352363277,-16926.551392859386
-18119.911029328232,-19467.14007462741,-30705.3960210557,-16936.78849181992
-18118.569924660915,-19443.55898422706,-30703.272605332448,-16927.467814382057
-18117.184116504683,-19406.768012853627,-30692.45436101608,-16913.72149154204
-18114.233686236585,-19420.00024557117,-30692.901395905188,-16912.20157291908
-18094.76531681601,-19415.84282110248,-30692.677878460632,-16911.799241518886
-18102.45431690864,-19428.918591608835,-30700.791561697908,-16918.750634044485
-18134.663180668733,-19459.89810942389,-30703.071439632356,-16917.63304682172
-18132.293895756477,-19453.32669655403,-30693.46018951657,-16909.295846139892
-18100.53206688548,-19423.978856084213,-30688.721619692045,-16904.467869337543
-18091.278444680986,-19429.32092300903,-30691.82851217133,-16902.67972978112
-18104.19775297615,-19443.670742949336,-30706.111276878277,-16913.699139797587
-18110.523296657004,-19443.89426039389,-30701.61857624276,-16910.77106127394
-18109.58452338988,-19432.986609099706,-30690.330945292822,-16901.182162902613
-18094.787668560468,-19424.828222373515,-30689.25806155897,-16895.01308143295
-18099.88386629628,-19465.32958332653,-30698.131704107727,-16904.356110615267
-18112.467898424613,-19488.128362670945,-30706.424201300648,-16915.129651442727
-18116.737081615574,-19423.934152595302,-30703.54082626591,-16910.34637812929
-18119.93338107269,-19413.09355653448,-30701.97620415404,-16903.149116414683
-18125.99070382008,-19464.815493204056,-30709.73225948003,-16909.429956606622
-18104.376566931795,-19429.835013131506,-30712.66033800368,-16918.25889566647
-18089.84793303584,-19425.25290551817,-30719.05293691789,-16926.171413203647
-18101.649654108245,-19459.18285360132,-30718.471791562057,-16921.92458175714
-18099.01214826252,-19448.833995918518,-30708.30174783489,-16907.10537518327
-18095.905255783236,-19434.14889981138,-30711.20747461408,-16905.004311204473
-18096.01701450551,-19444.60951621646,-30722.94214045312,-16914.68261655362
-18095.458220894125,-19434.104196322467,-30727.05486143289,-16919.86822126725
-18117.76526186052,-19455.04778087709,-30728.66418703368,-16924.38327364722
-18129.99166607757,-19441.48027199272,-30721.64573927471,-16919.197668933593
-18115.88771532628,-19444.497757494184,-30725.490239321025,-16920.583477089822
-18112.579657146893,-19472.19156887431,-30735.43676560364,-16930.418244650155
-18111.663235624223,-19484.596787047005,-30741.628198817754,-16939.180128476637
-18123.219087507616,-19482.0486881791,-30744.332759896846,-16937.280230197935
-18131.913916100733,-19491.928159228344,-30740.28709415044,-16930.082968483326
-18127.197698020664,-19484.48502832473,-30735.28030339245,-16927.66898008215
-18121.98974156257,-19469.08467639502,-30740.018873216974,-16929.077139982837
-18100.017976763007,-19444.028370860626,-30746.456175620104,-16925.25499168098
-18113.943113558664,-19474.270281108653,-30749.026626232466,-16924.651494580685
-18120.559229917435,-19479.70175501129,-30740.667073806177,-16918.527116599933
-18094.25122669354,-19425.588181684994,-30734.11801268077,-16911.151040929682
-18085.735212056068,-19428.762129397648,-30736.42024235967,-16909.787584517908
-18089.42324989119,-19449.43749301881,-30743.125765696263,-16908.133555428216
-18109.13748850077,-19473.644432263904,-30745.89738200872,-16905.11606992675
-18129.16465153273,-19490.654109794392,-30739.683597050145,-16899.237561135003
-18117.40763394924,-19471.56572002956,-30736.330835381847,-16896.980034945016
-18116.424157193203,-19471.118685140453,-30742.522268595967,-16904.512572826454
-18114.97129380361,-19468.07884789453,-30748.691350065637,-16904.87020073774
-18122.637942151778,-19484.64149053592,-30743.170469185174,-16896.644758778188
-18122.883811340787,-19493.15750517339,-30730.36291961228,-16884.753630727962
-18112.780822846988,-19449.37043778544,-30727.300730621904,-16868.995650886973
-18102.25315120854,-19430.192641042788,-30728.619483544768,-16860.09965659376
-18110.657407123734,-19444.318943538543,-30739.84005926133,-16867.967470642026
-18133.8808696128,-19473.33150784153,-30736.26378014848,-16868.883892164697
-18131.243363767077,-19464.390810059405,-30726.98780619953,-16863.050086861862
-18109.562171645422,-19449.459844763263,-30720.706966007587,-16859.742028682474
-18097.715747084112,-19445.23536506121,-30725.89257072122,-16867.408677030646
-18089.646767335747,-19442.821376660035,-30728.306559122397,-16869.755610198452
-18110.59035189037,-19472.75036248569,-30734.81091675889,-16881.758496970953
-18123.39790146326,-19461.37332455794,-30729.89353297872,-16895.460116322054
-18120.559229917435,-19446.8893941509,-30722.562160797377,-16903.26087513696
-18114.792479847965,-19457.55117625608,-30724.19383814261,-16911.709834541063
-18103.326034942394,-19445.03419936111,-30723.07625091985,-16906.77009901644
-18101.60495061933,-19448.677533707327,-30719.36586134027,-16902.3891571032
-18106.85761056633,-19460.076923379533,-30715.23078861604,-16895.48246806651
-18102.543723886454,-19448.118740095942,-30711.65450950319,-16892.062651164848
-18103.281331453483,-19438.61924870244,-30715.342547338318,-16898.231732634515
-18106.05294776594,-19469.732876984224,-30724.395003842717,-16904.66903503764
-18125.58837241988,-19485.222635891758,-30734.36388186978,-16910.547543829387
-18134.43966322418,-19447.984629629213,-30724.752631754,-16902.098584425283
-18122.213259007127,-19424.962332840245,-30717.488314806025,-16893.873142465727
-18102.879000053286,-19442.307286537565,-30720.50580030749,-16897.67293902313
-18092.70895632612,-19448.409312773863,-30726.764288754977,-16905.7419187715
-18103.594255875854,-19434.95356261177,-30723.210361386584,-16903.350282114778
-18122.995570063063,-19435.713521923248,-30713.576759526342,-16892.755555242962
-18119.084014783384,-19438.932173124813,-30711.006308913984,-16890.29686335288
-18101.470840152604,-19450.42096977484,-30709.08405889083,-16887.05586040686
-18100.040328507464,-19455.070132621546,-30716.594245027813,-16894.00725293246
-18114.457203681137,-19449.459844763263,-30723.567989297862,-16896.756517500464
-18121.028616551,-19428.449204975277,-30723.41152708668,-16892.39792733168
-18107.43875592217,-19419.486155448696,-30714.51553279347,-16885.670052250633
-18094.117116226807,-19415.19462051328,-30710.93925368062,-16885.982976673007
-18082.985947488065,-19411.01484430013,-30714.02379441545,-16891.97324418703
-18084.66232832221,-19411.2830652336,-30712.77209672596,-16889.514552296943
-18105.62826462129,-19438.21691730224,-30706.535960022924,-16881.691441737585
-18106.29881695495,-19451.20328083077,-30704.85957918877,-16877.735182968998
-18082.65067132124,-19404.73400410819,-30708.748782724,-16878.29397658038
-18059.42720883217,-19359.404666352828,-30712.9509106816,-16881.19970335957
-18075.34165088435,-19386.31616667702,-30718.918826451165,-16884.127781883213
-18087.05396497893,-19406.54449540907,-30711.878026947743,-16878.986880658493
-18090.160857458217,-19422.861268861445,-30706.200683856096,-16877.265796335436
-18090.183209202674,-19417.87682984791,-30708.36880306826,-16879.299805080867
-18086.092839967358,-19414.65817864635,-30709.55344552439,-16882.183180115604
-18085.846970778344,-19411.908914078347,-30708.234692601527,-16884.016023160937
-18086.986909745563,-19398.16259123833,-30695.60595698428,-16871.454342777055
-18084.505866111027,-19399.481344161195,-30695.382439539724,-16873.153075355658
-18082.315395154405,-19409.45022218826,-30701.283300075927,-16875.76822945693
-18073.55351132793,-19430.70673116526,-30705.999518156,-16880.842075448283
-18069.440790348148,-19431.779614899115,-30708.212340857077,-16883.92661618312
-18067.63029904727,-19377.75544855064,-30697.863483174264,-16872.370764299725
-18066.937394969154,-19379.76710555161,-30692.76728543845,-16875.52236026792
-18071.653613049224,-19417.89918159237,-30693.86252091677,-16897.941159956594
-18058.44373207614,-19406.72330936472,-30692.722581949543,-16902.411508847657
-18042.596345257323,-19355.22489013969,-30687.31345979136,-16899.14815415718
-18049.36892382728,-19355.917794217803,-30677.299878275386,-16891.749726742473
-18045.457368547603,-19365.59609956695,-30672.9412881066,-16888.843999963286
-18039.400045800216,-19366.78074202308,-30668.62740142672,-16886.184142373102
-18036.784891698942,-19393.06639350252,-30672.49425321749,-16892.57674128732
-18037.500147521518,-19408.26557973213,-30678.10454107577,-16901.40568034717
-18045.747941225523,-19395.2792162036,-30675.44468348559,-16895.460116322054
-18085.824619033887,-19440.47444349223,-30680.585584710312,-16900.712776269054
-18085.48934286706,-19414.389957712887,-30687.827549913836,-16908.20061066158
-18039.645914989225,-19339.86924169889,-30682.59724171129,-16902.746785014486
-18039.936487667143,-19350.978058693177,-30684.966526623557,-16903.372633859235
-18060.209519888107,-19386.249111443653,-30681.054971343878,-16902.746785014486
-18055.359191341304,-19390.71946033472,-30678.01513409795,-16900.44455533559
-18045.39031331424,-19389.89244578987,-30679.91503237665,-16899.72929951302
-18031.42047302967,-19382.80694279753,-30678.08218933132,-16900.221037891035
-18033.70035096411,-19386.83025679949,-30681.72552367753,-16899.192857646092
-18032.31454280788,-19347.692352258247,-30678.193948053595,-16890.766249986442
-18038.684789977648,-19368.144198434853,-30671.55547995037,-16890.229808119515
-18028.85002241731,-19359.337611119463,-30666.12400604773,-16893.76138374345
-18031.129900351752,-19352.16270114931,-30670.86257587225,-16896.577703544823
-18047.849005204323,-19356.83421574047,-30677.009305597465,-16899.416375090645
-18062.377639100272,-19372.83806477047,-30670.996686338985,-16892.2861686094
-18050.933545939155,-19384.818599798517,-30659.932572833608,-16880.842075448283
-18039.802377200413,-19385.35504166544,-30662.123043790227,-16877.891645180185
-18040.987019656543,-19392.574655124507,-30668.940325849097,-16887.324081340324
-18048.47485404907,-19385.377393409897,-30674.26004102946,-16895.326005855324
-18063.94226121214,-19392.865227802424,-30674.72942766302,-16894.83426747731
-18054.129845396263,-19369.30648914653,-30666.16870953664,-16888.978110430016
-18045.18914761414,-19354.35317210593,-30672.36014275076,-16894.029604676914
-18042.14931036822,-19362.06452394301,-30677.25517478647,-16901.428032091622
-18042.79751095742,-19366.758390278625,-30684.45243650108,-16908.82645950633
-18059.918947210183,-19391.18884696828,-30689.97331738154,-16910.838116507308
-18053.548700040425,-19396.486210404182,-30681.92668937763,-16905.227828649025
-18044.38448481375,-19395.368623181417,-30677.232823042017,-16900.623369291232
-18054.17454888517,-19412.020672800623,-30685.279451045928,-16909.519363584444
-18070.62543280428,-19415.932228080303,-30694.17544533914,-16916.224886921034
-18057.32614485337,-19385.802076554548,-30684.40773301217,-16908.11120368376
-18054.28630760745,-19372.68160255928,-30682.485482989014,-16907.01596820545
-18067.987926958554,-19368.010087968123,-30682.485482989014,-16904.847848993286
-18051.80526397291,-19384.751544565148,-30687.55932898037,-16908.893514739695
-18039.46710103358,-19393.245207458163,-30687.13464583572,-16915.420224120644
-18049.30186859392,-19392.1276202354,-30678.57392770933,-16906.3901193607
-18049.10070289382,-19382.91870151981,-30673.656543929166,-16895.795392488886
-18042.14931036822,-19370.938166491767,-30672.56130845086,-16892.57674128732
-18042.19401385713,-19381.331727663484,-30675.6905526746,-16894.878970966216
-18045.03268540295,-19362.668021043304,-30681.72552367753,-16895.728337255518
-18052.498168051025,-19370.84875951395,-30676.674029430636,-16890.185104630604
-18050.95589768361,-19387.433753899782,-30672.628363684224,-16885.15596212816
-18038.394217299727,-19362.80213151004,-30669.141491549195,-16880.81972370383
-18039.645914989225,-19379.2753671736,-30670.951982850074,-16884.4854097945
-18042.23871734604,-19398.60962612744,-30677.344581764293,-16889.805124974864
-18050.397104072228,-19387.590216110973,-30677.188119553102,-16888.464020307543
-18046.17262437017,-19382.96340500872,-30669.365008993747,-16879.836246947794
-18049.726551738568,-19406.36568145343,-30675.35527650777,-16881.311462081845
-18043.646877246723,-19389.400707411853,-30682.66429694465,-16886.653529006664
-18027.911249150187,-19359.404666352828,-30682.6419452002,-16887.748764484975
-18040.47292953407,-19374.80501828253,-30678.97625910953,-16882.361994071245
-18042.439883046136,-19382.27050093061,-30668.090959559795,-16876.394078301677
-18024.938467137632,-19348.80993948101,-30668.090959559795,-16875.030621889906
-18021.56335372488,-19361.1704541648,-30678.93155562062,-16881.24440684848
-18030.99578988502,-19376.50375086114,-30686.75466617997,-16888.06168890735
-18060.745961755038,-19387.41140215533,-30684.87711964573,-16885.737107483998
-18073.642918305744,-19407.55032390956,-30679.71386667656,-16881.24440684848
-18031.37576954076,-19353.392047094352,-30675.556442207868,-16877.019927146426
-18024.67024620417,-19353.660268027816,-30675.109407318763,-16876.05880213485
-18041.456406290104,-19384.84095154297,-30684.340677778804,-16886.899398195674
-18044.876223191764,-19362.668021043304,-30681.144378321696,-16878.361031813747
-18029.542926495425,-19349.88282321487,-30670.6390584277,-16863.13949383968
-18031.50988000749,-19374.44739037125,-30668.247421770982,-16864.01121187344
-18044.116263880285,-19388.05960274453,-30674.438854985103,-16871.163770099138
-18036.829595187857,-19369.39589612435,-30677.63515444221,-16873.041316633382
-18055.22508087457,-19381.398782896853,-30679.579756209823,-16871.6331567327
-18053.548700040425,-19355.35900060642,-30672.427197984125,-16864.681764207096
-18041.635220245746,-19342.68556150026,-30666.77220663693,-16863.407714773144
-18033.52153700847,-19343.579631278477,-30661.5866019233,-16864.14532234017
-18027.17364158316,-19346.261840613108,-30664.31351474685,-16869.062706120338
-18038.61773474428,-19361.237509398165,-30667.956849093065,-16869.397982287166
-18051.648801761723,-19371.0722769585,-30664.157052535666,-16869.95677589855
-18038.23775508854,-19350.173395892787,-30665.36404673625,-16870.783790443398
-18033.163909097184,-19361.393971609352,-30672.69541891759,-16877.936348669096
-18045.882051692253,-19393.245207458163,-30685.50296849048,-16885.737107483998
-18047.357266826304,-19365.26082340012,-30680.853805643776,-16878.67395623612
-18046.552604025917,-19359.82934949748,-30666.30282000337,-16868.705078209052
-18036.896650421226,-19361.058695442523,-30665.095825802782,-16871.364935799236
-18035.5555457539,-19375.69908806075,-30669.00738108246,-16882.764325471442
-18033.253316075006,-19368.61358506841,-30668.761511893452,-16883.993671416483
-18044.585650513847,-19360.54460532005,-30669.92380260513,-16886.63117726221
-18049.50303429401,-19373.285099659577,-30668.180366537617,-16882.09377313778
-18071.184226415666,-19433.07601607752,-30675.936421863607,-16886.094735395283
-18068.09968568083,-19378.20248343974,-30686.620555713245,-16891.86148546475
-18049.011295916,-19341.992657422143,-30684.966526623557,-16890.140401141693
-18057.59436578684,-19359.4717215862,-30680.898509132687,-16878.741011469487
-18043.736284224546,-19344.22783186768,-30672.337791006303,-16867.609842730744
-18039.176528355663,-19337.902288186822,-30667.196889781582,-16866.112275852236
-18048.16192962669,-19351.805073238025,-30669.946154349585,-16874.42712478961
-18053.70516225161,-19356.700105273736,-30678.037485842407,-16883.323119082823
-18054.643935518736,-19360.9692884647,-30679.93738412111,-16886.050031906372
-18060.05305767692,-19360.276384386587,-30673.388322995703,-16876.081153879306
-18069.820770003887,-19386.472628888205,-30674.01417184045,-16873.510703266944
-18063.51757806749,-19384.751544565148,-30675.042352085395,-16878.29397658038
-18055.71681925259,-19372.949823492745,-30673.96946835154,-16877.62342424672
-18065.21631064609,-19369.440599613263,-30671.60018343928,-16872.14724685517
-18053.839272718345,-19364.769085022104,-30664.626439169224,-16868.43685727559
-18042.842214446333,-19387.187884710776,-30665.83343336981,-16875.209435845547
-18048.34074358234,-19398.006129027144,-30670.88492761671,-16882.63021500471
-18043.71393248009,-19352.16270114931,-30677.7916166534,-16890.00629067496
-18040.29411557843,-19319.707968200204,-30673.053046828874,-16885.312424339347
-18048.877185449262,-19331.55439276152,-30661.541898434392,-16874.49418002298
-18049.279516849463,-19357.59417505195,-30661.49719494548,-16876.237616090493
-18058.220214631583,-19388.88661728938,-30663.844128113287,-16883.47958129401
-18071.5642060714,-19409.718443121725,-30671.42136948364,-16892.800258731873
-18059.47191232108,-19376.59315783896,-30668.917974104643,-16888.218151118537
-18045.47972029206,-19331.0626543835,-30653.91995357513,-16867.743953197474
-18044.317429580384,-19338.59519226494,-30655.462223942548,-16869.934424154097
-18042.484586535047,-19372.346326392453,-30659.57494492232,-16880.05976439235
-18039.131824866752,-19366.78074202308,-30669.40971248266,-16885.15596212816
-18048.43015056016,-19373.08393395948,-30675.422331741134,-16885.491238294988
-18046.731417981555,-19361.21515765371,-30670.482596216512,-16879.232749847502
-18043.57982201336,-19366.78074202308,-30674.97529685203,-16880.99853765947
-18052.319354095383,-19375.87790201639,-30678.775093409437,-16886.050031906372
-18052.967554684587,-19373.530968848583,-30683.334849278315,-16891.30269185337
-18063.070543178383,-19417.00511181416,-30684.07245684534,-16896.734165756006
-18060.54479605493,-19405.27044597512,-30674.885889874207,-16885.982976673007
-18033.32037130837,-19309.94025587324,-30666.705151403567,-16872.303709066357
-18029.23000207305,-19321.652569967817,-30670.192023538595,-16875.969395157026
-18020.82574615785,-19321.87608741237,-30672.226032284027,-16881.467924293032
-18035.66730447618,-19335.957686419213,-30676.182291052617,-16884.306595838858
-18051.58174652836,-19360.008163453123,-30670.46024447206,-16878.80806670285
-18046.48554879255,-19359.87405298639,-30659.57494492232,-16872.57192999982
-18037.298981821416,-19370.468779858205,-30656.91508733214,-16874.695345723074
-18034.303848064406,-19381.75641080813,-30665.185232780605,-16884.77598247242
-18041.031723145454,-19354.844910483946,-30672.06957007284,-16883.591340016286
-18049.19010987164,-19356.54364306255,-30665.676971158624,-16876.4834852795
-18039.84708068932,-19337.18703236425,-30669.52147120493,-16876.617595746233
-18035.57789749836,-19330.615619494394,-30676.07053233034,-16884.95479642806
-18025.430205515648,-19343.065541156,-30679.579756209823,-16890.587436030797
-18038.260106833,-19350.843948226448,-30677.970430609043,-16886.877046451216
-18059.784836743456,-19362.623317554397,-30670.70611366107,-16877.444610291077
-18050.084179649853,-19355.60486979543,-30666.8392618703,-16876.259967834947
-18038.99771440002,-19355.62722153988,-30673.567136951347,-16882.361994071245
-18048.16192962669,-19393.625187113907,-30684.87711964573,-16890.90036045317
-18052.319354095383,-19391.702937090748,-30681.054971343878,-16886.988805173492
-18046.887880192746,-19378.60481483994,-30669.052084571373,-16875.120028867725
-18043.758635969,-19371.094628702955,-30661.00545656746,-16872.080191621804
-18040.56233651189,-19347.62529702488,-30661.83247111231,-16875.4329532901
-18031.733397452044,-19323.127785101868,-30664.134700791205,-16872.460171277544
-18021.13867058023,-19315.2599710536,-30660.58077342281,-16861.86544440573
-18036.539022509936,-19344.45134931223,-30653.741139619488,-16854.019982101916
-18045.61383075879,-19352.74384650515,-30653.5846774083,-16856.881005392195
-18038.43892078864,-19355.850738984434,-30649.31549421734,-16856.366915269722
-18037.6566097327,-19369.954689735736,-30655.8869070872,-16868.615671231233
-18034.884993420244,-19336.024741652574,-30653.227049497014,-16866.112275852236
-18024.33497003734,-19318.523325744078,-30647.236781982992,-16856.210453058535
-18019.79756591291,-19331.82261369498,-30650.25426748446,-16859.33969728228
-18017.71885367857,-19348.63112552537,-30650.030750039907,-16857.260985047935
-18017.22711530055,-19344.898384201337,-30655.708093131558,-16863.251252561957
-18030.258182317997,-19347.714704002705,-30658.010322810453,-16865.285261307392
-18041.34464756783,-19364.67967804428,-30653.763491363945,-16861.351354283255
-18037.790720199435,-19340.60684926592,-30651.32715121832,-16860.412581016135
-18041.411702801197,-19374.290928160062,-30655.21635475354,-16864.86057816274
-18033.655647475203,-19362.489207087663,-30666.79455838139,-16872.840150933283
-18034.728531209057,-19317.91982864378,-30662.72654089052,-16865.37466828521
-18036.583725998848,-19314.09768034192,-30656.11042453175,-16858.177406570605
-18020.98220836904,-19301.223075535665,-30655.41752045364,-16860.211415316036
-18011.058033830886,-19322.79250893504,-30657.384473965703,-16862.871272906217
-18015.886010633232,-19352.72149476069,-30663.64296241319,-16867.4310287751
-18030.23583057354,-19359.203500652733,-30669.87909911622,-16872.348412555268
-18029.8558509178,-19342.12676788888,-30665.07347405833,-16862.871272906217
-18021.697464191613,-19349.27932611457,-30660.714883889545,-16857.640964703674
-18011.9521036091,-19334.035436396058,-30657.026846054418,-16859.764380426932
-18000.08332730333,-19333.27547708457,-30661.273677500925,-16868.190988086582
-18011.438013486626,-19349.56989879249,-30667.57686943732,-16878.3833835582
-18037.90247892171,-19375.028535727088,-30663.91118334665,-16883.233712105004
-18027.79949042791,-19343.9149074453,-30658.41265421065,-16877.735182968998
-18016.154231566696,-19305.58166570445,-30660.089035044795,-16871.58845324379
-18031.71104570759,-19344.25018361213,-30669.87909911622,-16872.929557911106
-18039.71297022259,-19354.442579083752,-30671.376665994725,-16870.53792125439
-18030.124071851264,-19313.11420358589,-30658.993799566484,-16853.57294721281
-18041.635220245746,-19338.259916098108,-30659.73140713351,-16850.935441367084
-18052.587575028847,-19400.062489517037,-30667.57686943732,-16861.5301682389
-18027.28540030544,-19353.034419183063,-30663.955886835563,-16862.29012755038
-18020.82574615785,-19295.38927023283,-30664.045293813386,-16861.820740916817
-18039.131824866752,-19299.07730806796,-30651.57302040732,-16856.590432714278
-18022.27860954745,-19301.044261580024,-30650.611895395745,-16854.91405188013
-18011.99680709801,-19314.768232675586,-30651.14833726267,-16851.404828000646
-18012.33208326484,-19331.15206136132,-30658.27854374392,-16856.724543181008
-18022.122147336264,-19341.769139977598,-30662.480671701516,-16863.34065953978
-18029.27470556196,-19344.361942334406,-30655.43987219809,-16859.80908391584
-18033.074502119365,-19334.30365732952,-30648.68964537259,-16849.795502399862
-18039.780025455955,-19341.903250444324,-30653.003532052466,-16852.00832510094
-18042.864566190787,-19366.62427981189,-30663.12887229072,-16865.709944452043
-18059.58367104336,-19380.9740997522,-30672.002514839474,-16871.58845324379
-18055.917984952688,-19367.49599784565,-30663.575907179824,-16859.451456004557
-18051.60409827281,-19352.609736038416,-30655.283409986903,-16856.925708881106
-18053.43694131815,-19350.32985810397,-30660.15609027816,-16860.09965659376
-18040.24941208952,-19321.138479845344,-30665.60991592525,-16862.7818659284
-18053.593403529336,-19348.005276680626,-30672.96363985105,-16869.57679624281
-18073.6652700502,-19398.654329616347,-30674.6400206852,-16872.795447444376
-18053.928679696164,-19336.06944514149,-30666.235764770005,-16861.306650794348
-18039.601211500318,-19311.92956112976,-30663.173575779627,-16857.842130403773
-18039.601211500318,-19329.34157006044,-30668.40388398217,-16862.62540371721
-18045.256202847508,-19322.323122301477,-30672.67306717313,-16868.14628459767
-18041.21053710109,-19331.867317183893,-30660.44666295608,-16860.09965659376
-18045.882051692253,-19358.33178261897,-30658.79263386639,-16862.15601708365
-18034.99675214252,-19328.87218342688,-30656.982142565503,-16862.468941506024
-18040.09294987833,-19346.373599335384,-30662.72654089052,-16874.270662578423
-18044.42918830266,-19339.01987540959,-30666.682799659116,-16884.10543013876
-18037.790720199435,-19308.9567791172,-30656.155128020662,-16883.591340016286
-18031.91221140769,-19311.706043685204,-30646.566229649336,-16876.95287191306
-18027.151289838708,-19316.846944909925,-30649.67312212862,-16880.551502770366
-18021.47394674706,-19337.67877074227,-30658.52441293293,-16891.012119175448
-18035.689656220635,-19358.711762274717,-30665.54286069189,-16901.025700691425
-18059.069580920885,-19377.151951450345,-30669.00738108246,-16903.10441292577
-18044.138615624743,-19377.93426250628,-30660.983104823008,-16892.35322384277
-18028.6041532283,-19367.94303273476,-30658.45735769956,-16887.6370057627
-18001.960873837575,-19296.417450477773,-30658.59146816629,-16888.352261585267
-18002.810240126877,-19301.133668557843,-30665.74402639199,-16894.83426747731
-18026.61484797178,-19324.78181419156,-30663.62061066873,-16891.794430231384
-18049.57008952738,-19347.759407491616,-30662.055988556865,-16891.235636620004
-18033.588592241835,-19321.47375601217,-30661.698360645576,-16888.352261585267
-18019.819917657365,-19299.367880745875,-30660.938401334097,-16885.670052250633
-18041.635220245746,-19330.59326774994,-30667.666276415144,-16878.852770191763
-18061.796493744438,-19339.2657445986,-30667.97920083752,-16872.61663348873
-18050.598269772323,-19332.58257300646,-30662.45831995706,-16867.565139241833
-18032.694522463626,-19319.909133900303,-30653.852898341764,-16866.134627596693
-18027.464214261083,-19308.48739248364,-30652.668255885637,-16865.933461896595
-18027.33010379435,-19319.48445075565,-30653.11529077474,-16869.800313687363
-18041.76933071248,-19325.67588396977,-30648.130851761205,-16863.474770006513
-18052.18524362865,-19349.27932611457,-30641.179459235605,-16859.742028682474
-18046.28438309245,-19338.55048877603,-30640.24068596848,-16861.373706027713
-18041.456406290104,-19336.82940445297,-30646.8344505828,-16863.6312322177
-18028.291228805927,-19327.19580259273,-30651.707130874056,-16864.927633396106
-18046.44084530364,-19338.997523665133,-30653.182346008107,-16862.51364499493
-18043.62452550227,-19334.571878262985,-30649.11432851724,-16857.417447259122
-18028.291228805927,-19332.716683473194,-30647.102671516262,-16858.020944359418
-18015.550734466404,-19320.378520533865,-30647.50500291646,-16862.871272906217
-18019.596400212813,-19309.739090173138,-30652.422386696624,-16864.19002582908
-18033.20861258609,-19329.363921804896,-30651.39420645168,-16863.184197328592
-18028.1571183392,-19333.230773595664,-30639.234857467996,-16855.651659447154
-18029.297057306416,-19348.80993948101,-30643.32522670332,-16862.13366533919
-18028.961781139587,-19360.455198342228,-30647.43794768309,-16867.81100843084
-18027.1065863498,-19319.39504377783,-30649.851936084266,-16860.412581016135
-18021.742167680524,-19280.14538051431,-30646.298008715872,-16850.466054733522
-18036.784891698942,-19304.553485459503,-30633.53516263189,-16845.928650609094
-18019.685807190635,-19296.462153966684,-30626.896694528663,-16843.46995871901
-17992.03669929942,-19265.61674661836,-30629.40008990766,-16844.833415130786
-18007.213533784572,-19286.493275939614,-30634.429232410104,-16848.119121565716
-18035.19791784262,-19318.99271237764,-30632.551685875856,-16848.09676982126
-18040.361170811797,-19317.29397979903,-30626.94139801757,-16842.75470289644
-18044.943278425133,-19298.518514456573,-30624.61681659422,-16837.300877249345
-18015.03664434393,-19283.29697648251,-30623.58863634928,-16838.776092383396
-18005.35833899478,-19267.67310710825,-30622.314586915327,-16839.781920883885
-18002.676129660147,-19256.832511047425,-30614.11149670023,-16827.57786841129
-17999.949216836598,-19266.287298952026,-30602.466237839013,-16816.42434792809
-18000.865638359268,-19260.989935516114,-30596.43126683608,-16811.305798447826
-18002.6984814046,-19264.47680765114,-30593.88316796817,-16810.679949603076
-18008.062900073874,-19277.977261302145,-30587.110589398217,-16802.23099019897
-18013.717891421067,-19260.274679693543,-30569.296249067334,-16783.634338812153
-17996.283530745928,-19236.894754993293,-30548.777347657367,-16762.51194030189
-17986.359356207773,-19227.730539766617,-30535.634521917647,-16750.5537570183
-17973.8423793128,-19220.689740263195,-30519.764783354374,-16738.752035945898
-17963.560576863358,-19201.735460965094,-30510.62291987216,-16727.285591040327
-17975.5411118914,-19220.533278052008,-30487.46651261646,-16706.900800097086
-17965.996917008986,-19190.291367803977,-30466.03118968382,-16683.140895741093
-17932.5810590483,-19118.78813729145,-30445.55699176276,-16660.29741290777
-17926.300218856362,-19121.515050115,-30433.17412533452,-16652.898985493062
-17939.35363761826,-19156.048495298444,-30422.64645369607,-16651.513177336834
-17936.380855605705,-19142.860966069817,-30404.8768168541,-16635.174052140006
-17923.997989177464,-19126.14186121725,-30371.528014126783,-16597.511362732814
-17906.898904669157,-19098.515105070484,-30340.839068989644,-16568.8117228522
-17880.300328767342,-19056.806749916883,-30316.72153672237,-16545.94588827442
-17858.64148839015,-19032.845679860795,-30296.359097523586,-16529.80792877769
-17874.48887520896,-19023.65911288966,-30266.9442018204,-16508.41730933396
-17876.075849065288,-19015.321912207837,-30225.392308877985,-16473.68269845041
-17858.462674434504,-18987.337528149787,-30183.035753135176,-16433.36015145304
-17836.9602962685,-18975.222882655013,-30152.793842887146,-16403.900552260944
-17809.445298844017,-18933.067492612303,-30120.20499947131,-16366.215511109294
-17782.37733630864,-18857.63035507564,-30078.250775128698,-16316.70639714079
-17759.93618487551,-18817.464270289456,-30036.74358567519,-16268.091352950498
-17736.220984008432,-18810.91520916405,-30008.625091150418,-16241.537480537592
-17700.391137646573,-18804.72377594993,-29982.31708792652,-16219.364550037928
-17664.74010524036,-18780.829761127206,-29961.328799882987,-16198.912703861322
-17643.930631152467,-18734.248725682348,-29925.20838084321,-16164.312203444506
-17626.38451175505,-18697.83773396465,-29885.377572223853,-16128.080025682451
-17602.557552165694,-18678.212902332893,-29856.655580598785,-16102.733147470137
-17565.90069125899,-18625.35102669609,-29833.186248920712,-16079.308519280974
-17538.095121156588,-18626.647427874497,-29829.60996980786,-16070.36782149885
-17532.28366759821,-18642.628925160043,-29839.62355132384,-16073.340603511406
-17525.645199494982,-18650.183814785934,-29850.464147384664,-16079.532036725526
-17501.013577105234,-18648.149806040503,-29873.44174068472,-16100.073289879954
-17480.673489650904,-18659.21391954588,-29894.988822339637,-16119.161679644783
-17484.249768763755,-18674.4578092644,-29920.80508718552,-16138.987676976643
-17500.678300938405,-18675.68715520944,-29936.093680392943,-16146.877842769369
-17511.429490021408,-18683.53261751325,-29946.55429679803,-16152.644592838837
-17511.340083043586,-18676.5588732432,-29963.38516037288,-16165.586252878458
-17519.006731391757,-18711.80757424922,-29991.16837873082,-16193.458878214227
-17526.65102799547,-18780.382726238106,-30025.03127158061,-16229.06520713153
-17518.380882547008,-18755.05819977024,-30046.91362940236,-16249.986439941698
-17533.311847843153,-18737.95911526193,-30070.4500163138,-16270.594748329491
-17550.813263751657,-18773.65485115705,-30095.171045681363,-16298.55678064308
-17563.91138600247,-18827.20963087197,-30126.463487918794,-16330.60918219199
-17595.04736602871,-18860.379619643645,-30163.63443894797,-16363.846226197033
-17620.751872152316,-18880.898521053616,-30191.64117475047,-16390.131877676475
-17627.524450722274,-18896.52239042788,-30206.90741621345,-16408.884991274477
-17620.707168663404,-18886.55351240081,-30226.97928273431,-16424.084177504086
-17640.086131106156,-18918.538858716354,-30255.053073770177,-16450.146311538974
-17652.670163234492,-18934.16272809061,-30278.835329870624,-16478.01893687474
-17688.142381685066,-18961.342449348267,-30300.069487103166,-16498.202562117884
-17708.303655183754,-18976.76515302243,-30308.58550174064,-16507.79146048921
-17723.525193157817,-19026.184860013112,-30324.18701937044,-16527.03631246523
-17726.520326914826,-19023.27913323392,-30344.12477542457,-16547.08582724164
-17723.458137924452,-18998.17812421061,-30367.147072213545,-16568.6105571521
-17731.61652465064,-19023.703816378573,-30381.25102296484,-16581.641624169544
-17756.27049878484,-19051.82231090335,-30391.64458413656,-16588.928292861976
-17779.024574640345,-19090.982567189047,-30407.670784911013,-16606.027377370283
-17785.931263677034,-19082.64536650722,-30420.008947850343,-16616.48799377537
-17796.61539752667,-19090.133200899745,-30440.661959727047,-16634.14587189506
-17824.376264140163,-19122.051491981925,-30461.516137303846,-16650.708514536444
-17841.877680048667,-19144.626753881785,-30475.955364221976,-16659.358639640646
-17833.04874098882,-19138.88235555677,-30488.51704460586,-16675.429543904014
-17835.01569450089,-19137.720064845093,-30503.51506513537,-16692.908608068064
-17844.49283414994,-19157.14373077676,-30522.31288222228,-16708.376015231137
-17876.165256043107,-19190.31371954843,-30539.724891152968,-16723.955181116486
-17886.91644512611,-19200.684928975694,-30542.36239699869,-16726.726797428943
-17887.899921882145,-19213.537182037497,-30556.37694077217,-16740.294306313313
-17892.191456817563,-19208.686853490693,-30573.744246213944,-16755.64995475411
-17902.897942411655,-19220.913257707747,-30591.737400500468,-16772.07848692876
-17927.06017816784,-19252.31745866745,-30604.947281473556,-16780.41568761059
-17944.181614420606,-19264.00742101758,-30610.98225247649,-16780.683908544055
-17954.55282384787,-19283.274624738053,-30620.34763340326,-16787.791763280842
-17944.60629756526,-19271.405848432285,-30632.01524400893,-16802.94624602154
-17943.0863789423,-19249.679952821727,-30653.15999426365,-16822.99576079795
-17954.061085469853,-19267.53899664152,-30664.9393635916,-16837.926726094094
-17971.920129289643,-19311.057843096,-30672.047218328385,-16847.202700043046
-17995.858847601277,-19335.35418931892,-30679.870328887744,-16853.640002446176
-17995.36710922326,-19296.417450477773,-30679.13272132072,-16848.56615645482
-18007.347644251306,-19300.82074413547,-30683.893642889696,-16854.645830946665
-18039.623563244768,-19330.950895661223,-30687.13464583572,-16861.08313334979
-18052.878147706764,-19312.53305823005,-30677.344581764293,-16849.99666809996
-18036.583725998848,-19306.11810757138,-30662.324209490325,-16839.916031350618
-18036.941353910133,-19323.95479964671,-30653.674084386123,-16834.641019659164
-18029.96760964008,-19313.06950009698,-30652.46709018553,-16833.836356858774
-18021.56335372488,-19286.426220706253,-30650.74600586248,-16831.109444035228
-18019.17171706816,-19290.78481087504,-30641.73825284699,-16823.398092198146
-18004.71013840558,-19277.30670896849,-30636.798517322364,-16814.502097904933
-17999.99392032551,-19297.24446502262,-30649.561363406345,-16829.18719401207
-17993.51191443347,-19333.722511973683,-30658.859689099758,-16837.703208649542
-18005.17952503914,-19322.948971146223,-30660.82664261182,-16836.987952826974
-18011.974455353553,-19270.265909465063,-30652.37768320772,-16827.600220155742
-18019.551696723905,-19283.162866015777,-30645.716863360038,-16822.90635382013
-18019.216420557077,-19293.89170335433,-30645.06866277083,-16821.09586251925
-18007.571161695858,-19289.93544458573,-30649.516659917437,-16824.739196865463
-18005.51480120597,-19296.61861617787,-30651.751834362967,-16824.202754998536
-18007.928789607144,-19271.65171762129,-30651.617723896237,-16819.844164829752
-18014.097871076807,-19263.67214485075,-30646.1862499936,-16815.262057216412
-18018.791737412423,-19264.834435562425,-30646.566229649336,-16815.776147338885
-18011.058033830886,-19265.125008240346,-30647.72852036101,-16820.60412414123
-18008.84521112981,-19280.726525870148,-30646.38741569369,-16824.739196865463
-18020.11049033529,-19292.461191709182,-30646.789747093888,-16822.90635382013
-18024.983170626543,-19301.312482513487,-30651.6847791296,-16826.415577699612
-18028.492394506025,-19311.549581474017,-30657.49623268798,-16832.89758359165
-18012.242676287016,-19321.563162989994,-30669.096788060284,-16838.373760983202
-18009.627522185747,-19311.326064029465,-30671.26490727245,-16839.89367960616
-18031.308714307397,-19331.889668928347,-30664.000590324475,-16835.892717348663
-18038.014237643987,-19313.74005243064,-30659.753758877967,-16828.538993422866
-18032.26983931897,-19314.09768034192,-30664.7381978915,-16830.95298182404
-18021.96568512508,-19323.798337435524,-30670.66141017216,-16834.082226047783
-18008.621693685258,-19294.83047662145,-30673.991820096,-16834.976295825996
-18018.12118507876,-19282.112334026377,-30666.995724081484,-16829.790691112365
-18018.210592056585,-19288.43787770723,-30659.865517600243,-16824.448624187546
-18008.88991461872,-19320.89261065633,-30666.48163395901,-16830.10361553474
-18007.079423317842,-19320.713796700693,-30675.914070119157,-16840.363066239723
-18003.033757571433,-19296.350395244408,-30679.51270097646,-16841.458301718034
-18013.203801298598,-19301.983034847144,-30670.72846540552,-16834.23868825897
-18004.039586071918,-19281.173560759256,-30661.296029245383,-16824.605086398733
-18013.38261525424,-19288.929616085246,-30666.816910125843,-16824.76154860992
-18030.16877534017,-19313.360072774896,-30670.326134005325,-16828.56134516732
-18029.05118811741,-19318.29980829952,-30671.01903808344,-16828.874269589694
-18023.865583403775,-19323.30659905751,-30666.951020592576,-16825.052121287838
-18012.309731520385,-19306.63219769385,-30662.36891297924,-16826.32617072179
-18002.13968779322,-19290.98597657513,-30663.93353509111,-16831.89175509116
-17993.064879544363,-19280.726525870148,-30674.282392773915,-16839.871327861707
-18004.039586071918,-19284.034584049536,-30682.93251787812,-16844.05110407485
-18032.359246296797,-19284.973357316656,-30686.88877664671,-16844.09580756376
-18026.57014448287,-19298.2055900342,-30679.15507306517,-16840.56423193982
-18019.12701357925,-19323.01602637959,-30685.726485935036,-16847.51562446542
-18026.838365416334,-19331.621447994883,-30695.337736050817,-16858.155054826148
-18037.835423688342,-19335.53300327456,-30695.762419195467,-16858.266813548424
-18030.682865462644,-19310.4096425068,-30693.68370696112,-16853.796464657364
-18012.242676287016,-19291.276549253053,-30695.62830872873,-16854.601127457754
-18008.778155896445,-19293.131744042843,-30704.85957918877,-16864.905281651652
-18011.750937909,-19312.06367159649,-30712.526227536942,-16880.462095792544
-18040.27176383397,-19363.137407676862,-30719.36586134027,-16898.276436123426
-18068.68083103667,-19394.98864352568,-30721.533980552435,-16903.6408547927
-18039.1094731223,-19351.894480215848,-30714.22496011555,-16894.5883982883
-18030.48169976255,-19351.626259282384,-30715.342547338318,-16897.47177332303
-18013.203801298598,-19319.529154244563,-30719.723489251555,-16895.661282022153
-18011.683882675636,-19307.593322705427,-30722.27158811946,-16894.610750032753
-18023.08327234784,-19313.11420358589,-30721.89160846372,-16891.325043597823
-18033.72270270857,-19337.410549808807,-30723.52328580896,-16889.179276130115
-18037.589554499336,-19362.131579176377,-30724.752631754,-16891.90618895366
-18033.99092364203,-19353.079122671978,-30725.93727421013,-16890.609787775255
-18036.896650421226,-19340.78566322156,-30728.19480040012,-16891.794430231384
-18052.989906429044,-19360.634012297876,-30726.69723352161,-16888.01698541844
-18048.608964515803,-19334.30365732952,-30719.701137507094,-16879.81389520334
-18032.985095141543,-19302.608883691893,-30714.582588026835,-16879.523322525423
-18013.76259490998,-19277.440819435215,-30717.018928172463,-16878.20456960256
-18032.53806025244,-19310.43199425125,-30730.07234693436,-16886.988805173492
-18050.35240058332,-19341.053884155022,-30722.20453288609,-16881.736145226496
-18051.738208739545,-19353.570861049997,-30716.37072758326,-16877.422258546623
-18055.04626691893,-19371.049925214043,-30724.395003842717,-16886.318252839836
-18056.38737158625,-19360.87988148688,-30730.541733567923,-16894.43193607711
-18054.46512156309,-19356.87891922938,-30731.011120201485,-16890.363918586245
-18055.04626691893,-19329.520384016083,-30725.289073620927,-16879.120991125226
-18064.679868779167,-19310.946084373725,-30722.159829397184,-16875.388249801188
-18060.90242396622,-19324.066558368988,-30722.94214045312,-16877.28814807989
-18052.72168549558,-19362.46685534321,-30735.36971037027,-16890.028642419416
-18050.084179649853,-19365.819617011504,-30745.07036746387,-16897.49412506749
-18053.05696166241,-19340.78566322156,-30740.734129039545,-16888.91105519665
-18049.95006918312,-19322.23371532365,-30732.08400393534,-16879.299805080867
-18052.6099267733,-19315.818764664986,-30734.96737897008,-16884.4854097945
-18054.57688028537,-19333.27547708457,-30743.483393607545,-16897.739994256495
-18054.28630760745,-19369.999393224643,-30753.13934721224,-16906.747747271987
-18062.824673989377,-19374.15681769333,-30751.775890800465,-16908.222962406035
-18050.687676750145,-19342.774968478083,-30746.6573413202,-16902.791488503397
-18052.319354095383,-19341.1656428773,-30747.104376209307,-16905.87602923823
-18050.732380239057,-19351.626259282384,-30756.49210888053,-16917.342474143803
-18050.128883138765,-19357.68358202977,-30756.46975713608,-16923.57861084683
-18061.72943851107,-19354.64374478385,-30755.016893746484,-16922.841003279806
-18066.646822291237,-19361.72924777618,-30751.39591114473,-16921.522250356942
-18057.14733089773,-19372.9721752372,-30744.757443041497,-16916.671921810143
-18054.822749474377,-19395.21216097023,-30750.546544855424,-16919.152965444682
-18053.8616244628,-19390.85357080145,-30761.18597521615,-16923.489203869012
-18062.04236293344,-19381.97992825269,-30762.12474848327,-16921.656360823676
-18052.05113316192,-19349.234622625663,-30753.72049256808,-16909.519363584444
-18045.61383075879,-19364.702029788736,-30759.397835659725,-16907.373596116733
-18037.23192658805,-19348.362904591908,-30762.50472813901,-16909.854639751273
-18036.941353910133,-19357.01302969611,-30766.371579929782,-16919.53294510042
-18042.57399351287,-19362.288041387565,-30765.47751015157,-16918.325950899834
-18044.33978132484,-19334.035436396058,-30754.27928617946,-16908.33472112831
-18047.692542993136,-19345.323067345988,-30753.586382101344,-16911.62042756324
-18035.510842264997,-19335.53300327456,-30751.88764952274,-16914.570857831342
-18036.293153320927,-19353.392047094352,-30751.88764952274,-16920.650532323187
-18050.285345349952,-19359.44936984174,-30743.684559307643,-16912.805070019374
-18047.781949970955,-19353.68261977227,-30737.71664353808,-16906.568933316343
-18040.361170811797,-19360.991640209155,-30745.13742269724,-16914.459099109066
-18041.076426634365,-19367.518349590107,-30753.89930652372,-16920.985808490015
-18047.89370869323,-19359.069390186,-30766.192765974138,-16926.998427748495
-18052.8110924734,-19361.058695442523,-30765.969248529585,-16927.557221359875
-18038.349513810816,-19357.54947156304,-30752.84877453432,-16917.230715421523
-18035.533194009447,-19376.280233416583,-30748.08785296534,-16916.336645643314
-18033.856813175295,-19393.491076647173,-30746.52323085347,-16912.96153223056
-18027.263048560984,-19361.192805909253,-30750.83711753334,-16912.15686943017
-18024.536135737435,-19325.27355256957,-30745.31623665288,-16899.036395434905
-18028.246525317016,-19332.58257300646,-30743.259876162992,-16895.81774423334
-18031.66634221868,-19348.988753436657,-30745.025663974964,-16896.421241333635
-18017.383577511737,-19341.500919044127,-30741.51644009548,-16898.499953567978
-18019.1046618348,-19362.444503598752,-30741.494088351024,-16903.73026177052
-18033.99092364203,-19363.11505593241,-30739.95181798361,-16893.940197699096
-18037.67896147716,-19368.390067623863,-30731.79343125742,-16886.56412202884
-18013.60613269879,-19311.2590087961,-30722.69627126411,-16874.04714513387
-17999.301016247395,-19266.44376116321,-30724.01502418697,-16869.95677589855
-18013.94140886562,-19289.93544458573,-30735.570876070367,-16878.71865972503
-18022.45742350309,-19308.04035759453,-30737.984864471546,-16875.030621889906
-18022.03274035844,-19318.277456555064,-30732.1063556798,-16868.459209020046
-18000.306844747884,-19330.32504681648,-30722.49510556401,-16868.503912508957
-18004.263103516474,-19360.9692884647,-30724.417355587168,-16878.3833835582
-18015.260161788483,-19371.00522172513,-30729.08887017833,-16885.982976673007
-18020.535173479937,-19348.273497614085,-30724.730280009542,-16876.438781790588
-18007.302940762394,-19318.34451178843,-30708.234692601527,-16860.390229271678
-18011.50506871999,-19327.86635492639,-30712.12389613675,-16861.15018858316
-18003.07846106034,-19333.946029418235,-30713.21913161506,-16862.804217672852
-18001.022100570455,-19331.44263403924,-30717.622425272755,-16866.29108980788
-18029.922906151165,-19354.39787559484,-30729.15592541169,-16872.750743955465
-18042.462234790597,-19371.87693975889,-30725.06555617637,-16870.180293343103
-18034.214441086584,-19339.668075998798,-30718.829419473343,-16863.988860128982
-18033.789757941933,-19348.474663314184,-30720.483448563034,-16878.33868006929
-18031.28636256294,-19353.839081983457,-30732.19576265761,-16892.464982565045
-18016.46715598907,-19299.68080516825,-30727.814820744377,-16887.167619129137
-18004.821897127855,-19278.513703169072,-30715.0519746604,-16874.382421300703
-17993.757783622477,-19266.68963035221,-30706.290090833914,-16868.459209020046
-17997.199952268595,-19298.742031901125,-30711.11806763626,-16877.444610291077
-17998.38459472473,-19309.694386684227,-30718.583550284333,-16885.78181097291
-18000.016272069966,-19276.72556361265,-30716.482486305536,-16882.987842915994
-18005.13482155023,-19263.314516939463,-30703.78669545492,-16876.997575401972
-17997.825801113344,-19269.52830189804,-30696.432971529124,-16877.221092846525
-17985.42058294065,-19285.95683407269,-30695.40479128418,-16880.953834170563
-17988.683937631125,-19302.742994158627,-30695.85182617329,-16883.30076733837
-18012.399138498204,-19325.139442102845,-30702.40088729869,-16883.97131967203
-18016.33304552234,-19315.505840242608,-30692.163788338163,-16875.656470734655
-18007.481754718036,-19302.58653194744,-30689.50393074798,-16879.14334286968
-18013.18144955414,-19321.96549439019,-30701.573872753845,-16892.420279076134
-18010.208667541585,-19331.77791020607,-30706.290090833914,-16897.06944192284
-18019.842269401823,-19324.53594500255,-30711.96743392556,-16897.002386689473
-18024.15615608169,-19276.79261884601,-30701.12683786474,-16884.239540605493
-18006.587684939826,-19266.57787162994,-30699.629270986235,-16885.088906894794
-18015.886010633232,-19305.760479660094,-30707.094753634305,-16894.5883982883
-18011.840344886823,-19302.83240113645,-30715.342547338318,-16905.987787960505
-18008.532286707436,-19306.565142460484,-30713.88968394872,-16906.188953660603
-18012.466193731572,-19291.9023980978,-30702.892625676708,-16898.164677401146
-17995.478867945538,-19270.355316442885,-30691.40382902668,-16887.56995052933
-18015.818955399867,-19340.78566322156,-30697.03646862942,-16900.690424524597
-18006.766498895468,-19287.052069551,-30697.63996572971,-16897.158848900657
-18002.966702338064,-19268.14249374181,-30694.13074185023,-16890.587436030797
-18023.66441770368,-19310.543752973528,-30687.02288711344,-16885.24536910598
-18015.394272255216,-19300.083136568446,-30676.741084664,-16877.5340172689
-17993.109583033274,-19260.319383182454,-30674.66237242965,-16874.49418002298
-17983.475981173036,-19265.86261580737,-30681.949041122087,-16881.356165570756
-17991.61201615477,-19294.71871789917,-30687.201701069083,-16887.99463367398
-18007.83938262932,-19319.35034028892,-30677.7916166534,-16883.256063849458
-18006.163001795176,-19300.306654013,-30674.617668940744,-16881.24440684848
-17999.56923718086,-19295.277511510558,-30677.992782353496,-16886.273549350924
-18011.728586164547,-19303.39119474783,-30689.995669126,-16892.979072687518
-18028.447691017114,-19302.63123543635,-30691.426180771137,-16895.326005855324
-18023.731472937045,-19285.129819527843,-30676.07053233034,-16884.2842440944
-18002.407908726684,-19279.13955201382,-30667.30864850386,-16882.00436615996
-17990.628539398735,-19284.23574974963,-30669.812043882856,-16881.06559289284
-17998.719870891557,-19310.074366339966,-30678.66333468716,-16883.30076733837
-18017.428281000648,-19297.557389444995,-30676.85284338628,-16882.183180115604
-18021.764519424974,-19283.54284567152,-30664.291163002392,-16869.08505786479
-18011.12508906425,-19300.88779936884,-30662.54772693488,-16856.791598414373
-18012.443841987115,-19309.24735179512,-30668.940325849097,-16856.14339782517
-18001.603245926293,-19282.268796237564,-30674.237689285004,-16856.210453058535
-18000.61976917026,-19268.79069433101,-30673.991820096,-16856.545729225367
-18005.80537388389,-19242.52739459603,-30664.715846147043,-16846.599202942754
-18015.304865277398,-19254.373819157343,-30662.25715425696,-16841.5253569514
-18030.21347882909,-19303.793526148027,-30670.326134005325,-16847.225051787504
-18006.498277962004,-19299.9043226128,-30672.38249449521,-16850.80133090035
-17992.014347554963,-19247.40007488729,-30662.771244379437,-16845.14633955316
-18003.07846106034,-19241.74508354009,-30658.52441293293,-16837.43498771608
-18018.99290311252,-19261.772246572047,-30660.848994356274,-16844.922822108605
-18002.117336048763,-19276.077363023443,-30660.02197981143,-16851.47188323401
-17990.98616731002,-19276.77026710156,-30661.117215289734,-16854.824644902306
-18009.001673340998,-19300.999558091116,-30669.543822949392,-16860.14436008267
-18015.058996088388,-19290.42718296375,-30658.25619199946,-16850.913089622627
-18010.052205330398,-19268.969508286656,-30654.858726842253,-16851.695400678564
-18007.906437862686,-19278.75957235808,-30663.77707287992,-16859.965546127027
-18010.94627510861,-19298.2055900342,-30679.13272132072,-16872.61663348873
-18029.23000207305,-19341.120939388387,-30684.608898712268,-16877.981052158004
-18044.496243536025,-19352.69914301624,-30679.847977143287,-16874.203607345058
-18025.251391560007,-19296.909188855792,-30677.478692231023,-16869.733258453998
-18029.945257895622,-19319.12682284437,-30681.949041122087,-16876.550540512864
-18023.530307236942,-19297.19976153371,-30687.55932898037,-16880.953834170563
-18025.34079853783,-19283.2522729936,-30699.65162273069,-16886.56412202884
-18031.71104570759,-19277.30670896849,-30694.331907550328,-16881.06559289284
-18021.317484535877,-19265.661450107276,-30682.999573111487,-16871.677860221607
-18015.46132748858,-19287.230883506643,-30683.893642889696,-16875.254139334458
-18013.583780954337,-19306.453383738208,-30693.348430794293,-16887.279377851413
-18021.339836280327,-19316.39991002082,-30699.383401797226,-16895.25895062196
-18038.9083074222,-19335.912982930306,-30697.684669218623,-16892.129706398217
-18043.155138868708,-19313.04714835252,-30700.45628553108,-16890.11804939724
-18039.355342311304,-19307.52626747206,-30701.104486120283,-16895.951854700073
-18036.963705654587,-19311.728395429654,-30700.746858209,-16901.15981115816
-18054.822749474377,-19322.189011834744,-30712.21330311457,-16907.35124437228
-18047.424322059676,-19302.87710462536,-30703.831398943832,-16898.54465705689
-18031.174603840664,-19305.760479660094,-30692.901395905188,-16892.129706398217
-18027.33010379435,-19305.11227907089,-30689.191006325604,-16895.77304074443
-18023.48560374804,-19303.83822963693,-30699.673974475143,-16905.25018039348
-18044.8091679584,-19332.44846253973,-30710.22399785805,-16916.001369476482
-18068.85964499231,-19367.4736461012,-30705.64189024471,-16910.413433362657
-18068.747886270037,-19365.84196875596,-30697.34939305179,-16904.87020073774
-18062.95878445611,-19335.48829978565,-30697.237634329515,-16904.132593170714
-18047.08904589284,-19311.68369194075,-30697.72937270753,-16902.143287914194
-18017.204763556096,-19259.067685492955,-30695.248329072994,-16893.96254944355
-18028.42533927266,-19276.993784546117,-30690.17448308164,-16887.34643308478
-18035.33202830935,-19308.08506108345,-30686.26292780196,-16881.57968301531
-18032.26983931897,-19310.320235528976,-30690.688573204112,-16880.082116136804
-18027.352455538807,-19300.48546796864,-30693.147265094198,-16878.517494024934
-18027.66537996118,-19280.1006770254,-30693.102561605283,-16878.606901002753
-18043.691580735634,-19286.806200361996,-30689.41452377016,-16876.170560857125
-18039.556508011403,-19303.659415681293,-30682.57488996684,-16872.14724685517
-18035.466138776083,-19320.26676181159,-30684.519491734445,-16872.63898523319
-18022.300961291905,-19310.454345995706,-30687.31345979136,-16874.181255600604
-18012.957932109588,-19310.2084768067,-30686.91112839116,-16875.075325378817
-18016.869487389267,-19300.373709246363,-30678.797445153887,-16870.359107298747
-18029.453519517603,-19319.23858156664,-30682.39607601119,-16878.472790536023
-18039.400045800216,-19344.25018361213,-30689.950965637086,-16885.938273184096
-18011.236847786528,-19278.938386313723,-30684.56419522336,-16874.985918400995
-18020.84809790231,-19283.140514271323,-30689.481579003525,-16871.834322432795
-18031.91221140769,-19310.81197390699,-30695.56125349537,-16872.974261400017
-18012.57795245385,-19259.20179595969,-30692.096733104798,-16866.71577295253
-17999.32336799185,-19242.48269110712,-30688.98984062551,-16862.29012755038
-18002.743184893512,-19276.457342679187,-30702.155018109683,-16872.77309569992
-18013.80729839889,-19292.05886030899,-30700.85861693128,-16878.62925274721
-18019.305827534896,-19302.02773833605,-30696.522378506947,-16878.71865972503
-18026.7042549496,-19330.637971238848,-30695.96358489556,-16883.09960163827
-18016.489507733528,-19292.416488220275,-30696.76824769596,-16875.790581201385
-18010.789812897423,-19294.226979521158,-30700.03160238643,-16880.484447537
-18013.36026350978,-19297.98207258965,-30703.92080592165,-16882.071421393328
-18016.42245250016,-19271.53995889902,-30705.64189024471,-16873.86833117823
-18019.9540281241,-19282.537017171027,-30706.334794322825,-16871.856674177252
-18017.87531588976,-19296.05982256649,-30711.36393682527,-16879.925653925617
-18019.37288276826,-19310.610808206893,-30720.17052414066,-16890.207456375058
-18017.27181878946,-19314.29884604202,-30726.98780619953,-16896.331834355813
-18012.846173387312,-19291.74593588661,-30714.806105471387,-16883.010194660448
-18014.254333287994,-19284.414563705275,-30708.5476170239,-16872.95190965556
-18016.981246111543,-19294.651662665805,-30713.353242081797,-16879.076287636315
-18026.480737505048,-19321.11612810089,-30716.68365200563,-16892.643796520686
-18029.87820266225,-19330.97324740568,-30720.997538685508,-16901.517439069445
-18008.264065773972,-19306.408680249297,-30714.157904882184,-16893.96254944355
-18010.9015716197,-19287.29793874001,-30704.65841348868,-16881.356165570756
-18001.446783715106,-19270.86940656536,-30699.0481256304,-16877.62342424672
-17997.55758017988,-19301.223075535665,-30703.071439632356,-16887.01115691795
-17997.691690646614,-19274.892720567317,-30710.045183902406,-16892.39792733168
-18019.05995834589,-19283.498142182605,-30712.21330311457,-16890.54273254189
-18027.039531116432,-19297.98207258965,-30708.435858301626,-16891.68267150911
-18021.94333338062,-19301.267779024576,-30712.86150370377,-16896.085965166803
-18024.804356670906,-19339.44455855424,-30726.585474799333,-16905.361939115755
-18033.38742654174,-19358.577651807984,-30737.113146437783,-16910.927523485127
-18040.674095234168,-19325.742939203137,-30732.88866673573,-16902.143287914194
-18054.44276981864,-19328.648665982328,-30727.34543411081,-16897.829401234318
-18055.80622623041,-19326.100567114423,-30725.467887576568,-16903.126764670225
-18049.458330805104,-19342.797320222537,-30728.64183528922,-16913.654436308676
-18030.66051371819,-19319.104471099912,-30730.07234693436,-16911.30750314087
-18014.03081584344,-19265.77320882955,-30724.573817798355,-16903.48439258151
-18025.96664738257,-19293.82464812096,-30721.958663697085,-16901.20451464707
-18018.61292345678,-19311.415471007287,-30721.26575961897,-16896.510648311454
-18021.541001980426,-19314.589418719937,-30722.740974753026,-16897.449421578578
-18018.501164734505,-19314.611770464395,-30725.870218976765,-16897.002386689473
-18030.347589295816,-19321.47375601217,-30723.99267244252,-16894.051956421372
-18042.28342083495,-19338.03639865356,-30714.6496432602,-16891.369747086734
-18040.405874300704,-19343.847852211937,-30714.02379441545,-16903.39498560369
-18034.102682364308,-19337.18703236425,-30723.12095440876,-16916.046072965393
-18028.82767067285,-19337.857584697915,-30728.574780055857,-16919.644703822698
-18038.930659166654,-19332.60492475092,-30724.79733524291,-16913.87795375323
-18032.739225952533,-19301.603055191405,-30716.86246596128,-16906.568933316343
-18032.8062811859,-19302.050090080516,-30721.24340787452,-16907.01596820545
-18031.84515617432,-19311.08019484045,-30732.396928357717,-16914.436747364613
-18034.37090329777,-19331.196764850232,-30736.532001081945,-16924.4950323695
-18056.90146170872,-19344.853680712426,-30736.28613189294,-16926.26082018147
-18074.58169157287,-19376.235529927675,-30737.806050515897,-16927.53486961542
-18064.99279320154,-19344.78662547906,-30737.984864471546,-16928.048959737895
-18046.7090662371,-19324.89357291384,-30738.968341227574,-16933.63689585172
-18028.82767067285,-19310.34258727343,-30745.85267851981,-16939.291887198913
-18032.13572885224,-19300.32900575745,-30746.54558259792,-16936.676733097644
-18047.9607639266,-19317.651607710315,-30745.49505060852,-16934.150985974193
-18055.09097040784,-19326.167622347788,-30739.5047830945,-16933.50278538499
-18044.876223191764,-19326.279381070064,-30732.12870742425,-16932.116977228758
-18042.30577257941,-19341.59032602195,-30741.494088351024,-16940.700047099595
-18036.67313297667,-19304.911113370792,-30737.180201671148,-16936.54262263091
-18044.00450515801,-19317.897476899325,-30729.42414634516,-16933.21221270707
-18046.53025228146,-19335.53300327456,-30732.620445802266,-16938.64368660971
-18046.887880192746,-19331.666151483794,-30741.494088351024,-16943.762236089973
-18059.47191232108,-19333.610753251407,-30751.39591114473,-16951.87591932725
-18070.9160054822,-19346.93239294677,-30747.37259714277,-16946.667962869164
-18071.09481943784,-19347.044151669044,-30737.56018132689,-16938.57663137634
-18071.474799093583,-19366.199596667244,-30741.717605795577,-16937.526099386945
-18068.122037425284,-19348.45231156973,-30744.064538963383,-16936.36380867527
-18060.43303733266,-19315.371729775878,-30750.323027410872,-16940.521233143954
-18054.554528540917,-19315.751709431614,-30746.27736166446,-16935.514442385967
-18044.8091679584,-19308.129764572357,-30736.88962899323,-16927.713683571063
-18037.16487135469,-19301.96068310269,-30739.482431350047,-16927.959552760072
-18038.28245857745,-19304.57583720396,-30743.08106220735,-16928.36188416027
-18041.25524059001,-19301.267779024576,-30737.671940049167,-16925.67967482563
-18059.80718848791,-19334.169546862788,-30737.582533071345,-16930.082968483326
-18053.23577561805,-19336.42707305277,-30731.391099857225,-16926.551392859386
-18041.32229582337,-19309.58262796195,-30724.685576520635,-16920.31525615636
-18042.976324913063,-19317.450442010217,-30735.83909700383,-16924.4950323695
-18048.027819159965,-19323.887744413347,-30740.3541493838,-16928.026607993437
-18055.9626884416,-19322.99367463513,-30736.50964933749,-16925.00912249197
-18066.53506356896,-19327.151099103823,-30733.24629464701,-16917.521288099444
-18052.073484906374,-19317.96453213269,-30721.288111363425,-16906.3901193607
-18037.43309228815,-19315.48348849815,-30721.533980552435,-16909.25114265098
-18043.71393248009,-19321.11612810089,-30727.479544577545,-16919.30942765587
-18052.028781417463,-19321.607866478906,-30725.8031637434,-16915.554334587378
-18056.76735124199,-19335.153023618823,-30717.644777017213,-16905.607808304765
-18046.03851390344,-19313.20361056371,-30709.5981490133,-16900.757479757962
-18042.7081039796,-19340.27157309909,-30710.08988739132,-16905.384290860213
-18031.48752826304,-19322.27841881257,-30719.298806106905,-16913.58738107531
-18035.30967656489,-19260.833473304927,-30712.481524048035,-16901.986825703007
-18039.400045800216,-19252.11629296736,-30706.26773908946,-16895.326005855324
-18033.968571897574,-19283.67695613825,-30706.93829142312,-16895.19189538859
-18034.437958531136,-19311.92956112976,-30713.84498045981,-16902.322101869835
-18029.52057475097,-19312.06367159649,-30718.31532935087,-16909.072328695336
-18043.266897590984,-19326.2123258367,-30714.18025662664,-16902.903247225673
-18054.73334249656,-19334.12484337388,-30706.31244257837,-16894.81191573285
-18042.81986270188,-19287.16382827328,-30703.74199196601,-16896.130668655715
-18029.8558509178,-19264.633269862326,-30708.07823039034,-16902.120936169737
-18023.865583403775,-19295.456325466195,-30717.018928172463,-16912.581552574822
-18013.404966998693,-19277.172598501755,-30709.26287284647,-16908.804107761873
-18025.27374330446,-19280.81593284797,-30706.06657338936,-16904.62433154873
-18038.23775508854,-19305.782831404547,-30710.447515302603,-16912.20157291908
-18028.268877061477,-19306.565142460484,-30713.196779870606,-16916.358997387768
-18012.62265594276,-19283.609900904885,-30717.8012392284,-16919.644703822698
-18025.385502026737,-19293.48937195413,-30718.80706772889,-16921.25402942348
-18026.92777239416,-19298.183238289745,-30716.482486305536,-16915.666093309654
-18033.588592241835,-19328.17927934877,-30710.69338449161,-16910.793413018397
-18015.32721702185,-19323.9100961578,-30702.624404743245,-16909.653474051174
-17991.500257432494,-19254.932612768724,-30705.239558844514,-16907.284189138914
-18006.475926217547,-19243.019132974045,-30708.70407923509,-16908.804107761873
-18023.08327234784,-19261.95106052769,-30707.430029801137,-16908.33472112831
-18026.503089249505,-19287.58851141793,-30702.11031462077,-16908.02179670594
-18025.51961249347,-19304.285264526043,-30701.32800356484,-16911.978055474527
-18028.00065612801,-19314.947046631223,-30706.69242223411,-16919.30942765587
-18032.8062811859,-19306.49808722712,-30699.539864008413,-16915.643741565196
-18033.968571897574,-19281.77705785955,-30688.140474336207,-16904.44551759309
-18040.94231616763,-19305.268741282074,-30691.0462011154,-16905.47369783803
-18030.682865462644,-19315.125860586868,-30688.92278539214,-16899.48343032401
-18014.96958911057,-19307.86154363889,-30687.8946051472,-16894.67780526612
-18014.47785073255,-19286.51562768407,-30689.83920691481,-16889.849828463775
-18022.85975490329,-19286.314461983977,-30687.53697723591,-16880.171523114626
-18032.13572885224,-19297.311520255986,-30689.079247603328,-16883.367822571734
-18032.694522463626,-19293.33290974294,-30688.65456445868,-16884.753630727962
-18025.430205515648,-19279.51953166956,-30692.543767993902,-16886.497066795477
-18031.7557491965,-19295.791601633027,-30693.013154627464,-16889.24633136348
-18033.409778286197,-19300.396060990817,-30682.194910311093,-16875.030621889906
-18023.50795549249,-19282.2017410042,-30675.33292476332,-16868.615671231233
-18023.01621711448,-19272.836360077425,-30683.156035322678,-16873.644813733677
-18022.971513625565,-19266.86844430786,-30695.11421860626,-16884.15013362767
-18014.99194085502,-19267.449589663694,-30695.516550006458,-16888.86635170774
-18007.347644251306,-19259.514720382063,-30687.514625491454,-16878.025755646915
-17997.915208091166,-19263.00159251709,-30676.361105008255,-16878.182217858102
-17990.583835909823,-19265.683801851726,-30671.10844506126,-16879.836246947794
-17992.819010355357,-19269.72946759814,-30682.93251787812,-16884.083078394306
-18001.111507548274,-19262.59926111689,-30688.49810224749,-16884.999499916972
-18009.51576346347,-19264.67797335124,-30682.93251787812,-16875.142380612182
-17999.27866450294,-19266.95785128568,-30675.6905526746,-16866.20168283006
-17999.301016247395,-19297.892665611824,-30679.043314342896,-16871.923729410617
-17996.909379590677,-19287.81202886248,-30683.84893940079,-16876.4834852795
-18000.7985831259,-19268.25425246409,-30684.56419522336,-16874.382421300703
-18016.601266455804,-19283.2522729936,-30677.724561420036,-16868.369802042223
-18014.18727805463,-19283.498142182605,-30673.634192184712,-16865.732296196496
-17989.75682136498,-19267.024906519047,-30672.427197984125,-16863.20654907305
-17970.131989733218,-19236.782996271017,-30676.78578815291,-16866.939290397084
-17984.61592014026,-19271.53995889902,-30682.530186477925,-16875.164732356636
-17980.50319916048,-19273.976299044647,-30679.13272132072,-16870.470866021024
-17960.677201828625,-19210.72086223613,-30672.628363684224,-16861.91014789464
-17949.948364490076,-19222.321417608437,-30673.656543929166,-16858.400924015157
-17945.187442921095,-19243.95790624117,-30681.70317193308,-16862.938328139582
-17966.846283298288,-19272.031697277034,-30686.50879699097,-16869.062706120338
-17988.88510333122,-19278.312537468977,-30679.244480042995,-16862.692458950576
-17990.203856254084,-19284.72748812765,-30668.247421770982,-16857.775075170408
-17988.818048097855,-19312.331892529957,-30667.97920083752,-16865.79935142986
-17976.278719458427,-19285.442743950214,-30674.684724174112,-16872.81779918883
-17958.039695982898,-19252.876252278835,-30670.527299705424,-16870.068534620827
-17963.940556519097,-19237.721769538137,-30667.375703737227,-16864.63706071819
-17975.250539213484,-19249.45643537717,-30670.12496830523,-16862.53599673939
-17983.118353261754,-19287.253235251097,-30685.61472721276,-16871.00730788795
-17991.388498710217,-19314.52236348657,-30692.163788338163,-16875.969395157026
-17991.23203649903,-19296.61861617787,-30688.185177825115,-16873.264834077934
-17999.882161603233,-19293.310557998488,-30677.83632014231,-16864.257081062446
-17971.294280444894,-19229.42927234522,-30670.46024447206,-16856.657487947643
-17962.39828615168,-19228.51285082255,-30673.54478520689,-16860.6808019496
-17970.869597300243,-19264.32034543995,-30680.9432126216,-16869.19681658707
-17969.193216466098,-19244.98608648611,-30688.140474336207,-16874.382421300703
-17990.785001609922,-19260.967583771657,-30680.98791611051,-16862.51364499493
-17988.683937631125,-19294.83047662145,-30667.889793859697,-16852.85769139024
-17970.713135089056,-19257.234842447622,-30663.35238973527,-16849.3261157663
-17977.105734003275,-19245.56723184195,-30664.715846147043,-16852.500063478954
-17981.37491719424,-19246.796577786998,-30672.31543926185,-16857.417447259122
-17979.45266717108,-19224.0872054204,-30668.58269793781,-16849.549633210856
-17977.08338225882,-19249.18821444371,-30667.57686943732,-16851.47188323401
-17980.100867760288,-19298.2055900342,-30672.5389567064,-16860.747857182963
-17971.22722521153,-19279.63129039184,-30680.518529476947,-16863.027735117405
-17964.924033275132,-19219.415690829243,-30680.16090156566,-16855.204624558046
-17976.882216558723,-19238.10174919388,-30673.656543929166,-16849.683743677586
-17967.60624260977,-19230.94919096818,-30666.101654303275,-16848.14147331017
-17965.304012930872,-19245.09784520839,-30667.84509037079,-16852.030676845396
-17973.596510123793,-19285.10746778339,-30678.57392770933,-16866.827531674808
-17967.36037342076,-19236.291257893,-30683.178387067128,-16869.91207240964
-17977.150437492186,-19231.86561249085,-30676.182291052617,-16860.4796362495
-17993.89189408921,-19255.62551684684,-30675.087055574302,-16860.23376706049
-17996.283530745928,-19253.65856333477,-30676.15993930816,-16867.67689796411
-17977.485713659014,-19237.40884511576,-30674.617668940744,-16866.268738063423
-17975.384649680218,-19258.643002348304,-30680.384419010214,-16868.705078209052
-17986.761687607966,-19263.94036578421,-30676.49521547499,-16868.95094739806
-17993.310748733373,-19247.42242663174,-30671.62253518373,-16867.989822386484
-17997.93755983562,-19260.967583771657,-30677.63515444221,-16874.538883511887
-17978.08921075931,-19285.77802011705,-30681.434950999614,-16880.05976439235
-17981.956062550078,-19279.72069736966,-30686.17352082414,-16882.272587093423
-17978.60330088178,-19254.59733660189,-30677.63515444221,-16873.57775850031
-17968.299146687885,-19236.62653405983,-30673.991820096,-16870.5826247433
-17960.140759961698,-19241.074531206435,-30675.467035230045,-16872.99661314447
-17960.11840821724,-19261.10169423839,-30679.088017831808,-16879.4339155476
-17966.645117598193,-19274.37863044484,-30686.12881733523,-16889.96158718605
-17967.65094609868,-19253.36799065685,-30680.295012032395,-16884.306595838858
-17960.36427740625,-19201.735460965094,-30670.102616560773,-16869.509741009446
-17967.69564958759,-19226.99293219959,-30678.037485842407,-16870.224996832014
-17978.8938735597,-19266.80138907449,-30686.21822431305,-16879.232749847502
-17987.745164364,-19257.681877336727,-30691.627346471232,-16882.361994071245
-17997.60228366879,-19247.15420569828,-30690.286241803915,-16876.818761446328
-17987.007556796976,-19256.832511047425,-30685.368858023747,-16873.28718582239
-17982.403097439183,-19270.33296469843,-30685.391209768204,-16877.19874110207
-17967.338021676307,-19245.23195567512,-30683.84893940079,-16880.283281836902
-17967.36037342076,-19258.75476107058,-30686.73231443552,-16883.05489814936
-17979.65383287118,-19275.272700223053,-30684.519491734445,-16888.173447629626
-17986.359356207773,-19247.4447783762,-30678.171596309137,-16882.54080802689
-17981.263158471964,-19239.062874205458,-30677.83632014231,-16878.3833835582
-17978.402135181685,-19259.17944421523,-30687.335811535813,-16889.71571799704
-17971.115466489253,-19257.9948017591,-30691.60499472678,-16896.644758778188
-17968.768533321447,-19235.821871259435,-30685.50296849048,-16884.217188861036
-17962.711210574056,-19236.939458482204,-30677.657506186668,-16877.57872075781
-17966.779228064923,-19253.47974937913,-30678.953907365078,-16881.42322080412
-17973.417696168148,-19281.084153781438,-30686.441741757604,-16885.20066561707
-17967.494483887494,-19280.1006770254,-30688.20752956957,-16882.764325471442
-17974.31176594636,-19249.791711544003,-30680.67499168813,-16872.080191621804
-17986.26994922995,-19252.026885989533,-30675.17646255213,-16865.285261307392
-17976.099905502786,-19260.40879016028,-30681.36789576625,-16870.5826247433
-17969.953175777577,-19255.26788893556,-30683.178387067128,-16873.153075355658
-17971.51779788945,-19258.50889188157,-30689.325116792337,-16879.4339155476
-17981.12904800523,-19276.569101401463,-30686.8440731578,-16879.500970780966
-17982.000766038986,-19257.50306338109,-30683.44660800059,-16873.711868967042
-17978.335079948316,-19231.530336324016,-30683.31249753386,-16870.71673521003
-17974.244710712996,-19225.65182753227,-30688.07341910284,-16872.61663348873
-17977.284547958916,-19245.56723184195,-30691.76145693797,-16878.517494024934
-17975.854036313776,-19248.741179554603,-30681.61376495525,-16867.989822386484
-17980.70436486058,-19272.14345599931,-30682.954869622576,-16869.174464842614
-17988.08044053083,-19272.99282228861,-30687.35816328027,-16875.947043412572
-17976.479885158526,-19253.077417978933,-30686.08411384632,-16876.975223657515
-17978.93857704861,-19282.82758984895,-30695.85182617329,-16884.217188861036
-17973.46239965706,-19239.17463292773,-30687.98401212502,-16876.505837023957
-17963.582928607815,-19216.912295450245,-30681.479654488525,-16870.113238109738
-17964.07466698583,-19248.003571987578,-30687.089942346807,-16876.416430046134
-17966.712172831558,-19266.68963035221,-30688.11812259175,-16881.311462081845
-17971.338983933805,-19266.466112907663,-30698.06464887436,-16886.988805173492
-17985.062955029363,-19254.820854046447,-30692.00732612697,-16880.77502021492
-17985.59939689629,-19245.276659164032,-30684.47478824553,-16871.990784643982
-17982.60426313928,-19261.10169423839,-30687.849901658286,-16878.405735302655
-17980.011460782465,-19302.43006973625,-30697.572910496347,-16886.497066795477
-17982.067821272354,-19306.408680249297,-30703.40671579918,-16892.33087209831
-17976.32342294734,-19255.223185446644,-30693.03550637192,-16879.38921205869
-17967.382725165215,-19216.04057741649,-30684.83241615682,-16864.36883978472
-17956.296259915383,-19225.42831008772,-30686.419390013147,-16864.86057816274
-17956.765646548945,-19252.272755178543,-30691.157959837677,-16871.18612184359
-17967.427428654126,-19261.325211682943,-30699.472808775048,-16878.942177169585
-17978.357431692773,-19258.50889188157,-30689.816855170357,-16872.303709066357
-17999.56923718086,-19283.63225264934,-30683.334849278315,-16869.91207240964
-17996.70821389058,-19290.04720330801,-30682.39607601119,-16870.560272998842
-17966.08632398681,-19258.285374437022,-30685.279451045928,-16873.018964888928
-17958.93376576111,-19244.092016707906,-30692.49906450499,-16876.192912601582
-17966.578062364824,-19252.876252278835,-30692.56611973836,-16872.370764299725
-17972.27775720093,-19241.543917839997,-30682.105503333278,-16862.7818659284
-17970.288451944405,-19235.173670670232,-30677.03165734192,-16863.251252561957
-17963.962908263555,-19252.49627262309,-30682.060799844363,-16869.018002631426
-17959.872539028234,-19262.48750239462,-30684.47478824553,-16874.561235256344
-17976.815161325358,-19287.029717806545,-30686.017058612957,-16878.070459135826
-17976.993975281,-19260.43114190473,-30677.43398874212,-16871.074363121315
-17961.03482973991,-19223.126080408823,-30672.38249449521,-16867.140456097182
-17965.639289097704,-19261.54872912749,-30676.294049774893,-16874.49418002298
-17971.629556611726,-19298.80908713449,-30686.55350047988,-16885.357127828258
-17966.8909867872,-19257.50306338109,-30690.75562843748,-16882.518456282432
-17974.445876413094,-19249.031752232524,-30684.11716033425,-16879.120991125226
-17967.762704820958,-19240.42633061723,-30685.905299890677,-16875.544712012375
-17946.573251077327,-19214.11832739333,-30688.721619692045,-16876.394078301677
-17942.996971964476,-19221.628513530315,-30691.87321566024,-16882.183180115604
-17959.51491111695,-19252.831548789927,-30690.532110992925,-16881.356165570756
-17962.711210574056,-19261.63813610532,-30685.32415453484,-16876.192912601582
-17953.725809303025,-19265.035601262523,-30689.302765047883,-16877.019927146426
-17951.445931368584,-19247.601240587384,-30694.018983127957,-16880.64090974819
-17964.231129197018,-19255.491406380108,-30696.231805829026,-16884.4854097945
-17961.906547773666,-19256.45253139169,-30690.88973890421,-16880.99853765947
-17939.666562040635,-19227.171746155236,-30679.73621842101,-16868.794485186874
-17927.30604735685,-19209.692681991182,-30676.897546875185,-16865.598185729767
-17924.82500372231,-19221.673217019223,-30686.08411384632,-16874.024793389417
-17919.706454242045,-19240.69455155069,-30693.12491334974,-16878.53984576939
-17933.02809393741,-19267.270775708053,-30695.8965296622,-16872.14724685517
-17950.909489501653,-19294.33873824343,-30694.86834941725,-16868.682726464598
-17945.36625687674,-19246.68481906472,-30687.872253402744,-16860.65845020514
-17939.64421029618,-19243.153243440775,-30685.279451045928,-16858.400924015157
-17933.8327567378,-19242.95207774068,-30693.81781742785,-16862.468941506024
-17934.480957327003,-19228.781071756017,-30691.560291237867,-16860.792560671875
-17945.522719087927,-19255.71492382466,-30688.02871561393,-16855.13756932468
-17932.84927998177,-19241.47686260663,-30687.447570258093,-16853.57294721281
-17923.59565777727,-19224.780109498515,-30686.195872568594,-16854.15409256865
-17932.44694858157,-19259.738237826616,-30696.85765467377,-16868.168636342125
-17951.378876135215,-19284.459267194183,-30702.17736985414,-16872.281357321903
-17954.485768614504,-19269.52830189804,-30699.31634656386,-16861.843092661275
-17951.915318002142,-19262.934537283723,-30698.60109074129,-16859.540862982376
-17946.305030143863,-19247.35537139837,-30702.60205299879,-16860.14436008267
-17932.7822247484,-19234.25724914757,-30713.46500080407,-16865.039392118382
-17932.84927998177,-19236.224202659632,-30713.15207638169,-16859.943194382573
-17941.11942543023,-19244.11436845236,-30703.54082626591,-16855.629307702697
-17947.377913877717,-19251.71396156716,-30698.198759341096,-16863.00538337295
-17952.004724979965,-19265.303822195987,-30701.17154135365,-16868.503912508957
-17950.775379034923,-19272.545787399507,-30707.139457123216,-16870.493217765477
-17970.109637988764,-19314.34354953093,-30711.498047292003,-16881.06559289284
-17984.191236995608,-19315.639950709337,-30711.85567520329,-16882.04906964887
-17977.21749272555,-19270.891758309812,-30710.15694262468,-16878.29397658038
-17954.8881000147,-19239.576964327927,-30714.4484775601,-16877.377555057712
-17935.97852420551,-19237.274734649032,-30723.14330615321,-16884.552465027864
-17955.804521537368,-19263.247461706094,-30723.0538991754,-16887.592302273788
-17974.80350432438,-19294.96458708818,-30717.51066655048,-16883.27841559391
-17985.42058294065,-19277.038488035025,-30709.35227982429,-16876.70700272405
-17963.113541974253,-19250.462263877664,-30708.77113446845,-16876.461133535046
-17935.710303272048,-19260.47584539364,-30713.71086999308,-16882.33964232679
-17946.617954566234,-19262.33104018343,-30714.292015348918,-16880.663261492642
-17962.733562318514,-19270.60118563189,-30703.78669545492,-16871.789618943887
-17955.513948859447,-19257.19013895871,-30697.70702096308,-16865.754647940954
-17953.301126158374,-19257.592470358904,-30701.193893098105,-16871.968432899528
-17962.107713473764,-19279.497179925107,-30707.430029801137,-16879.81389520334
-17972.300108945383,-19267.56134838597,-30704.7478204665,-16876.4834852795
-17968.522664132437,-19263.247461706094,-30696.701192462588,-16866.20168283006
-17969.349678677285,-19288.795505618516,-30697.818779685356,-16865.888758407684
-17961.884196029212,-19287.610863162383,-30703.831398943832,-16870.3814590432
-17947.55672783336,-19212.9336849372,-30705.7983524559,-16870.67203172112
-17956.475073871028,-19219.303932106966,-30704.59135825531,-16873.24248233348
-17960.207815195063,-19235.643057303794,-30697.97524189654,-16863.832397917795
-17946.46149235505,-19226.791766499493,-30694.55542499488,-16855.71871468052
-17947.243803410984,-19255.11142672437,-30699.964547153064,-16860.90431939415
-17959.827835539323,-19272.99282228861,-30707.07240188985,-16868.77213344242
-17971.40603916717,-19274.04335427801,-30706.200683856096,-16869.397982287166
-17968.83558855481,-19258.50889188157,-30694.778942439432,-16862.51364499493
-17951.244765668485,-19248.0929789654,-30685.391209768204,-16857.775075170408
-17946.483844099504,-19265.035601262523,-30686.821721413344,-16862.29012755038
-17941.11942543023,-19246.1930806867,-30694.220148828048,-16873.018964888928
-17935.710303272048,-19225.94240021019,-30696.008288384477,-16871.00730788795
-17941.052370196863,-19237.788824771505,-30695.06951511735,-16866.134627596693
-17932.35754160375,-19233.296124135988,-30688.60986096977,-16864.324136295814
-17931.55287880336,-19252.80919704547,-30693.25902381647,-16871.923729410617
-17944.896870243178,-19281.62059564836,-30702.11031462077,-16883.747802227474
-17948.540204589393,-19270.847054820904,-30706.06657338936,-16879.098639380773
-17954.083437214307,-19253.390342401308,-30700.94802390909,-16864.927633396106
-17944.293373142886,-19244.874327763835,-30697.528207007435,-16866.04522061887
-17942.058198697352,-19240.627496317327,-30698.82460818584,-16867.72160145302
-17939.152471918165,-19258.50889188157,-30710.13459088023,-16876.684650979598
-17951.088303457298,-19267.918976297256,-30716.03545141643,-16881.691441737585
-17961.347754162285,-19267.85192106389,-30700.83626518682,-16871.275528821414
-17949.858957512257,-19251.915127267257,-30691.582642982325,-16865.531130496398
-17938.54897481787,-19251.75866505607,-30693.12491334974,-16871.297880565868
-17930.770567747422,-19272.612842632872,-30697.438800029613,-16880.350337070267
-17938.146643417676,-19237.878231749324,-30699.8974919197,-16882.160828371147
-17943.108730686752,-19215.079452404912,-30689.280413303422,-16874.404773045157
-17919.415881564128,-19202.69658597667,-30683.02192485594,-16867.229863075
-17923.55095428836,-19221.36029259685,-30686.93348013562,-16871.52139801042
-17940.22535565202,-19260.25232794909,-30699.919843664156,-16884.70892723905
-17944.226317909517,-19262.33104018343,-30712.682689748133,-16894.275473865924
-17945.8356435103,-19235.106615436867,-30716.415431072168,-16891.280340108915
-17943.68987604259,-19226.94822871068,-30718.494143306518,-16881.736145226496
-17930.055311924854,-19214.252437860065,-30719.924654951654,-16876.86346493524
-17927.12723340121,-19235.71011253716,-30730.832306245844,-16884.463058050045
-17935.44208233858,-19252.42921738973,-30733.782736513946,-16884.73127898351
-17932.82692823731,-19247.48948186511,-30722.89743696421,-16873.018964888928
-17931.083492169797,-19255.558461613477,-30719.11999215126,-16869.397982287166
-17919.9299716866,-19212.9336849372,-30721.64573927471,-16872.348412555268
-17922.612181021235,-19219.728615251617,-30721.869256719263,-16882.47375279352
-17938.325457373317,-19257.10073198089,-30725.579646298844,-16888.464020307543
-17960.721905317536,-19296.23863652213,-30726.8536957328,-16889.939235441594
-17965.50517863097,-19275.160941500777,-30724.953797454094,-16888.66518600764
-17947.60143132227,-19241.923897495737,-30717.8012392284,-16887.122915640226
-17926.970771190023,-19188.90555964775,-30714.001442671,-16885.938273184096
-17916.241933851474,-19193.577074238907,-30717.13068689474,-16885.71475573954
-17930.50234681396,-19222.36612109734,-30712.45917230358,-16879.880950436705
-17927.909544457143,-19228.55755431146,-30707.430029801137,-16876.77405795742
-17921.472242054017,-19235.79951951498,-30715.342547338318,-16879.478619036512
-17934.45860558255,-19281.419429948262,-30724.730280009542,-16891.816781975842
-17942.773454519924,-19283.520493927062,-30730.586437056834,-16901.316273369346
-17927.350750845762,-19226.23297288811,-30716.571893283355,-16882.25023534897
-17926.300218856362,-19214.073623904424,-30707.0500501454,-16870.359107298747
-17927.037826423388,-19221.539106552496,-30713.196779870606,-16871.76726719943
-17930.36823634723,-19226.121214165832,-30719.298806106905,-16876.371726557223
-17934.369198604727,-19239.50990909456,-30726.540771310425,-16882.898435938172
-17933.251611381962,-19233.966676469645,-30714.18025662664,-16871.18612184359
-17936.962000961543,-19240.023999217035,-30708.70407923509,-16870.783790443398
-17940.27005914093,-19251.26692667805,-30704.90428267769,-16867.38632528619
-17918.00772166344,-19216.88994370579,-30694.66718371716,-16859.496159493465
-17910.20696284854,-19208.731556979605,-30698.556387252374,-16864.502950251455
-17928.893021213178,-19255.826682546936,-30696.008288384477,-16866.402848530157
-17934.83858523829,-19266.466112907663,-30689.146302836696,-16861.86544440573
-17927.954247946054,-19223.818984486938,-30690.867387159757,-16860.636098460687
-17917.627742007702,-19206.898713934268,-30693.88487266122,-16861.798389172363
-17909.98344540399,-19186.60332996885,-30696.18710234012,-16863.6312322177
-17937.07375968382,-19229.94336246769,-30694.778942439432,-16868.615671231233
-17950.21658542354,-19244.85197601938,-30693.25902381647,-16872.035488132893
-17948.31668714484,-19241.834490517915,-30700.590395997813,-16878.00340390246
-17941.387646363695,-19227.12704266632,-30709.82166645785,-16881.803200459864
-17939.487748084994,-19211.458469803158,-30721.17635264115,-16884.82068596133
-17946.237974910495,-19238.638191060807,-30723.299768364403,-16882.585511515797
-17947.82494876682,-19265.63909836281,-30718.60590202879,-16880.797371959376
-17948.584908078305,-19248.67412432124,-30720.394041585216,-16877.846941691274
-17934.480957327003,-19232.67027529124,-30729.20062890061,-16879.657432992153
-17932.335189859295,-19214.94534193818,-30729.15592541169,-16874.315366067334
-17946.528547588416,-19228.35638861137,-30721.377518341247,-16869.10740960925
-17963.22530069653,-19256.67604883624,-30720.483448563034,-16869.397982287166
-17960.36427740625,-19275.943252556717,-30717.08598340583,-16874.203607345058
-17927.373102590216,-19227.462318833157,-30716.68365200563,-16874.360069556245
-17927.037826423388,-19202.338958065386,-30720.46109681858,-16878.606901002753
-17943.421655109127,-19236.827699759924,-30712.526227536942,-16875.835284690296
-17940.82885275231,-19256.38547615832,-30704.345489066305,-16874.00244164496
-17925.003817677953,-19250.126987710835,-30704.278433832937,-16870.694383465576
-17899.67929121009,-19188.6820422032,-30707.631195501235,-16870.29205206538
-17912.106861127242,-19221.56145829695,-30716.16956188316,-16879.165694614137
-17932.558707303848,-19225.42831008772,-30714.292015348918,-16870.783790443398
-17944.896870243178,-19244.270830663543,-30708.346451323803,-16865.106447351747
-17926.970771190023,-19244.092016707906,-30704.323137321848,-16867.073400863817
-17895.03012836339,-19217.336978594896,-30702.66910823216,-16868.190988086582
-17907.36829130272,-19221.896734463782,-30711.296881591905,-16877.869293435728
-17930.055311924854,-19233.676103791728,-30708.50291353499,-16877.668127735633
-17933.65394278216,-19213.783051226503,-30699.02577388594,-16868.682726464598
-17926.724902001013,-19197.488629518582,-30692.20849182707,-16865.531130496398
-17907.033015135887,-19195.253455073056,-30695.96358489556,-16868.995650886973
-17910.922218671112,-19218.14164139529,-30708.5476170239,-16875.34354631228
-17918.946494930566,-19221.874382719325,-30715.9013409497,-16873.398944544668
-17926.859012467743,-19242.81796727395,-30704.36784081076,-16868.548615997865
-17935.285620127397,-19243.488519607607,-30703.71964022156,-16865.82170317432
-17929.29535261337,-19240.76160678406,-30714.76140198248,-16870.694383465576
-17929.384759591194,-19286.58268291744,-30719.61173052928,-16878.785714958398
-17926.479032812003,-19254.95496451318,-30711.16277112517,-16868.638022975687
-17909.15643085914,-19167.090257059368,-30702.713811721067,-16856.210453058535
-17897.01943361991,-19164.85508261384,-30706.8488844453,-16863.742990939976
-17889.44219224956,-19172.477027473094,-30711.296881591905,-16869.263871820436
-17904.708433712534,-19216.84524021688,-30717.711832250578,-16880.886778937194
-17913.962055917033,-19229.295161878486,-30711.78861996992,-16874.941214912084
-17906.11659361322,-19226.74706301058,-30706.580663511835,-16861.932499639093
-17895.678328952592,-19226.389435099296,-30712.705041492587,-16863.742990939976
-17890.53742772787,-19230.23393514561,-30719.11999215126,-16873.19777884457
-17892.54908472885,-19237.833528260413,-30721.91396020817,-16878.852770191763
-17904.775488945903,-19226.635304288306,-30715.74487873851,-16872.39311604418
-17918.812384463836,-19221.293237363487,-30715.81193397188,-16874.024793389417
-17917.985369918988,-19259.224147704143,-30717.533018294936,-16883.636043505197
-17901.35567204424,-19250.596374344397,-30722.428050330647,-16894.566046543845
-17884.033070091376,-19239.4428538612,-30720.438745074123,-16894.3872325882
-17890.24685504995,-19258.128912225835,-30712.570931025857,-16883.09960163827
-17873.281881008374,-19218.052234417468,-30707.765305967965,-16877.645775991175
-17862.30717448082,-19191.028975371,-30710.26870134696,-16878.13751436919
-17862.754209369923,-19195.588731239885,-30721.109297407784,-16884.016023160937
-17865.101142537733,-19214.40890007125,-30731.391099857225,-16889.693366252588
-17874.600633931237,-19218.85689721786,-30730.18410565664,-16884.038374905394
-17850.63956387515,-19186.066888101923,-30722.159829397184,-16872.348412555268
-17840.961258526,-19198.85208593036,-30724.01502418697,-16875.209435845547
-17850.661915619603,-19212.598408770373,-30732.46398359108,-16882.987842915994
-17857.993287800942,-19237.00651371557,-30737.537829582438,-16889.11222089675
-17865.458770449015,-19230.010417701054,-30734.341530125326,-16888.039337162892
-17865.77169487139,-19196.95218765166,-30727.725413766555,-16882.585511515797
-17877.640471177157,-19252.876252278835,-30731.25698939049,-16886.273549350924
-17877.506360710428,-19248.584717343416,-30729.64766378971,-16887.502895295966
-17879.875645622687,-19236.403016615277,-30737.381367371247,-16891.660319764655
-17884.68127068058,-19230.81508050145,-30737.291960393428,-16890.11804939724
-17856.62983138917,-19185.932777635197,-30725.199666643104,-16880.752668470464
-17846.77271208438,-19197.04159462948,-30723.41152708668,-16880.842075448283
-17856.182796500063,-19235.687760792705,-30729.26768413397,-16887.547598784877
-17856.7639418559,-19204.194152855176,-30738.387195871732,-16895.77304074443
-17861.323697724783,-19179.47312348761,-30737.33666388233,-16896.82357273383
-17871.82901761878,-19196.482801018097,-30734.58739931433,-16892.86731396524
-17878.176913044084,-19214.99004542709,-30739.594190072323,-16894.498991310476
-17869.951471084532,-19221.42734783022,-30744.04218721893,-16896.734165756006
-17851.66774412009,-19203.09891737687,-30745.360940141796,-16898.231732634515
-17865.995212315942,-19212.10667039236,-30744.26570466348,-16893.78373548791
-17879.093334566754,-19202.71893772113,-30735.481469092545,-16883.814857460842
-17880.7697154009,-19192.571245738414,-30733.06748069137,-16883.658395249655
-17873.080715308275,-19204.17180111072,-30734.766213269977,-16888.464020307543
-17881.26145377892,-19219.415690829243,-30744.22100117457,-16894.76721224394
-17901.132154599687,-19230.792728756995,-30744.735091297043,-16896.801220989375
-17885.620043947703,-19233.184365413712,-30733.42510860266,-16890.319215097334
-17863.044782047844,-19222.09790016388,-30735.928503981653,-16889.805124974864
-17854.34995345473,-19192.705356205148,-30738.02956796045,-16889.894531952683
-17860.42962794657,-19185.1281148348,-30740.89059125073,-16892.4873343095
-17873.63950891966,-19187.586806724885,-30735.45911734809,-16883.367822571734
-17875.405296731627,-19196.438097529182,-30718.248274117504,-16860.65845020514
-17879.048631077843,-19219.08041466241,-30717.04127991692,-16859.67497344911
-17884.837732891767,-19258.44183664821,-30718.98588168453,-16865.642889218678
-17878.646299677646,-19248.629420832327,-30723.0538991754,-16873.220130589027
-17884.010718346923,-19246.05897021997,-30732.32987312435,-16881.087944637293
-17886.000023603443,-19218.85689721786,-30727.971282955565,-16870.783790443398
-17880.881474123176,-19218.72278675113,-30725.31142536538,-16870.560272998842
-17853.031200531866,-19221.04736817448,-30727.680710277644,-16876.125857368213
-17837.04970324632,-19202.540123765484,-30729.401794600704,-16877.399906802166
-17852.42770343157,-19215.638246016293,-30729.46884983407,-16875.500008523468
-17842.14590098213,-19215.817059971934,-30722.718623008564,-16867.140456097182
-17836.401502657118,-19218.07458616192,-30719.03058517344,-16861.843092661275
-17838.23434570245,-19217.582847783902,-30721.824553230355,-16859.317345537824
-17846.996229528933,-19240.42633061723,-30728.932407967142,-16865.128799096205
-17852.539462153847,-19207.703376734666,-30725.75846025449,-16861.48546474999
-17855.28872672185,-19179.51782697652,-30715.789582227422,-16852.85769139024
-17846.504491150918,-19184.703431690148,-30711.83332345883,-16849.057894832837
-17849.365514441197,-19214.319493093437,-30725.691405021124,-16856.501025736456
-17850.2148807305,-19209.51386803554,-30732.88866673573,-16861.23959556098
-17860.228462246476,-19220.9356094522,-30728.306559122397,-16856.724543181008
-17874.06419206431,-19255.29024068001,-30723.612692786777,-16856.76924666992
-17860.384924457663,-19241.588621328905,-30722.18218114164,-16855.651659447154
-17850.706619108514,-19203.65771098825,-30723.635044531235,-16854.042333846373
-17855.378133699673,-19246.05897021997,-30726.764288754977,-16864.704115951554
-17853.701752865523,-19200.304949319958,-30726.96545445508,-16860.72550543851
-17861.994250058444,-19195.924007406717,-30721.489277063523,-16857.37274377021
-17849.074941763276,-19220.399167585278,-30716.974224683552,-16857.842130403773
-17842.414121915594,-19220.645036774284,-30723.612692786777,-16864.10061885126
-17857.00981104491,-19229.00458920057,-30729.670015534168,-16866.42520027461
-17868.386848972663,-19246.081321964422,-30728.03833818893,-16864.704115951554
-17843.95639228301,-19199.16501035273,-30715.40960257168,-16852.6788774346
-17848.51614815189,-19198.717975463627,-30712.83915195932,-16851.650697189652
-17841.52005213738,-19181.46242874413,-30717.37655608375,-16855.15992106914
-17835.44037764554,-19193.286501560982,-30726.250198632504,-16863.51947349542
-17845.118682994686,-19207.502211034564,-30729.960588212085,-16861.19489207207
-17858.14975001213,-19191.72187944912,-30725.400832343203,-16856.366915269722
-17864.698811137536,-19224.578943798417,-30723.88091372024,-16858.535034481887
-17865.794046615847,-19260.565252371463,-30724.216189887076,-16862.848921161763
-17870.331450740272,-19280.123028769856,-30728.753594011498,-16869.889720665185
-17863.804741359323,-19215.772356483027,-30731.435803346136,-16863.94415664007
-17864.564700670802,-19182.065925844425,-30717.644777017213,-16844.81106338633
-17857.501549422926,-19174.913367618727,-30708.637024001724,-16837.837319116275
-17841.743569581937,-19171.06886757241,-30708.79348621291,-16837.18911852707
-17822.141089694633,-19180.32248977691,-30703.56317801037,-16836.943249338063
-17841.877680048667,-19214.23008611561,-30713.01796591496,-16844.967525597516
-17854.796988343835,-19234.21254565865,-30713.21913161506,-16843.24644127446
-17840.53657538135,-19204.12709762181,-30703.630233243734,-16833.590487669764
-17834.792177056333,-19192.705356205148,-30703.16084661017,-16833.076397547295
-17835.552136367816,-19202.04838538747,-30710.961605425076,-16837.18911852707
-17848.650258618625,-19221.51675480804,-30716.571893283355,-16842.911165107627
-17858.976764556977,-19268.50012165309,-30716.84011421682,-16842.86646161872
-17845.364552183695,-19232.2902956355,-30713.532056037435,-16834.529260936888
-17827.61726708618,-19168.49841696005,-30712.280358347936,-16830.99768531295
