 EXG Channel 0, EXG Channel 1, EXG Channel 2, EXG Channel 3
-14770.6362331672,-9287.820373513743,-8868.792220210102,-29823.530295316017
-15947.34382001684,-11136.510805667736,-8731.619564487883,-29206.286872182714
-15361.638708309974,-10909.662951190823,-8377.925560227104,-29211.338366429613
-14149.078923354022,-9546.966498728574,-8211.896802413083,-29646.77270016345
-13207.75755736322,-7951.387220786479,-8361.586435030275,-30184.868596180517
-14665.247758060428,-9158.224959161873,-8859.829170683524,-29872.48061567314
-15948.751979917524,-11100.077462205583,-8755.82650373298,-29229.242113738317
-15430.213860298856,-10964.625890806425,-8403.51830762843,-29199.424886634934
-14225.745406835726,-9643.168406864215,-8212.455596024465,-29614.20620849207
-13204.404795694923,-7986.904142725962,-8329.84695790374,-30166.406055260428
-14536.479358253404,-9017.476024326805,-8835.957507605257,-29905.1588660668
-15915.269066723476,-11040.37595276546,-8767.292948638553,-29243.05549181169
-15471.274014863257,-11014.425577452848,-8423.456063682564,-29187.39964811798
-14282.362375541015,-9743.371277257356,-8226.53719503131,-29589.060495979847
-13201.23084798227,-8045.108085287582,-8313.664294918097,-30148.502307951727
-14424.519470276771,-8906.991351484223,-8823.999324321667,-29955.383235857877
-15898.706424082093,-11004.41199593687,-8794.78559431858,-29282.931003919963
-15522.817137577194,-11064.918168177386,-8435.414246966153,-29178.54835731368
-14350.021106007232,-9833.85113881244,-8224.324372330233,-29561.880774722194
-13218.888726101964,-8106.351865095123,-8296.341692965234,-30133.548990911127
-14302.031910661688,-8788.54945761555,-8798.45128040925,-29986.586271117485
-15865.692897521603,-10944.106989396452,-8803.50277465615,-29296.967899437896
-15569.644042211065,-11107.7217588093,-8453.094476830302,-29172.088703166093
-14424.072435387665,-9933.20464291628,-8233.645049768096,-29542.188887857068
-13265.335651080091,-8196.965837116937,-8284.003530025904,-30117.567493625585
-14216.424729397862,-8692.280494246543,-8788.884733782379,-30038.732890931715
-15851.27602234793,-10886.372433468394,-8835.55517620506,-29340.95613252594
-15632.85477553067,-11160.87420712402,-8483.58225626734,-29168.601831031065
-14486.00911927332,-10008.21709730829,-8243.72568651744,-29511.254073530923
-13278.366718097535,-8243.368058606155,-8273.408803154089,-30081.469426330263
-14082.0236899881,-8545.563643641906,-8759.179265401277,-30057.038969640613
-15795.17314376511,-10782.526228729035,-8844.786446665103,-29362.30204848076
-15669.846912604204,-11177.97329163233,-8500.97191345357,-29159.370560571024
-14554.472512539924,-10085.554133123653,-8248.82188425325,-29485.348401707222
-13325.663009364964,-8327.07534159128,-8257.293195401811,-30058.42477779684
-13975.964662547667,-8444.846683126294,-8729.876128420368,-30090.54423457912
-15754.135340945166,-10702.730501023592,-8852.56485373555,-29389.77234241633
-15707.599008989217,-11196.346425574591,-8507.789195512438,-29151.569801756123
-14612.877620801642,-10162.377078816544,-8256.332070390234,-29462.68373282954
-13365.851445895609,-8416.147043245679,-8244.195073151002,-30032.072071084032
-13873.660728175728,-8356.289071594367,-8699.880087361347,-30123.468354161785
-15697.898351895614,-10620.274915727963,-8863.85248468548,-29420.79656372029
-15740.836052994258,-11237.250117927804,-8525.871756776782,-29143.4784702633
-14665.292461549338,-10244.340925734154,-8257.404954124087,-29430.698386514
-13405.391681837044,-8505.554021066908,-8232.683924756519,-29995.236396221688
-13771.937939159625,-8270.413669397078,-8674.66731961576,-30139.673368891883
-15641.661362846062,-10524.184766314598,-8880.146906393398,-29450.144404190112
-15776.30827144483,-11251.46582740138,-8545.36247794181,-29138.315217294126
-14750.609070135246,-10324.918964495537,-8267.709108317984,-29407.63138623612
-13480.605301929154,-8603.208792592144,-8221.731569973417,-29963.809843517527
-13680.005214214949,-8177.318653740723,-8634.724752274127,-30156.43717723336
-15570.18048407799,-10400.959599132491,-8882.382080838928,-29477.21236672549
-15807.198382282066,-11253.23161521335,-8559.041745548457,-29133.911923636428
-14819.050111657396,-10386.81094489228,-8280.963692779982,-29387.00072610387
-13551.281517896834,-8698.784851883036,-8223.58676476321,-29936.384253070864
-13600.723576631974,-8106.821251728685,-8608.66261823924,-30181.51583451221
-15506.276846680266,-10295.794641470273,-8896.910714734879,-29518.116059078704
-15846.76096996796,-11266.41914444198,-8598.157298345244,-29152.977961656805
-14885.859475834308,-10455.274338158886,-8301.706111634507,-29378.77528414432
-13601.036501054348,-8787.78949830407,-8220.524575772832,-29906.477618989666
-13515.652837235077,-8042.403524208489,-8579.426536491697,-30201.72181149981
-15428.33631376461,-10175.162276644978,-8898.073005446555,-29560.38320784369
-15865.782304499426,-11261.792333339732,-8600.973618146612,-29145.11014760854
-14948.824339964907,-10523.60362095876,-8301.527297678864,-29352.176708242503
-13676.831266502291,-8896.821307757058,-8216.568317004243,-29883.611784411885
-13445.356600923134,-8003.466785367344,-8549.922233810692,-30220.899608242467
-15349.546414559652,-10072.031327728191,-8902.85627875999,-29609.04295552289
-15896.985339759034,-11284.23348477286,-8623.124196901823,-29163.975019928817
-15002.06619525745,-10600.113642229277,-8307.02582681487,-29329.66850157601
-13736.443368964598,-9009.697617256355,-8215.517785014843,-29845.65852232677
-13385.65509148301,-7979.706881011353,-8528.553966111418,-30232.388404892496
-15255.512625636176,-9949.744933813206,-8907.863069517978,-29650.17016532066
-15907.691825353126,-11275.315138735192,-8647.28643265801,-29171.082874665604
-15065.232225088148,-10659.77044818049,-8329.712847437006,-29316.928007236485
-13805.644369798229,-9105.318380036162,-8215.62954373712,-29821.38452784831
-13336.25773623678,-7945.955746883839,-8486.599741768807,-30238.19985845088
-15174.95693861925,-9819.098987471938,-8899.659979302882,-29696.505331576507
-15928.34483722983,-11260.361821694592,-8664.117296232855,-29176.603755546064
-15133.717970099207,-10723.517623367026,-8337.625364974185,-29290.329431334667
-13879.27101603401,-9205.990637062863,-8211.67328496853,-29779.787931416984
-13283.6864332779,-7923.715761150809,-8457.363660021265,-30234.33300666011
-15076.609263015898,-9686.463735874146,-8903.035092715632,-29740.31475070891
-15952.864700897302,-11241.251080185304,-8685.753784865592,-29190.998278975283
-15198.91800867534,-10770.255121023074,-8344.621460988696,-29274.61615498259
-13955.982203004623,-9299.711501563968,-8215.406026292567,-29753.1223002818
-13261.759371967242,-7925.258031518225,-8439.951651090581,-30234.2883031712
-14975.132343188803,-9545.446580105612,-8891.590999554515,-29772.90359412475
-15966.119285359298,-11217.960562462877,-8706.876183375858,-29201.905930269477
-15267.448457175313,-10830.8059967525,-8363.03929841987,-29251.28093377125
-14032.179299852764,-9397.790956233854,-8215.696598970486,-29712.77740153997
-13231.696275674854,-7936.143331067959,-8411.989618776992,-30222.821858265623
-14865.742905824532,-9426.95998274803,-8892.105089676987,-29821.07160342593
-15952.283555541464,-11191.02671039423,-8721.114244593888,-29219.005014777784
-15322.433748535366,-10896.341311495462,-8378.082022438291,-29254.54428846172
-14105.470669921717,-9513.371826812248,-8216.165985604046,-29696.17005540968
-13211.13267077597,-7962.339575569579,-8379.579589316796,-30214.752878517254
-14751.749009102468,-9299.063300974763,-8880.102202904487,-29863.51756614656
-15941.353552502818,-11161.053021079662,-8749.500960052128,-29242.49669820031
-15375.13916196098,-10950.07490516602,-8400.098490726768,-29244.061320312183
-14170.313080586564,-9601.013016821506,-8219.898726928082,-29672.54426152042
-13210.015083553206,-7984.177229902414,-8351.84107444776,-30203.62170977852
-14638.291554247327,-9145.730334011358,-8856.811685182058,-29903.43778174374
-15936.413816978196,-11094.422470858392,-8759.581596801472,-29256.73475941834
-15429.498604476286,-10976.829943279025,-8405.909944285148,-29211.96421527436
-14232.830909828055,-9669.498761832569,-8225.710180486463,-29628.39956622119
-13201.879048571474,-8000.382244632512,-8332.551518982831,-30185.74031421427
-14514.798166131755,-8989.53634375767,-8837.566833206038,-29943.536811296563
-15917.414834191184,-11029.37889449345,-8784.950826758246,-29288.31777433369
-15491.077660450655,-11027.881327614945,-8431.010953308458,-29212.813581563663
-14305.719948496811,-9764.448972278711,-8224.547889774787,-29609.601749134275
-13213.680769643875,-8051.523035946255,-8306.243515758933,-30171.61401171852
-14405.52048748976,-8874.290749346108,-8817.338504473986,-29973.59990758895
-15899.891066538225,-10983.177838704329,-8796.663140852826,-29297.70550700492
-15539.066855796202,-11067.890950189943,-8451.90983437417,-29202.68824132541
-14362.716896857846,-9844.736438362175,-8224.682000241519,-29570.508548081943
-13230.355171007535,-8117.192461155947,-8283.3553294367,-30138.0640432911
-14291.548942512149,-8763.940186970256,-8787.49892562615,-30013.36366097494
-15870.833798746324,-10929.310134567038,-8804.1286235009,-29320.07960320468
-15591.191123865978,-11121.8257095606,-8459.800000166893,-29181.40938060396
-14441.864423974088,-9950.25902393568,-8235.813168980261,-29546.41336755912
-13269.314261593136,-8203.559601731253,-8271.955939764493,-30117.925121536868
-14185.311101116074,-8654.953081006179,-8770.153971928832,-30052.076882371533
-15836.680333218615,-10859.304470933015,-8828.089693556987,-29351.48380416439
-15647.38340942662,-11164.472837981324,-8487.851439458304,-29186.036191706204
-14515.8263463767,-10037.296716844645,-8247.614890052664,-29529.02371037289
-13303.288913165205,-8277.700338089508,-8266.993852495414,-30100.803685284103
-14077.665099819316,-8545.161312241711,-8755.155951399322,-30085.91742347687
-15802.616274668728,-10784.649644452293,-8845.859330398956,-29378.328249255213
-15680.039308075824,-11180.767259689244,-8499.340236108332,-29173.25099387777
-14573.873826727133,-10099.076938519114,-8253.53810233332,-29497.194826268536
-13339.051704293694,-8340.307574308823,-8255.169779678557,-30070.4500163138
-13968.543883388504,-8426.85352883977,-8727.484491763651,-30117.053403503112
-15751.58724207726,-10683.798573469949,-8861.907882917867,-29411.78881070481
-15724.653390008616,-11207.589353035612,-8514.11473919329,-29168.5347757977
-14639.8561763592,-10181.532523814742,-8262.590558837719,-29477.68175335905
-13386.504457772313,-8435.593060921796,-8253.113419188669,-30044.276123556632
-13855.354649466832,-8332.104484093725,-8704.708064163693,-30147.094148051045
-15691.505752981397,-10587.641368823217,-8883.499668061695,-29452.960723991484
-15756.884605513167,-11222.252097398294,-8548.111742509811,-29169.384142087
-14694.52854329688,-10249.772399636791,-8278.706166589996,-29454.748863547906
-13424.07774020168,-8517.109872950301,-8238.115398659158,-30014.011861564144
-13759.376258775745,-8244.463294084466,-8675.561389393974,-30175.88319490948
-15638.91209827806,-10496.133327023188,-8890.585171054026,-29485.393105196134
-15781.918559303112,-11239.41823713997,-8557.097143780846,-29165.24906936277
-14755.638212637688,-10323.488452850395,-8283.020053269871,-29431.01131093637
-13478.57129318372,-8610.786033962493,-8232.236889867412,-29980.350134414453
-13659.016926171416,-8162.90177856705,-8647.979336736124,-30192.66935499541
-15563.31849853021,-10386.900351870105,-8896.016644956666,-29514.673890432587
-15820.452966744062,-11262.507589162302,-8567.446001463652,-29163.952668184364
-14831.589440296822,-10406.167555590577,-8285.657559115596,-29409.173656603536
-13561.518616857364,-8719.482567248651,-8231.007543922371,-29958.64659054835
-13589.726518359965,-8102.999103426827,-8623.392417835286,-30222.03954720969
-15496.039747719737,-10285.579894254195,-8904.510307849683,-29557.253963619944
-15843.296449577389,-11273.169371267482,-8590.669463952716,-29171.462854321344
-14891.38035671477,-10473.491009889962,-8297.280466232356,-29389.05708659376
-13612.949980849024,-8814.902164328358,-8217.976476904927,-29917.34056679494
-13491.155325312058,-8033.060495026171,-8572.609254432828,-30223.15713443245
-15413.67356940193,-10160.857160193582,-8906.991351484223,-29599.61051936275
-15883.306072152383,-11282.534752194257,-8619.480862555607,-29179.42007534744
-14958.815569736433,-10543.04963863488,-8313.954867596016,-29361.34092346918
-13684.319100894822,-8917.921354522867,-8224.905517686071,-29885.06464780148
-13433.75604555083,-7989.854572994062,-8556.404239702732,-30236.41171889445
-15333.207289362825,-10040.291850601656,-8920.38004641295,-29635.753290146986
-15900.785136316435,-11282.534752194257,-8647.889929758303,-29182.81754050464
-15020.819308855453,-10617.682113371147,-8337.133626596169,-29345.739405839373
-13745.85345338028,-9021.991076706778,-8227.721837487441,-29852.520507874557
-13357.670707424964,-7944.972270127806,-8514.762939782493,-30243.385463164504
-15230.791596268607,-9911.925782194829,-8910.031188730143,-29669.794996952416
-15907.20008697511,-11268.073173531671,-8661.47979038713,-29194.283985410213
-15072.78711471404,-10667.459448273115,-8339.681725464074,-29332.19424869946
-13815.12150944728,-9120.89754592151,-8221.172776362035,-29819.37287084733
-13317.169346471948,-7929.326049009092,-8495.58514303984,-30246.40294866597
-15141.563432403022,-9779.826972463963,-8917.071988233565,-29715.6160730858
-15934.692732655138,-11260.138304250038,-8688.614808155871,-29201.548302358187
-15148.246603995158,-10733.218280460633,-8360.267682107411,-29312.65882404552
-13896.258341820045,-9224.229660538394,-8222.692694984997,-29786.962841387136
-13280.266616376235,-7924.967458840306,-8466.751392692495,-30247.095852744085
-15054.369277282867,-9655.305404103448,-8916.33438066654,-29755.491585194064
-15941.845290880836,-11231.12573994705,-8702.316427506976,-29202.82235179214
-15200.884962187403,-10785.364900274864,-8369.476600822998,-29287.53546327776
-13963.447685652696,-9320.78919658532,-8229.711142743963,-29763.024123075505
-13243.654458958445,-7920.050075060139,-8439.616374923751,-30245.531230632216
-14942.34233407287,-9514.131786123728,-8907.773662540158,-29803.81605670644
-15945.44392173814,-11201.375568077035,-8723.483529506151,-29217.97683453284
-15269.102486265005,-10841.9595172357,-8379.601941061252,-29263.93202113295
-14041.96936392419,-9422.847261768256,-8227.788892720806,-29724.422660401186
-13227.784720395175,-7937.886767135474,-8413.62129612223,-30239.09392822909
-14845.536928836937,-9392.024206164386,-8897.916543235367,-29838.21539142316
-15954.026991608978,-11180.387280033505,-8743.913023938301,-29236.998169064307
-15326.345303815044,-10899.11292780792,-8394.71172031304,-29260.936887375938
-14107.616437389426,-9521.731379238532,-8233.890918957106,-29694.96306120909
-13205.65649338442,-7964.395936059468,-8396.410452891643,-30221.0337187092
-14714.756872028933,-9252.63872774109,-8884.080813417533,-29876.347467463907
-15938.380770490265,-11143.261032493238,-8758.0169746896,-29247.905820358494
-15386.292682444178,-10960.468466337736,-8406.155813474157,-29233.98068356284
-14184.439383082316,-9622.00130486504,-8232.683924756519,-29664.4529300276
-13204.76242360621,-7999.309360898657,-8367.509647310932,-30215.289320384185
-14605.881524787132,-9123.020961644765,-8871.429726055829,-29930.662206490302
-15933.9104215992,-11098.892819749452,-8785.487268625173,-29277.92421316197
-15450.82216868665,-11015.006722808686,-8433.737866132005,-29233.466593440367
-14249.415904213894,-9716.593887399898,-8242.362230105666,-29645.47629898504
-13205.678845128876,-8042.694096886408,-8345.426123789088,-30202.124142900007
-14500.224828746896,-8999.661683995924,-8851.268452557142,-29963.20634641723
-15912.698616111114,-11046.209758068297,-8805.380321190396,-29294.17393138098
-15487.702547037909,-11051.730638948757,-8458.078915843835,-29217.73096534383
-14317.387559102484,-9802.60340006392,-8254.499227344899,-29619.257702738967
-13223.202612781835,-8092.762004466296,-8336.060742862313,-30184.198043846853
-14379.145429032496,-8873.039051656611,-8840.092580329489,-30008.312166728043
-15880.445048862106,-10990.12923122993,-8820.579507420005,-29320.48193460488
-15532.540146415253,-11091.650854545936,-8461.409325767676,-29206.286872182714
-14373.08810628511,-9884.209619070249,-8243.72568651744,-29588.09937096827
-13239.452331000844,-8152.932900539983,-8313.93251585156,-30165.288468037663
-14264.77155265469,-8743.935375682757,-8812.778748605102,-30036.475364741727
-15854.65113576068,-10912.881602392388,-8824.535766188594,-29337.491612135367
-15594.0297954118,-11132.48749166578,-8474.663910229672,-29192.87582550953
-14447.966450210388,-9968.810971833584,-8252.644032555108,-29551.26369610592
-13268.017860414728,-8218.267049582846,-8298.06277728829,-30128.586903642048
-14140.138225571898,-8618.586792777394,-8784.123812213398,-30063.364513321463
-15806.438422970585,-10834.449331098716,-8844.026487353622,-29360.71507462443
-15635.581688354216,-11166.126867071018,-8494.691073261629,-29178.794226502687
-14515.245201020862,-10056.18394090938,-8253.06871569976,-29521.804096913827
-13302.573657342631,-8298.554515666308,-8273.252340942901,-30099.261414916687
-14038.34838132243,-8522.608402086307,-8757.793457245047,-30105.139923708437
-15776.330623189286,-10766.611786676858,-8862.310214318064,-29397.886025653606
-15686.253093034398,-11211.478556570835,-8522.697809064128,-29181.76700851524
-14591.46464961346,-10154.77748570174,-8284.383509681644,-29520.395937013145
-13361.090524326626,-8401.66311283864,-8284.607027126196,-30094.81341777008
-13947.957926745168,-8437.71647664505,-8756.944090955745,-30153.48674696526
-15745.149939674133,-10694.661521275226,-8903.52683109365,-29450.189107679023
-15731.850651723224,-11238.345353406115,-8556.203074002633,-29193.76989528774
-14645.37705723966,-10216.803576565217,-8283.422384670066,-29488.857625586705
-13394.2605130983,-8465.879674658738,-8258.276672157845,-30050.288742815108
-13829.918364276691,-8319.386341498655,-8705.535078708539,-30158.62764818998
-15675.680717907038,-10579.572389074849,-8892.887400732923,-29465.54475611982
-15770.094486486256,-11253.097504746618,-8554.549044912941,-29182.236395148804
-14719.54014534237,-10292.330121079698,-8274.772259565862,-29456.53700310433
-13453.85026381615,-8567.401297974742,-8239.791779493306,-30013.69893714177
-13746.211081291567,-8247.81605575276,-8671.493371903107,-30188.958965415837
-15631.0889877187,-10487.751422852449,-8897.290694390618,-29499.87703560317
-15812.65220792916,-11270.934196821952,-8571.469315465607,-29172.468682821836
-14789.456401998568,-10370.918854584555,-8291.647826629618,-29435.28049412733
-13502.107680095158,-8655.757743806571,-8231.946317189493,-29973.711666311225
-13643.191891097056,-8164.265234978824,-8644.112484945355,-30197.005593419744
-15548.678105911984,-10375.43390696453,-8909.71826430777,-29534.298722064344
-15840.703647220573,-11285.686348162457,-8583.449850493653,-29169.63001127601
-14850.811940528389,-10438.599936795228,-8283.936474792537,-29403.518665256343
-13569.297023927811,-8761.772067758093,-8219.295229827789,-29948.02951193208
-13559.775180789851,-8100.3168940921905,-8601.733577458093,-30222.196009420877
-15472.21278813038,-10260.255367786332,-8907.505441606694,-29570.79912075986
-15849.689048491604,-11283.071194061184,-8609.199060106166,-29179.06244743615
-14902.489173709057,-10503.375292226709,-8312.725521650973,-29388.43123774901
-13640.084998617767,-8867.317005076053,-8243.256299883878,-29923.219075586687
-13494.731604424907,-8051.88066385754,-8589.149545329756,-30241.15028871897
-15400.66485412894,-10147.937851898414,-8925.029209259656,-29615.10027827028
-15881.987319229524,-11289.866124375598,-8637.451665097675,-29188.15960742946
-14968.985613463596,-10569.178827903132,-8322.873213633682,-29368.56053692824
-13705.061519749346,-8958.82504687608,-8226.023104908838,-29888.909147847797
-13418.42274885449,-7990.4357183499005,-8545.049553519435,-30238.713948573342
-15309.425033262378,-10009.491146742244,-8915.261496932686,-29642.52586871694
-15905.479002652051,-11281.841848116144,-8650.28156641502,-29181.72230502633
-15035.772625896052,-10631.584898422348,-8336.396019029144,-29346.76758608432
-13776.073011883856,-9059.184379480408,-8228.995886921393,-29852.073472985445
-13370.567663975677,-7968.039270405683,-8528.464559133598,-30251.879126057524
-15233.049122458591,-9899.319398322034,-8928.739598839236,-29687.96696519458
-15934.312752999396,-11284.52405745078,-8670.889874802813,-29187.578462073623
-15108.572257586988,-10708.430195859695,-8346.566062756308,-29317.33033863668
-13846.659820873718,-9171.636005835058,-8235.29907885779,-29817.584731290903
-13312.050796991683,-7954.71763071032,-8494.221686628067,-30252.97436153583
-15133.360342187923,-9788.924132457272,-8918.52485162316,-29734.50329715053
-15944.236927537551,-11288.100336563628,-8692.504011691095,-29213.528837386235
-15177.728554931708,-10785.007272363577,-8368.068440922314,-29314.201094412936
-13933.585755060409,-9291.88839100461,-8233.86856721265,-29792.79664668997
-13282.077107677116,-7958.338613312079,-8456.58134896533,-30252.504974902276
-15033.4480444727,-9653.6290232693,-8910.657037574892,-29772.79183540247
-15962.833578924368,-11264.586301396645,-8710.787738655537,-29217.462744410368
-15235.932497493328,-10833.465854342685,-8374.058708436336,-29293.6151377696
-13988.90632258729,-9371.974691387975,-8233.354477090177,-29764.924021354203
-13240.771083923708,-7945.911043394929,-8437.090627800302,-30261.26685872875
-14919.47649949509,-9505.571067997344,-8908.645380573915,-29831.62162680884
-15956.664497454703,-11222.721484031856,-8729.138520853343,-29232.3490062176
-15299.45615523531,-10883.48905843366,-8396.119880213724,-29278.19243409544
-14075.78755328507,-9473.026928070418,-8238.294212614801,-29736.336140195865
-13235.071389087603,-7962.853665692051,-8414.38125543371,-30246.805280066168
-14825.398007082702,-9375.75213620092,-8899.1011856915,-29860.05304575599
-15968.77914294948,-11194.155954617972,-8747.131675139866,-29247.19056453593
-15359.872920498005,-10937.289707337584,-8401.104319227257,-29261.13805307604
-14143.602745962473,-9566.434868149146,-8231.700448000485,-29700.64040430074
-13221.816804625609,-7988.155840415459,-8385.23458066399,-30236.36701540554
-14704.676235279589,-9235.003201365853,-8876.928255191833,-29900.28618577554
-15951.747113674535,-11145.16093077194,-8765.191884659755,-29266.63658221204
-15411.751319378773,-10983.446059637792,-8420.28211596991,-29256.667704184976
-14209.205115938796,-9655.394811081267,-8239.121227159647,-29682.37902908076
-13207.712853874307,-8016.58725936261,-8356.356126827732,-30225.28055015571
-14589.184771679018,-9102.233839301329,-8854.107124102966,-29951.516384067105
-15944.594555448835,-11100.39038662796,-8775.920721998302,-29299.426591327978
-15469.642337518018,-11029.401246237903,-8423.76898810494,-29250.431567481945
-14280.998919129244,-9745.964079614172,-8238.003639936882,-29662.575383493357
-13220.766272636209,-8062.296576773713,-8339.07822836378,-30216.02692795121
-14471.614595844105,-8965.083535323565,-8845.300536787574,-29993.26944270962
-15912.229229477553,-11027.769568892669,-8809.537745659083,-29319.319643893203
-15518.12327124158,-11064.940519921842,-8453.76502916396,-29223.22949447984
-14335.26895466673,-9815.27683917008,-8237.936584703515,-29611.412240435155
-13222.196784281348,-8095.243048100835,-8307.40580647061,-30175.234994320275
-14350.624603107526,-8825.563946433538,-8814.388074205885,-30019.37628023342
-15879.059240705878,-10954.925233712822,-8812.041141038078,-29335.14467896756
-15559.116370572612,-11090.980302212276,-8459.397668766698,-29214.333500186625
-14406.414557267972,-9900.839316944996,-8245.58088130723,-29594.08963848229
-13253.511578263233,-8162.633557633586,-8297.995722054926,-30167.7695116722
-14248.253613502218,-8710.184241555244,-8796.685492597282,-30064.839728455518
-15865.37997309923,-10900.476384219694,-8835.152844804865,-29373.075589308213
-15621.254220158366,-11143.216329004328,-8485.213933612578,-29210.4442966514
-14483.393965172048,-9998.203515792313,-8254.767448278362,-29561.79136774437
-13290.615474059045,-8246.787875507818,-8294.017111541882,-30137.72876712427
-14134.259716780152,-8606.114519371333,-8780.435774378273,-30093.360554380484
-15826.0856063468,-10827.117958917375,-8846.574586221526,-29392.00751686186
-15677.535912696829,-11193.239533095304,-8501.642465787229,-29204.945767515397
-14554.9866026624,-10095.590066384086,-8259.081334958237,-29538.634960488675
-13327.093521010103,-8336.999516129437,-8273.967596765471,-30117.053403503112
-14019.170584579775,-8501.307189620398,-8746.170550128289,-30133.928970566867
-15769.78156206388,-10746.964603300645,-8861.058516628565,-29428.910246957574
-15709.409500290098,-11214.965428705864,-8519.300343906922,-29201.168322702448
-14619.583144138234,-10165.327509084644,-8270.413669397078,-29519.054832345824
-13366.253777295802,-8404.747653573473,-8261.808247781784,-30088.44317060032
-13907.054234391955,-8383.46879285202,-8723.68469520625,-30164.28263953717
-15722.194698118532,-10644.325392761872,-8881.040976171611,-29457.27461067136
-15753.0177537224,-11233.226803925849,-8540.02041101699,-29194.038116221207
-14690.371118828192,-10240.16114952101,-8282.97534978096,-29497.954785580016
-13430.55974609372,-8497.529744807453,-8256.980270979437,-30059.452958041784
-13818.898954260225,-8295.425271442566,-8701.109433306388,-30190.523587527703
-15678.42998247504,-10553.979641673524,-8902.453947359794,-29495.78666636785
-15790.434573940584,-11255.444437914424,-8571.178742787688,-29196.07212496664
-14746.608107877746,-10313.13959516759,-8291.960751051993,-29469.29984918831
-13475.71026989344,-8588.188420318178,-8243.144541161602,-30022.05848956805
-13711.252952963468,-8212.67911346902,-8669.81699106896,-30212.31653837163
-15599.438917569983,-10448.63587005566,-8903.079796204544,-29528.50962025042
-15814.239181785488,-11272.56587416719,-8581.92993187069,-29194.507502854765
-14811.40581505368,-10392.711805428482,-8304.678893647062,-29448.11039544468
-13535.411779333566,-8695.186221025733,-8243.166892906058,-29991.54835838656
-13627.009228111414,-8147.032040003782,-8639.038638954002,-30232.88014327051
-15530.282620225264,-10337.90532802407,-8907.125461950955,-29563.75832125644
-15847.766798468449,-11283.875856861576,-8597.352635544854,-29192.40643887597
-14869.095667492827,-10452.50272184643,-8303.226030257467,-29419.567217775253
-13595.716785873983,-8784.481440124684,-8238.853006226183,-29963.29575339505
-13544.374828860144,-8073.271283301268,-8604.080510625901,-30245.55358237667
-15462.735648481328,-10219.821062066683,-8917.29550567812,-29602.71741184204
-15889.653967577691,-11292.637740688057,-8621.112539900845,-29197.748505800788
-14956.736857502086,-10535.65121122017,-8315.74300715244,-29400.72469719943
-13679.491124092476,-8898.09535719101,-8233.510939301364,-29931.511572779607
-13477.297243749768,-8028.344276946102,-8576.654920179239,-30263.32321921864
-15383.2304934538,-10104.57546765512,-8918.770720812168,-29642.659979183674
-15911.20104923261,-11290.268455775791,-8628.46626382664,-29199.313127912657
-15016.885401831318,-10592.446993881107,-8321.688571177552,-29378.708228910957
-13749.943822615603,-8994.677244982391,-8229.778197977328,-29901.269662531577
-13414.08651043016,-7980.735061256298,-8544.557815141417,-30271.28044024473
-15297.377443000967,-9976.343509715023,-8924.358656925995,-29683.80954072589
-15934.044532065933,-11287.653301674522,-8660.250444442087,-29209.75139257329
-15077.83860896094,-10659.815151669402,-8343.168597599102,-29358.368141456624
-13813.579239079863,-9093.60606594158,-8227.900651443082,-29860.522432389556
-13352.395695733512,-7945.754581183742,-8511.879564747758,-30272.062751300666
-15193.330072561512,-9838.679115614786,-8919.821252801568,-29721.27106443299
-15941.9123461142,-11271.80591485571,-8679.38353769583,-29217.86507581056
-15139.060037024026,-10720.231916932096,-8355.260891349422,-29344.24183896087
-13887.161181826734,-9193.29484621225,-8232.527462545331,-29833.25330415408
-13307.96042775636,-7928.811958886619,-8491.29360810442,-30274.47673970184
-15097.284626637058,-9705.887401805809,-8929.879537806457,-29765.683980665683
-15951.702410185626,-11244.626193598056,-8701.377654239852,-29221.374299690047
-15197.554552263566,-10770.27747276753,-8371.398850846153,-29313.23996940136
-13961.19015946271,-9297.40927188507,-8237.891881214606,-29793.78012344601
-13271.661194760944,-7925.973287340795,-8456.558997220875,-30263.725550618838
-15000.188648723204,-9576.224932220572,-8919.418921401373,-29803.52548402852
-15977.429268053684,-11236.17723419395,-8736.268727334587,-29240.48504119933
-15280.032489303649,-10843.412380625294,-8397.595095347773,-29305.573321053187
-14035.710875476703,-9396.315741099805,-8238.048343425793,-29764.678152165197
-13247.208386326836,-7936.411552001424,-8434.028438809924,-30265.826614597638
-14895.89540909474,-9446.33894519078,-8912.534584109138,-29852.900487530293
-15973.003622651531,-11206.807041979677,-8753.68073626527,-29262.2556402988
-15328.602830005031,-10893.077956804986,-8411.252011209966,-29296.00677442632
-14099.949789041257,-9489.54486722289,-8239.210634137467,-29739.37597744179
-13233.015028597716,-7954.963499899328,-8413.554240888863,-30267.123015776044
-14777.766439648443,-9305.098271977697,-8905.896116005912,-29909.472752746675
-15967.169817348698,-11169.099649083571,-8773.59614057495,-29288.80951271171
-15388.4831534008,-10950.20901563275,-8426.585307906307,-29284.965012665398
-14167.630871251926,-9585.791478847445,-8249.06775344226,-29709.9610817386
-13222.33089474808,-7986.278293881213,-8393.012987734435,-30253.868431314044
-14670.366307540691,-9176.508686126315,-8896.754252523691,-29943.13447989637
-15951.1659683187,-11113.890840278966,-8792.662178595327,-29299.381887839067
-15440.406255770476,-10984.02720499363,-8439.236395268012,-29269.475253757868
-14244.565575667091,-9676.427802613713,-8256.667346557064,-29684.904776204203
-13223.269668015202,-8024.96916353335,-8371.510609568431,-30238.55748636216
-14553.287870083794,-9048.79081830869,-8869.37336556594,-29983.50173038265
-15933.9104215992,-11070.059069402108,-8801.69228335527,-29320.101954949136
-15488.283692393745,-11039.101903331508,-8459.285910044422,-29255.08073032865
-14299.148535626951,-9772.674414238263,-8256.555587834786,-29648.091453086312
-13220.498051702743,-8077.384004281045,-8342.252176076434,-30206.572140046614
-14430.554441279704,-8919.374217912462,-8852.922481646834,-30012.491942941186
-15907.043624763925,-11012.36921696296,-8821.31711498703,-29336.50813537933
-15549.348658245644,-11092.924903979889,-8467.891331659715,-29241.04383481072
-14374.451562696882,-9862.975461837705,-8249.045401697804,-29616.709603871062
-13251.455217773346,-8139.298336422245,-8322.493233977943,-30187.371991559507
-14325.814166762137,-8804.665065367826,-8829.94488834678,-30050.825184682035
-15889.00576698849,-10960.468466337736,-8833.342353503986,-29357.2282024894
-15592.174600622013,-11128.665343363922,-8481.883523688737,-29225.956407303383
-14446.535938565248,-9952.91888152586,-8262.814076282273,-29592.077981481318
-13280.937168709896,-8211.740340201895,-8311.540879194841,-30165.713151182317
-14224.694874846326,-8696.214401270676,-8814.902164328358,-30090.0524962011
-15872.890159236213,-10900.096404563952,-8872.033223156122,-29395.62849946362
-15657.441694431507,-11177.6380154655,-8522.362532897298,-29228.437450937923
-14520.520212712314,-10042.370562836,-8276.426288655555,-29571.559080071343
-13315.381206915525,-8282.036576513836,-8294.844126086728,-30140.14275552544
-14100.9779692862,-8570.374079987298,-8780.413422633817,-30117.0087000142
-15817.636646942694,-10813.86337445538,-8876.950606936289,-29422.89762769909
-15692.779802415347,-11209.891582714508,-8535.25948944801,-29228.79507884921
-14584.490905343404,-10128.402427244477,-8292.206620241,-29555.46582406352
-13351.814550377674,-8372.136458413179,-8297.16870751008,-30120.227351215763
-13990.67211039926,-8474.418041040664,-8768.410535861318,-30155.40899698842
-15767.278166684888,-10729.17261471422,-8889.825211742545,-29445.607000065687
-15725.413349320095,-11229.784635279731,-8538.902823794226,-29201.25772968027
-14635.296420490316,-10195.457660610398,-8282.863591058684,-29508.81773338529
-13384.470449026878,-8444.153779048178,-8275.956902021993,-30078.42958908434
-13873.101934564344,-8361.65349026364,-8729.943183653735,-30176.95607864333
-15701.362872286189,-10620.498433172515,-8892.015682699166,-29474.41839866858
-15757.197529935544,-11243.307440675191,-8550.481027422074,-29198.01672673425
-14701.725805011489,-10265.1727515665,-8284.338806192733,-29477.39118068113
-13433.376065895089,-8528.35280041132,-8251.861721499172,-30038.576428720527
-13765.00889837848,-8268.178494951546,-8692.615770413371,-30196.84913120856
-15631.603077841171,-10514.75233015446,-8904.309142149585,-29507.141352551145
-15788.244102983965,-11265.815647341688,-8586.13205982829,-29201.74946805829
-14759.01332605044,-10344.543796127296,-8308.746911137929,-29470.23862245544
-13494.77630791382,-8631.483749328107,-8255.214483167469,-30021.3879372344
-13684.27439740591,-8194.618903949131,-8672.074517258945,-30227.962759490343
-15587.36897556412,-10418.192794107532,-8927.443197660828,-29552.18011762859
-15832.612315727749,-11272.923502078474,-8604.728711215104,-29200.96715700235
-14837.535004321937,-10405.988741634936,-8318.469919975987,-29443.416529109065
-13562.189169191024,-8717.828538158958,-8257.024974468348,-29981.66888733732
-13597.996663808426,-8105.770719739285,-8648.716944303149,-30240.07740498512
-15501.985311744847,-10280.3272343072,-8942.888253079445,-29592.79323730388
-15865.42467658814,-11284.457002217414,-8629.449740582675,-29210.06431699566
-14899.42698471868,-10482.163486738622,-8324.057856089814,-29415.700365984485
-13613.911105860603,-8819.976010319711,-8249.470084842455,-29947.56012529852
-13515.071691879237,-8055.59105343712,-8613.267077597033,-30261.736245362317
-15432.471386488842,-10179.140887158024,-8937.590889643538,-29626.656130153675
-15883.686051808128,-11284.99344408434,-8642.436104111208,-29207.40445940548
-14957.586223791388,-10550.04573464939,-8333.043257360847,-29398.51187449836
-13694.533848110896,-8939.177863499865,-8252.554625577286,-29930.170468112286
-13445.155435223036,-8020.498814642288,-8580.924103370202,-30280.779931638237
-15339.264612110212,-10068.902083504448,-8932.38293318545,-29667.738636462527
-15891.62092108976,-11287.586246441157,-8653.097886216388,-29210.06431699566
-15011.968018051151,-10612.250639468508,-8341.134588853669,-29372.136816041093
-13754.078895339837,-9028.45073085436,-8246.184378407524,-29853.9957230086
-13373.920425643972,-7970.095630895571,-8544.803684330427,-30186.81319794812
-15238.547651594596,-9931.841186504504,-8938.283793721652,-29608.350051444777
-15910.396386432218,-11286.334548751658,-8685.731433121138,-29125.19474329886
-15073.278853092055,-10689.520620050504,-8362.391097830665,-29263.3061722882
-13804.236209897545,-9134.599165272612,-8241.043477182804,-29758.03968406197
-13297.63392181801,-7942.670040448909,-8503.430605343652,-30177.917203654917
-15120.999827504138,-9788.588856290444,-8920.67061909087,-29640.06717682686
-15915.850212079313,-11264.921577563477,-8697.1531745378,-29123.831286887085
-15138.724760857198,-10747.545748656485,-8371.734127012984,-29245.69299765742
-13893.3302632964,-9238.266556056327,-8236.886052714117,-29731.97755002708
-13274.321052351124,-7936.098627579049,-8478.284892831432,-30182.767532201717
-15047.797864413007,-9675.5337328355,-8918.368389411973,-29691.96792745208
-15947.790854905948,-11259.46775191638,-8708.172584554266,-29150.45221453336
-15212.53022104862,-10811.024702909554,-8380.451307350553,-29236.193506263917
-13980.569121905462,-9349.220615532471,-8249.380677864632,-29711.749221295027
-13255.590290497576,-7943.608813716032,-8457.274253043444,-30189.92009042741
-14944.599860262855,-9533.242527633016,-8910.075892219054,-29744.00278854404
-15947.612040950304,-11221.670952042456,-8726.836291174448,-29169.22767987581
-15272.343489211022,-10860.936148278255,-8394.175278446111,-29219.697918855894
-14049.501901805628,-9439.946346276563,-8248.620718553153,-29685.709439004597
-13241.262822301724,-7961.669023235921,-8431.122712030734,-30200.112485899037
-14858.053905731906,-9417.326380887793,-8912.556935853594,-29804.75482997356
-15968.890901671755,-11203.342521589104,-8763.470800336696,-29204.185808203914
-15346.953612202838,-10918.648352461858,-8419.365694447242,-29224.324729958145
-14129.588202188994,-9534.02483868895,-8251.30292788779,-29663.24593582701
-13232.970325108809,-7972.800191974663,-8403.965342517537,-30191.68587823938
-14749.670296868122,-9279.97491120993,-8898.162412424375,-29846.329074660436
-15954.049343353432,-11162.237663535794,-8775.83131502048,-29220.3461194451
-15380.257711441243,-10961.36253611595,-8425.557127661363,-29207.89619778349
-14177.778563234637,-9623.632982210276,-8250.006526709381,-29637.80965063687
-13209.813917853107,-8006.931305757917,-8381.255970150945,-30180.800578689646
-14620.208992982984,-9139.605956030602,-8880.035147671122,-29885.28816524603
-15935.54209894444,-11102.75967154022,-8789.30941692703,-29233.824221351653
-15442.686133704918,-11005.976618048742,-8442.455046469575,-29192.272328409235
-14249.48295944726,-9711.520041408545,-8248.240738897412,-29599.901092040676
-13204.158926505916,-8040.25775674078,-8348.46596103501,-30149.798709130137
-14500.805974102734,-9010.748149245755,-8858.622176482937,-29920.06747961849
-15924.813261605892,-11067.734487978756,-8806.721425857715,-29257.092387329627
-15497.582018087152,-11055.552787250614,-8446.746581404994,-29182.54931957118
-14321.187355659886,-9811.119414701392,-8236.72959050293,-29571.782597515896
-13228.56703145111,-8113.571478554187,-8321.576812455274,-30135.314778723096
-14384.956882590875,-8892.395662354906,-8828.089693556987,-29961.999352216644
-15888.625787332749,-11003.853202325488,-8813.717521872226,-29282.014582397293
-15547.001725077836,-11114.471985634802,-8461.834008912327,-29172.06635142164
-14384.956882590875,-9907.72365423723,-8250.67707904304,-29557.589239786776
-13248.124807849505,-8174.681147894997,-8306.757605881407,-30130.017415287188
-14271.700593435837,-8765.92949222678,-8806.922591557812,-30010.05560279556
-15864.62001378775,-10929.265431078127,-8835.354010504963,-29322.739460794863
-15593.359243078145,-11132.889823065976,-8484.990416168024,-29173.72038051133
-14452.973240968377,-9973.862466080484,-8258.835465769227,-29533.22583833049
-13277.24913087477,-8225.687828742008,-8292.765413852383,-30103.44119112983
-14159.651298481382,-8636.602298808373,-8790.248190194154,-30050.37814979293
-15827.538469736395,-10840.350191634918,-8854.777676436624,-29351.684969864487
-15650.71381935046,-11165.009279848253,-8507.789195512438,-29169.40649383146
-14525.482299981391,-10054.909891475429,-8272.917064776071,-29518.56309396781
-13307.468689378346,-8297.414576699088,-8284.74113759293,-30081.827054241545
-14040.941183679246,-8522.20607068611,-8765.102477681932,-30079.256603629183
-15779.102239501744,-10763.259025008563,-8865.573569008538,-29376.987144587893
-15691.86338089268,-11204.773033234243,-8523.100140464323,-29161.22575536081
-14589.341233890204,-10143.15457858498,-8278.54970437881,-29486.331878463257
-13345.220785763358,-8385.011063219436,-8273.453506642998,-30056.50252777368
-13940.045409207987,-8426.562956161852,-8745.96938442819,-30124.317720451087
-15740.009038449412,-10683.552704280935,-8889.33347336453,-29421.75768873188
-15745.39580886314,-11239.7535133068,-8552.224463489589,-29167.2830781082
-14670.18749358505,-10228.135911004056,-8284.539971892831,-29457.453424627
-13402.731824246865,-8475.312110818877,-8255.661518056575,-30017.543437188084
-13830.63362009926,-8321.733274666462,-8696.460270459685,-30130.24093273174
-15680.508694709384,-10581.47228735355,-8889.33347336453,-29439.147345918103
-15783.326719203797,-11263.021679284771,-8563.109763039323,-29156.598944258567
-14735.834567050288,-10305.405891586051,-8285.948131793515,-29432.64298828161
-13471.061107046737,-8580.722937670105,-8256.287366901322,-29996.108114255443
-13747.440427236608,-8254.074544200248,-8686.647854643805,-30164.953191870834
-15616.694464289483,-10484.577475139797,-8901.112842692477,-29475.491282402432
-15799.218809511522,-11271.582397411155,-8582.756946415539,-29154.743749468777
-14776.87236987023,-10364.928587070535,-8300.856745345205,-29401.886987911104
-13507.025063875326,-8658.886988030314,-8249.045401697804,-29951.762253256114
-13629.51262349041,-8146.763819070318,-8645.878272757325,-30174.96677338681
-15527.93568705746,-10352.702182853483,-8914.143909709921,-29514.405669499123
-15819.60360045476,-11269.973071810376,-8601.666522224728,-29155.034322146694
-14829.018989684462,-10426.284125600354,-8304.030693057859,-29384.899662125077
-13561.004526734892,-8755.670041521793,-8240.328221360234,-29918.279340062065
-13549.2475091514,-8095.041882400737,-8617.312743343442,-30198.234939364786
-15452.38679079852,-10256.567329951207,-8917.09433997802,-29549.90023969415
-15836.590926240797,-11284.32289175068,-8614.071740397423,-29151.547450011665
-14899.47168820759,-10510.349036496764,-8318.268754275889,-29360.96094381344
-13626.763358922406,-8866.80291495358,-8240.909366716072,-29891.09961880441
-13478.817162372728,-8051.500684201799,-8592.234086064587,-30208.539093558684
-15399.346101206078,-10159.381945059533,-8931.712380851792,-29584.120760455226
-15877.919301738655,-11294.04590058874,-8633.763627262548,-29152.977961656805
-14972.852465254364,-10578.0971739408,-8323.610821200708,-29334.630588845088
-13700.56881911383,-8970.403250503929,-8231.38752357811,-29850.30768517348
-13409.526754561277,-8003.243267922791,-8547.508245409519,-30213.277663383207
-15293.912922610394,-10013.335646788555,-8916.401435899907,-29624.264493496958
-15897.0523949924,-11285.641644673544,-8653.835493783414,-29163.840909462084
-15037.001971841097,-10641.084389815856,-8346.051972633835,-29324.840524773663
-13778.419945051664,-9069.08620227411,-8235.030857924326,-29825.452545339176
-13345.041971807716,-7957.601005745055,-8515.053512460412,-30221.59251232058
-15203.075433144026,-9880.119249834926,-8919.15070046791,-29668.051560884905
-15923.24863949402,-11279.271397503782,-8677.95302605069,-29176.5367003127
-15100.50327783862,-10708.653713304248,-8354.456228549032,-29305.752135008832
-13845.855158073326,-9179.950854772433,-8236.215500380456,-29801.82675144992
-13304.227686432325,-7955.701107466353,-8501.106023920302,-30239.85388754057
-15106.024158719085,-9758.346946042411,-8924.828043559557,-29722.142782466744
-15929.954162830612,-11261.881740317553,-8696.639084415327,-29194.462799365858
-15158.99779307816,-10757.715792383648,-8363.262815864422,-29295.112704648105
-13915.056158906957,-9268.731983748912,-8232.214538122957,-29777.329239526895
-13260.19474985537,-7934.221081044803,-8460.179979822633,-30240.50208812977
-15002.78145108002,-9620.995476364553,-8912.28871492013,-29764.83461437638
-15933.753959388014,-11238.5018156173,-8718.566145725983,-29204.65519483748
-15219.123985662936,-10821.306505358996,-8383.558199829842,-29273.6103264821
-13978.915092815769,-9367.213769818994,-8241.2446428829,-29734.279779705976
-13224.5213657047,-7936.165682812415,-8448.557072705875,-30232.120183959032
-14902.04213881995,-9491.623579457231,-8919.754197568202,-29804.82188520693
-15931.675247153673,-11206.36000709057,-8732.848910432926,-29206.376279160533
-15271.851750833006,-10864.601834368925,-8390.107260955247,-29241.49086969982
-14050.463026817206,-9459.280605230404,-8232.48275905642,-29687.54228204993
-13200.180315992871,-7947.542720740166,-8404.926467529114,-30205.387497590484
-14781.5885879503,-9349.04180157683,-8894.206153655787,-29830.61579830835
-15936.525575700472,-11175.805172420163,-8756.809980489013,-29222.49188691281
-15337.90115569844,-10926.292649065572,-8415.14121474519,-29233.757166118285
-14127.46478646574,-9562.053926235903,-8245.938509218515,-29668.36448530728
-13206.438804440357,-7982.500849068267,-8397.639798836684,-30198.480808553795
-14680.938682668051,-9217.658247668534,-8888.752328008692,-29870.46895867216
-15931.384674475752,-11131.63812537648,-8779.675815066794,-29240.48504119933
-15398.80965933915,-10974.728879300224,-8438.230566767523,-29227.96806430436
-14198.968016978268,-9649.806874967442,-8247.614890052664,-29643.12936581724
-13205.052996284128,-8012.139262216004,-8370.214208390023,-30185.82972119209
-14567.727097001924,-9081.871400102544,-8876.145944135898,-29919.911017407303
-15919.113566769787,-11079.603264284524,-8802.07226301101,-29271.37515203657
-15460.522825780254,-11028.350714248503,-8460.112924589268,-29218.69209035541
-14266.246767788742,-9747.081666836935,-8260.265977414367,-29613.62506313623
-13205.052996284128,-8065.202303552903,-8351.461094792021,-30171.03286636268
-14443.272583874774,-8960.34496549904,-8857.795161938091,-29964.79332027356
-15886.994109987512,-11031.099978816508,-8823.999324321667,-29300.790047739752
-15504.846335035129,-11069.924958935377,-8475.133296863234,-29205.258691937768
-14340.163986702442,-9833.784083579074,-8269.787820552328,-29592.413257648142
-13229.215232040317,-8119.137062923559,-8338.899414408137,-30158.24766853424
-14341.21451869184,-8834.683458171303,-8840.383153007408,-29999.17030324582
-15882.434354118628,-10972.918387999343,-8850.933176390312,-29324.79582128475
-15570.493408500364,-11118.316485681116,-8498.49086981903,-29199.76016280177
-14414.550592249703,-9926.029732946126,-8277.141544478125,-29567.066379435822
-13254.271537574714,-8186.818145134229,-8331.858614904717,-30137.617008401998
-14236.25072672972,-8723.371770783875,-8825.69805690027,-30039.626960709928
-15864.66471727666,-10919.073035606509,-8857.772810193635,-29343.303065693744
-15623.310580648254,-11154.6827739099,-8504.861116988792,-29190.17126443044
-14488.981901285875,-10010.65343745392,-8277.83444855624,-29538.3220360663
-13296.762203784252,-8259.215445424968,-8310.669161161084,-30108.04565048762
-14127.956524843756,-8604.795766448471,-8797.02076876411,-30073.37809483744
-15824.833908657303,-10832.460025842194,-8875.765964480159,-29374.70726665345
-15682.475648221453,-11204.415405322958,-8529.805663800915,-29182.124636426528
-14557.422942808029,-10107.034159545205,-8285.411689926588,-29516.32791952228
-13323.02550351924,-8348.51066452392,-8293.659483630596,-30084.598670554005
-14005.021930339568,-8505.665779789184,-8769.863399250913,-30103.82117078557
-15762.137265460166,-10749.423295190729,-8886.964188452266,-29400.56823498824
-15703.620398476172,-11223.950829976897,-8545.83186457537,-29170.747598498776
-14613.481117901936,-10181.06313718118,-8291.31255046279,-29482.21915748348
-13374.792143677729,-8435.056619054869,-8275.174590966057,-30045.75133869068
-13899.476993021608,-8405.507612884952,-8732.804206944014,-30119.42268841537
-15708.29191306733,-10658.63050921327,-8892.552124566093,-29422.13766838761
-15729.235497621954,-11239.46294062888,-8552.64914663424,-29163.751502484265
-14665.80655167181,-10248.230129269376,-8293.123041763669,-29458.615715338678
-13403.916466702996,-8500.63663728674,-8265.697451317006,-30017.69989939927
-13792.434488825142,-8291.357253951699,-8705.512726964083,-30147.004741073222
-15652.680772862528,-10542.736714212504,-8914.121557965465,-29464.762445063883
-15776.97882377849,-11253.812760569188,-8578.085431824378,-29160.890479193986
-14740.528433385902,-10318.727531281416,-8301.460242445499,-29439.415566851567
-13477.654871661052,-8605.46631878213,-8264.468105371965,-29995.974003788717
-13718.226697233522,-8225.82193920874,-8683.33979646442,-30181.292317067662
-15618.080272445712,-10464.997346996946,-8932.539395396638,-29514.1150968212
-15840.033094886912,-11294.872915133588,-8614.60818226435,-29180.62706954802
-14834.6516292872,-10416.851689440216,-8333.98203062797,-29426.853886467685
-13560.378677890145,-8723.01414287259,-8280.941341035526,-29973.57755584449
-13642.70015271904,-8164.399345445556,-8668.989976524112,-30213.769401761223
-15548.275774511789,-10350.377601430131,-8943.067067035088,-29547.709768737528
-15863.547130053894,-11296.079909334172,-8625.493481814085,-29170.747598498776
-14889.078127035871,-10474.563893623816,-8328.684667192063,-29394.265043051844
-13613.151146549124,-8813.046969538567,-8254.365116878167,-29924.78369769856
-13550.745076029909,-8097.433519057456,-8626.588717292396,-30216.339852373585
-15457.326526323144,-10233.053294784224,-8939.513139666693,-29575.96237372904
-15882.18848492962,-11304.484165249369,-8638.27867964252,-29168.78064498671
-14947.617345764322,-10549.151664871177,-8340.12876035318,-29372.00270557436
-13672.830304244791,-8915.932049266345,-8253.851026755694,-29893.424200227764
-13475.3302902377,-8042.291765486213,-8594.26809481002,-30227.292207156686
-15391.4335836689,-10123.663857419951,-8950.040811305144,-29620.464696939554
-15906.171906730166,-11304.70768269392,-8663.75966832157,-29180.135331170004
-15012.102128517883,-10611.33421794584,-8353.875083193194,-29352.66844662052
-13735.884575353217,-9009.07176841161,-8252.420515110554,-29861.05887425648
-13398.864972456096,-7990.033386949705,-8559.846408348849,-30233.014253737245
-15277.059707291091,-9975.337681214534,-8945.793979858636,-29656.27219155696
-15916.09608126832,-11296.14696456754,-8683.250389486599,-29178.324839869125
-15055.553919739,-10668.8676081738,-8366.235597876977,-29324.639359073564
-13796.435451082642,-9109.47580450485,-8259.461314613976,-29831.33105413092
-13341.73391362833,-7969.112154139538,-8534.700695836627,-30243.31840793114
-15181.371889277923,-9858.013374568627,-8940.161340255898,-29701.15449442321
-15932.412854720696,-11292.749499410333,-8707.367921753874,-29205.325747171137
-15129.359379930424,-10743.79065558799,-8381.121859684214,-29319.252588659838
-13883.294330035966,-9226.375428006104,-8257.002622723892,-29803.413725306244
-13302.573657342631,-7964.351232570557,-8508.951486224114,-30247.095852744085
-15100.726795283175,-9744.511216224577,-8950.241977005242,-29741.298227464944
-15956.19511082114,-11282.020662071784,-8729.898480164824,-29199.424886634934
-15206.986988423703,-10808.700121486205,-8402.37836866121,-29296.878492460077
-13966.375764176342,-9328.724065866956,-8266.144486206113,-29766.801567888448
-13282.211218143848,-7958.539779012178,-8478.396651553709,-30239.85388754057
-14999.96513127865,-9598.71078714261,-8939.155511755409,-29779.36324827233
-15969.24852958304,-11255.600900125612,-8757.949919456234,-29211.74069782981
-15271.650585132908,-10865.00416576912,-8423.94780206058,-29273.83384392665
-14036.314372576997,-9425.752988547443,-8269.765468807873,-29732.60339887183
-13243.341534536068,-7963.14423836997,-8457.698936188095,-30227.582779834604
-14882.305548465914,-9462.990994809985,-8933.366409941484,-29821.652748781773
-15957.938546888656,-11220.396902608503,-8768.656405050326,-29229.82325909415
-15322.32198981309,-10915.384997771383,-8429.267517240944,-29265.94367813393
-14107.661140878336,-9523.31835309486,-8265.026898983348,-29703.300261890923
-13228.857604129027,-7980.735061256298,-8424.685409627606,-30229.59443683558
-14769.362183733248,-9321.79502508581,-8921.162357468887,-29880.795464610517
-15956.597442221338,-11179.35909978856,-8791.812812306025,-29264.64727695552
-15377.597853851064,-10958.769733759134,-8436.017744066447,-29260.28868678673
-14160.455961281772,-9602.6670459112,-8259.975404736448,-29685.62003202677
-13206.215286995804,-8000.426948121423,-8397.349226158765,-30217.010404707245
-14642.203109527009,-9174.273511680783,-8898.609447313482,-29916.692366205734
-15938.313715256896,-11120.01521825972,-8813.829280594502,-29283.46744578689
-15439.288668547711,-11003.27205696965,-8466.773744436949,-29244.910686601484
-14242.9115465774,-9693.325721421925,-8266.949149006505,-29653.63468571123
-13227.09181631706,-8040.347163718601,-8375.75744101494,-30205.8792359685
-14553.35492531716,-9051.495379387785,-8883.9467029508,-29958.288962637063
-15942.135863558757,-11072.71892699229,-8821.004190564656,-29298.398411083035
-15508.02028274778,-11043.125217333463,-8473.412212540175,-29231.2984742282
-14335.090140711089,-9786.398385333823,-8280.673120102063,-29632.73580464552
-13250.494092761766,-8088.336359064146,-8363.911016453627,-30189.24953809375
-14437.036447171742,-8914.546241110116,-8864.187760852308,-29993.738829343183
-15922.712197627092,-11012.056292540588,-8844.294708287085,-29322.672405561498
-15567.565329976718,-11098.043453460152,-8489.43841331463,-29220.30141595619
-14398.904371130988,-9879.158124823349,-8273.095878731714,-29599.275243195923
-13264.44158130188,-8151.27887145029,-8333.266774805401,-30166.49546223825
-14322.371998116016,-8799.300646698553,-8835.644583182882,-30032.630864695417
-15884.870694264257,-10950.097256910474,-8846.574586221526,-29340.151469725548
-15595.728527990404,-11126.58663112958,-8493.931113950148,-29203.73877331481
-14450.067514189186,-9955.601090860497,-8276.4039369111,-29571.04498994887
-13277.427944830411,-8213.081444869214,-8319.02871358737,-30145.77539512818
-14196.978711721744,-8670.107563746878,-8805.559135146039,-30064.50445228868
-15846.42569380113,-10867.19463672574,-8859.449191027785,-29364.47016769292
-15643.96359252496,-11161.097724568574,-8510.694922291628,-29188.181959173915
-14508.763195128822,-10031.88759468646,-8271.419497897567,-29535.19279184256
-13305.568791099644,-8277.879152045149,-8297.503983676908,-30109.52086562167
-14080.526123109596,-8548.223501232089,-8779.586408088971,-30090.74540027921
-15789.98753905148,-10775.172504803242,-8874.737784235214,-29394.309746540755
-15674.697241151003,-11178.934416643908,-8528.621021344785,-29182.415209104445
-14569.470533069436,-10107.972932812329,-8282.550666636309,-29508.773029896383
-13336.078922281138,-8351.438743047565,-8281.433079413544,-30074.070998915555
-13957.18919720521,-8432.262650997955,-8750.506788552617,-30114.080621490557
-15741.663067539104,-10691.06289041792,-8886.0477669296,-29414.672185739542
-15711.532916013351,-11203.409576822469,-8543.30611745192,-29173.89919446697
-14641.577260682256,-10185.891113983524,-8289.122079506169,-29489.706991876006
-13404.162335892002,-8448.579424450329,-8278.01326251188,-30052.94860040529
-13885.171876570212,-8354.70209773804,-8727.372733041375,-30153.598505687536
-15714.103366625712,-10604.874563798256,-8895.055519945088,-29454.815918781274
-15779.057536012831,-11239.21707143987,-8558.348841470342,-29170.904060709963
-14727.162090201628,-10272.437068514477,-8294.218277241978,-29456.73816880443
-13461.159284253035,-8542.88143430727,-8264.82573328325,-30017.141105787887
-13782.689128242628,-8262.63526232663,-8701.645875173315,-30179.70534321133
-15653.66424961856,-10510.572553941316,-8921.542337124627,-29492.6127186552
-15809.70177766106,-11258.774847838264,-8594.625722721306,-29182.10228468207
-14791.423355510637,-10345.147293227588,-8319.07341707628,-29446.83634601073
-13518.357398314169,-8636.021153452535,-8269.58665485223,-29996.488093911183
-13683.536789838889,-8173.272987994313,-8677.304825461486,-30208.15911390294
-15564.547844475252,-10376.05975580928,-8932.829968074557,-29528.196695828046
-15833.864013417247,-11261.166484494985,-8615.390493320287,-29178.146025913484
-14848.397952127214,-10409.96735214798,-8320.034542087858,-29414.314557828257
-13574.750849574906,-8732.82655868847,-8270.480724630443,-29962.73695978367
-13599.650692898118,-8110.196365141436,-8657.881159529825,-30221.525457087217
-15502.231180933855,-10274.962815637924,-8942.642383890437,-29562.17134740011
-15862.451894575584,-11267.13440026455,-8632.981316206613,-29179.06244743615
-14903.629112676275,-10472.082849989278,-8340.039353375358,-29393.125104084625
-13623.343542020744,-8820.490100442184,-8262.657614071086,-29918.63696797335
-13503.225267317925,-8037.709657872875,-8613.289429341487,-30223.380651877007
-15413.315941490644,-10147.2449478203,-8942.508273423706,-29597.732972828508
-15878.701612794594,-11263.960452551895,-8654.237825183609,-29176.46964507933
-14963.330622116402,-10540.501539766972,-8352.869254692705,-29370.39337997358
-13703.720415082027,-8934.908680308901,-8256.644994812608,-29890.63023217085
-13449.04463875826,-8003.265619667247,-8574.21858003361,-30239.7868323072
-15345.433693579876,-10044.069295414603,-8941.681258878858,-29635.172144791144
-15915.805508590402,-11276.969167824886,-8670.018156769056,-29183.264575393747
-15037.001971841097,-10612.563563890884,-8358.434839062076,-29347.41578667352
-13770.261558325476,-9033.770446034723,-8252.308756388278,-29853.1463567193
-13381.140039103037,-7959.076220879105,-8544.155483741222,-30243.161945719952
-15244.381456897434,-9895.586656998,-8943.022363546177,-29681.44025581363
-15935.139767544242,-11258.03724027124,-8692.079328546444,-29197.994374989798
-15109.689844809753,-10671.102782619331,-8366.682632766084,-29326.85218177464
-13847.375076696288,-9129.882947192544,-8246.050267940793,-29819.864609225348
-13330.4462826784,-7937.707953179831,-8516.260506661,-30247.565239377647
-15156.13676978788,-9781.07867015346,-8946.777456614669,-29725.495544135043
-15948.617869450793,-11255.623251870067,-8719.750788182115,-29213.93116878643
-15166.61973793742,-10736.392228173285,-8391.71658655603,-29324.61700732911
-13919.839432220391,-9236.165492077527,-8259.126038447146,-29796.86466418084
-13295.152878183471,-7926.800301885642,-8497.328579107354,-30250.35920743456
-15050.41301851428,-9638.094560872862,-8944.989317058244,-29769.819053389914
-15959.525520744985,-11231.12573994705,-8737.766294213092,-29221.195485734403
-15219.213392640757,-10784.314368285462,-8395.292865668878,-29293.32456509168
-13982.871351584356,-9328.589955400224,-8259.282500658333,-29765.996905088057
-13255.277366075205,-7921.927621594385,-8470.618244483263,-30249.778062078723
-14941.515319528024,-9498.239695816004,-8937.81440708809,-29807.548798030475
-15956.955070132622,-11196.905219185976,-8760.050983435034,-29227.901009071
-15279.987785814736,-10841.28896490204,-8414.850642067271,-29265.809567667195
-14040.40474181232,-9419.405093122135,-8256.086201201226,-29716.286625419456
-13210.730339375776,-7922.285249505669,-8435.123674288234,-30223.559465832648
-14812.255181342982,-9353.221577789973,-8918.368389411973,-29831.398109364287
-15947.008543850012,-11163.82463739212,-8769.617530061905,-29234.762994618774
-15330.41332130591,-10894.955503339232,-8414.38125543371,-29246.899991858005
-14113.472594436716,-9523.45246356159,-8243.837445239717,-29680.054447657403
-13203.04133928315,-7957.489247022778,-8400.903153527159,-30212.204779649357
-14698.127174154184,-9228.029457095798,-8897.715377535269,-29875.162825007777
-15930.222383764076,-11123.479738650292,-8785.777841303092,-29247.74935814731
-15385.28685394369,-10947.079771409008,-8436.91181384466,-29230.09148002761
-14190.76492676317,-9622.068360098405,-8262.63526232663,-29658.485014258036
-13220.743920891751,-8002.595067333587,-8394.331740657299,-30208.8296662366
-14607.289684687816,-9105.899525392,-8893.066214688566,-29928.605846000417
-15935.899726855723,-11087.33696786606,-8807.593143891472,-29278.93004166246
-15461.171026369457,-11012.346865218506,-8461.856360656782,-29232.237247495326
-14276.215645815808,-9729.580250928431,-8280.91898929107,-29645.58805770732
-13230.37752275199,-8056.842751126618,-8383.267627151923,-30202.03473592219
-14492.446421676448,-8981.646177964947,-8882.985577939222,-29976.84091053497
-15926.713159884592,-11040.130083576452,-8840.18198730731,-29307.204998398425
-15527.287486468254,-11065.923996677877,-8488.656102258696,-29222.246017723803
-14350.691658340893,-9816.595592092945,-8278.661463101085,-29616.396679448688
-13248.795360183163,-8101.657998759509,-8357.786638472871,-30185.06976188061
-14382.542894189704,-8849.100333344977,-8868.367537065451,-30014.12362028642
-15898.61701710427,-10973.343071143994,-8857.37047879344,-29329.84731553165
-15569.688745699972,-11101.887953506464,-8506.291628633931,-29212.7465263303
-14406.012225867777,-9903.208601857255,-8291.133736507147,-29587.540577356885
-13258.473665532312,-8168.981453058894,-8345.515530766908,-30157.085377822565
-14252.902776348925,-8725.696352207226,-8840.092580329489,-30053.820318439048
-15859.546167796394,-10908.34419826796,-8875.877723202435,-29361.27386823581
-15612.604095054165,-11143.886881337989,-8526.743474810539,-29207.20329370538
-14470.787581299255,-9986.625312164464,-8292.653655130107,-29557.812757231328
-13285.34046236759,-8234.494416057398,-8326.963582869004,-30127.29050246364
-14138.75241741567,-8604.929876915203,-8813.426949194307,-30076.64144952792
-15826.197365069076,-10824.972191449666,-8881.890342460913,-29376.31659225424
-15664.035459045825,-11171.133657829008,-8540.869777306292,-29192.987584231807
-14544.146006601572,-10064.029403213191,-8300.141489522635,-29532.59998948574
-13328.21110823287,-8306.735254136951,-8307.852841359716,-30101.630699828947
-14026.926639905769,-8487.940846436126,-8783.743832557659,-30113.47712439026
-15779.169294735111,-10735.878138050812,-8907.19251718432,-29417.8461334522
-15724.362817330695,-11211.120928659551,-8572.452792221642,-29202.6435378365
-14625.79692909681,-10155.2468723353,-8311.272658261378,-29516.35027126673
-13380.60359723611,-8402.46777563903,-8295.201753998012,-30076.775559994647
-13932.155243415267,-8399.874973282216,-8757.905215967325,-30144.34488348304
-15731.649486023129,-10648.885148630758,-8915.306200421595,-29442.142479675116
-15760.036201481367,-11230.723408546855,-8585.1262313278,-29191.624127820032
-14693.142735140653,-10229.566422649195,-8320.861556632704,-29487.225948241467
-13430.76091179382,-8487.538515035929,-8290.284370217845,-30045.3937107794
-13834.321657934388,-8299.448585444521,-8736.179320356765,-30174.005648375238
-15682.542703454816,-10544.591909002294,-8932.271174463174,-29479.17932023756
-15788.98171055099,-11234.970239993365,-8602.292371069476,-29181.185863159404
-14752.754837602955,-10293.335949580189,-8332.037428860358,-29456.29113391532
-13486.260293276346,-8575.693795167661,-8288.607989383698,-30010.100306284465
-13726.072159537336,-8204.610133720653,-8706.362093253385,-30189.718924727316
-15608.580781052207,-10435.381285593665,-8940.317802467085,-29510.583521197263
-15823.783376667903,-11254.215091969383,-8616.843356709882,-29177.96721195784
-14822.760501236977,-10372.774049374348,-8339.480559763975,-29428.03852892381
-13552.332049886234,-8680.746994107603,-8288.652692872607,-29980.08191348099
-13634.452359015031,-8131.765798540807,-8679.092965017911,-30216.22809365131
-15535.177652260978,-10323.868432506137,-8953.639442162448,-29552.33657983978
-15849.152606624675,-11261.70292636191,-8637.071685441933,-29183.44338934939
-14884.85364733382,-10440.768056007391,-8348.287147079367,-29413.711060727965
-13616.59331519524,-8778.781745288581,-8282.908294547593,-29953.10335792343
-13554.567224331764,-8071.281978044746,-8647.487598358108,-30231.15905894745
-15469.3517648401,-10222.749140590327,-8964.033003334165,-29589.261661679942
-15876.354679626786,-11272.94585382293,-8666.687746845217,-29190.55124408618
-14941.71648522812,-10509.343207996277,-8364.916844954116,-29392.298089539778
-13675.959548468536,-8879.9457406933,-8279.06379450128,-29916.35709003891
-13489.121316566623,-8026.086750756115,-8620.75491198956,-30248.88399230051
-15404.2858367307,-10112.689150892396,-8971.856113893524,-29639.798955893395
-15930.892936097734,-11300.930237880975,-8691.38642446833,-29209.70668908437
-15032.106939805382,-10605.254543453995,-8382.060632951336,-29385.25729003636
-13758.81746516436,-8998.722910728802,-8279.175553223557,-29891.591357182428
-13425.888231502562,-7986.859439237051,-8587.964902873624,-30259.36696045005
-15306.832230905562,-9979.338643472034,-8968.860980136513,-29681.82023546937
-15939.34189550184,-11279.785487626254,-8703.188145540733,-29210.86897979605
-15092.27783587907,-10661.402125525728,-8385.033414963891,-29353.24959197636
-13814.987398980547,-9089.649807172991,-8268.022032740359,-29847.580772349927
-13353.915614356472,-7942.558281726633,-8548.804646587927,-30260.66336162846
-15200.795555209585,-9834.275821957091,-8964.167113800897,-29714.29732016293
-15950.58482296286,-11266.642661886532,-8727.819767930481,-29209.01378500626
-15146.838444094474,-10713.727559295605,-8402.959514017048,-29332.440117888465
-13889.016376616524,-9192.95957004542,-8274.906370032593,-29821.295120870487
-13316.074110993635,-7936.076275834594,-8524.530652109463,-30270.341666977605
-15116.6188855909,-9721.645381646798,-8965.999956846234,-29768.03091383349
-15961.805398679424,-11254.617423369578,-8740.694372736738,-29222.82716307964
-15201.801383710072,-10774.9936908476,-8412.19078447709,-29316.74919328084
-13957.23390069412,-9293.31890264975,-8275.621625855163,-29792.61783273433
-13275.19277038488,-7927.9849443417725,-8499.653160530706,-30267.458291942872
-15003.764927836051,-9575.308510697903,-8966.20112254633,-29810.365117831843
-15971.908387173224,-11231.975106236352,-8771.092745195954,-29238.316921987167
-15272.4552479333,-10839.94786023472,-8434.028438809924,-29302.265262873803
-14041.83525345746,-9398.260342867416,-8284.942303293026,-29760.56543118542
-13257.445485287368,-7939.920775880907,-8478.10607887579,-30256.640047626504
-14898.04117656245,-9444.90843354564,-8955.315822996596,-29844.250362426086
-15976.892826186757,-11208.461071069369,-8796.417271663819,-29256.444186740424
-15339.264612110212,-10903.829145887988,-8447.327726760832,-29290.6647075015
-14119.485213695196,-9505.995751141996,-8285.098765504214,-29737.677244863185
-13245.3755432815,-7963.09953488106,-8450.076991328835,-30256.818861582145
-14790.73045143252,-9315.201260471496,-8941.10011352302,-29892.73129614965
-15964.68877371416,-11172.899445640976,-8812.085844526988,-29265.18371882245
-15387.52202838922,-10950.92427145532,-8466.371413036753,-29263.529689732757
-14186.51809531666,-9599.13547028726,-8296.788727854339,-29700.68510778965
-13236.390142010468,-7998.057663209161,-8431.972078320036,-30235.897628771974
-14673.04851687533,-9178.67680533848,-8924.425712159362,-29925.29778782103
-15964.040573124956,-11124.619677617511,-8828.9837633352,-29291.26820460179
-15451.96210765387,-10992.230295208728,-8474.306282318388,-29254.32077101717
-14253.416866471394,-9678.73003229261,-8286.998663782915,-29666.73280796204
-13236.747769921752,-8022.242250709803,-8405.2840954404,-30218.910302985943
-14557.378239319116,-9032.854024512057,-8907.483089862239,-29971.677657565797
-15934.335104743852,-11054.725772705768,-8837.611536694949,-29308.61315829911
-15493.871628507572,-11031.077627072053,-8487.270294102465,-29244.21778252337
-14324.69657953937,-9772.607359004898,-8289.16678299508,-29646.30331352989
-13257.065505631626,-8085.005949140304,-8371.778830501895,-30205.07457316811
-14452.637964801546,-8921.251764446708,-8872.793182467602,-30009.94384407328
-15929.037741307944,-11013.710321630278,-8853.257757813664,-29332.23895218837
-15563.78788516377,-11085.705290520822,-8505.978704211559,-29230.918494572463
-14393.964635606366,-9863.646014171363,-8296.54285866533,-29619.30240622788
-13276.869151219027,-8148.015516759815,-8368.537827555874,-30189.763628216224
-14347.562414117148,-8799.814736821025,-8866.489990531205,-30057.463652785264
-15919.359435958797,-10954.54525405708,-8875.877723202435,-29370.639249162585
-15637.928621522024,-11140.824692347607,-8524.418893387186,-29235.36649171907
-14486.634968118067,-9966.665204365874,-8297.995722054926,-29598.15765597316
-13310.955561513372,-8216.277744326324,-8336.016039373402,-30159.25349703473
-14234.395531939928,-8675.628444627338,-8838.483254728706,-30085.649202543405
-15877.069935449355,-10868.580444881967,-8895.99429321221,-29397.39428727559
-15665.890653835611,-11157.454390222358,-8539.863948805803,-29221.15078224549
-14547.565823503235,-10040.381257579476,-8303.985989568948,-29571.53672832689
-13342.203300261892,-8291.40195744061,-8318.358161253711,-30136.745290368235
-14114.50077468166,-8564.897902595747,-8806.207335735242,-30124.451830917817
-15829.438368015097,-10795.8478684244,-8902.766871782169,-29425.803354478285
-15708.91776191208,-11200.7944227212,-8556.44894319164,-29218.8485525666
-14614.196373724506,-10134.884433136516,-8314.804233885317,-29551.48721355048
-13383.26345482629,-8383.334682385288,-8314.491309462943,-30111.264301689185
-14005.826593139958,-8472.96517765107,-8788.683568082282,-30159.342904012552
-15786.902998316647,-10722.31062916644,-8922.257592947197,-29463.041360740823
-15772.866102798716,-11247.151940721506,-8588.300179040454,-29226.02346253675
-14689.72291823899,-10221.49744290083,-8323.879042134171,-29529.85072491774
-13442.830853799684,-8472.652253228694,-8309.50687044941,-30087.035010699637
-13916.151394385266,-8368.89545546716,-8763.224931147686,-30186.50027352575
-15748.659163553615,-10625.304058230407,-8942.396514701428,-29491.85275934372
-15803.04095781338,-11248.828321555651,-8606.405092049252,-29215.20521822038
-14745.87050031072,-10272.660585959027,-8332.618574216196,-29498.535930935854
-13489.791868900284,-8543.641393618751,-8300.812041856294,-30058.201260352285
-13808.147765177222,-8263.305814660289,-8725.472834762673,-30211.154247659957
-15671.18801727152,-10506.638646917185,-8940.38485770045,-29527.88377140567
-15835.629801229215,-11262.37347869557,-8613.334132830398,-29208.7455640728
-14811.517573775956,-10345.10258973868,-8333.892623650148,-29465.008314252893
-13541.714971269965,-8633.718923773638,-8286.484573660442,-30018.05752731056
-13717.243220477489,-8180.425546220011,-8702.227020529153,-30232.611922337048
-15611.218286897933,-10400.557267732294,-8961.082573066065,-29560.114986910223
-15872.040792946911,-11282.400641727523,-8643.352525633874,-29212.09832574109
-14883.46783917759,-10431.53678554735,-8354.836208204772,-29450.077348956747
-13611.74298664844,-8745.611756516904,-8288.45152717251,-29985.513387383628
-13625.08697808826,-8110.866917475095,-8660.988052009112,-30244.32423643163
-15524.672332366985,-10282.875333175103,-8960.523779454683,-29593.2849756819
-15889.609264088782,-11290.268455775791,-8654.506046117074,-29203.78347680372
-14944.95748817414,-10500.26839974742,-8355.395001816154,-29421.288302098317
-13672.18210365559,-8848.474484500228,-8276.314529933277,-29957.01491320311
-13539.81507299126,-8062.743611662819,-8629.18151964921,-30264.70902737487
-15446.664744217962,-10175.385794089532,-8962.222512033286,-29631.17118253365
-15906.417775919172,-11291.028415087274,-8671.85099981439,-29210.958386773877
-14988.185761950705,-10557.75708648647,-8359.12774314019,-29399.24948206538
-13723.1887845026,-8941.994183301233,-8272.693547331519,-29922.146191852837
-13460.511083663832,-8003.399730133979,-8600.973618146612,-30268.88880358801
-15354.66496403992,-10042.12469364699,-8966.782267902168,-29673.550090020908
-15940.727703658067,-11292.257761032315,-8697.264933260076,-29220.5472851452
-15066.372164055369,-10628.656819898704,-8385.480449852997,-29383.938537113496
-13802.91745697468,-9045.259242684751,-8284.651730615107,-29890.071438559466
-13409.392644094543,-7969.827409962108,-8580.633530692283,-30280.89169036051
-15265.63796587443,-9912.216354872746,-8973.73366042777,-29714.722003307583
-15953.02116310849,-11279.89724634853,-8716.375674769364,-29230.09148002761
-15127.973571774197,-10692.515753807516,-8391.47071736702,-29368.49348169488
-13869.59271068486,-9148.412543345994,-8272.514733375876,-29858.980162022137
-13356.396657991012,-7951.0519446196495,-8538.12051273829,-30283.216271783866
-15173.973461863216,-9788.588856290444,-8961.551959699627,-29758.28555325098
-15966.432209781671,-11265.636833386045,-8730.859605176402,-29239.590971421123
-15184.4340782683,-10747.188120745195,-8403.004217505959,-29347.460490162437
-13936.245612650588,-9244.480341014903,-8274.906370032593,-29822.68092902672
-13313.324846425636,-7940.390162514468,-8516.126396194268,-30284.266803773266
-15065.254576832604,-9654.09840990286,-8958.288605009151,-29797.602271747863
-15966.119285359298,-11242.435722641436,-8750.39502983034,-29244.329541245646
-15250.68464883383,-10812.85754595489,-8420.48328167001,-29328.752080053346
-14016.264857800586,-9353.333336512247,-8269.899579274605,-29792.84135017888
-13279.461953575845,-7944.279366049692,-8477.033195141936,-30277.874204859047
-14960.00021219256,-9521.083178649327,-8945.704572880813,-29839.33297864592
-15978.21157910962,-11221.425082853448,-8768.522294583594,-29259.88635538654
-15313.068367608592,-10871.463819916704,-8431.659153897663,-29314.066983946203
-14083.16362895532,-9451.59160513778,-8278.795573567817,-29764.141710298267
-13255.120903864015,-7954.851741177052,-8459.040040855412,-30270.98986756681
-14860.154969710706,-9390.727804985978,-8945.570462414082,-29893.96064209469
-15982.816038467414,-11192.12194587254,-8793.332730928985,-29287.580166766664
-15362.152798432446,-10919.184794328785,-8443.684392414618,-29295.22446337038
-14146.955507630768,-9544.440751605123,-8280.471954401964,-29734.011558772512
-13233.149139064448,-7970.252093106758,-8429.245165496488,-30268.955858821377
-14722.132947699183,-9239.093570601177,-8923.86691854798,-29931.377462312877
-15958.564395733403,-11140.757637114244,-8811.482347426694,-29300.03008842827
-15415.685226402908,-10971.152600187374,-8462.10222984579,-29280.65112598552
-14217.207040453795,-9641.022639396506,-8288.250361472412,-29708.55292183792
-13231.003371596738,-8007.959486002861,-8418.248107224477,-30253.0414167692
-14618.04087377082,-9111.554516739192,-8912.512232364683,-29966.33559064097
-15952.618831708292,-11100.904476750433,-8822.07707429851,-29313.552893823733
-15479.275939378256,-11026.316705503072,-8476.094421874812,-29267.128320590054
-14294.96875941381,-9740.5996609449,-8287.31158820529,-29677.148720878213
-13248.460084016337,-8060.664899428475,-8392.409490634143,-30235.450593882877
-14515.759291143331,-8990.698634469347,-8901.783395026136,-30016.694070898782
-15951.63535495226,-11058.458514029804,-8860.030336383621,-29350.835603575186
-15551.0697425687,-11087.739299266255,-8512.125433936768,-29268.29061130173
-14371.635242895514,-9836.935679547272,-8300.812041856294,-29655.42282526765
-13271.86236046104,-8126.110807193614,-8378.75257477195,-30221.54780883167
-14411.778975937246,-8877.531752292127,-8884.952531451288,-30062.738664476718
-15923.874488338768,-11000.120461001452,-8872.636720256414,-29375.24370852038
-15597.89664720257,-11126.787796829676,-8522.250774175021,-29255.907744873497
-14452.749723523822,-9935.97625922874,-8305.014169813892,-29630.23240926652
-13302.81952653164,-8197.14465107258,-8362.927539697594,-30205.29809061266
-14285.31280580912,-8746.550529784028,-8858.689231716304,-30087.929080477847
-15882.724926796547,-10920.481195507193,-8885.913656462868,-29390.50994998336
-15641.348438423687,-11157.946128600375,-8543.574338385384,-29244.128375545548
-14500.381290958085,-10005.937219373847,-8313.776053640373,-29599.43170540711
-13309.547401612688,-8255.974442478948,-8345.336716811265,-30169.647058206447
-14157.058496124566,-8622.967734690636,-8829.207280779754,-30125.77058384068
-15832.455853516562,-10834.561089820992,-8897.536563579628,-29422.607055021177
-15677.96059584148,-11186.824582436631,-8554.638451890762,-29228.63861663802
-14558.920509686532,-10082.246074944267,-8321.018018843892,-29567.178138158102
-13340.951602572395,-8320.928611866071,-8331.3668765267,-30139.3157409806
-14051.558262295515,-8507.856250745805,-8809.64950438136,-30154.649037676936
-15802.996254324467,-10759.481580195616,-8920.022418501667,-29448.11039544468
-15724.586334775253,-11213.825489738643,-8574.822077133904,-29225.129392758536
-14635.27406874586,-10164.76871547326,-8325.823643901784,-29539.86430643372
-13396.69685324393,-8415.588249634297,-8317.553498453319,-30102.48006611825
-13957.18919720521,-8417.71166535755,-8783.229742435187,-30183.393381046462
-15760.93027125958,-10670.141657607754,-8940.38485770045,-29489.75169536492
-15780.97978603599,-11247.978955266351,-8599.163126845733,-29229.30916897168
-14715.807404018333,-10247.179597279975,-8331.41158001561,-29522.07231784729
-13468.200083756456,-8514.427663615665,-8308.389283226643,-30081.55883330808
-13863.714201893115,-8328.014114858403,-8756.675870022282,-30216.96570121833
-15709.72242471247,-10577.0466419514,-8951.560729928104,-29523.88280914817
-15825.616219713238,-11274.242255001338,-8614.138795630788,-29225.598779392098
-14789.232884554016,-10333.323220410732,-8340.799312686839,-29498.75944838041
-13515.809299446262,-8608.439100794685,-8299.359178466699,-30050.176984092832
-13756.805808163384,-8232.549814289787,-8714.878107890858,-30230.42145138043
-15635.984019754413,-10463.946815007546,-8957.841570120045,-29552.023655417404
-15849.62199325824,-11286.669824918488,-8644.537168090006,-29220.681395611933
-14839.010219455984,-10402.72538694446,-8365.98972868797,-29474.060770757293
-13562.524445357854,-8699.790680383525,-8304.924762836072,-30020.31505350054
-13660.64860351665,-8157.537359897776,-8686.267874988065,-30249.33102718962
-15569.711097444428,-10359.944148057002,-8965.932901612867,-29587.89820526817
-15878.701612794594,-11300.080871591672,-8656.964738007156,-29225.375261947545
-14897.884714351265,-10470.473524388495,-8359.708888496029,-29452.089005957725
-13628.439739756554,-8797.55721063104,-8290.798460340317,-29984.50755888314
-13577.947149032016,-8085.877667174062,-8661.837418298413,-30269.000562310288
-15497.872590765071,-10240.608184410115,-8976.170000573398,-29631.88643835621
-15918.53242141395,-11309.446252518446,-8673.169752737254,-29225.956407303383
-14979.11095370185,-10546.782379958911,-8369.99069094547,-29427.010348678872
-13708.213115717544,-8909.740616052224,-8292.586599896742,-29955.763215513616
-13516.815127946753,-8048.237329511325,-8638.412790109252,-30288.55833870868
-15419.842650871597,-10126.502528965775,-8983.859000666023,-29673.41597955417
-15945.82390139388,-11310.452081018935,-8695.409738470285,-29234.31595972967
-15051.016515614572,-10610.730720845548,-8379.713699783528,-29406.089115868705
-13784.566674776874,-9009.317637600618,-8285.501096904409,-29923.35318605342
-13461.628670886596,-8006.104291213071,-8599.408996034741,-30299.22012081386
-15344.18199589038,-10009.044111853136,-8981.154439586931,-29714.476134118577
-15968.063887126911,-11315.81649968821,-8714.252259046109,-29242.69786390041
-15108.12522269788,-10683.843276958856,-8393.504726112453,-29393.14745582908
-13850.861948831314,-9122.32805756665,-8288.49623066142,-29897.223996785164
-13394.618141009589,-7979.952750200361,-8564.204998517633,-30298.147237080007
-15234.032599214626,-9871.223255541714,-8969.330366770073,-29752.45174794814
-15983.531294289984,-11307.5687059842,-8734.815863944992,-29250.252753526303
-15175.247511297168,-10750.920862069232,-8407.072234996824,-29368.53818518379
-13912.351597827865,-9214.640762167068,-8279.197904968012,-29851.33586541842
-13335.363666458568,-7952.214235331326,-8534.678344092172,-30295.44267600092
-15136.556641645033,-9739.124445810849,-8977.578160474082,-29794.115399612838
-15982.145486133752,-11276.209208513405,-8754.887730465858,-29256.26537278478
-15221.895601975397,-10794.03737712352,-8422.85256658227,-29345.24766746136
-13974.10946775788,-9305.724120822444,-8290.217314984478,-29821.83156273741
-13298.192715429392,-7939.4290375028895,-8512.751282781515,-30292.33578352163
-15020.528736177534,-9580.494115411537,-8960.34496549904,-29825.05021393898
-15986.88405595828,-11233.94205974842,-8772.992643474656,-29261.361570520592
-15284.726355639265,-10838.942031734232,-8436.844758611292,-29325.75694629633
-14055.358058852918,-9400.361406846216,-8292.251323729912,-29784.861777408336
-13271.728249994308,-7941.150121825948,-8486.935017935637,-30287.261937530275
-14916.637827949266,-9450.96575629303,-8966.245826035241,-29878.180310509244
-15993.768393250512,-11205.756509990277,-8800.194716476764,-29278.237137584347
-15354.352039617545,-10901.705730164736,-8451.52985471843,-29307.5179228208
-14131.510452212153,-9509.370864554749,-8290.35142545121,-29754.016370060013
-13267.369659825525,-7985.473631080822,-8462.459857757076,-30280.914042104967
-14829.466024573569,-9352.95335685651,-8956.209892774808,-29920.559217996502
-16017.573001095416,-11216.351236862092,-8824.491062699684,-29307.13794316506
-15436.807624913172,-10995.672463854846,-8488.879619703248,-29312.345899623146
-14237.055389530113,-9649.270433100512,-8322.336771766755,-29753.07759679289
-13291.174267670423,-8046.896224844007,-8450.948709362592,-30289.251242786795
-14725.038674478374,-9223.089721571174,-8938.104979766009,-29963.96630572871
-15993.053137427944,-11156.225044277317,-8842.774789664125,-29314.17874266848
-15474.179741642443,-11023.679199657345,-8489.460765059086,-29276.136073605547
-14276.819142916102,-9707.697893106686,-8299.582695911253,-29690.604471040308
-13260.284156833191,-8052.97589933585,-8414.80593857836,-30241.887896286
-14580.825219252732,-9062.69360335989,-8917.72018882277,-29997.024535778117
-15969.717916216605,-11093.260180146715,-8860.633833483915,-29350.14269949707
-15537.345771473145,-11076.675185760878,-8514.651181060217,-29280.092332374137
-14353.195053719886,-9811.924077501784,-8312.79257688434,-29672.41015105369
-13273.963424439838,-8109.503461063321,-8399.383234904199,-30233.953027004365
-14468.53005510927,-8940.518968167182,-8900.24112465872,-30037.70471068677
-15949.333125273362,-11043.415790011382,-8872.726127234237,-29363.24082174788
-15581.445763283464,-11122.496261894255,-8521.289649163444,-29261.205108309405
-14408.806193924687,-9893.552648252566,-8305.50590819191,-29642.16824080565
-13284.446392589378,-8165.76280185733,-8368.26960662241,-30212.78592500519
-14356.190187476896,-8821.27241149812,-8874.894246446402,-30079.435417584828
-15916.051377779411,-10974.103030455475,-8889.37817685344,-29384.40792374705
-15627.691522561494,-11156.448561721869,-8539.886300550259,-29247.43643372493
-14481.67288084899,-9982.847867351516,-8314.22308852948,-29611.1887229906
-13320.991494773803,-8239.434151582022,-8358.010155917425,-30186.053238636643
-14253.975660082777,-8711.994732856123,-8864.344223063496,-30122.30606345011
-15907.088328252832,-10923.073997864009,-8923.688104592336,-29429.84902022469
-15697.0042821174,-11203.476632055836,-8562.93094908368,-29251.191526793427
-14569.06820166924,-10069.259711415734,-8329.332867781266,-29594.42491464912
-13364.26447203928,-8309.015132071392,-8347.951870912537,-30157.107729567026
-14145.502644241173,-8588.300179040454,-8837.343315761485,-30145.52952593917
-15863.927109709635,-10827.207365895196,-8936.830930332057,-29452.6030960802
-15744.25586989592,-11230.678705057944,-8590.043615107968,-29244.64246566802
-14640.213804270485,-10148.67545946544,-8338.519434752398,-29575.80591151785
-13414.488841830354,-8389.257894665945,-8338.02769637438,-30144.72486313878
-14046.30560234852,-8476.58616025283,-8810.74473985967,-30184.68978222487
-15818.508364976453,-10727.36212341334,-8944.8105031026,-29475.73715159144
-15782.812629081323,-11243.977993008852,-8606.1815746047,-29227.386918948523
-14702.99985444544,-10220.201041722425,-8350.07528663579,-29536.399786043145
-13455.3254789502,-8469.992395638514,-8325.108388079214,-30103.32943240755
-13927.394321846286,-8370.191856645568,-8776.188942931765,-30203.82287547861
-15751.609593821717,-10625.371113463774,-8950.979584572266,-29497.79832336883
-15805.41024272564,-11255.26562395878,-8622.341885845886,-29224.83882008062
-14761.002631306965,-10290.810202456738,-8357.2725483504,-29511.20937004201
-13504.991055129893,-8561.522789182996,-8326.829472402273,-30074.920365204856
-13825.246849685533,-8283.914123048082,-8756.005317688623,-30232.88014327051
-15700.468802507974,-10540.121560111233,-8971.63259644897,-29547.28508559288
-15847.297411834888,-11284.769926639789,-8639.440970354197,-29237.556962675688
-14821.12882389174,-10371.522351684853,-8361.094696652257,-29501.75458213742
-13556.35536388819,-8665.52545613354,-8319.296934520833,-30061.03993189811
-13730.788377617406,-8214.19903209198,-8735.77698895657,-30269.60405941058
-15624.47287135993,-10434.174291393078,-8986.697672211847,-29587.741743056984
-15882.344947140808,-11305.601752472134,-8667.403002667786,-29242.720215644866
-14892.050909048428,-10445.841901998749,-8382.977054474004,-29482.129750505657
-13626.785710666862,-8768.455239350229,-8319.587507198752,-30021.27617851212
-13653.496045290953,-8148.194330715458,-8694.359206480885,-30278.432998470427
-15559.630460695083,-10326.349476140676,-8977.332291285073,-29625.359728975265
-15914.687921367637,-11322.410264302524,-8673.706194604183,-29237.668721397964
-14959.955508703652,-10527.917507638636,-8377.590284060274,-29446.63518031063
-13687.358938140744,-8873.866066201457,-8298.755681366407,-29979.0760849805
-13564.178474447546,-8085.900018918517,-8659.110505474866,-30290.346478265103
-15477.174875399456,-10200.084471712646,-8988.619922235004,-29660.899002659204
-15954.317564286896,-11333.116749896615,-8698.538982694028,-29243.949561589907
-15035.21383228467,-10602.125299230254,-8378.305539882844,-29427.569142290253
-13765.165360589668,-8979.790983175157,-8282.908294547593,-29947.33660785397
-13503.515839995844,-8042.917614330961,-8605.823946693414,-30296.113228334576
-15394.00403428126,-10081.016728999226,-8972.146686571443,-29693.197273397123
-15968.44386678265,-11330.143967884062,-8705.356264752896,-29242.608456922582
-15092.389594601344,-10667.995890140044,-8392.722415056518,-29407.497275769387
-13819.301285660422,-9077.624568656036,-8278.929684034549,-29905.896473633824
-13420.523812833288,-7995.420157363434,-8575.827905634393,-30300.8517981591
-15281.463000948788,-9935.663334806364,-8974.560674972616,-29737.25256171853
-15966.387506292762,-11296.504592478825,-8726.210442329699,-29245.26831451277
-15139.529423657588,-10704.451585346653,-8402.646589594673,-29380.42931323401
-13879.002795100549,-9153.173464914977,-8275.152239221601,-29871.63124938384
-13364.867969139574,-7954.136485354482,-8545.183663986167,-30301.969385381864
-15181.95303463376,-9795.65200753832,-8975.298282539641,-29782.783065173997
-15985.185323379676,-11283.920560350483,-8745.63410826136,-29261.249811798312
-15208.953941935772,-10772.490295468604,-8422.070255526336,-29375.66839166503
-13955.0434297375,-9260.752410978366,-8291.156088251602,-29850.352388662388
-13322.77963433023,-7945.195787572359,-8525.648239332228,-30304.18220808294
-15088.589798043944,-9666.369517608824,-8978.271064552197,-29829.00647270757
-16002.21735265462,-11265.726240363863,-8779.809925533526,-29278.79593119573
-15277.3055764801,-10828.324953117964,-8443.013840080957,-29350.61208613063
-14040.449445301228,-9366.274996551872,-8298.956847066504,-29819.842257480894
-13304.071224221138,-7950.269633563714,-8501.754224509505,-30298.43780975793
-14983.424840381724,-9528.36984734176,-8970.067974337098,-29858.22020271065
-16001.703262532148,-11232.22097542536,-8789.845858793959,-29282.88630043105
-15342.885594711972,-10887.311206735518,-8452.178055307633,-29331.99308299936
-14109.114004267933,-9469.852980357764,-8292.407785941099,-29782.73836168508
-13276.936206452396,-7972.107287896549,-8470.953520650091,-30291.28525153223
-14877.90225480822,-9405.994046448952,-8959.652061420926,-29906.99170911213
-16006.777108523502,-11217.804100251687,-8815.259792239642,-29302.667594274
-15396.172153493424,-10953.539425556592,-8467.15372409269,-29317.75502178133
-14171.207150364777,-9569.139429228238,-8289.144431250625,-29745.45565193363
-13258.160741109938,-7997.387110875501,-8437.984697578513,-30269.291134988205
-14758.67804988361,-9265.222759869428,-8941.189520500842,-29941.03341591757
-15999.579846808892,-11167.535026971702,-8835.845748882979,-29315.47514384689
-15448.184662840924,-10993.861972553968,-8478.731927720539,-29285.970841165883
-14241.883366332457,-9658.993441938574,-8298.085129032746,-29712.620939328783
-13258.04898238766,-8030.40063743599,-8421.869089826238,-30255.50010865928
-14642.672496160569,-9132.14047338253,-8917.027284744654,-29977.60086984645
-15980.245587855052,-11113.712026323325,-8835.219900038232,-29323.74528929535
-15500.35363439961,-11035.212699796284,-8486.555038279896,-29268.357666535103
-14303.820050218112,-9742.387800501325,-8292.988931296937,-29674.175938865657
-13260.48532253329,-8068.219789054369,-8398.08683372579,-30237.574009606127
-14523.135366813583,-8990.855096680534,-8902.297485148607,-30018.549265688573
-15946.382695005264,-11047.170883079873,-8855.090600859,-29343.03484476028
-15542.464320953408,-11076.451668316326,-8511.678399047662,-29261.920364131973
-14366.293175970695,-9831.504205644633,-8315.050103074325,-29654.551107233896
-13263.614566757033,-8118.153586167525,-8389.883743510693,-30220.452573353363
-14411.62251372606,-8866.132362619921,-8886.785374496625,-30053.909725416863
-15930.624715164273,-10988.944588773798,-8879.85633371548,-29370.95217358496
-15604.669225772528,-11118.852927548043,-8534.1642539697,-29257.159442562992
-14452.95088922392,-9926.275602135134,-8321.710922922006,-29634.09926105729
-13303.177154442928,-8191.176735303014,-8377.411470104631,-30204.73929700128
-14306.323445597109,-8750.216215874698,-8874.46956330175,-30101.563644595582
-15906.685996852637,-10923.16340484183,-8902.789223526624,-29402.266967566848
-15650.62441237264,-11149.20659651835,-8550.302213466432,-29247.14586104701
-14515.803994632244,-10003.679693183863,-8328.349391025233,-29602.47154265303
-13336.25773623678,-8257.315547146267,-8363.620443775708,-30174.385628030974
-14172.302385843086,-8619.056179410956,-8842.394810008385,-30128.139868752944
-15851.9912781705,-10839.076142200964,-8916.647305088914,-29426.71977600095
-15698.792421673828,-11196.815812208151,-8571.491667210063,-29239.434509209936
-14583.306262887272,-10102.116775765036,-8332.819739916295,-29581.550309842863
-13364.152713317004,-8345.98491740047,-8337.021867873891,-30146.96003758431
-14066.980965969678,-8521.468463119087,-8809.917725314823,-30157.06302607811
-15812.31693176233,-10763.191969775196,-8919.709494079292,-29451.3513983907
-15733.77290174638,-11224.911954988474,-8585.796783661459,-29229.17505850495
-14646.405237484603,-10178.336224357632,-8337.915937652104,-29542.03242564588
-13403.648245769533,-8424.28307822741,-8319.542803709843,-30111.7560400672
-13956.272775682542,-8421.042075281392,-8785.286102925074,-30194.45749455184
-15764.819474794804,-10683.284483347474,-8939.62489838897,-29485.594270896232
-15789.473448929008,-11270.241292743838,-8602.851164680858,-29225.665834625463
-14717.752005785944,-10266.111524833625,-8336.88775740716,-29521.84880040274
-13459.639365630075,-8517.087521205845,-8306.779957625862,-30077.312001861574
-13859.489722191063,-8322.806158400317,-8750.015050174601,-30208.427334836404
-15712.58344800275,-10581.51699084246,-8945.05637229161,-29515.74677416644
-15821.145870822176,-11282.46769696089,-8617.536260787996,-29223.564770646663
-14776.894721614686,-10335.245470433889,-8343.816798188305,-29500.346422236733
-13514.892877923594,-8612.328304329909,-8309.97625708297,-30060.123510375444
-13755.665869196162,-8233.712105001463,-8735.48641627865,-30243.720739331337
-15635.693447076494,-10466.45021038654,-8975.097116839543,-29559.645600276664
-15857.08747590631,-11296.258723289817,-8646.682935557716,-29219.92143630045
-14849.22496667206,-10407.352198046709,-8349.628251746684,-29465.20947995299
-13575.086125741736,-8705.736244408638,-8297.906315077105,-30017.632844165902
-13669.969280954514,-8157.984394786882,-8696.259104759587,-30254.069597014142
-15570.918091645017,-10355.540854399307,-8962.088401566554,-29584.14311219968
-15876.75701102698,-11296.638702945556,-8653.299051916487,-29215.294625198203
-14902.220952775591,-10468.126591220687,-8366.213246132524,-29442.92479073105
-13626.562193222308,-8793.913876284823,-8303.941286080037,-29981.199500703755
-13572.090991984724,-8079.261550815291,-8677.550694650496,-30273.202690267884
-15485.936759225937,-10230.661658127508,-8988.865791424012,-29628.868952854747
-15905.635464863237,-11301.466679747902,-8691.609941912882,-29224.391785191518
-14966.504569829056,-10535.025362375423,-8384.966359730526,-29418.2931683413
-13691.449307376064,-8899.548220580606,-8292.005454540904,-29938.93235193877
-13502.979398128917,-8035.362724705068,-8628.37685684882,-30270.38637046652
-15411.751319378773,-10117.159499783456,-8975.745317428746,-29652.472394999557
-15927.115491284789,-11294.157659311017,-8697.913133849279,-29215.11581124256
-15036.711399163176,-10601.499450385503,-8388.050900465358,-29391.20285406147
-13771.96029090408,-8996.957122916832,-8286.97631203846,-29899.39211599733
-13445.04367650076,-7990.9051049834625,-8601.107728613344,-30276.66721065846
-15327.105263126525,-9991.050957566616,-8988.619922235004,-29703.054392701917
-15958.564395733403,-11297.219848301393,-8719.862546904391,-29230.113831772072
-15108.348740142435,-10671.616872741804,-8408.65920885315,-29388.67710693802
-13838.277916702977,-9103.50788873528,-8291.223143484967,-29881.53307217754
-13379.776582691264,-7961.2666918357245,-8571.044632320956,-30295.241510300817
-15229.78576776812,-9857.05224955705,-8975.275930795186,-29746.46148043412
-15965.9181196592,-11280.076060304173,-8734.927622667268,-29235.32178823016
-15155.957955832238,-10725.97631525711,-8410.76027283195,-29350.321513452716
-13902.47212677862,-9201.319122471705,-8282.908294547593,-29839.824717023937
-13336.056570536684,-7946.246319561758,-8544.69192560815,-30290.346478265103
-15135.193185233258,-9731.234280018123,-8979.790983175157,-29787.07460010941
-15984.06773615691,-11267.93906306494,-8760.475666579685,-29250.18569829294
-15225.069549688047,-10788.538847987516,-8426.361790461755,-29340.39733891456
-13981.843171339417,-9310.12741448014,-8289.725576606463,-29814.723708000627
-13303.557134098666,-7944.704049194343,-8514.807643271404,-30290.9499753654
-15021.556916422478,-9584.18215324666,-8976.326462784584,-29829.9899494636
-15983.01720416751,-11237.026600483252,-8787.0742424815,-29266.055436856204
-15280.278358492656,-10840.730171290656,-8447.059505827368,-29322.89592300605
-14046.30560234852,-9400.741386501955,-8300.901448834116,-29781.64312620677
-13263.279290590202,-7942.848854404552,-8492.142974393722,-30284.356210751084
-14906.780708644475,-9449.289375458882,-8966.357584757518,-29875.58750815243
-15975.797590708447,-11205.98002743483,-8802.496946155661,-29275.487873016344
-15338.75052198774,-10902.800965643046,-8460.492904245008,-29302.399373340533
-14114.836050848491,-9503.671169718644,-8297.436928443543,-29748.070806034902
-13243.90032814745,-7964.127715126004,-8464.58327348033,-30272.46508270086
-14798.084175358315,-9317.79406282831,-8950.979584572266,-29907.237578301145
-15975.372907563797,-11173.726460185822,-8814.298667228064,-29273.99030613784
-15392.797040080672,-10949.449056321271,-8468.807753182382,-29275.66668697199
-14195.90582798789,-9600.007188321017,-8303.091919790735,-29715.191389941145
-13247.00722062674,-7992.447375350878,-8428.261688740455,-30243.40781490896
-14684.447906547535,-9172.083040724165,-8922.324648180562,-29937.45713680472
-15969.270881327497,-11121.333971182585,-8830.570737191527,-29297.07965816017
-15458.06413389017,-11000.165164490363,-8483.24698010051,-29257.6064774521
-14259.228320029775,-9687.380157396812,-8297.503983676908,-29671.96311616458
-13241.32987753509,-8030.892375814006,-8410.067368753835,-30224.297073399677
-14558.004088163863,-9039.179568192909,-8911.506403864194,-29969.21896567571
-15940.951221102623,-11065.879293188966,-8853.414220024852,-29309.79780075524
-15503.2593611788,-11043.907528389398,-8501.977741954059,-29243.5025267008
-14318.728663769802,-9774.328443327957,-8302.466070945988,-29639.955418104582
-13248.482435760789,-8079.3062543042015,-8400.299656426867,-30207.108581913544
-14441.484444318348,-8908.310104407085,-8903.973865982756,-30017.386974976896
-15925.77438661747,-11003.808498836575,-8871.85440920048,-29343.3254174382
-15564.659603197528,-11081.123182907484,-8514.628829315761,-29236.93111383094
-14395.663368184967,-9858.57216818001,-8302.421367457076,-29615.88258932621
-13268.084915648094,-8133.866862519606,-8370.191856645568,-30184.73448571378
-14333.726684299314,-8784.839068035968,-8876.458868558273,-30052.635675982918
-15897.320615925864,-10943.011753918145,-8890.249894887196,-29364.760740370843
-15609.698368274972,-11121.87041304951,-8540.512149395008,-29234.248904496304
-14464.976127740876,-9950.929576269338,-8314.111329807201,-29593.217920448533
-13294.281160149714,-8206.95706688846,-8354.61269076022,-30163.3215145256
-14217.989351509734,-8670.778116080537,-8849.927347889823,-30091.170083423865
-15871.61610980226,-10879.15282000933,-8913.451005631805,-29403.943348400997
-15677.15593304109,-11183.516524257246,-8570.977577087591,-29236.59583766411
-14545.218890335427,-10056.31805137611,-8323.163786311601,-29570.977934715505
-13347.54536718671,-8308.07635880427,-8347.817760445805,-30143.651979404927
-14134.349123757976,-8583.472202238108,-8833.275298270619,-30130.86678157649
-15850.873690947736,-10815.249182611607,-8927.130273238454,-29431.63715978112
-15719.668950995085,-11206.136489646016,-8578.577170202396,-29223.02832877974
-14606.440318398514,-10122.948601597382,-8329.109350336714,-29543.46293729102
-13380.581245491654,-8373.097583424758,-8334.630231217174,-30114.0582697461
-14001.557409948997,-8452.356869263276,-8797.35604493094,-30156.77245340019
-15771.390887664664,-10689.744137495058,-8926.43736916034,-29449.853831512195
-15752.324849644288,-11216.999437451295,-8591.474126753108,-29207.44916289439
-14670.947452896531,-10198.810422278691,-8336.083094606769,-29516.55143696683
-13421.239068655856,-8453.072125085846,-8316.815890886295,-30082.76582750867
-13888.256417305043,-8348.84594069075,-8768.9693294727,-30191.21649160582
-15711.912895669093,-10599.66660734017,-8936.875633820968,-29487.1588930081
-15782.36559419222,-11235.819606282665,-8597.777318689505,-29211.472476896342
-14737.935631029086,-10278.51674300632,-8328.617611958696,-29493.75265762242
-13474.346813481669,-8555.107838524324,-8295.134698764647,-30043.069129356045
-13791.29454985792,-8269.676061830052,-8732.647744732827,-30205.85688422405
-15663.253147989888,-10509.924353352111,-8949.459665949305,-29529.29193130636
-15834.691027962092,-11273.348185223123,-8618.51973754403,-29216.233398465327
-14810.534097019923,-10364.593310903709,-8334.049085861336,-29472.16087247859
-13538.63043053513,-8659.199912452688,-8288.049195772313,-30021.298530256576
-13708.011950017448,-8199.558639473753,-8699.120128049866,-30234.914152015943
-15602.769327493826,-10412.068416126778,-8953.818256118091,-29568.60864980324
-15859.724981752035,-11283.831153372665,-8633.070723184434,-29213.14885773049
-14870.973214027072,-10432.609669281206,-8349.784713957872,-29442.92479073105
-13597.54962891932,-8752.384335086863,-8289.032672528348,-29982.406494904342
-13621.55540246432,-8121.059312946715,-8669.973453280147,-30248.861640556057
-15532.808367348716,-10288.865600689123,-8965.128238812476,-29603.5891298758
-15896.67241533666,-11291.14017380955,-8664.85490379988,-29212.187732718918
-14940.397732305257,-10496.401547956651,-8366.727336254995,-29423.18820037701
-13674.216112401024,-8850.195568823287,-8282.371852680666,-29950.801128244537
-13548.86752949566,-8060.419030239467,-8636.42348485273,-30268.106492532075
-15451.448017531398,-10165.260453851277,-8975.208875561819,-29643.01760709496
-15924.410930205697,-11294.76115641131,-8690.604113412395,-29213.282968197225
-14998.646378355788,-10559.94755744309,-8376.025661948403,-29403.809237934263
-13729.71549388355,-8942.709439123802,-8285.076413759758,-29928.382328555865
-13466.344888966669,-8001.790404533197,-8606.89683042727,-30280.042324071208
-15367.696031057363,-10042.683487258371,-8970.9173406264,-29679.11567439028
-15940.638296680248,-11286.960397596407,-8700.662398417282,-29224.16826774696
-15069.903739679306,-10630.512014688496,-8393.75059530146,-29385.927842370016
-13812.30518964591,-9053.328222433118,-8285.031710270847,-29900.375592753364
-13419.13800467706,-7983.506677568756,-8579.158315558234,-30303.019917371264
-15286.22392251777,-9931.505910337675,-8980.34977678654,-29742.728739110084
-15972.8695121848,-11300.729072180877,-8724.802282429015,-29244.28483775673
-15136.869566067406,-10707.35731212584,-8397.058653480846,-29376.20483353196
-13881.21561780162,-9166.964491243898,-8281.790707324828,-29874.648734885304
-13363.5045127278,-7963.09953488106,-8549.944585555148,-30299.66715570297
-15183.897636401372,-9798.848306995427,-8975.946483128844,-29775.18347205919
-15992.203771138642,-11285.596941184634,-8748.986869929657,-29262.47915774336
-15212.686683259808,-10771.395059990296,-8417.532851401907,-29370.50513869585
-13969.259139211075,-9274.342271607193,-8283.40003292561,-29845.01032173757
-13337.621192648554,-7957.221026089314,-8515.478195605063,-30300.58357722564
-15090.154420155815,-9665.497799575069,-8960.747296899235,-29819.305815613967
-16004.11725093332,-11267.246158986827,-8760.788591002058,-29270.235213069347
-15272.991689800228,-10831.253031641609,-8425.735941617006,-29345.672350606008
-14033.54275626454,-9366.565569229791,-8281.142506735625,-29808.442867808684
-13302.618360831542,-7954.695278965864,-8491.29360810442,-30297.879016146544
-14988.856314284363,-9529.420379331155,-8959.741468398746,-29865.640981869816
-16002.93260847719,-11227.705923045389,-8778.602931332938,-29279.53353876276
-15327.88757418246,-10876.649424630335,-8440.353982490777,-29323.83469627317
-14093.288969193574,-9457.425410440614,-8276.135715977636,-29768.29913476696
-13258.183092854391,-7955.231720832792,-8451.90983437417,-30280.37760023804
-14862.010164500496,-9390.705453241522,-8940.116636766987,-29899.34741250842
-15984.894750701756,-11195.184134862917,-8789.912914027323,-29294.33039359217
-15376.033231739191,-10926.247945576662,-8439.929299346126,-29303.695774518943
-14170.13426663092,-9557.807094789398,-8274.97342526596,-29741.275875720487
-13254.964441652828,-7985.026596191717,-8426.115921272745,-30270.051094299688
-14740.550785130356,-9244.323878803716,-8916.960229511289,-29933.27736059157
-15976.266977342008,-11148.044305806674,-8804.709768856737,-29306.623853042587
-15434.237174300812,-10982.954321259776,-8464.650328713695,-29292.363440080106
-14227.645305114424,-9650.410372067736,-8283.936474792537,-29710.20695092761
-13250.628203228498,-8025.416198422457,-8410.447348409576,-30256.79650983769
-14640.258507759394,-9123.915031422976,-8912.087549220032,-29978.092608224462
-15978.59155876536,-11104.883087263475,-8828.715542401736,-29328.059175975228
-15508.579076359165,-11030.585888694037,-8481.838820199826,-29277.14190210604
-14319.376864359008,-9742.812483645974,-8295.805251098305,-29686.1564738937
-13263.212235356836,-8062.184818051436,-8397.684502325596,-30242.69255908639
-14528.768006416323,-8986.518858256204,-8903.437424115828,-30024.24896052468
-15959.34670678934,-11043.304031289104,-8860.812647439558,-29359.26221123484
-15553.908414114523,-11064.09115363254,-8511.521936836474,-29270.570489236172
-14376.08324004212,-9818.60724909392,-8304.522431435875,-29659.893174158715
-13273.047002917172,-8104.451966816422,-8375.779792759395,-30223.760631532747
-14409.253228813795,-8849.077981600522,-8875.251874357686,-30055.2955335731
-15934.849194866323,-10980.69679506979,-8879.118726148454,-29379.44583647798
-15615.465118344442,-11118.450596147848,-8538.232271460565,-29272.49273925933
-14453.57673806867,-9919.748892754184,-8314.64777167413,-29645.14102281821
-13307.82631728963,-8189.254485279857,-8368.627234533697,-30197.83260796459
-14295.572256514104,-8745.812922217003,-8862.08669687351,-30088.62198455596
-15891.062127478375,-10915.54145998257,-8883.298502361597,-29391.940461628496
-15647.42811291553,-11151.218253519328,-8531.750265568528,-29236.059395797183
-14506.595075916655,-9999.656379181908,-8303.11427153519,-29590.222786691524
-13318.53280288372,-8252.77814302184,-8337.848882418739,-30162.82977614758
-14171.050688153588,-8626.342848103386,-8831.755379647659,-30121.97078728328
-15859.926147452135,-10848.173302194276,-8908.66773231837,-29421.40006082059
-15698.747718184915,-11197.486364541814,-8566.12724854079,-29235.16532601897
-14575.594911050192,-10088.4822116473,-8317.575850197774,-29565.747626512963
-13361.78342840474,-8335.278431806379,-8332.104484093725,-30134.01837754469
-14070.35607938243,-8518.92036425118,-8818.143167274377,-30151.31862775309
-15823.738673178992,-10756.307632482962,-8937.747351854725,-29455.039436225827
-15743.428855351074,-11209.399844336493,-8586.065004594922,-29222.4471834239
-14649.668592175078,-10156.230349091336,-8333.534995738864,-29543.440585546567
-13416.053463942226,-8408.748615830973,-8326.829472402273,-30110.280824933157
-13972.075459012443,-8410.290886198389,-8788.571809360004,-30182.4769595238
-15784.60076863775,-10668.241759329052,-8939.736657111247,-29484.141407506635
-15797.475373444007,-11238.904147017498,-8604.527545515008,-29230.113831772072
-14716.857936007733,-10236.07078028569,-8336.552481240331,-29522.1170213362
-13458.834702829685,-8498.40146284121,-8306.735254136951,-30080.553004807596
-13858.282727990476,-8308.45633846001,-8749.67977400777,-30213.16590466093
-15714.371587559175,-10559.500522553984,-8949.325555482574,-29525.447431260043
-15833.260516316954,-11264.407487441003,-8624.621763780327,-29225.621131136555
-14797.21245732456,-10324.673095306527,-8345.403772044632,-29498.133599535657
-13531.008485675871,-8609.042597894979,-8306.824661114772,-30058.0447981411
-13777.190599106623,-8241.021125438348,-8727.506843508107,-30245.017140509743
-15663.789589856817,-10470.719393577505,-8962.244863777742,-29562.99836194496
-15872.040792946911,-11288.055633074717,-8643.576043078428,-29227.632788137533
-14864.290042434935,-10407.955695147002,-8362.122876897201,-29476.899442303114
-13588.161896248092,-8712.53117472305,-8301.460242445499,-30027.2887977706
-13685.2802259064,-8172.602435660653,-8691.0511483015,-30260.99863779529
-15589.335929076187,-10361.62052889115,-8963.764782400702,-29599.05172575137
-15898.326444426351,-11297.532772723767,-8656.651813584784,-29234.4500701964
-14918.694188439154,-10467.813666798314,-8364.380403087187,-29457.40872113809
-13637.31338230531,-8793.288027440076,-8290.59729464022,-29991.45895140874
-13587.804268336806,-8087.844620686129,-8662.507970632074,-30276.980135080837
-15502.03001523376,-10232.650963384029,-8977.779326174179,-29635.10508955778
-15913.503278911505,-11286.245141773838,-8680.38936619632,-29231.969026561863
-14977.38986937879,-10525.637629704192,-8378.193781160568,-29428.95495044648
-13702.669883092629,-8889.199362897798,-8294.59825689772,-29948.27538112109
-13512.992979644892,-8027.941945545906,-8642.011420966557,-30282.00927758328
-15423.754206151272,-10106.788290356197,-8993.0232158927,-29677.796921467416
-15950.785988662958,-11288.346205752636,-8705.311561263987,-29238.07105279816
-15046.16618706777,-10586.367319389265,-8391.381310389199,-29406.044412379797
-13768.406363535689,-8981.0203291202,-8292.363082452188,-29916.15592433881
-13444.149606722547,-7977.494058310278,-8598.738443701082,-30289.18418755343
-15338.70581849883,-9986.625312164464,-8980.05920410862,-29700.618052556285
-15955.278689298477,-11281.75244113832,-8707.569087453972,-29224.660006124977
-15105.241847663146,-10655.791837667446,-8391.89540051167,-29382.463321979445
-13840.848367315337,-9094.500135719793,-8282.036576513836,-29882.2036245112
-13388.516114773289,-7962.160761613937,-8558.59471065935,-30291.441713743417
-15233.317343392057,-9856.605214667945,-8966.49169522425,-29749.747186869048
-15977.96570992061,-11285.686348162457,-8733.117131366389,-29248.576372692158
-15170.687755428286,-10735.36404792834,-8411.877860054716,-29371.82389161872
-13908.440042548184,-9210.125709787097,-8285.322282948766,-29854.822737553448
-13334.87192808055,-7960.506732524244,-8542.635565118262,-30301.410591770484
-15141.161101002825,-9757.16230358628,-8979.075727352587,-29799.81509444894
-16001.904428232245,-11290.894304620542,-8762.464971836207,-29270.32462004717
-15242.034523729626,-10803.156888861286,-8427.792302106895,-29358.85987983464
-13993.399023222808,-9320.520975651858,-8291.334902207243,-29830.36992911934
-13305.501735866275,-7953.1083051095375,-8513.578297326363,-30294.90623413399
-15028.553012436989,-9597.593199919844,-8970.9173406264,-29835.62258906634
-15995.936512462678,-11246.570795365667,-8785.956655258735,-29279.019448640283
-15299.344396513034,-10852.978927252165,-8445.740752904505,-29340.71026333693
-14062.868244989902,-9407.826889494288,-8295.380567953654,-29800.597405504872
-13278.880808220008,-7948.19092132937,-8486.644445257718,-30293.676888188947
-14928.260735066026,-9460.420544197625,-8965.48586672376,-29886.29399374652
-16002.709091032635,-11216.485347328824,-8809.1801177478,-29296.27499535978
-15364.65619381144,-10905.796099400057,-8461.72225019005,-29316.52567583629
-14136.673705181323,-9508.342684309804,-8300.789690111838,-29764.812262631927
-13254.495055019266,-7962.786610458686,-8453.496808230497,-30276.42134146945
-14800.341701548305,-9308.674551090546,-8938.753180355214,-29915.708889449703
-15990.437983326672,-11164.91987287043,-8815.416254450829,-29296.74438199334
-15414.724101391328,-10950.03020167711,-8472.96517765107,-29298.84544597214
-14204.734767047736,-9599.716615643098,-8303.538954679841,-29730.85996280432
-13251.052886373149,-7996.828317264119,-8440.95747959107,-30262.9432395629
-14699.468278821503,-9186.231694964374,-8941.748314112225,-29960.79235801606
-15978.613910509815,-11122.228040960794,-8837.924461117324,-29321.152486938536
-15467.027183416749,-10995.851277810489,-8489.326654592354,-29288.206015611413
-14266.425581744385,-9685.100279462373,-8302.533126179353,-29699.67927928916
-13247.744828193763,-8033.820454337651,-8417.868127568738,-30248.21343996685
-14588.290701900803,-9059.832580069611,-8926.884404049446,-30002.83598933649
-15970.67904122818,-11082.91132246391,-8869.306310332575,-29346.655827362043
-15523.554745144218,-11055.57513899507,-8521.267297418988,-29279.824111440677
-14343.047361737175,-9789.75114700212,-8320.436873488054,-29676.992258667025
-13268.084915648094,-8095.779489967763,-8405.239391951489,-30235.428242138416
-14468.887683020555,-8929.901889550913,-8904.107976449488,-30035.71540543025
-15953.289384041953,-11019.566478677569,-8882.829115728035,-29367.867632850128
-15589.045356398268,-11093.640159802457,-8538.07580924938,-29272.090407859137
-14409.18617358043,-9868.384583995889,-8317.955829853516,-29642.81644139486
-13279.05962217565,-8146.2273772033905,-8380.630121306196,-30211.333061615594
-14349.305850184664,-8804.307437456542,-8885.846601229501,-30078.80956874008
-15917.325427213364,-10959.55204481507,-8898.38592986893,-29394.24269130739
-15631.46896737444,-11140.131788269497,-8547.441190176152,-29253.33729426113
-14479.52711338128,-9963.759477586686,-8326.896527635638,-29611.52399915743
-13301.165497441949,-8211.3380088017,-8364.603920531741,-30179.25830832223
-14234.574345895571,-8679.182371995732,-8862.980766651723,-30108.269167932176
-15880.71326979557,-10874.72717460718,-8910.18765094133,-29414.02398515034
-15677.826485374748,-11167.870303138532,-8561.79101011646,-29242.943733089414
-14545.64357348008,-10038.436655811864,-8323.253193289424,-29579.80687377535
-13338.291744982213,-8284.808192826295,-8342.766266198905,-30145.10484279452
-14125.967219587234,-8571.98340558808,-8829.363742990941,-30130.620912387483
-15846.962135668056,-10805.570877262458,-8920.491805135227,-29433.022967937348
-15716.405596304608,-11201.59908552159,-8571.804591632437,-29224.43648868042
-14605.568600364755,-10120.579316685118,-8331.322173037788,-29550.45903330553
-13384.425745537968,-8376.629159048696,-8344.397943544143,-30122.015490772188
-14021.62927646986,-8473.456916029087,-8806.520260157617,-30164.46145349281
-15804.069138058325,-10724.50110012306,-8940.831892589556,-29470.015105010883
-15769.088657985769,-11239.93232726244,-8596.123289599811,-29221.3966514345
-14674.6131389872,-10203.996026992323,-8332.640925960652,-29520.977082368983
-13425.932934991471,-8455.1955408091,-8320.146300810135,-30079.055437929088
-13908.909429181747,-8363.620443775708,-8770.869227751402,-30179.25830832223
-15743.317096628798,-10620.476081428062,-8951.068991550088,-29491.606890154708
-15805.41024272564,-11250.504702389802,-8618.743254988582,-29216.345157187603
-14743.05418050935,-10272.302958047743,-8349.762362213416,-29496.4125152126
-13476.80550537175,-8539.2157482166,-8312.054969317314,-30052.970952149743
-13804.92911397566,-8264.669271072064,-8737.609832001905,-30203.01821267822
-15684.353194755698,-10511.757196397448,-8950.689011894347,-29524.463954504008
-15837.529699507915,-11262.66405137349,-8627.639249281794,-29213.10415424158
-14805.147326606197,-10344.879072294125,-8347.191911601056,-29472.16087247859
-13541.290288125312,-8638.926880231724,-8301.97433256797,-30025.52300995863
-13730.43074970612,-8200.85504065216,-8718.275573048064,-30243.832498053613
-15628.831461528714,-10419.332733074752,-8980.260369808719,-29575.98472547349
-15897.834706048336,-11306.786394928266,-8668.878217801835,-29231.90197132849
-14895.582484672366,-10447.607689810717,-8371.600016546252,-29468.115206732185
-13609.306646502811,-8758.329899111975,-8301.527297678864,-30006.85930333845
-13626.115158333205,-8130.201176428935,-8679.405889440286,-30252.437919668904
-15532.87542258208,-10294.855868203147,-8970.403250503929,-29597.75532457296
-15893.43141239064,-11287.206266785415,-8669.57112187995,-29218.04388976621
-14933.893374668763,-10491.260646731933,-8375.824496248306,-29435.660473783075
-13661.028583172392,-8839.690248929292,-8297.436928443543,-29966.536756341076
-13547.973459717448,-8060.173161050458,-8652.069705971446,-30269.58170766613
-15464.970822926858,-10185.48878258333,-8986.809430934123,-29636.40149073619
-15920.789947603937,-11295.498763978334,-8689.888857589825,-29223.520067157755
-15001.887381301807,-10566.206045890576,-8385.167525430623,-29412.571121760742
-13729.022589805436,-8949.034982804655,-8292.92187606357,-29931.69038673525
-13470.4799616909,-8019.761207075264,-8616.776301476515,-30282.18809153892
-15375.51914161672,-10063.694127046365,-8985.311864055619,-29683.943651192625
-15940.05715132441,-11292.973016854883,-8713.000561356612,-29228.750375360298
-15061.141855852826,-10628.567412920882,-8402.177202961111,-29392.3874965176
-13800.682282529153,-9046.242719440785,-8296.386396454143,-29901.3590695094
-13426.335266391668,-7987.574695059621,-8599.833679179392,-30291.86639688807
-15298.360919757,-9940.87129126445,-8994.49843102675,-29721.852209788827
-15970.343765061352,-11286.759231896309,-8744.15889312731,-29238.115756287072
-15133.695618354754,-10689.319454350409,-8417.979886291014,-29377.09890331017
-13876.342937510364,-9149.932461968954,-8300.968504067481,-29876.1015982749
-13369.383021519545,-7965.4911715377775,-8576.096126567856,-30301.07531560365
-15196.10168887397,-9808.861888511408,-8986.317692556107,-29768.79087314497
-15989.052175170444,-11283.42882197247,-8749.389201329852,-29247.570544191665
-15198.269808086136,-10762.074382552431,-8421.042075281392,-29356.75881585584
-13944.158130187769,-9255.477399286914,-8290.865515573683,-29838.260094912064
-13327.24998322129,-7950.984889386284,-8532.30905917991,-30294.92858587844
-15099.251580149124,-9678.797087525974,-8983.031986121177,-29815.19309463419
-15992.807268238936,-11262.976975795864,-8777.664158065816,-29271.844538670128
-15265.034468774138,-10821.798243737012,-8449.093514572802,-29356.535298411287
-14035.979096410168,-9358.943624370531,-8309.104539049213,-29820.624568536827
-13315.805890060174,-7956.639880733476,-8522.20607068611,-30298.884844647037
-15012.079776773428,-9550.006335974496,-8984.596608233049,-29856.52147013205
-16011.023939970011,-11239.21707143987,-8804.754472345647,-29287.35664932211
-15313.98478913126,-10864.803000069023,-8453.34034601931,-29331.791917299262
-14082.426021388295,-9442.293279444371,-8297.794556354827,-29782.49249249608
-13273.114058150535,-7959.389145301479,-8480.564770765874,-30288.08895207512
-14882.41730718819,-9401.747215002444,-8965.530570212672,-29900.129723564354
-16000.540971820472,-11198.983931420318,-8828.760245890648,-29296.78908548225
-15383.342252176077,-10932.372323557416,-8483.939884178626,-29318.447925859444
-14167.675574740835,-9558.343536656324,-8315.966524596992,-29768.165024300222
-13257.601947498555,-7993.184982917904,-8466.885503159227,-30288.714800919868
-14766.992898820983,-9279.93020772102,-8958.713288153802,-29946.710759009216
-15988.806305981436,-11164.718707170334,-8838.259737284152,-29321.66657706101
-15438.14872958049,-10978.08164096852,-8495.808660484394,-29312.03297520077
-14231.400398182916,-9645.04595339846,-8315.944172852538,-29739.97947454208
-13251.43286602889,-8020.454111153378,-8436.91181384466,-30272.8450623566
-14653.490740476936,-9133.794502472225,-8938.48495942175,-29986.74273332867
-15987.040518169466,-11110.426319888393,-8862.198455595786,-29349.941533796973
-15496.755003542306,-11018.873574599456,-8505.375207111265,-29299.60540528362
-14305.742300241269,-9725.959268326673,-8309.819794871783,-29695.566558309387
-13265.782685969198,-8061.111934317581,-8414.560069389352,-30245.0394922542
-14545.777683946812,-9002.433300308383,-8916.155566710899,-30012.491942941186
-15975.149390119244,-11054.748124450223,-8870.960339422267,-29354.635400132585
-15567.40886776553,-11071.646043258435,-8525.983515499058,-29283.556852764712
-14387.616740181058,-9824.597516607942,-8319.542803709843,-29668.63270624074
-13288.022671702229,-8121.416940858,-8393.504726112453,-30226.35343388956
-14437.23761287184,-8889.512287320173,-8906.745482295213,-30066.650219756397
-15946.740322916548,-11002.109766257974,-8894.250857144698,-29388.67710693802
-15611.03947294229,-11119.367017670516,-8542.032068017968,-29268.58118397965
-14455.074304947177,-9918.698360764784,-8327.231803802468,-29647.890287386217
-13312.63194234752,-8188.271008523823,-8384.56402833033,-30213.74705001677
-14322.573163816114,-8769.416364361807,-8883.723185506247,-30096.8027230266
-15910.619903876772,-10935.143939869877,-8910.724092808257,-29408.145476358597
-15643.00246751338,-11147.06082905064,-8557.186550758666,-29256.46653848488
-14500.895381080554,-9987.340567987034,-8323.610821200708,-29606.271339210434
-13312.788404558709,-8240.149407404591,-8358.993632673459,-30173.715075697317
-14182.941816203813,-8633.584813306907,-8844.965260620746,-30126.508191407705
-15855.47815030553,-10847.838026027444,-8922.995200514222,-29435.57106680525
-15679.3017005088,-11178.26386431025,-8580.41001324773,-29250.722140159865
-14554.517216028837,-10059.380240366489,-8330.852786404228,-29586.691211067584
-13340.16929151646,-8299.493288933432,-8342.810969687816,-30150.983351586267
-14067.807980514524,-8508.68326529065,-8819.707789386248,-30155.118424310494
-15815.356769008253,-10755.324155726928,-8931.779436085157,-29461.49909037341
-15723.669913252585,-11192.278408083726,-8587.584923217884,-29239.99330282132
-14633.240060000428,-10131.263450534756,-8337.22303357399,-29552.76126298443
-13395.422803809975,-8372.56114155783,-8334.45141726153,-30117.411031414395
-13972.410735179274,-8396.18693544709,-8804.799175834558,-30184.220395591303
-15774.922463288602,-10658.474047002084,-8950.800770616625,-29489.59523315373
-15779.1245912462,-11220.285143886227,-8611.791862462982,-29234.338311474123
-14711.71703478301,-10214.277829441766,-8356.065554149813,-29531.05771911833
-13460.064048774726,-8469.2994915604,-8322.3144200223,-30084.129283920443
-13878.980443356091,-8308.12106229318,-8757.614643289406,-30197.407924819938
-15722.68643649655,-10571.793982004405,-8951.426619461372,-29509.98002409697
-15817.726053920514,-11253.790408824732,-8621.760740490048,-29217.395689177003
-14770.792695378388,-10295.124089136612,-8341.380458042677,-29490.109323276203
-13503.560543484751,-8568.854161364337,-8306.265867503389,-30049.48408001472
-13774.396631049707,-8231.3428200892,-8733.139483110843,-30229.236808924292
-15669.735153881928,-10477.871951803205,-8961.686070166359,-29551.3754548282
