 EXG Channel 0, EXG Channel 1, EXG Channel 2, EXG Channel 3
15097.351681870425,29780.23496630609,-16886.63117726221,-7225.067284711276
15099.69861503823,29793.400143790263,-16876.70700272405,-7222.161557932086
15092.099021923426,29796.0823531249,-16872.124895110715,-7209.979857203943
15077.83860896094,29778.78210291649,-16879.746839969976,-7204.391921090117
15079.202065372714,29766.68980916617,-16888.62048251873,-7218.629982308148
15088.813315488496,29772.545966213464,-16885.3347760838,-7227.19070043453
15101.531458083566,29795.65766998025,-16866.559310741344,-7221.267488153874
15101.50910633911,29805.9841759186,-16865.91111015214,-7209.689284526024
15083.493600308131,29788.41570477673,-16879.85859869225,-7213.042046194321
15082.93480669675,29781.71018144014,-16875.09767712327,-7209.398711848106
15091.741394012142,29783.498320996565,-16873.44364803358,-7211.723293271458
15097.374033614878,29802.452600294662,-16869.845017176274,-7216.417159607072
15103.476059851178,29807.92877768621,-16880.19387485908,-7218.965258474977
15095.876466736374,29794.78595194649,-16900.19868614658,-7218.920554986067
15092.4119463458,29787.47693150961,-16896.845924478286,-7208.169365903064
15094.714176024698,29788.23689082109,-16890.00629067496,-7215.6124968066815
15100.480926094167,29807.057059652456,-16883.233712105004,-7219.233479408441
15105.957103485716,29826.368966861843,-16880.506799281455,-7219.56875557527
15096.4129086033,29814.276673111523,-16888.6875377521,-7221.491005598427
15089.148591655328,29797.04347813648,-16891.660319764655,-7214.405502606095
15096.50231558112,29794.80830369095,-16892.82261047633,-7219.546403830815
15103.811336018009,29810.47687655412,-16891.95089244257,-7224.57554633326
15103.587818573456,29821.876266226325,-16886.988805173492,-7216.573621818259
15093.641292290842,29806.341803829888,-16893.426107576623,-7209.979857203943
15094.088327179948,29797.423457792214,-16894.83426747731,-7211.611534549182
15100.346815627434,29808.37581257532,-16888.66518600764,-7217.400636363106
15106.60530407492,29825.117269172344,-16880.953834170563,-7218.071188696765
15107.946408742238,29832.068661697944,-16882.96549117154,-7215.52308982886
15085.147629397828,29810.27571085402,-16904.66903503764,-7217.802967763301
15075.916358937784,29799.36805955983,-16903.327930370324,-7218.80879626379
15093.954216713217,29804.77718171801,-16889.11222089675,-7220.28401139784
15098.111641181904,29818.14352490229,-16881.06559289284,-7227.369514390173
15097.999882459628,29829.319397129944,-16881.19970335957,-7229.71644755798
15101.576161572477,29815.841295223392,-16890.319215097334,-7224.061456210788
15095.764708014096,29805.96182417415,-16891.079174408816,-7228.800026035313
15093.484830079657,29808.37581257532,-16879.05393589186,-7221.155729431597
15099.519801082588,29825.340786616896,-16870.113238109738,-7215.768959017869
15106.47119360819,29836.18138267772,-16868.503912508957,-7208.147014158609
15100.302112138525,29822.99385344909,-16877.735182968998,-7212.99734270541
15101.151478427826,29816.109516156856,-16882.25023534897,-7216.394807862617
15101.017367961094,29818.925835958224,-16882.183180115604,-7213.243211894419
15109.13105119837,29835.734347788617,-16874.91886316763,-7204.23545887893
15108.75107154263,29847.379606649836,-16877.221092846525,-7204.213107134475
15099.542152827044,29834.03561521001,-16895.460116322054,-7211.589182804726
15091.65198703432,29816.60125453487,-16911.933351985615,-7222.876813754656
15098.782193515564,29825.340786616896,-16903.573799559334,-7226.900127756611
15105.398309874334,29843.043368225502,-16885.20066561707,-7212.796177005312
15112.975551244685,29853.01224625257,-16876.327023068312,-7208.705807769991
15109.063995965003,29839.4447373682,-16886.83234296231,-7211.164499660075
15103.453708106725,29829.252341896576,-16892.375575587223,-7209.242249636919
15109.153402942826,29834.750871032586,-16887.56995052933,-7204.682493768036
15114.18254544527,29851.693493329705,-16881.132648126204,-7202.38026408914
15114.115490211903,29865.797444081003,-16879.05393589186,-7189.863287194167
15104.99597847414,29853.213411952667,-16889.559255785854,-7189.930342427533
15094.535362069057,29841.590504835905,-16897.695290767588,-7201.933229200034
15093.529533568566,29838.036577467512,-16900.288093124404,-7212.684418283036
15104.75010928513,29849.77124330655,-16890.073345908328,-7206.001246690899
15115.255429179124,29860.656542856283,-16888.955758685563,-7200.860345466179
15106.04651046354,29843.28923741451,-16901.472735580533,-7201.486194310927
15103.051376706528,29827.37479536233,-16897.739994256495,-7192.992531417911
15103.051376706528,29832.02395820904,-16888.307558096356,-7196.054720408288
15107.968760486694,29850.33003691793,-16880.90913068165,-7193.32780758474
15111.366225643902,29858.33196143293,-16882.160828371147,-7192.433737806528
15102.425527861778,29841.366987391357,-16898.67876752362,-7196.077072152743
15087.561617799,29822.56917030444,-16914.54850608689,-7213.019694449866
15095.451783591723,29827.553609317973,-16905.428994349124,-7209.376360103651
15108.527554098077,29846.99962699409,-16894.364880843747,-7209.599877548204
15110.13687969886,29854.06277824197,-16898.030566934416,-7217.914726485578
15094.89298998034,29838.48361235662,-16911.128689185225,-7224.977877733455
15086.488734065144,29825.117269172344,-16915.688445054107,-7209.845746737212
15090.802620745018,29827.464202340157,-16908.468831595044,-7201.419139077561
15108.147574442335,29846.641999082807,-16896.555351800365,-7206.135357157631
15109.712196554208,29859.941287033715,-16897.605883789765,-7206.5153368133715
15104.057205207017,29855.649752098296,-16904.803145504375,-7205.151880401598
15101.889085994851,29845.52441186004,-16902.76913675894,-7198.334598342729
15104.70540579622,29841.43404262472,-16906.144250171692,-7206.04595017981
15103.319597639991,29852.58756310792,-16906.837154249806,-7218.629982308148
15105.398309874334,29866.22212722565,-16900.980997202518,-7225.3578573891955
15105.08538545196,29861.125929489845,-16903.976130959527,-7222.116854443176
15102.447879606234,29851.782900307528,-16904.11024142626,-7222.09450269872
15107.342911641948,29854.800385808998,-16901.092755924794,-7233.71740981548
15112.70733031122,29869.977220294146,-16898.946988457083,-7244.803875065312
15114.026083234085,29880.57194716596,-16898.946988457083,-7247.486084399949
15102.023196461583,29867.54088014852,-16904.490221082,-7247.977822777966
15097.217571403691,29852.744025319105,-16905.093718182292,-7254.862160070201
15110.852135521429,29855.873269542848,-16898.790526245895,-7256.695003115536
15108.862830264909,29872.838243584425,-16894.074308165826,-7264.29459623034
15108.12522269788,29884.371743723364,-16895.39306108869,-7268.049689298831
15107.99111223115,29865.46216791417,-16915.39787237619,-7269.72607013298
15103.69957729573,29855.560345120477,-16924.87501202524,-7265.032203797366
15101.285588894558,29856.744987576603,-16924.00329399148,-7261.567683406793
15103.051376706528,29869.463130171676,-16912.760366530463,-7259.667785128091
15113.422586133787,29891.68076416025,-16904.780793759917,-7255.86798857069
15107.633484319866,29891.09961880441,-16910.748709529485,-7245.653241354614
15100.4138708608,29876.25806048609,-16912.31333164136,-7232.62217433717
15101.777327272574,29875.028714541044,-16913.09564269729,-7230.09642721372
15100.100946438426,29888.059781558488,-16910.81576476285,-7232.421008637072
15124.4196444058,29907.997537612624,-16904.803145504375,-7230.05172372481
15110.874487265884,29899.39211599733,-16915.39787237619,-7231.705752814502
15101.866734250396,29887.031601313545,-16925.59026784781,-7233.315078415285
15101.598513316932,29887.210415269183,-16918.3930061332,-7223.9496974885105
15110.069824465494,29899.39211599733,-16905.04901469338,-7218.361761374684
15113.221420433692,29917.184104583757,-16898.54465705689,-7222.161557932086
15105.75593778562,29906.947005623224,-16909.072328695336,-7213.869060739167
15094.267141135591,29891.23372927114,-16917.096604954793,-7205.66597052407
15096.32350162548,29890.78669438204,-16913.989712475504,-7203.5202030563605
15097.396385359334,29901.426124742764,-16910.748709529485,-7206.850612980201
15106.784118030564,29923.509648264608,-16903.596151303787,-7207.18588914703
15106.158269185817,29924.02373838708,-16907.373596116733,-7194.937133185522
15097.530495826066,29909.629214957866,-16915.19670667609,-7190.243266849908
15094.289492880049,29910.34447078043,-16913.87795375323,-7191.986702917422
15103.3643011289,29923.755517453614,-16912.045110707895,-7192.903124440089
15117.89293502485,29943.49210780765,-16903.082061181314,-7186.219952847952
15104.593647073943,29931.35511056842,-16907.10537518327,-7177.256903321374
15090.735565511652,29914.99363362713,-16914.861430509263,-7172.719499196947
15088.232170132658,29914.837171415948,-16908.468831595044,-7172.965368385955
15105.55477208552,29932.36093906891,-16895.951854700073,-7176.787516687813
15109.287513409558,29948.38713984336,-16897.002386689473,-7186.778746459335
15098.335158626458,29937.390081571357,-16910.45813685157,-7193.6630837515695
15098.022234204083,29925.02956688757,-16912.179221174625,-7185.504697025383
15094.960045213706,29922.392061041843,-16908.066500194847,-7184.945903414
15114.56252510101,29937.904171693823,-16901.20451464707,-7192.836069206724
15123.816147305508,29953.237468390165,-16897.225904134026,-7193.059586651277
15112.193240188748,29951.69519802275,-16905.3395873713,-7195.831202963735
15095.161210913804,29936.339549581957,-16908.78175601742,-7192.61255176217
15092.434298090257,29931.623331501884,-16900.310444868857,-7179.179153344531
15092.568408556988,29946.151965397832,-16891.123877897728,-7180.296740567296
15108.03581572006,29960.25591614913,-16889.738069741496,-7187.3822435596285
15102.85021100643,29947.426014831784,-16899.215209390546,-7189.706824982981
15099.18452491576,29931.422165801785,-16904.222000148537,-7191.85259245069
15099.855077249418,29931.39981405733,-16902.545619314387,-7188.991569160411
15104.057205207017,29941.189878128756,-16903.73026177052,-7190.600894761193
15107.253504664124,29953.50568932363,-16908.96056997306,-7191.204391861486
15097.32933012597,29943.603866529927,-16921.72341605704,-7189.706824982981
15093.440126590744,29932.13742162436,-16922.662189324165,-7187.069319137254
15095.071803935982,29931.131593123868,-16922.371616646244,-7193.886601196123
15098.84924874893,29935.668997248293,-16922.3939683907,-7198.289894853819
15105.08538545196,29951.9187154673,-16919.48824161151,-7196.837031464223
15095.049452191526,29940.184049628268,-16935.87207029725,-7206.582392046737
15088.27687362157,29925.02956688757,-16941.325895944345,-7208.437586836528
15089.752088755618,29924.89545642084,-16938.174299976148,-7206.090653668721
15097.50814408161,29936.27249434859,-16928.607753349275,-7201.6426565221145
15100.905609238818,29956.567878314007,-16914.615561320254,-7198.021673920354
15111.70150181073,29958.847756248448,-16916.560163087866,-7196.144127386109
15102.246713906135,29941.703968251222,-16927.333703915323,-7202.916705956067
15102.55963832851,29939.424090316785,-16919.48824161151,-7201.70971175548
15109.4663273652,29952.92454396779,-16908.468831595044,-7202.670836767058
15117.825879791484,29970.18009068729,-16902.970302459038,-7206.47063332446
15110.650969821332,29963.54162258406,-16909.00527346197,-7210.605706048693
15099.519801082588,29947.716587509705,-16919.53294510042,-7211.857403738189
15093.93186496876,29942.799203729537,-16921.455195123577,-7211.812700249279
15096.345853369934,29953.572744556997,-16914.704968298076,-7214.360799117184
15101.710272039209,29968.59311683096,-16909.519363584444,-7218.026485207854
15105.733586041164,29966.849680763447,-16911.978055474527,-7217.422988107561
15102.380824372867,29956.701988780736,-16916.515459598955,-7216.28304914034
15096.569370814488,29949.907058466324,-16919.287075911412,-7215.14311017312
15097.12816442587,29957.104320180933,-16912.91682874165,-7210.136319415131
15106.56060058601,29977.66792507981,-16907.77592751693,-7206.2247641354525
15102.716100539696,29969.28602090908,-16921.432843379123,-7211.544479315816
15104.683054051764,29951.292866622556,-16934.82153830785,-7216.685380540536
15105.13008894087,29949.303561366032,-16931.58053536183,-7212.684418283036
15107.61113257541,29966.715570296717,-16919.890573011708,-7205.889487968623
15112.528516355576,29989.89432929687,-16912.134517685714,-7207.252944380396
15112.081481466472,29990.542529886072,-16916.82838402133,-7210.672761282059
15111.969722744194,29977.84673903546,-16925.63497133672,-7206.336522857729
15112.260295422113,29977.1761867018,-16928.518346371453,-7210.203374648497
15119.859888536916,29995.50461715515,-16922.97511374654,-7216.953601474
15120.932772270771,30011.84374235198,-16919.801166033885,-7218.026485207854
15108.75107154263,29994.498788654662,-16932.675770840142,-7220.015790464377
15099.497449338132,29973.711666311225,-16938.040189509415,-7222.496834098916
15101.442051105743,29976.013895990123,-16925.38910214771,-7220.149900931108
15116.6188855909,29991.32484094201,-16910.1899159181,-7208.974028703455
15120.37397865939,30001.159608502345,-16912.335683385812,-7214.740778772924
15111.589743088454,29994.342326443475,-16921.321084656847,-7227.436569623539
15113.668455322795,29987.63680310688,-16923.846831780294,-7226.43074112305
15113.020254733594,29984.485207138685,-16918.169488688647,-7227.347162645718
15107.722891297686,29985.692201339272,-16915.219058420545,-7234.566776104782
15112.595571588943,30003.171265503323,-16911.978055474527,-7242.836921553246
15105.93475174126,30006.009937049144,-16917.610695077266,-7254.772753092379
15103.140783684348,30001.092553268976,-16923.913887013663,-7247.351973933217
15108.32638839798,30000.26553872413,-16923.332741657825,-7234.38796214914
15109.287513409558,30006.74754461617,-16918.81768927785,-7225.514319600382
15119.23403969217,30021.27617851212,-16914.01206421996,-7225.693133556025
15116.305961168524,30021.99143433469,-16916.493107854498,-7227.011886478888
15105.13008894087,30005.786419604592,-16926.976076004037,-7229.38117139115
15104.03485346256,30000.91373931333,-16925.344398658803,-7228.777674290857
15099.586856315957,30003.484189925697,-16928.898326027196,-7237.651316839614
15102.55963832851,30016.96229183225,-16932.273439439945,-7244.513302387393
15107.18644943076,30021.54439944558,-16938.01783776496,-7242.322831430773
15101.307940639012,30006.345213215976,-16940.565936632865,-7234.723238315969
15102.537286584056,30006.300509727065,-16927.87014578225,-7222.519185843371
15100.123298182882,30008.580387661503,-16925.411453892168,-7221.848633509712
15114.540173356554,30031.17800130582,-16914.01206421996,-7222.273316654363
15115.389539645856,30037.97293162024,-16913.58738107531,-7212.662066538581
15101.598513316932,30025.27714076962,-16916.314293898857,-7200.368607088162
15094.55771381351,30016.939940087792,-16919.935276500615,-7209.577525803748
15103.386652873356,30024.673643669328,-16913.319160141848,-7210.762168259879
15105.018330218594,30038.84464965399,-16907.239485650003,-7216.774787518358
15096.99405395914,30034.2401902962,-16912.760366530463,-7221.245136409419
15100.905609238818,30020.650329667373,-16918.907096255673,-7219.009961963888
15104.548943585032,30019.912722100347,-16919.577648589333,-7216.7300840294465
15119.636371092363,30029.97100710524,-16913.430918864124,-7210.851575237701
15122.765615316108,30044.969027634743,-16899.036395434905,-7213.109101427687
15113.444937878245,30041.124527588432,-16905.47369783803,-7220.328714886751
15107.141745941848,30026.797059392586,-16911.352206629777,-7218.473520096961
15108.907533753818,30021.54439944558,-16906.635988549708,-7212.840880494223
15115.970685001694,30031.84855363948,-16903.037357692403,-7212.036217693832
15122.27387693809,30042.19741132229,-16913.49797409749,-7222.966220732477
15117.17767920228,30044.85726891247,-16922.3939683907,-7231.884566770144
15110.47215586569,30032.295588528585,-16922.97511374654,-7221.312191642784
15112.640275077854,30026.618245436937,-16915.643741565196,-7216.28304914034
15112.975551244685,30031.312111772557,-16908.222962406035,-7219.032313708343
15117.736472813664,30051.227516082232,-16901.96447395855,-7218.80879626379
15120.70925482622,30055.13907136191,-16912.089814196803,-7225.022581222365
15125.224307206192,30046.556001491077,-16917.722453799543,-7218.965258474977
15126.878336295884,30044.723158445737,-16914.54850608689,-7216.059531695787
15124.464347894713,30052.00982713817,-16910.1899159181,-7220.976915475955
15129.314676441512,30070.67353375835,-16900.176334402124,-7218.76409277488
15132.242754965158,30069.220670368755,-16909.698177540085,-7224.352028888707
15125.000789761638,30053.730911461225,-16914.235581664514,-7221.870985254167
15108.013463975603,30046.198373579788,-16919.644703822698,-7220.216956164474
15120.932772270771,30049.931114903826,-16915.286113653914,-7223.569717832771
15133.449749165744,30069.265373857663,-16900.422203591133,-7220.775749775858
15120.172812959292,30066.784330223127,-16905.227828649025,-7220.753398031402
15105.93475174126,30053.485042272216,-16911.6427793077,-7219.188775919531
15104.12426044038,30042.93501888931,-16912.469793852546,-7221.491005598427
15121.916249026806,30049.864059670457,-16905.25018039348,-7227.235403923441
15132.533327643076,30073.176929137346,-16899.90811346866,-7233.71740981548
15124.263182194612,30072.61813552596,-16913.945008986593,-7238.031296495355
15105.84534476344,30052.36745504945,-16929.21125044957,-7236.444322639028
15097.016405703596,30040.31986478804,-16928.808919049374,-7233.918575515578
15113.601400089432,30052.52391726064,-16912.358035130266,-7222.675648054558
15137.51776665661,30079.971859451754,-16901.986825703007,-7224.955525988999
15134.343818943957,30085.58214731004,-16908.20061066158,-7227.481273112449
15122.028007749082,30072.28285935913,-16921.879878268228,-7226.587203334237
15118.69759782524,30069.8465192135,-16925.120881214247,-7227.95065974601
15114.115490211903,30079.81539724057,-16923.243334680003,-7234.38796214914
15118.630542591876,30091.43830435733,-16921.701064312587,-7248.335450689251
15134.500281155144,30096.24392941522,-16919.2423724225,-7252.224654224474
15120.083405981472,30083.346972864507,-16924.15975620267,-7244.379191920661
15108.974588987185,30067.454882556784,-16925.366750403256,-7236.9584127615
15116.23890593516,30078.496644317707,-16913.92265724214,-7230.386999891639
15134.276763710592,30103.664708574383,-16894.700157010575,-7222.072150954265
15136.824862578496,30106.771601053668,-16895.326005855324,-7228.084770212743
15122.653856593832,30091.84063575753,-16903.10441292577,-7233.806816793302
15118.742301314152,30086.207996154782,-16902.925598970127,-7231.839863281234
15120.463385637211,30094.47814160325,-16899.550485557378,-7233.784465048846
15121.871545537895,30112.024261000668,-16893.20259013207,-7233.560947604293
15118.339969913955,30115.62289185797,-16901.025700691425,-7234.410313893594
15111.366225643902,30100.73663005073,-16913.073290952838,-7232.957450504
15116.194202446248,30097.361516637982,-16909.742881028997,-7228.308287657295
15113.646103578343,30103.061211474087,-16913.11799444175,-7239.014773251388
15117.937638513762,30122.216656472287,-16912.6933112971,-7244.580357620759
15123.27970543858,30136.655883390416,-16913.63208456422,-7234.857348782701
15120.172812959292,30121.97078728328,-16925.21028819207,-7228.308287657295
15119.636371092363,30117.209865714296,-16916.82838402133,-7225.201395178008
15122.653856593832,30125.256493718207,-16905.652511793676,-7214.383150861639
15129.09115899696,30143.62962766047,-16898.991691945994,-7206.04595017981
15121.983304260171,30146.82592711758,-16905.67486353813,-7207.588220547226
15110.427452376778,30131.02324378768,-16921.879878268228,-7209.376360103651
15104.03485346256,30121.277883205163,-16925.21028819207,-7213.265563638874
15115.054263479027,30127.15639199691,-16921.030511978926,-7223.927345744056
15126.967743273706,30152.52562195368,-16912.24627640799,-7233.851520282212
15124.553754872531,30157.107729567026,-16921.09756721229,-7242.903976786612
15105.733586041164,30136.655883390416,-16933.815709807364,-7234.052685982309
15115.61305709041,30132.43140368836,-16924.562087602866,-7215.008999706388
15123.883202538873,30140.455679947816,-16912.134517685714,-7211.700941527002
15124.911382783815,30157.733578411768,-16900.95864545806,-7213.064397938776
15127.638295607365,30171.234032062774,-16899.34931985728,-7212.550307816304
15119.524612370087,30160.862822635518,-16913.05093920838,-7214.830185750746
15118.205859447226,30151.00570333072,-16912.805070019374,-7216.573621818259
15125.55958337302,30155.02901733268,-16908.40177636168,-7224.284973655341
15136.310772456023,30172.329267541085,-16905.563104815854,-7235.550252860815
15130.700484597744,30175.793787931656,-16916.068424709847,-7254.884511814655
15117.535307113563,30163.142700569955,-16919.510593355964,-7250.10123850122
15106.694711052742,30152.97265684279,-16921.16462244566,-7246.592014621737
15113.534344856063,30158.82881389008,-16915.666093309654,-7254.951567048021
15124.620810105898,30177.73838969927,-16905.3395873713,-7259.310157216806
15123.123243227392,30184.332154313583,-16911.419261863146,-7263.15465726312
15114.048434978538,30174.67620070889,-16918.102433455282,-7258.371383949684
15103.65487380682,30162.695665680847,-16924.942067258606,-7268.988462565954
15109.08634770946,30164.796729659647,-16922.751596301987,-7276.208076025018
15120.061054237016,30188.31076482663,-16915.82255552084,-7280.454907471527
15121.648028093345,30190.635346249983,-16917.63304682172,-7280.767831893901
15118.652894336332,30170.295258795653,-16931.736997573018,-7281.706605161024
15116.32831291298,30162.58390695857,-16940.25301221049,-7279.9184656046
15118.13880421386,30168.887098894967,-16944.522195401456,-7280.991349338455
15121.782138560076,30184.60037524705,-16932.83223305133,-7275.068137057798
15139.015333535115,30201.65475626645,-16927.154889959682,-7270.664843400103
15129.538193886066,30194.30103234065,-16938.464872654065,-7264.808686352812
15114.450766378734,30184.64507873596,-16941.281192455433,-7259.108991516709
15118.295266425046,30187.93078517089,-16934.419206907656,-7258.997232794432
15127.571240373998,30200.425410321404,-16923.086872468815,-7251.397639679628
15126.744225829152,30202.68293651139,-16925.545564358898,-7253.409296680606
15113.444937878245,30184.8238926916,-16942.68935235612,-7261.813552595801
15117.624714091387,30178.45364552184,-16934.218041207558,-7248.268395455885
15123.65968509432,30190.903567183446,-16921.030511978926,-7239.819436051779
15130.409911919824,30209.81314299264,-16911.01693046295,-7237.67366858407
15131.058112509028,30219.69261404188,-16915.621389820742,-7241.495816885927
15118.205859447226,30201.051259166157,-16928.67480858264,-7240.825264552268
15107.722891297686,30186.433218292383,-16936.78849181992,-7237.025467994866
15112.595571588943,30190.188311360875,-16934.195689463104,-7236.578433105759
15126.587763617965,30211.22130289332,-16922.77394804644,-7229.403523135606
15119.368150158902,30217.83741925209,-16925.411453892168,-7231.258717925396
15117.200030946737,30211.86950348252,-16923.377445146732,-7220.038142208832
15114.763690801108,30202.817046978125,-16924.092700969304,-7215.701903784502
15113.310827411511,30208.78496274769,-16918.460061366568,-7205.218935634964
15125.827804306486,30225.951102489365,-16910.43578510711,-7198.401653576095
15129.068807252504,30233.438936881896,-16915.911962498663,-7201.66500826657
15115.94833325724,30220.966663475832,-16928.272477182447,-7207.118833913664
15107.231152919669,30207.689727269382,-16935.73795983052,-7214.740778772924
15117.714121069208,30210.863674982036,-16932.519308628955,-7208.683456025536
15131.66160960932,30228.74507054628,-16923.6456660802,-7208.862269981178
15130.029932264082,30239.809184051657,-16930.194727205602,-7215.768959017869
15114.674283823286,30226.64400656748,-16937.97313427605,-7210.80687174879
15113.13201345587,30219.089116941588,-16930.909983028174,-7201.754415244391
15121.603324604432,30222.508933843248,-16928.518346371453,-7205.487156568427
15127.66064735182,30239.42920439592,-16919.041206722406,-7215.411331106584
15138.836519579474,30256.70710285987,-16919.53294510042,-7219.702866042003
15141.42932193629,30247.16290797745,-16923.511555613466,-7209.801043248301
15131.192222975758,30236.29996017217,-16925.97024750355,-7212.5056043273935
15123.257353694124,30236.09879447208,-16926.707855070574,-7219.971086975466
15129.068807252504,30246.671169599435,-16924.763253302965,-7224.352028888707
15139.216499235214,30261.22215523984,-16925.344398658803,-7230.297592913818
15137.450711423244,30252.393216179997,-16932.362846417767,-7226.274278911863
15129.627600863889,30240.74795731878,-16928.495994627,-7221.37924687615
15126.833632806974,30238.84805904008,-16927.758387059974,-7227.123645201164
15131.840423564963,30253.957838291863,-16926.461985881568,-7228.151825446109
15133.360342187923,30265.692504130904,-16929.702988827587,-7228.867081268679
15120.619847848398,30251.94618129089,-16938.44252090961,-7226.2966306563185
15116.931810013271,30240.1891637074,-16937.995486020503,-7222.519185843371
15121.37980715988,30238.02104449523,-16932.787529562418,-7220.105197442198
15137.070731767504,30258.025855782733,-16918.191840433105,-7214.941944473022
15139.708237613231,30273.157986778973,-16924.07034922485,-7224.173214933064
15131.303981698034,30264.530213419228,-16931.15585221718,-7212.662066538581
15125.067844995005,30251.65560861297,-16933.413378407167,-7211.723293271458
15125.514879884113,30246.067672499143,-16928.138366715713,-7219.546403830815
15133.874432310397,30259.9928092948,-16919.845869522796,-7225.827244022756
15133.785025332574,30272.97917282333,-16927.2442969375,-7231.839863281234
15126.27483919559,30258.7411116053,-16934.799186563396,-7224.8884707556335
15121.80449030453,30246.626466110527,-16934.240392952015,-7230.09642721372
15122.877374038384,30248.41460566695,-16932.362846417767,-7233.963279004488
15133.449749165744,30264.843137841603,-16919.801166033885,-7234.343258660228
15139.060037024026,30279.43882697092,-16921.3434364013,-7239.931194774055
15127.61594386291,30266.452463442383,-16934.910945285672,-7244.714468087491
15119.144632714348,30253.376692936028,-16934.68742784112,-7242.188720964042
15113.109661711414,30251.40973942396,-16931.602887106288,-7241.093485485731
15129.51584214161,30269.60405941058,-16920.561125345364,-7239.886491285145
15129.873470052897,30284.959707851376,-16921.634009079222,-7247.016697766388
15115.23307743467,30275.571975180148,-16930.194727205602,-7246.279090199362
15116.171850701792,30265.33487621962,-16931.804052806387,-7249.140113489642
15128.24179270766,30264.574916908132,-16932.049921995393,-7256.4714856709825
15140.110569013426,30279.170606037453,-16925.21028819207,-7254.258662969907
15143.508034170633,30297.968423124366,-16923.668017824653,-7256.650299626625
15131.706313098231,30287.150178808,-16932.25108769549,-7250.347107690229
15115.903629768329,30269.13467277702,-16940.565936632865,-7248.871892556178
15111.70150181073,30269.872280344043,-16942.152910489192,-7256.605596137714
15129.4711386527,30284.356210751084,-16934.463910396567,-7260.025413039376
15131.929830542784,30301.008260370287,-16934.10628248528,-7270.10604978872
15127.124205484894,30289.497111975805,-16945.997410535503,-7262.819381096289
15107.789946531051,30265.200765752885,-16952.501768172,-7259.712488617002
15119.18933620326,30269.51465243276,-16938.710741843075,-7257.745535104935
15133.85208056594,30290.547643965205,-16933.838061551818,-7260.606558395214
15133.002714276638,30302.215254570878,-16935.223869708047,-7264.7416311194465
15126.632467106876,30294.034516100237,-16941.5494133889,-7265.613349153203
15119.569315858998,30274.76731237976,-16951.71945711606,-7271.603616667226
15116.32831291298,30272.867414101056,-16951.58534664933,-7278.934988848566
15127.481833396178,30294.90623413399,-16939.314238943367,-7279.493782459949
15150.839406351974,30317.302682078207,-16932.608715606777,-7272.765907378902
15149.453598195743,30313.502885520804,-16940.409474421678,-7268.563779421303
15140.04351378006,30301.298833048208,-16943.4493116676,-7269.033166054865
15139.931755057783,30298.59427196912,-16943.046980267405,-7270.2625119999075
15149.09597028446,30307.780838940245,-16936.386160419723,-7262.417049696094
15154.348630231456,30321.393051313527,-16940.364770932767,-7260.763020606401
15152.605194163943,30316.31920532217,-16948.232584981037,-7259.712488617002
15135.3719991889,30300.13654233653,-16956.12275077376,-7266.038032297854
15133.539156143566,30303.221083071363,-16940.07419825485,-7263.780506107868
15142.368095203412,30315.84981868861,-16926.73020681503,-7261.366517706695
15152.828711608496,30332.680682263457,-16924.562087602866,-7267.937930576555
15153.14163603087,30323.51646703678,-16937.369637175758,-7266.932102076066
15144.625621393398,30308.652556974004,-16945.662134368675,-7260.897131073133
15137.406007934334,30300.89650164801,-16946.176224491148,-7263.57934040777
15145.653801638342,30315.872170433067,-16930.127671972237,-7259.108991516709
15154.549795931554,30334.58058054216,-16927.579573104333,-7263.959320063511
15143.709199870733,30323.203542614407,-16939.805977321386,-7264.562817163804
15135.796682333552,30307.73613545133,-16940.655343610688,-7258.6396048831475
15136.221365478204,30310.88773141953,-16932.564012117866,-7255.3538984482175
15148.447769695256,30324.455240303905,-16925.657323081174,-7254.973918792477
15161.344726245969,30345.35412136961,-16922.081043968326,-7252.112895502198
15153.812188364527,30343.968313213387,-16930.686465583618,-7250.458866412505
15146.123188271904,30333.99943518632,-16932.362846417767,-7255.063325770298
15140.80347309154,30330.445507817927,-16933.480433640532,-7261.344165962239
15138.23302247918,30334.558228797705,-16937.526099386945,-7269.122573032686
15146.61492664992,30353.870136007088,-16929.613581849764,-7272.877666101178
15144.156234759836,30348.170441170987,-16929.278305682936,-7255.465657170494
15135.081426510982,30330.803135729213,-16933.703951085085,-7245.854407054711
15137.070731767504,30323.89644669252,-16933.100453984793,-7247.642546611136
15155.689734898777,30335.564057298197,-16922.72924455753,-7253.856331569712
15159.243662267168,30350.763243527803,-16921.5446021014,-7262.171180507086
15148.246603995158,30343.565981813197,-16934.709779585573,-7266.216846253496
15144.89384232686,30335.944036953933,-16935.670904597155,-7261.835904340256
15146.793740605564,30335.85462997611,-16933.614544107266,-7263.244064240941
15155.801493621051,30346.53876382575,-16933.189860962615,-7276.364538236206
15158.304889000046,30355.14418544104,-16939.761273832475,-7278.10797430372
15141.742246358664,30344.52710682477,-16949.238413481526,-7276.409241725117
15137.80833933453,30330.847839218124,-16952.032381538436,-7275.090488802253
15142.412798692323,30327.875057205565,-16943.851643067796,-7272.832962612268
15142.5245574146,30340.459089333905,-16929.59123010531,-7275.179895780075
15162.775237891108,30361.849708777638,-16917.498936354987,-7271.067174800298
15163.08816231348,30360.620362832597,-16923.846831780294,-7265.590997408748
15154.393333720369,30349.31038013821,-16929.12184347175,-7256.717354859991
15149.543005173566,30348.550420826727,-16932.653419095688,-7258.885474072155
15153.387505219878,30361.40267388853,-16925.67967482563,-7264.853389841723
15156.33793548798,30380.69222935346,-16922.371616646244,-7272.363575978706
15155.689734898777,30377.026543262786,-16933.59219236281,-7270.038994555354
15150.414723207325,30357.468766864396,-16947.919660558662,-7265.747459619935
15149.990040062672,30352.976066228875,-16946.623259380252,-7266.954453820522
15150.414723207325,30364.19664194544,-16933.368674918256,-7271.402450967128
15161.165912290326,30384.469674166405,-16923.220982935545,-7264.965148564
15148.403066206343,30379.01584851931,-16932.54166037341,-7259.824247339278
15129.672304352798,30361.045045977244,-16945.572727390852,-7275.045785313343
15139.440016679768,30362.184984944462,-16943.426959923145,-7274.308177746318
15159.444827967269,30372.80206356073,-16933.994523763005,-7270.530732933371
15163.222272780213,30389.454113179934,-16926.797262048396,-7271.111878289209
15163.646955924864,30390.01290679132,-16925.67967482563,-7263.936968319055
15157.85785411094,30376.937136284967,-16927.423110893145,-7261.455924684516
15161.277671012602,30377.16065372952,-16922.237506179514,-7263.042898540842
15164.608080936445,30382.48036890988,-16918.951799744584,-7272.29652074534
15159.355420989445,30392.51630217032,-16922.483375368523,-7276.789221380856
15155.28740349858,30389.96820330241,-16926.841965537307,-7273.458811457016
15151.353496474443,30375.30545893973,-16925.232639936523,-7261.299462473329
15139.484720168675,30364.755435556825,-16930.01591324996,-7268.653186399125
15148.961859817728,30375.797197317745,-16924.472680625044,-7272.274169000884
15157.85785411094,30396.20434000544,-16912.492145597,-7273.078831801276
15154.95212733175,30391.84574983665,-16918.527116599933,-7271.53656143386
15140.490548669166,30371.75153157133,-16928.58540160482,-7277.280959758874
15136.33312420048,30366.87885128008,-16928.183070204625,-7277.996215581444
15144.29034522657,30380.53576714227,-16920.941105001104,-7269.346090477239
15148.961859817728,30399.78061911829,-16921.58930559031,-7272.408279467617
15147.33018247249,30406.39673547706,-16931.4464248951,-7270.843657355745
15144.558566160033,30397.29957548375,-16937.749616831497,-7271.357747478217
15140.602307391442,30393.70094462645,-16937.503747642488,-7273.704680646024
15151.532310430088,30406.284976754785,-16930.574706861342,-7278.06327081481
15162.842293124471,30419.383099005598,-16923.19863119109,-7277.683291159069
15154.058057553537,30414.30925301424,-16933.279267940434,-7274.419936468594
15143.95506905974,30396.60667140564,-16937.79432032041,-7273.01177656791
15150.548833674056,30396.80783710573,-16927.11018647077,-7274.084660301764
15156.494397699164,30403.66982265351,-16920.24820092299,-7274.3752329796835
15162.23879602418,30420.34422401717,-16913.16269793066,-7271.268340500395
15152.314621486024,30414.711584414435,-16925.277343425434,-7269.346090477239
15148.268955739612,30396.78548536128,-16931.312314428367,-7267.714413132002
15148.984211562183,30398.215997006417,-16924.293866669403,-7268.429668954572
15153.879243597896,30405.770886632312,-16925.612619592266,-7274.509343446415
15154.99683082066,30420.90301762856,-16928.808919049374,-7280.946645849543
15157.634336666386,30423.96520661893,-16932.54166037341,-7281.728956905479
15160.271842512111,30416.320910015216,-16930.82057605035,-7275.671634158091
15155.935604087785,30412.655223924547,-16928.853622538285,-7269.636663155158
15158.841330866971,30420.32187227272,-16920.359959645266,-7259.488971172449
15165.256281525646,30436.21396258044,-16910.927523485127,-7260.651261884125
15160.584766934488,30440.661959727047,-16912.805070019374,-7259.556026405815
15156.606156421443,30428.0332241098,-16917.610695077266,-7257.186741493552
15157.120246543916,30421.193590306477,-16913.699139797587,-7254.638642625648
15154.415685464824,30422.378232762607,-16915.73314854302,-7265.792163108846
15153.923947086803,30435.09637535768,-16911.2404479075,-7270.441325955549
15161.590595434976,30444.28294232881,-16914.794375275895,-7267.647357898636
15149.073618540004,30421.26064553984,-16934.776834818942,-7265.00985205291
15141.049342280548,30411.180008790496,-16936.609677864275,-7265.6804043865695
15153.611022664432,30420.612444950635,-16926.953724259583,-7260.4053926951165
15151.509958685632,30439.25379982636,-16921.634009079222,-7268.496724187938
15149.766522618118,30447.50159353037,-16919.152965444682,-7264.428706697072
15144.558566160033,30425.932160131,-16933.793358062907,-7265.792163108846
15146.190243505269,30417.550255960257,-16938.3978174207,-7273.2576457569185
15157.09789479946,30427.69794794297,-16931.424073150643,-7275.112840546709
15166.351517003955,30453.044826155285,-16915.666093309654,-7267.803820109823
15163.33403150249,30456.621105268136,-16923.77977654693,-7271.290692244851
15154.66155465383,30439.343206804184,-16935.69325634161,-7272.117706789698
15146.503167927644,30432.347110789677,-16937.570802875853,-7282.421860983594
15153.901595342351,30437.7338812034,-16933.30161968489,-7289.887343631666
15156.114418043426,30454.520041289332,-16936.78849181992,-7305.6006199837475
15156.226176765702,30458.878631458123,-16939.694218599107,-7308.439291529571
15149.319487729012,30446.45106154097,-16943.270497711957,-7306.427634528593
15141.630487636388,30441.801898694262,-16948.03141928094,-7311.523832264404
15151.912290085827,30451.99429416589,-16933.994523763005,-7306.204117084041
15152.582842419488,30469.808634496767,-16927.043131237406,-7312.01557064242
15145.38558070488,30468.02049494034,-16937.280230197935,-7319.950439924055
15138.724760857198,30453.82713721122,-16945.528023901945,-7326.275983604906
15135.461406166722,30448.2392010974,-16951.74180886052,-7329.807559228845
15135.95314454474,30453.000122666377,-16952.144140260716,-7323.325553336806
15133.449749165744,30468.02049494034,-16939.291887198913,-7314.764835210423
15134.835557321974,30466.902907717576,-16941.035323266427,-7313.647247987658
15135.483757911175,30451.681369743517,-16945.84094832432,-7306.718207206512
15136.131958500382,30447.45689004146,-16943.002276778494,-7301.085567603775
15144.04447603756,30453.44715755548,-16934.82153830785,-7298.15748908013
15151.018220307617,30475.77655026633,-16926.998427748495,-7301.219678070507
15146.257298738636,30486.28187016033,-16929.09949172729,-7289.954398865033
15130.789891575563,30474.055465943275,-16931.96051501757,-7281.103108060731
15141.38461844738,30469.47335832994,-16928.138366715713,-7281.013701082909
15145.18441500478,30472.93787872051,-16926.797262048396,-7282.734785405968
15150.548833674056,30490.17107369555,-16915.15200318718,-7275.425764969083
15156.673211654808,30496.451913887493,-16911.709834541063,-7267.245026498441
15145.229118493691,30480.35865787967,-16922.841003279806,-7259.108991516709
15132.913307298815,30472.13321592012,-16934.44155865211,-7264.316947974796
15141.071694025004,30479.643402057103,-16928.317180671358,-7262.953491563022
15153.633374408886,30501.65987034558,-16912.603904319276,-7261.120648517686
15148.581880161988,30505.727887836445,-16917.074253210336,-7260.4053926951165
15136.33312420048,30490.931033007037,-16928.987733005015,-7259.488971172449
15139.75294110214,30482.16914918055,-16933.234564451526,-7260.047764783832
15139.5741271465,30487.51121610537,-16930.865279539263,-7251.710564102002
15149.073618540004,30506.42079191456,-16916.984846232517,-7249.497741400927
15150.101798784948,30508.186579726527,-16917.67775031063,-7248.760133833902
15138.545946901557,30491.66864057406,-16926.037302736917,-7241.764037819391
15128.577068874489,30478.861091001167,-16931.267610939456,-7252.783447835857
15140.915231813817,30488.204120183484,-16922.97511374654,-7256.426782182072
15156.4273424658,30511.98637628393,-16911.843945007797,-7258.192569994041
15155.801493621051,30518.1554577536,-16920.31525615636,-7259.421915939083
15145.586746404975,30506.71136459248,-16930.865279539263,-7252.805799580312
15139.641182379864,30497.569501110254,-16930.53000337243,-7252.3587646912065
15147.419589450312,30498.82119879976,-16925.63497133672,-7260.539503161848
15159.28836575608,30517.909588564587,-16915.39787237619,-7264.272244485885
15153.901595342351,30524.838629345733,-16918.549468344387,-7270.10604978872
15141.09404576946,30510.1535332386,-16926.707855070574,-7271.178933522575
15150.928813329794,30503.291547690817,-16922.371616646244,-7265.792163108846
15152.024048808104,30511.740507094924,-16917.074253210336,-7269.279035243873
15153.991002320172,30526.85028634671,-16914.503802597977,-7277.079794058775
15155.421513965312,30532.795850371826,-16920.695235812098,-7284.075890073287
15148.291307484067,30518.17780949805,-16932.45225339559,-7286.869858130201
15141.831653336483,30511.22641697245,-16933.189860962615,-7279.58318943777
15138.210670734725,30522.15642001109,-16925.098529469793,-7275.001081824432
15156.09206629897,30543.12235631017,-16913.810898519863,-7268.809648610312
15167.245586782168,30547.25742903441,-16914.97318923154,-7265.00985205291
15152.828711608496,30530.113641037184,-16927.087834726313,-7270.329567233273
15150.191205762769,30523.47517293396,-16924.517384113955,-7265.6804043865695
15145.273821982602,30524.682167134542,-16920.628180578733,-7263.244064240941
15147.03960979457,30540.931885353555,-16917.990674733006,-7266.395660209139
15150.302964485049,30558.254487306414,-16916.269590409946,-7268.541427676849
15139.3729614464,30547.57035345678,-16927.713683571063,-7261.098296773232
15143.686848126275,30536.99797832942,-16925.523212614444,-7252.559930391304
15145.340877215967,30540.79777488682,-16921.008160234473,-7259.757192105912
15150.794702863062,30552.845365148238,-16922.997465490993,-7273.928198090577
15155.801493621051,30562.635429219656,-16922.5951340908,-7279.96316909351
15148.224252250702,30555.37111227168,-16928.473642882545,-7276.185724280564
15140.490548669166,30544.888144122146,-16935.022704007948,-7279.002044081932
15142.837481836974,30544.016426088387,-16935.045055752405,-7281.572494694293
15147.5760516615,30558.835632662256,-16931.15585221718,-7283.494744717449
15145.38558070488,30565.943487399043,-16925.63497133672,-7277.124497547687
15138.90357481284,30551.48190873646,-16932.58636386232,-7276.766869636402
15134.120301499404,30534.91926609508,-16935.715608086062,-7274.82226786879
15141.317563214012,30540.708367909,-16929.5465266164,-7280.991349338455
15148.04543829506,30559.14855708463,-16927.82544229334,-7290.222619798496
15145.85496733844,30561.115510596697,-16935.469738897056,-7289.306198275829
15149.85592959594,30544.35170225521,-16943.78458783443,-7288.948570364544
15142.256336481136,30537.176792285063,-16945.908003557684,-7299.677407703091
15150.437074951778,30543.52468771037,-16942.555241889386,-7300.392663525661
15159.891862856372,30560.44495826304,-16924.271514924945,-7290.937875621066
15158.61781342242,30576.67232473759,-16915.666093309654,-7285.707567418524
15149.274784240102,30565.943487399043,-16922.77394804644,-7277.370366736694
15148.447769695256,30550.47608023597,-16935.223869708047,-7287.361596508217
15158.90838610034,30551.61601920319,-16935.335628430323,-7294.49180298946
15167.022069337616,30567.61986823319,-16919.421186378146,-7287.808631397323
15165.166874547826,30579.712161983512,-16912.805070019374,-7284.522924962393
15152.962822075227,30568.37982754467,-16923.310389913368,-7282.667730172602
15149.408894706834,30550.34196976924,-16934.50861388548,-7283.4723929729935
15153.275746497602,30551.504260480917,-16927.66898008215,-7284.858201129223
15163.110514057937,30568.312772311307,-16913.229753164025,-7289.283846531373
15166.99971759316,30580.20390036153,-16912.268628152447,-7291.407262254627
15151.95699357474,30563.082464108764,-16933.07810224034,-7298.045730357854
15135.99784803365,30548.643237190638,-16941.348247688802,-7297.263419301918
15142.770426603607,30549.20203080202,-16941.325895944345,-7301.3761402816945
15147.397237705856,30563.61890597569,-16939.537756387923,-7315.345980566261
15160.405952978845,30577.94637417154,-16937.123767986748,-7309.020436885409
15154.460388953734,30569.318600811792,-16949.08195127034,-7303.745425193957
15151.733476130186,30566.59168798825,-16937.77196857595,-7302.91841064911
15155.779141876596,30570.43618803456,-16917.610695077266,-7298.82804141379
15154.169816275817,30582.95316492953,-16911.68748279661,-7309.512175263426
15156.71791514372,30591.804455733836,-16919.510593355964,-7312.864936931723
15148.358362717434,30581.00856316192,-16937.704913342586,-7311.769701453412
15146.95020281675,30566.63639147716,-16938.241355209513,-7310.428596786094
15144.178586504291,30566.90461241062,-16927.4454626376,-7309.288657818874
15159.109551800437,30585.14363588615,-16920.985808490015,-7313.915468921122
15168.296118771568,30595.00075519094,-16924.40562539168,-7317.916431178622
15156.76261863263,30582.10379864023,-16929.010084749472,-7318.385817812183
15148.179548761793,30569.13978685615,-16926.171413203647,-7302.024340870898
15149.252432495648,30577.029952648874,-16919.622352078244,-7298.15748908013
15154.639202909377,30593.70435401253,-16916.291942154403,-7306.986428139977
15162.171740790816,30601.527464571893,-16922.81865153535,-7308.68516071858
15150.705295885242,30587.535272542867,-16939.291887198913,-7306.718207206512
15150.5264819296,30579.44394105005,-16943.382256434234,-7298.515116991415
15155.890900598872,30584.115455641208,-16935.4473871526,-7299.789166425367
15155.645031409864,30596.565377302813,-16923.6456660802,-7306.360579295228
15158.751923889153,30609.954072231543,-16916.78368053242,-7308.238125829474
15148.872452839909,30594.777237746388,-16933.949820274094,-7305.019474627909
15141.362266702925,30579.8686241947,-16937.749616831497,-7303.119576349209
15142.3233917145,30580.87445269519,-16933.59219236281,-7306.0700066173085
15148.626583650896,30595.134865657677,-16924.472680625044,-7304.147756594152
15159.131903544892,30609.99877572045,-16919.06355846686,-7293.843602400256
15151.66642089682,30597.28063312538,-16929.79239580541,-7300.169146081108
15145.050304538048,30581.58970851776,-16936.609677864275,-7313.311971820828
15140.80347309154,30580.09214163925,-16938.01783776496,-7316.597678255758
15151.912290085827,30598.06294418132,-16929.97120976105,-7312.775529953901
15160.495359956663,30613.239778666477,-16930.865279539263,-7318.229355600996
15149.408894706834,30600.83456049377,-16941.5494133889,-7320.196309113063
15145.027952793593,30593.033801678877,-16930.73116907253,-7305.801785683845
15146.413760949825,30596.140694158163,-16925.903192270183,-7305.287695561373
15146.972554561204,30606.10957218523,-16923.77977654693,-7306.807614184334
15140.4234934358,30611.92102574361,-16928.227773693536,-7311.009742141931
15142.703371370242,30599.180531404083,-16936.564974375364,-7311.836756686778
15150.437074951778,30585.99300217545,-16939.850680810294,-7308.506346762937
15144.51386267112,30586.708257998023,-16938.241355209513,-7310.6521142306465
15150.034743551583,30599.29229012636,-16932.094625484304,-7312.976695653999
15164.71983965872,30612.457467610537,-16925.63497133672,-7307.142890351163
15158.57310993351,30601.415705849613,-16929.59123010531,-7303.298390304851
15148.447769695256,30582.506130040423,-16939.49305289901,-7308.461643274027
15145.922022571804,30577.611098004712,-16938.196651720602,-7305.019474627909
15150.481778440688,30590.8209789778,-16932.07227373985,-7312.775529953901
15158.707220400242,30612.85979901073,-16926.082006225828,-7314.228393343496
15142.23398473668,30600.56633956031,-16938.911907543174,-7314.295448576862
15144.066827782017,30588.406990576623,-16943.87399481225,-7311.948515409054
15145.072656282504,30592.45265632304,-16947.003239035992,-7320.285716090884
15155.62267966541,30604.9249297291,-16937.146119731202,-7326.410094071638
15159.981269834194,30617.173685690606,-16930.708817328075,-7328.824082472812
15150.884109840885,30608.74707803096,-16937.79432032041,-7316.821195700311
15135.394350933357,30591.58093828928,-16942.421131422656,-7309.40041654115
15140.937583558272,30597.10181916974,-16936.430863908634,-7308.282829318385
15150.034743551583,30607.271862896905,-16936.900250542196,-7315.167166610619
15157.254357010646,30620.28057816989,-16941.124730244246,-7320.576288768803
15157.366115732922,30611.585749576778,-16951.562994904878,-7315.658904988636
15144.737380115675,30594.129037157185,-16961.665983398674,-7321.582117269292
15136.75780734513,30590.35159234424,-16959.721381631065,-7328.891137706178
15146.793740605564,30603.96380471752,-16953.5523001614,-7331.841567974278
15157.94726108876,30620.5264473589,-16945.237451224024,-7327.326515594306
15159.109551800437,30613.418592622114,-16942.465834911567,-7314.228393343496
15151.889938341374,30598.442923837058,-16942.219965722557,-7312.037922386876
15151.040572052072,30595.559548802325,-16936.184994719624,-7308.618105485214
15158.349592488956,30610.73638328748,-16929.434767894123,-7309.78039619689
15153.901595342351,30618.894770013663,-16933.033398751428,-7314.921297421611
15152.225214508202,30604.656708795635,-16950.06542802637,-7312.01557064242
15148.961859817728,30589.43517082157,-16953.30643097239,-7301.711416448524
15138.411836434823,30583.936641685563,-16954.915756573173,-7312.619067742714
15141.89870856985,30601.750982016445,-16943.40460817869,-7316.597678255758
15156.226176765702,30627.90252302915,-16934.575669118844,-7309.40041654115
15157.008487821638,30625.30972067234,-16950.378352448744,-7308.819271185312
15145.407932449334,30608.7247262865,-16959.36375371978,-7314.138986365675
15146.57022316101,30609.372926875705,-16951.16066350468,-7314.094282876764
15158.863682611429,30626.092031728276,-16936.654381353186,-7306.8746694177
15166.306813515046,30639.14545049017,-16936.16264297517,-7303.678369960591
15148.157197017335,30621.509924114936,-16959.96725082007,-7309.8250996858
15136.690752111765,30605.48372334048,-16963.49882644401,-7308.953381652043
15140.267031224614,30606.891883241165,-16953.999335050506,-7306.852317673245
15147.844272594964,30620.10176421425,-16942.331724444834,-7303.857183916233
15159.936566345285,30632.752851575955,-16937.190823220113,-7307.500518262448
15161.94822334626,30627.187267206584,-16944.455140168087,-7301.085567603775
15155.779141876596,30611.71986004351,-16950.11013151528,-7299.275076302895
15146.86079583893,30609.305871642337,-16950.467759426567,-7308.506346762937
15152.784008119585,30624.05802298284,-16950.69127687112,-7317.8046724563455
15163.959880347238,30640.844183068777,-16948.00906753648,-7317.134120122686
15159.444827967269,30634.563342876834,-16946.489148913523,-7306.15941359513
15139.23885097967,30621.800496792854,-16949.171358248157,-7305.39945428365
15140.490548669166,30617.79953453536,-16949.774855348453,-7307.902849662644
15147.866624339418,30627.433136395597,-16942.331724444834,-7304.348922294251
15156.919080843816,30646.07449127132,-16931.602887106288,-7299.096262347253
15153.543967431066,30640.39714817967,-16939.20248022109,-7299.140965836164
15149.498301684656,30629.467145141025,-16939.090721498815,-7296.928143135088
15150.99586856316,30630.472973641517,-16933.68159934063,-7299.386835025172
15154.058057553537,30640.82183132432,-16932.698122584596,-7303.320742049306
15160.13773204538,30657.831508854808,-16933.21221270707,-7309.378064796694
15153.499263942154,30647.32618896081,-16946.06446576887,-7301.465547259516
15150.839406351974,30631.63526435319,-16949.819558837364,-7291.675483188091
15151.822883108009,30629.690662585577,-16945.1480442462,-7292.971884366499
15150.325316229502,30639.39131967918,-16941.01297152197,-7304.259515316429
15150.772351118609,30652.131814018707,-16939.046018009903,-7314.921297421611
15161.09885705696,30651.617723896237,-16937.21317496457,-7307.455814773538
15153.700429642253,30636.82086906682,-16940.431826166132,-7300.772643181401
15149.967688318216,30630.07064224132,-16934.039227251917,-7294.022416355899
15153.365153475424,30642.028825524907,-16929.077139982837,-7303.208983327029
15162.641127424376,30658.25619199946,-16922.97511374654,-7303.298390304851
15159.176607033804,30650.16486050664,-16933.39102666271,-7302.583134482281
15146.793740605564,30629.936531774587,-16940.945916288605,-7300.012683869921
15140.557603902533,30627.075508484308,-16940.409474421678,-7308.618105485214
15148.850101095451,30639.30191270136,-16937.950782531596,-7311.345018308762
15168.184360049292,30664.78290138041,-16934.150985974193,-7305.801785683845
15163.736362902686,30661.854822856763,-16944.388084934722,-7306.584096739781
15158.215482022224,30648.08614827229,-16946.511500657976,-7302.180803082086
15146.57022316101,30640.218334224028,-16942.51053840048,-7306.181765339586
15145.072656282504,30650.45543318456,-16931.312314428367,-7309.914506663622
15160.13773204538,30668.78386363791,-16922.10339571278,-7315.435387544083
15157.030839566094,30659.373779222227,-16936.095587741806,-7332.69093426358
15145.00560104914,30643.615799381238,-16944.79041633492,-7335.440198831582
15146.302002227549,30640.575962135317,-16939.291887198913,-7332.087437163286
15154.885072098385,30648.622590139224,-16937.704913342586,-7333.473245319516
15161.165912290326,30658.569116421837,-16933.815709807364,-7346.906643737155
15150.99586856316,30654.21052625305,-16939.135424987726,-7355.824989774823
15144.111531270926,30638.810174323346,-16943.561070389875,-7352.539283339893
15148.134845272882,30633.266941698428,-16940.63299186623,-7353.343946140283
15148.38071446189,30639.279560956904,-16942.175262233646,-7367.380841658216
15158.126075044403,30655.149299520173,-16946.086817513326,-7377.483830152015
15151.867586596918,30644.5322209039,-16962.157721776694,-7378.154382485674
15136.020199778104,30622.38164214869,-16966.672774156665,-7366.151495713174
15138.56829864601,30617.06192696833,-16959.520215930967,-7365.592702101791
15142.479853925688,30618.85006652476,-16946.15387274669,-7363.513989867448
15149.94533657376,30640.26303771294,-16931.178203961637,-7358.730716554012
15145.698505127251,30636.373834177717,-16934.888593541218,-7352.963966484544
15145.09500802696,30615.787877534374,-16939.87303255475,-7347.107809437252
15146.592574905466,30613.597406577755,-16934.50861388548,-7345.8337600033
15148.47012143971,30624.81798229432,-16932.16168071767,-7346.280794892406
15155.175644776304,30642.36410169173,-16934.48626214102,-7345.096152436275
15156.852025610451,30634.96567427703,-16949.01489603697,-7336.289565120884
15154.728609887195,30619.8782467697,-16946.1985762356,-7319.905736435144
15153.611022664432,30614.08914495577,-16935.82736680834,-7313.647247987658
15160.070676812014,30624.30389217185,-16924.78560504742,-7315.413035799627
15165.457447225745,30642.11823250273,-16918.63887532221,-7321.515062035926
15158.461351211234,30637.5808283783,-16927.49016612651,-7315.547146266359
15148.268955739612,30614.84910426725,-16933.569840618355,-7305.086529861275
15138.478891668188,30601.281595382883,-16934.150985974193,-7304.594791483259
15146.279650483091,30611.4739908545,-16926.774910303942,-7314.809538699334
15156.919080843816,30629.35538641875,-16921.72341605704,-7318.765797467923
15152.269917997111,30618.91712175812,-16936.96730577556,-7317.268230589418
15146.503167927644,30599.15817965963,-16942.130558744735,-7309.333361307784
15147.866624339418,30596.766543002912,-16934.374503418745,-7304.863012416722
15156.069714554516,30607.651842552645,-16921.410491634666,-7297.710454191024
15165.010412336638,30622.806325293343,-16917.186011932616,-7302.11374784872
15153.700429642253,30614.424421122603,-16932.340494673314,-7311.657942731135
15152.828711608496,30595.98423194697,-16937.63785810922,-7308.171070596108
15158.61781342242,30595.85012148024,-16932.094625484304,-7307.902849662644
15154.885072098385,30598.84525523725,-16932.38519816222,-7305.019474627909
15165.390391992378,30609.909368742632,-16930.507651627977,-7303.25368681594
15158.707220400242,30605.573130318306,-16939.58245987683,-7307.455814773538
15145.363228960425,30589.613984777214,-16942.219965722557,-7304.863012416722
15141.764598103118,30579.51099628341,-16933.92746852964,-7302.136099593175
15158.841330866971,30589.83750222177,-16929.59123010531,-7309.959210152532
15169.301947272055,30612.233950165984,-16929.702988827587,-7313.714303221024
15171.648880439863,30610.356403631737,-16933.100453984793,-7300.996160625954
15161.814112879529,30592.38560108967,-16935.29092494141,-7297.576343724292
15159.802455878553,30590.66451676661,-16928.898326027196,-7296.816384412812
15159.467179711724,30598.554682559334,-16919.01885497795,-7292.971884366499
15163.915176858329,30613.48564785548,-16916.850735765784,-7296.771680923901
15157.14259828837,30609.551740831343,-16927.467814382057,-7301.689064704069
15151.867586596918,30596.0736389248,-16933.771006318453,-7305.175936839097
15160.405952978845,30596.74419125845,-16924.763253302965,-7298.671579202602
15166.642089681876,30600.7228017715,-16920.583477089822,-7298.626875713691
15164.473970469711,30613.932682744588,-16923.73507305802,-7305.734730450479
15155.957955832238,30612.725688544,-16930.753520816987,-7299.610352469725
15152.873415097409,30590.73157199998,-16941.035323266427,-7293.575381466792
15155.66738315432,30589.23400512147,-16927.266648681958,-7275.805744624823
15169.927796116806,30599.38169710418,-16915.420224120644,-7272.67650040108
15168.385525749389,30611.6751565546,-16916.224886921034,-7284.120593562197
15163.401086735856,30613.686813555574,-16925.702026570085,-7292.904829133133
15158.796627378062,30596.878301725188,-16935.06740749686,-7292.949532622044
15158.90838610034,30591.58093828928,-16937.906079042685,-7292.278980288384
15159.757752389642,30595.80541799133,-16932.854584795783,-7298.090433846764
15166.977365848705,30612.83744726628,-16924.338570158314,-7301.465547259516
15164.675136169808,30614.312662400327,-16927.154889959682,-7306.49468976196
15155.354458731945,30602.93562447257,-16932.608715606777,-7307.992256640466
15150.034743551583,30594.710182513023,-16935.648552852697,-7311.836756686778
15153.23104300869,30597.88413022568,-16927.132538215224,-7314.586021254781
15152.605194163943,30615.474953112003,-16923.53390735792,-7320.106902135241
15154.5274441871,30616.86076126823,-16927.73603531552,-7307.992256640466
15151.018220307617,30604.209673906527,-16934.285096440923,-7304.259515316429
15152.04640055256,30602.01920294991,-16925.29969516989,-7297.77750942439
15154.549795931554,30604.209673906527,-16923.712721313565,-7302.963114138021
15169.52546471661,30624.43800263858,-16918.907096255673,-7311.747349708957
15165.882130370395,30628.05898524034,-16921.566953845853,-7306.427634528593
15147.307830728036,30603.96380471752,-16935.000352263494,-7310.920335164111
15147.620755150409,30596.565377302813,-16930.798224305898,-7311.076797375298
15154.281574998093,30604.38848786217,-16927.02077949295,-7311.724997964501
15154.370981975911,30615.98904323448,-16934.553317374386,-7325.694838249068
15145.542042916066,30614.223255422505,-16948.07612276985,-7336.267213376429
15137.964801545717,30597.168874403105,-16961.82244560986,-7336.535434309892
15142.99394404816,30599.29229012636,-16952.16649200517,-7335.037867431387
15143.03864753707,30606.33308962978,-16943.73988434552,-7333.517948808426
15154.862720353927,30627.38843290668,-16932.54166037341,-7328.578213283803
15162.551720446554,30633.468107398527,-16930.82057605035,-7328.287640605884
15159.243662267168,30622.06871772632,-16938.129596487237,-7325.627783015702
15156.181473276793,30616.301967656847,-16941.750579088995,-7330.276945862406
15156.606156421443,30624.415650894127,-16944.388084934722,-7349.208873416052
15170.19601705027,30648.711997117043,-16935.06740749686,-7346.817236759333
15174.24168279668,30658.055026299364,-16934.150985974193,-7337.384800599194
15160.13773204538,30647.236781982992,-16938.420169165154,-7336.781303498901
15154.929775587294,30643.59344763678,-16940.521233143954,-7333.920280208622
15160.271842512111,30652.735311119,-16927.73603531552,-7323.079684147798
15167.737325160186,30665.83343336981,-16920.359959645266,-7324.689009748579
15164.13869430288,30666.12400604773,-16929.09949172729,-7328.265288861429
15149.18537726228,30650.008398295453,-16940.92356454415,-7325.314858593329
15138.970630046206,30637.96080803404,-16951.942974560618,-7333.048562174865
15149.878281340396,30652.15416576316,-16942.331724444834,-7329.6063935287475
15165.680964670297,30677.45634048657,-16926.327875414834,-7326.20892837154
15161.702354157253,30684.944174879096,-16930.77587256144,-7329.673448762113
15155.756790132142,30671.577831694824,-16940.521233143954,-7319.056370145842
15156.80732212154,30668.11331130425,-16939.314238943367,-7314.429559043594
15157.366115732922,30676.15993930816,-16936.073235997348,-7317.648210245158
15156.919080843816,30693.81781742785,-16931.848756295294,-7320.777454468901
15165.52450245911,30705.820704200352,-16929.658285338675,-7317.871727689711
15159.534234945088,30701.640927987213,-16937.235526709024,-7318.989314912476
15143.440978937268,30692.432009271623,-16945.5503756464,-7330.388704584683
15149.028915051094,30704.03256464393,-16948.143178003214,-7340.581100056303
15158.23783376668,30726.56312305488,-16939.180128476637,-7334.8814052202
15154.281574998093,30739.862411005783,-16932.653419095688,-7333.629707530703
15147.017258050117,30735.61557955928,-16932.54166037341,-7327.4382743165825
15145.56439466052,30731.32404462386,-16930.865279539263,-7325.940707438077
15156.4273424658,30739.616541816777,-16926.037302736917,-7336.982469198999
15170.330127517002,30757.94497227013,-16923.310389913368,-7342.480998335004
15169.614871694432,30767.489167152547,-16935.514442385967,-7347.666603048636
15166.99971759316,30758.347303670325,-16938.308410442878,-7327.907660950143
15170.754810661652,30754.234582690548,-16930.373541161247,-7315.189518355074
15170.419534494822,30762.594135116837,-16922.483375368523,-7320.464530046526
15174.085220585494,30784.67765863868,-16916.850735765784,-7326.20892837154
15165.837426881484,30790.265594752505,-16934.10628248528,-7342.793922757379
15158.975441333703,30776.787492845957,-16940.320067443856,-7329.740503995479
15158.707220400242,30770.171376487186,-16932.340494673314,-7315.882422433188
15156.71791514372,30770.68546660965,-16931.15585221718,-7325.06898940432
15158.349592488956,30784.70001038313,-16924.673846325142,-7333.205024386052
15158.57310993351,30790.08678079686,-16926.149061459193,-7334.791998242378
15159.355420989445,30772.719475355087,-16934.68742784112,-7331.729809252001
15152.627545908395,30764.65049560672,-16938.129596487237,-7330.902794707155
15152.560490675032,30768.293829952938,-16934.843890052307,-7333.987335441988
15158.729572144695,30787.493978440045,-16927.512517870968,-7341.07283843432
15166.306813515046,30801.91085361372,-16927.333703915323,-7334.479073820004
15154.14746453136,30789.930318585677,-16936.184994719624,-7330.232242373496
15167.647918182363,30778.41917019119,-16930.038264994415,-7319.615163757225
15169.458409483244,30776.9663068016,-16925.947895759095,-7321.582117269292
15168.81020889404,30788.320992984893,-16926.841965537307,-7336.624841287714
15168.877264127406,30791.83021686437,-16932.809881306875,-7344.872634991722
15163.401086735856,30776.80984459041,-16941.86233781127,-7341.07283843432
15161.4788367127,30769.52317589798,-16937.056712753383,-7332.176844141108
15168.81020889404,30779.313239969404,-16928.183070204625,-7335.037867431387
15173.839351396484,30793.93128084317,-16927.154889959682,-7343.30801287985
15187.406860280857,30801.79909489144,-16928.205421949082,-7342.078666934809
15173.951110118762,30790.04207730795,-16941.97409653355,-7347.26427164844
15160.160083789837,30777.011010290506,-16950.087779770827,-7339.798789000367
15158.818979122518,30775.46873992309,-16946.77972159144,-7335.239033131485
15172.386488006889,30793.260728509515,-16931.044093494904,-7332.556823796848
15175.046345597071,30802.491998969555,-16926.663151581663,-7330.612222029236
15165.613909436932,30789.8185598634,-16934.955648774583,-7329.539338295382
15158.66251691133,30783.694181882645,-16934.285096440923,-7329.964021440032
15161.255319268146,30786.77872261748,-16929.30065742739,-7331.528643551904
15166.552682704054,30801.32970825788,-16925.031474236428,-7336.647193032169
15170.888921128384,30812.125600829797,-16929.747692316498,-7332.422713330116
15159.534234945088,30800.055658823927,-16944.253974467993,-7333.5403005528815
15148.47012143971,30784.85647259432,-16943.82929132334,-7335.820178487323
15154.23687150918,30785.124693527785,-16937.92843078714,-7337.8318354883
15168.85491238295,30807.699955427644,-16929.30065742739,-7337.720076766023
15165.09981931446,30814.405478764234,-16937.436692409123,-7337.608318043747
15151.129979029893,30796.03234482197,-16950.579518148843,-7335.082570920297
15153.611022664432,30786.912833084207,-16950.35600070429,-7337.8318354883
15155.265051754124,30790.82438836389,-16946.69031461362,-7342.346887868272
15167.647918182363,30811.90208338524,-16926.81961379285,-7332.556823796848
15164.116342558424,30815.36660377581,-16930.97703826154,-7340.111713422742
15155.66738315432,30799.89919661274,-16943.426959923145,-7349.141818182686
15149.699467384751,30794.71359189911,-16939.336590687824,-7345.386725114194
15150.302964485049,30801.128542557784,-16933.994523763005,-7345.342021625283
15160.025973323103,30815.07603109789,-16927.713683571063,-7343.352716368761
15169.10078157196,30824.19554283566,-16929.52417487194,-7343.799751257868
15159.824807623008,30811.186827562677,-16945.460968668576,-7349.477094349515
15148.783045862085,30805.889464126765,-16947.517329158465,-7350.304108894362
15143.508034170633,30809.309281028425,-16937.079064497837,-7350.393515872182
15156.71791514372,30823.56969399091,-16921.030511978926,-7349.79001877189
15169.167836805324,30836.667816241723,-16917.856564266272,-7349.07476294932
15168.273767027113,30825.558999247434,-16924.45032888059,-7346.012573958943
15158.48370295569,30810.00218510654,-16932.4969568845,-7351.242882161485
15155.555624432043,30808.01287985002,-16927.132538215224,-7350.773495527923
15167.20088329326,30827.369490548317,-16915.286113653914,-7345.8114082588445
15166.91031061534,30840.735833732582,-16922.438671879612,-7348.940652482588
15162.507016957645,30829.448202782656,-16934.44155865211,-7345.945518725577
15158.14842678886,30817.91470264372,-16934.73213133003,-7338.994126199977
15151.532310430088,30809.28692928397,-16940.07419825485,-7347.577196070814
15165.748019903664,30827.414194037225,-16928.518346371453,-7353.813332773845
15166.262110026137,30838.947694176164,-16928.495994627,-7357.233149675507
15159.266014011624,30826.11779285881,-16935.380331919234,-7351.198178672574
15159.489531456178,30817.33355728788,-16934.73213133003,-7351.421696117127
15157.679040155295,30822.63092072379,-16927.73603531552,-7356.428486875116
15157.14259828837,30833.560923762438,-16931.289962683913,-7365.436239890604
15165.390391992378,30839.730005232097,-16925.120881214247,-7363.201065445074
15174.845179896973,30833.806792951444,-16923.422148635644,-7355.377954885716
15164.965708847729,30818.6746619552,-16924.360921902768,-7350.058239705353
15157.52257794411,30814.09255434186,-16930.753520816987,-7355.087382207797
15159.3777727339,30824.933150402685,-16928.2948289269,-7354.93091999661
15168.296118771568,30840.62407501031,-16924.00329399148,-7347.890120493188
15166.083296070492,30830.63284523879,-16936.319105186358,-7349.946480983077
15154.102761042448,30815.09838284235,-16945.59507913531,-7360.004765987965
15146.65963013883,30819.456973011136,-16941.661172111177,-7368.900760281177
15170.531293217098,30841.652255255256,-16929.412416149666,-7359.893007265688
15169.726630416708,30850.97293269312,-16930.261782438967,-7364.922149768133
15154.23687150918,30834.611455751838,-16937.615506364764,-7368.967815514543
15147.598403405957,30822.07212711241,-16932.564012117866,-7369.034870747909
15144.89384232686,30822.474458512603,-16931.178203961637,-7375.382766173216
15152.51578718612,30837.472479042117,-16922.63983757971,-7374.734565584013
15167.983194349194,30857.231421140605,-16917.722453799543,-7373.773440572434
15164.71983965872,30847.17313613572,-16925.21028819207,-7376.232132462518
15148.648935395351,30829.38114754929,-16930.127671972237,-7382.065937765353
15142.256336481136,30828.397670793256,-16927.177241704136,-7380.009577275465
15151.867586596918,30834.320883073917,-16930.060616738872,-7392.683016381624
15165.278633270102,30845.496755301567,-16921.96928524605,-7394.091176282308
15166.530330959598,30833.49386852907,-16919.331779400323,-7394.158231515674
15153.208691264235,30815.724231687094,-16918.48241311102,-7392.437147192615
15146.011429549628,30810.78449616248,-16920.11409045626,-7388.235019235018
15148.09014178397,30823.12265910181,-16914.660264809165,-7383.831725577322
15160.115380300926,30833.96325516263,-16917.856564266272,-7384.189353488608
15158.23783376668,30818.62995846629,-16929.63593359422,-7378.064975507853
15149.90063308485,30801.73203965808,-16930.30648592788,-7372.387632416205
15149.52065342911,30801.843798380352,-16927.87014578225,-7370.912417282155
15157.679040155295,30812.01384210752,-16919.600000333787,-7363.178713700619
15162.104685557448,30822.228589323597,-16913.900305497686,-7358.8871787652
15151.08527554098,30811.43269675168,-16921.611657334764,-7352.986318228998
15142.301039970049,30790.556167430423,-16925.21028819207,-7346.414905359138
15160.76358089013,30790.064429052407,-16913.945008986593,-7342.570405312826
15171.917101373328,30804.70482167063,-16907.217133905546,-7344.582062313803
15172.498246729168,30817.601778221346,-16909.787584517908,-7343.665640791135
15166.105647814948,30805.397725748742,-16912.67095955264,-7329.6063935287475
15163.043458824572,30790.51146394151,-16911.30750314087,-7322.431483558594
15168.51963621612,30790.153836030226,-16902.657378036663,-7318.028189900898
15175.851008397462,30800.837969879864,-16895.907151211162,-7314.6977799770575
15174.24168279668,30811.67856594069,-16901.986825703007,-7326.432445816094
15158.550758189054,30797.57461518939,-16913.386215375212,-7330.902794707155
15155.5779761765,30778.530928913468,-16924.20445969158,-7322.677352747602
15163.356383246946,30775.736960856557,-16927.66898008215,-7324.577251026303
15169.52546471661,30789.32682148538,-16919.39883463369,-7321.403303313649
15175.538083975089,30807.230568794083,-16914.34734038679,-7321.984448669487
15170.531293217098,30801.97790884709,-16918.68357881112,-7323.236146358985
15157.991964577672,30783.515367927,-16926.35022715929,-7319.995143412965
15155.019182565116,30780.319068469893,-16928.495994627,-7325.270155104417
15174.91223513034,30799.18394079017,-16914.950837487082,-7331.171015640619
15185.14933409087,30819.322862544403,-16909.742881028997,-7328.198233628063
15174.532255474598,30807.99052810556,-16925.165584703158,-7323.459663803538
15163.445790224769,30790.6679261527,-16928.495994627,-7324.30903009284
15168.85491238295,30791.360830230813,-16917.29777065489,-7322.297373091862
15172.073563584516,30801.75439140253,-16908.58059031732,-7321.895041691666
15174.666365941332,30814.316071786416,-16909.228790906523,-7330.679277262602
15163.021107080116,30805.8224088934,-16920.583477089822,-7333.473245319516
15173.124095573914,30792.344306986848,-16927.35605565978,-7329.3158208508285
15174.465200241231,30788.09747554034,-16934.44155865211,-7335.909585465144
15175.225159552714,30803.766048403508,-16924.83030853633,-7343.486826835493
15187.518619003133,30828.71059521563,-16911.329854885324,-7330.232242373496
15187.652729469864,30826.564827747923,-16922.483375368523,-7323.146739381164
15177.259168298146,30810.940958373663,-16933.949820274094,-7325.247803359963
15175.20280780826,30812.03619385197,-16927.35605565978,-7326.767721982923
15183.607063723452,30830.61049349433,-16914.190878175603,-7327.795902227867
15193.710052217251,30855.890316473284,-16910.77106127394,-7332.69093426358
15192.838334183496,30856.985551951595,-16923.288038168914,-7341.296355878873
15181.349537533468,30848.827165225408,-16934.64272435221,-7339.128236666708
15176.566264220031,30847.19548788017,-16936.54262263091,-7325.516024293426
15191.117249860436,30860.785348509,-16930.686465583618,-7324.532547537393
15177.19211306478,30877.236232428106,-16931.982866762028,-7331.774512740912
15177.080354342505,30874.889299260296,-16933.39102666271,-7325.605431271248
15170.19601705027,30857.41023509625,-16939.917736043662,-7329.986373184487
15168.653746682854,30858.41606359673,-16935.49209064151,-7330.835739473789
15193.285369072602,30874.263450415547,-16925.545564358898,-7329.561690039836
15194.335901062,30892.25660470207,-16926.3949306482,-7340.424637845116
15188.300930059067,30890.98255526812,-16932.720474329053,-7343.196254157574
15179.270825299123,30874.44226437119,-16942.48818665602,-7345.342021625283
15172.565301962532,30868.854328257363,-16944.83511982383,-7352.002841472965
15176.47685724221,30880.834863285407,-16938.64368660971,-7351.376992628217
15182.802400923065,30906.181741497727,-16931.178203961637,-7357.233149675507
15178.376755520912,30912.64139564531,-16935.425035408145,-7349.410039116149
15165.14452280337,30895.11762799235,-16940.92356454415,-7341.899852979166
15169.637223438887,30892.88245354682,-16931.804052806387,-7343.30801287985
15182.467124756233,30904.21478798566,-16921.857526523774,-7353.634518818202
15198.15804936386,30931.528619710043,-16910.30167464038,-7343.017440201931
15187.585674236498,30924.93485509573,-16923.265686424456,-7345.945518725577
15175.806304908552,30905.82411358644,-16935.78266331943,-7347.733658282002
15179.315528788034,30901.6443373733,-16934.329799929834,-7353.321594395828
15179.404935765857,30911.702622378187,-16931.40172140619,-7358.462495620549
15177.013299109138,30927.505305708088,-16928.697160327098,-7362.128181711219
15173.101743829458,30918.05051780349,-16944.72336110155,-7367.894931780688
15165.502150714656,30899.56562513896,-16950.93714606013,-7363.581045100814
15167.29029027108,30903.11955250735,-16940.968268033062,-7357.657832820158
15181.126020088914,30923.996081828605,-16924.45032888059,-7350.460571105549
15185.015223624136,30949.342960040925,-16921.522250356942,-7358.149571198174
15182.042441611582,30947.398358273316,-16934.329799929834,-7357.434315375604
15183.450601512266,30934.9037331228,-16936.050884252894,-7354.372126385228
15181.57305497802,30931.08158482094,-16929.993561505504,-7355.6685275636355
15184.545836990575,30942.14569832632,-16923.176279446638,-7358.462495620549
15194.291197573091,30962.642247991836,-16916.984846232517,-7355.757934541457
15189.53027600411,30960.09414912393,-16928.138366715713,-7364.475114879026
15168.474932727211,30942.14569832632,-16944.879823312738,-7375.896856295688
15162.395258235369,30934.568456955967,-16945.885651813227,-7373.08053649432
15179.71786018823,30947.107785595395,-16935.87207029725,-7370.957120771065
15184.076450357015,30964.83271894845,-16932.809881306875,-7374.354585928272
15164.652784425352,30955.98142814415,-16947.852605325294,-7379.942522042099
15158.260185511135,30940.491669236624,-16949.48428267053,-7373.661681850158
15170.71010717274,30940.11168958088,-16940.118901743757,-7368.40902190316
15173.369964762924,30946.191364072725,-16941.63882036672,-7379.361376686261
15180.924854388815,30961.815233446985,-16940.320067443856,-7385.441051178104
15185.14933409087,30969.97362017317,-16936.34145693081,-7366.151495713174
15172.475894984713,30954.953247899208,-16940.700047099595,-7362.664623578146
15172.945281618271,30946.48193675065,-16937.459044153577,-7365.391536401694
15180.008432866149,30952.69572170922,-16934.48626214102,-7370.040699248398
15185.2834445576,30973.57225103048,-16925.67967482563,-7373.661681850158
15180.790743922083,30971.046503907022,-16930.64176209471,-7369.414850403649
15176.789781664584,30950.259381563592,-16939.6495151102,-7357.635481075702
15170.643051939376,30937.74240466862,-16941.63882036672,-7356.719059553035
15171.604176950954,30947.13013733985,-16928.138366715713,-7354.238015918496
15182.355366033957,30963.692779981237,-16920.225849178536,-7359.26715842094
15179.76256367714,30960.116500868386,-16923.176279446638,-7360.228283432518
15166.19505479277,30941.251628548103,-16932.20638420658,-7361.748202055479
15171.045383339571,30939.821116902964,-16929.881802783228,-7356.562597341847
15180.187246821792,30949.09709085192,-16922.17045094615,-7355.400306630172
15180.14254333288,30967.760797472096,-16913.430918864124,-7358.842475276288
15173.235854296192,30966.397341060325,-16919.287075911412,-7358.976585743021
15164.675136169808,30949.924105396763,-16930.865279539263,-7361.234111933007
15169.65957518334,30938.14473606881,-16936.386160419723,-7368.520780625437
15175.806304908552,30949.58882922993,-16925.165584703158,-7365.033908490409
15180.05313635506,30968.163128872293,-16915.911962498663,-7365.816219546345
15172.230025795703,30969.526585284068,-16919.68940731161,-7361.368222399738
15158.371944233411,30952.44985252021,-16931.178203961637,-7362.642271833691
15169.748982161163,30946.52664023956,-16924.718549814053,-7361.636443333202
15177.370927020424,30957.88132642285,-16913.185049675114,-7357.5460740978815
15183.651767212365,30976.12034989838,-16904.24435189299,-7357.054335719864
15172.475894984713,30968.63251550585,-16915.509631098466,-7364.922149768133
15167.469104226722,30954.997951388115,-16923.042168979904,-7362.374050900227
15169.86074088344,30955.579096743957,-16922.55043060189,-7362.798734044878
15163.468141969222,30959.803576446007,-16920.31525615636,-7368.967815514543
15167.62556643791,30973.326381841467,-16915.464927609555,-7369.973644015032
15179.941377632784,30978.109655154905,-16916.649570065685,-7358.060164220353
15181.52835148911,30966.307934082502,-16922.10339571278,-7355.132085696708
15171.492418228678,30954.953247899208,-16921.701064312587,-7361.167056699641
15170.307775772546,30961.32349506897,-16919.845869522796,-7373.438164405605
15165.122171058914,30969.16895737278,-16928.36188416027,-7383.69761511059
15174.442848496778,30973.28167835256,-16927.91484927116,-7371.471210893537
15179.807267166052,30960.27296307957,-16921.745767801498,-7356.652004319669
15173.816999652028,30951.93576239774,-16920.516421856453,-7367.693766080591
15178.868493898928,30957.434291533744,-16920.628180578733,-7374.443992906094
15188.703261459264,30977.48380631016,-16920.96345674556,-7380.590722631303
15184.4340782683,30976.52268129858,-16934.709779585573,-7382.758841843467
15174.666365941332,30964.385684059347,-16936.676733097644,-7372.208818460563
15177.90736888735,30961.68112298025,-16931.11114872827,-7366.531475368914
15175.694546186274,30964.54214627053,-16935.626201108244,-7376.388594673705
15179.315528788034,30978.93666969975,-16933.033398751428,-7380.903647053677
15186.71395620274,30986.91624247029,-16929.09949172729,-7377.305016196373
15181.57305497802,30969.526585284068,-16938.844852309805,-7377.170905729641
15176.566264220031,30964.631553248357,-16941.996448278005,-7387.363301201261
15182.847104411972,30974.108692897404,-16933.167509218158,-7380.74718484249
15192.458354527756,30990.358411116413,-16923.936238758117,-7373.527571383425
15184.47878175721,30988.302050626524,-16932.83223305133,-7376.232132462518
15176.499208986666,30971.5605940295,-16935.49209064151,-7369.683071337113
15175.851008397462,30970.331248084454,-16927.221945193047,-7368.610187603258
15175.314566530536,30974.44396906424,-16924.427977136133,-7375.360414428761
15181.99773812267,30991.7665710171,-16921.11991895675,-7378.400251674682
15195.00645339566,30995.67812629677,-16927.66898008215,-7376.388594673705
15171.20184555076,30970.197137617724,-16944.499843657,-7376.835629562811
15166.552682704054,30962.105806124902,-16946.22092798006,-7379.897818553188
15176.14158107538,30975.963887687198,-16935.402683663688,-7377.461478407559
15187.205694580758,30996.594547819444,-16923.913887013663,-7378.288492952406
15182.3330142895,30999.61203332091,-16932.899288284694,-7382.714138354557
15172.274729284612,30983.161149401803,-16940.07419825485,-7378.6237691192355
15170.441886239278,30972.298201596524,-16937.861375553774,-7377.349719685283
15170.643051939376,30972.47701555217,-16933.346323173802,-7384.256408721973
15175.67219444182,30989.956079716216,-16922.52807885743,-7381.976530787531
15172.989985107182,30991.475998339178,-16927.579573104333,-7381.954179043077
15165.680964670297,30972.298201596524,-16944.11986400126,-7384.859905822266
15169.19018854978,30971.94057368524,-16944.499843657,-7385.709272111568
15182.221255567223,30987.519739570587,-16931.133500472726,-7380.702481353579
15189.418517281834,31005.356431645923,-16921.3434364013,-7376.075670251331
15179.85197065496,31002.92009150029,-16931.379369661736,-7375.114545239752
15175.225159552714,30989.77726576057,-16941.996448278005,-7378.467306908048
15173.101743829458,30984.32344011348,-16944.857471568284,-7379.942522042099
15174.442848496778,30989.50904482711,-16939.560108132377,-7379.160210986163
15192.570113250033,31015.526475373088,-16922.930410257628,-7371.761783571456
15189.217351581736,31016.644062595853,-16925.50086086999,-7365.659757335157
15184.47878175721,31002.96479498921,-16937.056712753383,-7366.397364902183
15186.021052124626,30996.52749258608,-16937.056712753383,-7366.263254435451
15189.373813792923,31005.356431645923,-16927.579573104333,-7368.163152714152
15193.352424305967,31022.790792321062,-16919.465889867057,-7370.264216692951
15188.032709125604,31027.90934180133,-16923.4445003801,-7372.097059738286
15185.52931374661,31015.14649571735,-16932.474605140043,-7369.8395335483
15180.164895077336,31004.4176583788,-16933.92746852964,-7368.051393991876
15183.629415467907,31011.056126482028,-16928.026607993437,-7367.604359102769
15189.619682981933,31030.23392322468,-16922.63983757971,-7372.879370794221
15191.541933005088,31035.866562827418,-16933.92746852964,-7375.114545239752
15183.808229423552,31022.18729522077,-16947.11499775827,-7370.577141115325
15167.67026992682,31006.80929503552,-16954.558128661887,-7380.300149953384
15166.843255381971,31006.9210537578,-16948.21023323658,-7382.714138354557
15190.849028926974,31033.13965000387,-16927.579573104333,-7377.260312707462
15200.840258698496,31049.45642345625,-16920.471718367546,-7371.493562637993
15198.24745634168,31043.39910070885,-16921.388139890212,-7363.692803823091
15202.024901154628,31038.884048328884,-16918.929448000126,-7354.305071151862
15207.992816924194,31046.751862377158,-16919.68940731161,-7352.986318228998
15206.62936051242,31063.49331897418,-16913.7438432865,-7350.527626338915
15199.72267147573,31062.35338000696,-16916.694273554596,-7347.197216415074
15185.4846102577,31048.00356006665,-16931.804052806387,-7355.959100241555
15186.736307947196,31040.51572567412,-16930.418244650155,-7356.808466530856
15191.899560916372,31046.86362109943,-16923.802128291383,-7357.479018864516
15200.05794764256,31067.538984720588,-16915.10729969827,-7364.74333581249
15197.711014474751,31073.618659212432,-16921.902230012685,-7375.002786517476
15186.222217824725,31055.267877014623,-16938.934259287627,-7371.940597527099
15189.99966263767,31046.48364144369,-16946.109169257783,-7367.291434680395
15195.118212117935,31053.256220013645,-16935.73795983052,-7360.474152621527
15200.48263078721,31077.284345303106,-16918.415357877657,-7360.69767006608
15205.064738400548,31089.91308092035,-16922.416320135155,-7367.157324213663
15200.773203465127,31077.261993558648,-16927.91484927116,-7355.400306630172
15203.075433144026,31070.42235975532,-16928.607753349275,-7350.527626338915
15207.76929947964,31074.80330166856,-16924.20445969158,-7352.785152528901
15212.641979770897,31094.29402283359,-16914.14617468669,-7363.156361956163
15202.762508721651,31098.116171135447,-16916.761328787965,-7379.719004597546
15191.564284749544,31076.926717391816,-16931.044093494904,-7384.524629655437
15188.367985292434,31070.5341184776,-16930.77587256144,-7385.306940711373
15180.38841252189,31075.20563306876,-16927.467814382057,-7387.765632601457
15189.463220770744,31094.87516818943,-16920.985808490015,-7388.391481446205
15194.470011528732,31105.425191572333,-16921.96928524605,-7393.398272204194
15185.95399689126,31084.571013995534,-16933.145157473704,-7399.075615295842
15185.4846102577,31073.126920834417,-16935.31327668587,-7399.857926351778
15185.685775957798,31073.73041793471,-16939.58245987683,-7409.178603789641
15193.553590006066,31092.72940072172,-16925.523212614444,-7413.000752091498
15196.90635167436,31103.10061014898,-16920.31525615636,-7399.746167629501
15186.378680035912,31086.605022740965,-16929.837099294316,-7392.146574514696
15187.473915514222,31078.379580781413,-16929.3453609163,-7389.553772157881
15191.34076730499,31083.833406428508,-16929.30065742739,-7394.180583260129
15200.974369165227,31101.91596769285,-16923.332741657825,-7397.13101352823
15199.67796798682,31116.712822522262,-16917.789509032908,-7393.755900115479
15189.932607404306,31103.234720615717,-16923.19863119109,-7381.015405775954
15190.044366126582,31096.81976995704,-16924.137404458215,-7375.807449317867
15185.931645146806,31096.462142045755,-16922.416320135155,-7382.691786610101
15183.450601512266,31111.326052108536,-16912.425090363635,-7376.008615017965
15195.989930151694,31121.361985368967,-16911.06163395186,-7369.616016103747
15182.668290456331,31102.273595604136,-16927.467814382057,-7365.033908490409
15188.90442715936,31094.696354233787,-16922.10339571278,-7356.428486875116
15194.559418506557,31101.91596769285,-16909.988750218006,-7356.204969430562
15202.404880810367,31120.311453379567,-16904.44551759309,-7360.585911343803
15202.784860466109,31130.146220939903,-16906.68069203862,-7355.288547907895
15188.278578314612,31110.16376139686,-16925.63497133672,-7355.221492674529
15188.546799248075,31098.63026125792,-16926.663151581663,-7343.442123346583
15194.805287695564,31107.168627639847,-16914.72732004253,-7340.402286100661
15194.96174990675,31125.63116855993,-16908.848811250784,-7344.380896613705
15197.308683074556,31135.510639609176,-16913.274456652936,-7340.35758261175
15192.167781849836,31125.11707843746,-16927.78073880443,-7342.8162745018335
15187.183342836302,31117.74100276721,-16928.495994627,-7337.496559321471
15194.000624895172,31122.07724119154,-16919.30942765587,-7334.970812198021
15212.574924537532,31138.796346044102,-16907.083023438816,-7336.870710476722
15215.413596083356,31151.73800608373,-16907.4406513501,-7338.569443055326
15194.849991184474,31137.54464835461,-16925.63497133672,-7343.084495435298
15183.204732323258,31125.698223793297,-16938.666038354164,-7341.653983790158
15194.648825484375,31129.20744767278,-16933.569840618355,-7339.172940155619
15209.020997169138,31148.809927560083,-16920.628180578733,-7336.35662035425
15201.287293587602,31157.080073008547,-16924.919715514152,-7342.59275705728
15193.799459195074,31144.36193041348,-16930.35118941679,-7339.508216322448
15181.841275911484,31130.839125018018,-16936.20734646408,-7341.07283843432
15189.86555217094,31137.812869288075,-16925.567916103355,-7338.8823674776995
15206.450546556778,31158.01884627567,-16913.67678805313,-7338.077704677308
15215.704168761276,31173.68741913884,-16911.598075818787,-7336.580137798803
15207.76929947964,31164.299686467613,-16926.663151581663,-7337.563614554837
15202.516639532643,31146.73121532574,-16936.140291230713,-7333.40619008615
15201.510811032154,31145.47951763624,-16934.195689463104,-7335.26138487594
15204.841220955996,31154.219049718267,-16934.665076096666,-7347.621899559725
15209.62449426943,31170.245250492724,-16929.72534057204,-7349.141818182686
15191.698395216275,31157.16947998637,-16940.141253488215,-7349.11946643823
15179.896674143873,31140.808003045084,-16947.58438439183,-7346.92899548161
15197.91218017485,31145.21129670278,-16935.849718552796,-7343.106847179753
15205.24355235619,31157.147128241915,-16929.568878360853,-7348.113637937741
15205.95880817876,31171.273430737667,-16924.942067258606,-7347.957175726554
15202.15901162136,31161.3045527106,-16929.077139982837,-7330.522815051415
15194.984101651204,31143.467860635265,-16939.090721498815,-7324.487844048482
15198.113345874948,31142.707901323785,-16935.894422041707,-7327.170053383119
15203.075433144026,31153.772014829163,-16928.987733005015,-7330.344001095772
15209.557439036063,31173.285087738645,-16929.077139982837,-7334.54612905337
15195.699357473775,31156.61068637499,-16947.517329158465,-7337.8318354883
15190.692566715788,31143.087880979525,-16946.377390191246,-7332.422713330116
15194.045328384082,31146.574753114557,-16941.147081988704,-7340.782265756401
15211.278523359124,31167.67479988036,-16927.043131237406,-7343.352716368761
15218.498136818189,31189.579509446565,-16918.63887532221,-7345.431428603105
15208.842183213495,31179.02948606366,-16926.3949306482,-7342.905681479655
15206.092918645492,31170.334657470547,-16927.959552760072,-7338.50238782196
15207.411671568356,31172.614535404988,-16924.942067258606,-7333.987335441988
15216.195907139292,31188.528977457165,-16921.455195123577,-7333.696762764069
15220.487442074713,31199.213111306803,-16923.220982935545,-7340.469341334026
15207.031691912616,31183.45513146581,-16935.15681447468,-7351.667565306136
15197.219276096735,31169.082959781048,-16943.4493116676,-7351.622861817224
15200.52733427612,31174.536785428143,-16934.285096440923,-7348.717135038035
15205.645883756386,31190.94296585834,-16926.663151581663,-7359.356565398761
15207.366968079445,31204.733992187263,-16920.427014878635,-7358.104867709264
15198.470973786232,31193.669878681885,-16926.663151581663,-7358.328385153817
15189.306758559556,31180.54940468662,-16928.563049860364,-7353.07572520682
15195.587598751496,31180.325887242067,-16923.35509340228,-7348.113637937741
15199.946188920285,31196.665012438894,-16922.21515443506,-7359.065992720842
15211.278523359124,31219.106163872024,-16920.427014878635,-7362.686975322602
15209.892715202895,31217.65330048243,-16923.869183524752,-7354.394478129683
15196.191095851793,31205.69511719884,-16927.400759148688,-7357.680184564613
15198.068642386035,31210.053707367624,-16921.410491634666,-7360.809428788356
15201.95784592126,31220.33550981707,-16917.409529377168,-7361.144704955185
15198.806249953062,31231.84665821155,-16919.197668933593,-7364.363356156749
15190.267883571136,31225.09643138605,-16926.73020681503,-7364.318652667839
15206.137622134404,31210.94777714584,-16924.293866669403,-7358.6636613206465
15215.994741439194,31209.204341078323,-16916.62721832123,-7362.977548000521
15224.398997354388,31221.05076563964,-16909.20643916207,-7361.122353210731
15224.957790965773,31238.75334724824,-16909.58641881781,-7363.044603233887
15209.11040414696,31230.86318145552,-16919.77881428943,-7357.903702009166
15200.594389509486,31216.89334117095,-16927.66898008215,-7363.938673012099
15202.516639532643,31209.494913756243,-16930.01591324996,-7371.605321360269
15213.53604954911,31227.868047698503,-16915.062596209358,-7361.323518910828
15229.2940293901,31249.862164242528,-16906.993616460994,-7358.842475276288
15214.139546649403,31239.759175748728,-16928.54069811591,-7369.07957423682
15204.90827618936,31223.822381952094,-16937.079064497837,-7370.711251582057
15208.551610535576,31233.299521601144,-16923.220982935545,-7363.424582889626
15215.279485616624,31253.28198114419,-16913.140346186203,-7361.345870655284
15217.022921684138,31266.782434795197,-16914.034415964416,-7360.921187510632
15209.490383802698,31254.019588711213,-16926.327875414834,-7352.069896706331
15211.457337314769,31236.24995186925,-16936.475567397545,-7348.605376315758
15208.73042449122,31229.81264946612,-16941.169433733157,-7356.316728152839
15213.424290826832,31241.010873438227,-16931.15585221718,-7363.111658467253
15202.471936043732,31253.3266846331,-16923.19863119109,-7363.558693356359
15202.181363365811,31245.458870584836,-16928.473642882545,-7358.395440387183
15200.19205810929,31230.483201799776,-16934.553317374386,-7361.368222399738
15199.230933097711,31228.918579687903,-16932.675770840142,-7365.659757335157
15199.834430198009,31238.32866410359,-16923.757424802476,-7368.789001558901
15198.493325530688,31247.269361885712,-16926.01495099246,-7379.584894130814
15200.661444742853,31242.46373682782,-16929.30065742739,-7372.633501605213
15195.364081306943,31229.969111677303,-16934.374503418745,-7373.035833005409
15196.10168887397,31227.018681409205,-16924.047997480393,-7371.024176004431
15207.881058201918,31240.20621063784,-16908.737052528508,-7366.799696302378
15215.279485616624,31262.446196370867,-16906.90420948317,-7369.168981214641
15205.690587245295,31256.835908512585,-16926.86431728176,-7375.427469662127
15198.470973786232,31239.714472259817,-16935.760311574973,-7370.532437626414
15190.737270204696,31230.885533199973,-16933.88276504073,-7368.789001558901
15199.588561009,31241.189687393868,-16929.97120976105,-7370.912417282155
15214.96656119425,31265.57544059461,-16916.02372122094,-7367.090268980297
15206.651712256877,31264.971943494314,-16921.29873291239,-7367.827876547322
15200.639092998395,31245.883553729484,-16931.848756295294,-7362.530513111415
15200.661444742853,31239.60271353754,-16931.4464248951,-7362.821085789334
15207.814002968553,31250.66682704292,-16926.171413203647,-7367.470248636037
15213.066662915548,31264.99429523877,-16927.400759148688,-7367.626710847225
15198.426270297325,31253.393739866468,-16934.240392952015,-7358.395440387183
15188.680909714809,31236.719338502808,-16933.033398751428,-7357.590777586792
15197.755717963662,31234.350053590544,-16930.64176209471,-7357.568425842336
15202.069604643537,31245.19064965137,-16922.97511374654,-7358.261329920451
15210.16093613636,31259.56282133613,-16915.15200318718,-7360.451800877071
15202.606046510464,31254.31016138913,-16918.661227066663,-7359.714193310046
15194.24649408418,31235.646454768957,-16922.706892813076,-7358.529550853915
15200.281465087111,31235.46764081331,-16918.01302647746,-7359.445972376582
15218.811061240562,31255.36069337853,-16905.96543621605,-7358.328385153817
15228.668180545352,31273.64442034297,-16902.5903228033,-7362.351699155772
15219.01222694066,31266.536565606188,-16910.368729873746,-7367.783173058412
15214.899505960884,31254.444271855864,-16903.73026177052,-7351.064068205842
15210.58561928101,31249.795109009163,-16904.043186192892,-7347.934823982099
15212.306703604068,31254.1760509224,-16902.478564081022,-7353.232187418007
15219.10163391848,31268.704684818356,-16899.30461636837,-7357.858998520255
15217.849936228984,31263.161452193435,-16910.972226974038,-7361.971719500032
15206.361139578956,31248.766928764217,-16914.54850608689,-7360.675318321624
15198.96271216425,31245.25770488473,-16923.95859050257,-7373.929902783621
15203.634226755408,31251.80676601014,-16920.091738711802,-7366.464420135549
15211.926723948329,31265.5307371057,-16911.173392674136,-7362.150533455674
15212.10553790397,31262.557955093143,-16911.776889774428,-7355.936748497099
15198.605084252964,31248.2751903862,-16913.25210490848,-7352.986318228998
15201.264941843148,31243.223696139303,-16911.933351985615,-7352.427524617616
15207.456375057269,31252.81259451063,-16905.652511793676,-7357.344908397783
15213.089014660003,31270.60458309705,-16899.930465213118,-7358.909530509655
15207.702244246277,31264.90488826095,-16908.669997295143,-7359.848303776777
15201.220238354235,31248.252838641747,-16917.38717763271,-7357.5460740978815
15198.985063908704,31243.693082772865,-16910.905171740673,-7358.194274687085
15203.030729655116,31255.4277486119,-16899.505782068467,-7361.703498566569
15213.424290826832,31275.2313941993,-16888.39696507418,-7356.473190364027
15205.53412503411,31274.49378663228,-16894.364880843747,-7365.771516057434
15186.132810846902,31252.969056721817,-16915.263761909457,-7372.789963816401
15189.887903915394,31251.918524732417,-16915.666093309654,-7370.778306815423
15211.3902820814,31268.883498773997,-16896.488296567,-7365.749164312979
15219.749834507686,31291.86109207405,-16885.15596212816,-7360.921187510632
15207.881058201918,31284.350905937063,-16890.25215986397,-7359.557731098858
15199.521505775632,31268.391760395974,-16890.05099416387,-7358.6636613206465
15199.812078453551,31270.09049297458,-16887.659357507153,-7356.7861147864
15206.070566901037,31277.399513411467,-16884.798334216874,-7353.947443240577
15211.569096037045,31297.538435165698,-16886.497066795477,-7361.256463677462
15203.522468033132,31284.127388492518,-16899.95281695757,-7363.670452078635
15201.041424398592,31267.85531852905,-16907.17243041664,-7356.763763041946
15206.852877956971,31266.76008305074,-16904.378462359724,-7351.332289139305
15208.283389602111,31277.71243783384,-16892.017947675937,-7352.673393806624
15204.617703511442,31287.32368794962,-16891.4368023201,-7356.182617686108
15194.24649408418,31279.76879832373,-16902.411508847657,-7359.580082843314
15192.793630694585,31267.90002201796,-16908.669997295143,-7366.151495713174
15193.173610350324,31267.38593189549,-16906.34541587179,-7362.351699155772
15197.979235408216,31274.98552501029,-16901.316273369346,-7361.234111933007
15203.969502922238,31290.408228684453,-16902.1879914031,-7371.873542293732
15205.824697712029,31294.319783964133,-16908.737052528508,-7369.705423081568
15203.902447688872,31280.551109379663,-16913.900305497686,-7355.892045008189
15198.359215063956,31272.66094358694,-16912.268628152447,-7352.807504273356
15210.25034311418,31290.162359495447,-16896.734165756006,-7347.398382115171
15221.113290919458,31306.590891670097,-16889.58160753031,-7353.701574051568
15204.01420641115,31298.96894681084,-16896.354186100267,-7354.148608940674
15200.616741253942,31282.09337974708,-16897.96351170105,-7351.287585650395
15209.602142524976,31277.66773434493,-16892.509686053956,-7352.606338573259
15216.709997261763,31290.519987406733,-16884.999499916972,-7349.45474260506
15216.933514706316,31305.00391781377,-16891.168581386635,-7363.8269142898225
15207.501078546176,31303.08166779061,-16900.891590224695,-7354.752106040968
15199.163877864346,31282.652173358463,-16907.552410072378,-7344.202082658063
15197.86747668594,31276.59485061108,-16908.737052528508,-7352.136951939697
15211.256171614668,31291.65992637395,-16890.85565696426,-7346.236091403496
15211.412633825856,31309.02723181573,-16878.5845492583,-7344.202082658063
15205.310607589558,31308.53549343771,-16887.21232261805,-7347.063105948342
15203.72363373323,31291.92814730741,-16899.841058235295,-7350.237053660996
15207.47872680172,31283.85916755905,-16902.81384024785,-7354.640347318691
15216.553535050576,31293.403362441462,-16894.454287821565,-7357.568425842336
15223.326113620536,31315.598644685582,-16888.66518600764,-7353.366297884739
15221.135642663914,31322.90766512247,-16891.816781975842,-7348.873597249222
15207.881058201918,31308.4907899488,-16903.6408547927,-7351.555806583859
15201.264941843148,31296.19733049838,-16909.899343240184,-7355.288547907895
15210.451508814278,31306.76970562574,-16900.466907080045,-7354.8862165077
15225.516584577152,31325.32165352365,-16893.91784595464,-7354.93091999661
15219.705131018774,31323.779383156227,-16903.30557862587,-7357.769591542434
15213.759566993664,31304.042792802196,-16909.720529284543,-7353.254539162463
15210.384453580911,31297.00199329877,-16913.229753164025,-7361.569388099836
15208.775127980129,31303.461647446355,-16907.463003094555,-7361.032946232909
15208.708072746764,31322.28181627772,-16899.34931985728,-7361.524684610926
15196.90635167436,31319.01846158725,-16910.234619407012,-7368.520780625437
15190.3349388045,31302.52287417923,-16919.53294510042,-7371.851190549278
15193.151258605869,31296.800827598672,-16921.656360823676,-7369.593664359291
15204.72946223372,31307.708478892862,-16918.907096255673,-7371.627673104725
15211.993779181694,31327.713290180363,-16915.755500287476,-7373.035833005409
15210.071529158537,31325.47811573483,-16931.53583187292,-7373.929902783621
15199.566209264543,31307.216740514847,-16946.109169257783,-7370.197161459585
15196.012281896148,31301.89702533448,-16941.348247688802,-7368.297263180883
15196.90635167436,31306.501484692275,-16935.134462730224,-7368.297263180883
15204.796517467084,31320.091345321103,-16934.26274469647,-7379.406080175171
15205.422366311834,31328.853229147586,-16937.3472854313,-7381.328330198327
15202.203715110269,31321.655967432973,-16940.968268033062,-7377.707347596568
15194.715880717742,31313.18465628441,-16938.3978174207,-7382.088289509808
15198.068642386035,31320.851304632582,-16930.328837672336,-7388.123260512742
15201.15318312087,31336.4975257513,-16925.120881214247,-7394.873487338244
15196.146392362882,31334.61997921705,-16932.094625484304,-7398.203897262085
15182.154200333858,31314.928092351925,-16941.482358155532,-7404.261220009473
15186.71395620274,31311.977662083827,-16933.145157473704,-7405.065882809864
15197.934531919303,31316.38095574152,-16926.05965448137,-7409.916211356665
15203.29895058858,31331.96012162687,-16920.427014878635,-7409.536231700926
15197.53220051911,31336.788098429217,-16923.489203869012,-7401.668417652657
15186.24456956918,31320.359566254567,-16931.558183617377,-7400.394368218705
15184.121153845928,31309.161342282456,-16931.468776639555,-7402.718949642057
15188.323281803525,31312.916435350948,-16928.898326027196,-7402.94246708661
15204.573000022532,31327.713290180363,-16922.97511374654,-7404.484737454026
15200.773203465127,31331.401328015487,-16927.400759148688,-7403.210688020074
15175.694546186274,31316.649176674982,-16937.839023809316,-7404.708254898579
15179.471990999222,31307.015574814748,-16935.000352263494,-7390.291379724906
15188.613854481442,31310.860074861062,-16930.909983028174,-7382.870600565744
15193.710052217251,31330.775479170738,-16922.572782346342,-7384.36816744425
15199.812078453551,31345.10294736659,-16918.169488688647,-7370.979472515521
15198.225104597224,31341.303150809188,-16919.085910211314,-7354.953271741066
15191.96661614974,31334.932903639427,-16924.20445969158,-7355.64617581918
15192.547761505575,31335.692862950906,-16922.885706768717,-7360.518856110437
15198.202752852769,31351.02615964725,-16914.950837487082,-7364.162190456652
15201.44375579879,31360.86092720758,-16913.855602008774,-7359.915359010143
15188.725613203718,31342.554848498687,-16919.68940731161,-7357.45666712006
15184.948168390772,31330.30609253718,-16923.265686424456,-7368.230207947518
15195.587598751496,31342.420738031957,-16919.2423724225,-7368.319614925339
15200.81790695404,31358.804566717696,-16913.766195030952,-7366.285606179907
15204.327130833522,31365.912421454483,-16912.000407218984,-7362.418754389138
15194.693528973286,31348.746281712807,-16918.236543922012,-7357.166094442141
15184.702299201765,31334.709386194874,-16916.336645643314,-7353.947443240577
15186.982177136206,31342.353682798588,-16904.82549724883,-7344.380896613705
15203.857744199962,31364.280744109245,-16898.611712290254,-7342.54805356837
15200.281465087111,31371.76857850177,-16913.140346186203,-7357.166094442141
15192.123078360926,31358.78221497324,-16923.511555613466,-7347.934823982099
15192.279540572114,31352.85900269258,-16912.425090363635,-7336.222509887518
15190.670214971333,31357.798738217207,-16903.86437223725,-7336.781303498901
15191.43017428281,31369.086369167137,-16907.507706583467,-7339.865844233733
15191.877209171917,31369.95808720089,-16924.182107947126,-7351.868731006233
15186.065755613536,31352.993113159315,-16937.861375553774,-7352.025193217421
15184.724650946218,31345.214706088867,-16943.605773878786,-7353.992146729487
15197.86747668594,31357.5528690282,-16926.3949306482,-7341.6986872790685
15201.890790687894,31375.233098892342,-16913.319160141848,-7338.211815144041
15196.638130740896,31380.374000117063,-16918.68357881112,-7340.469341334026
15187.988005636696,31372.77440700226,-16923.936238758117,-7334.12144590872
15180.075488099515,31357.128185883543,-16927.713683571063,-7328.958192939544
15187.138639347391,31360.838575463127,-16921.008160234473,-7335.104922664753
15194.112383617448,31377.91530822698,-16913.833250264317,-7340.558748311848
15194.760584206651,31381.424532106463,-16921.3434364013,-7339.597623300269
15186.132810846902,31365.666552265477,-16936.430863908634,-7335.5966610427695
15179.919025888328,31354.669493993464,-16933.703951085085,-7329.941669695577
15182.936511389797,31356.882316694537,-16920.784642789917,-7328.779378983901
15197.57690400802,31380.083427439145,-16906.30071238288,-7334.702591264558
15204.05890990006,31395.17085494648,-16908.066500194847,-7334.54612905337
15195.118212117935,31381.379828617555,-16922.30456141288,-7327.907660950143
15188.993834137182,31369.622811034063,-16924.83030853633,-7325.091341148775
15189.463220770744,31367.007656932798,-16924.4950323695,-7331.394533085172
15190.558456249057,31379.859909994597,-16920.427014878635,-7335.507254064948
15194.782935951109,31389.26999441028,-16923.265686424456,-7337.7647802549345
15186.28927305809,31374.2049186474,-16928.58540160482,-7329.025248172909
15186.065755613536,31363.74430224232,-16926.35022715929,-7326.857128960744
15189.53027600411,31364.72777899835,-16925.45615738108,-7332.065085418831
15195.72170921823,31382.720933284872,-16920.53877360091,-7341.296355878873
15198.314511575045,31393.06979096768,-16923.891535269206,-7333.070913919319
15182.95886313425,31376.954183215403,-16937.146119731202,-7329.338172595284
15180.276653799612,31366.717084254877,-16940.744750588507,-7330.791035984878
15195.76641270714,31370.96391570138,-16933.860413296272,-7335.283736620395
15206.58465702351,31395.483779368853,-16922.259857923968,-7337.854187232756
15197.420441796834,31392.9580322454,-16924.293866669403,-7343.687992535591
15180.366060777436,31371.65681977949,-16932.116977228758,-7348.717135038035
15181.86362765594,31362.15732838599,-16932.139328973215,-7350.818199016834
15196.660482485351,31368.63933427803,-16922.01398873496,-7341.586928556791
15203.924799433327,31386.856006009104,-16909.63112230672,-7338.792960499878
15206.830526212518,31400.13294221556,-16908.15590717267,-7341.855149490256
15201.421404054334,31392.15336944501,-16915.73314854302,-7334.7696464979235
15200.080299387017,31380.485758839342,-16920.695235812098,-7331.573347040814
15202.606046510464,31383.59265131863,-16921.25402942348,-7341.45281809006
15210.116232647448,31395.68494506895,-16914.794375275895,-7341.8775012347105
15209.803308225071,31404.670346339983,-16908.312369383857,-7337.988297699488
15199.163877864346,31387.92888974296,-16911.754538029974,-7331.081608662797
15188.636206225898,31369.421645333965,-16923.73507305802,-7336.267213376429
15188.926778903817,31373.310848869187,-16921.745767801498,-7343.30801287985
15196.749889463174,31394.075619468167,-16912.559200830365,-7355.892045008189
15202.851915699472,31406.90552078552,-16912.469793852546,-7346.258443147951
15194.91704641784,31390.29817465522,-16919.73411080052,-7335.551957553859
15192.4360027833,31378.943488471927,-16919.86822126725,-7334.859053475744
15187.473915514222,31377.892956482527,-16925.59026784781,-7345.9231669811215
15195.520543518132,31398.34480265913,-16919.622352078244,-7349.275928649417
15207.836354713008,31416.807343579218,-16912.268628152447,-7350.862902505744
15195.96757840724,31399.015354992796,-16922.908058513174,-7359.7812485434115
15193.39712779488,31392.17572118947,-16932.049921995393,-7359.26715842094
15186.95982539175,31390.81226477769,-16935.715608086062,-7364.318652667839
15194.335901062,31410.8170760652,-16922.5951340908,-7363.7151555675455
15203.745985477684,31426.55270416173,-16915.710796798565,-7350.594681572281
15200.639092998395,31418.99781453584,-16925.97024750355,-7347.286623392895
15195.565247007044,31406.79376206324,-16930.194727205602,-7344.492655335982
15183.897636401372,31401.02701199377,-16933.21221270707,-7354.506236851959
15196.124040618426,31418.46137266891,-16917.342474143803,-7352.963966484544
15206.763470979153,31429.23491349637,-16909.720529284543,-7353.589815329292
15190.781973693607,31413.164009233,-16924.919715514152,-7355.824989774823
15188.412688781344,31400.73643931585,-16926.73020681503,-7353.07572520682
15186.982177136206,31399.238872437345,-16917.63304682172,-7351.824027517322
15193.352424305967,31414.393355178043,-16907.328892627822,-7351.913434495143
15191.67604347182,31426.15037276153,-16907.999444961482,-7352.785152528901
15190.200828337767,31418.662538369008,-16918.01302647746,-7344.962041969543
15188.591502736988,31405.07267774018,-16926.01495099246,-7344.827931502811
15190.62551148242,31404.580939362164,-16922.416320135155,-7347.197216415074
15194.581770251008,31418.68489011346,-16920.851698023285,-7355.020326974432
15192.458354527756,31425.233951238868,-16922.036340479415,-7357.836646775801
15186.155162591358,31408.73836383085,-16933.748654573996,-7362.664623578146
15181.39424102238,31402.770448061285,-16936.676733097644,-7364.564521856848
15176.253339797657,31401.697564327427,-16936.72143658655,-7370.264216692951
15186.669252713831,31415.30977670071,-16927.66898008215,-7364.899798023677
15188.882075414906,31434.24170425436,-16924.226811436034,-7364.430411390115
15181.595406722476,31428.899637329538,-16929.412416149666,-7363.759859056457
15179.583749721498,31416.22619822338,-16930.01591324996,-7366.687937580102
15189.351462048468,31417.343785446144,-16922.505727112977,-7364.9445015125875
15192.994796394683,31432.61002690912,-16914.704968298076,-7373.1028882387745
15188.367985292434,31444.74702414835,-16921.5446021014,-7388.123260512742
15177.996775865173,31432.49826818684,-16934.3968551632,-7387.765632601457
15175.247511297168,31419.534256402763,-16936.87789879774,-7379.361376686261
15174.129924074405,31419.60131163613,-16934.26274469647,-7379.3837284307165
15192.190133594291,31432.542971675757,-16926.43963413711,-7380.836591820311
15199.432098797812,31446.55751544923,-16918.72828230003,-7371.471210893537
15187.3845085364,31432.677082142483,-16927.803090548885,-7363.245768933984
15177.594444464976,31417.544951146243,-16930.53000337243,-7369.280739936918
15178.019127609628,31415.019204022792,-16928.339532415812,-7374.198123717085
15183.696470701274,31429.45843094092,-16919.287075911412,-7370.93476902661
15185.2834445576,31446.6245706826,-16916.24723866549,-7368.789001558901
15173.615833951932,31438.913218845515,-16923.422148635644,-7369.526609125925
15171.850046139962,31424.69750937194,-16929.144195216202,-7366.8220480468335
15170.754810661652,31422.283520970766,-16933.368674918256,-7378.891990052699
15177.393278764876,31437.30389324473,-16928.406587649177,-7384.926961055632
15186.758659691652,31460.884983645083,-16918.080081710825,-7367.179675958118
15173.90640662985,31450.49142247337,-16928.11601497126,-7354.4391816185935
15175.895711886373,31441.3719107356,-16933.25691619598,-7354.305071151862
15185.663424213342,31445.21641078191,-16929.188898705113,-7358.440143876093
15182.020089867126,31448.23389628338,-16928.026607993437,-7370.957120771065
15185.90929340235,31463.164861579524,-16926.30552367038,-7372.342928927294
15180.008432866149,31456.772262665305,-16937.30258194239,-7364.452763134571
15180.164895077336,31442.109518302623,-16937.3472854313,-7355.266196163439
15175.806304908552,31437.214486266912,-16935.15681447468,-7363.581045100814
15174.24168279668,31449.70911141743,-16931.692294084107,-7377.461478407559
15187.742136447683,31463.433082512987,-16933.569840618355,-7384.167001744152
15190.223180082225,31457.152242321044,-16935.894422041707,-7376.5674086293475
15188.502095759166,31444.83643112617,-16930.35118941679,-7367.000862002476
15185.57401723552,31444.61291368162,-16925.120881214247,-7367.604359102769
15190.513752760144,31456.92872487649,-16923.15392770218,-7366.464420135549
15191.206656838258,31466.472919758908,-16924.20445969158,-7367.134972469208
15186.937473647296,31454.760605664327,-16932.273439439945,-7364.519818367937
15186.043403869082,31445.328169504188,-16936.050884252894,-7361.211760188551
15180.567226477531,31443.29416075876,-16942.622297122754,-7372.655853349669
15186.266921313636,31457.241649298867,-16938.330762187335,-7379.227266219529
15192.05602312756,31475.927707663504,-16930.462948139066,-7378.55671388587
15197.263979585648,31475.123044863118,-16929.21125044957,-7362.575216600325
15184.121153845928,31456.41463475402,-16935.134462730224,-7362.083478222308
15182.891807900884,31455.922896376003,-16931.133500472726,-7363.089306722797
15190.871380671428,31469.75862619384,-16920.650532323187,-7357.657832820158
15196.52637201862,31484.46607404543,-16918.191840433105,-7361.368222399738
15183.495305001175,31473.357257051142,-16929.188898705113,-7361.144704955185
15175.739249675184,31460.259134800333,-16933.39102666271,-7357.568425842336
15183.495305001175,31456.25817254283,-16931.02174175045,-7363.7151555675455
15187.85389516996,31463.2766203018,-16928.87597428274,-7374.22047546154
15187.183342836302,31476.71001871944,-16926.50668937048,-7381.484792409515
15181.86362765594,31470.116254105124,-16924.986770747517,-7372.74526032749
15179.270825299123,31458.09101558817,-16925.120881214247,-7374.891027795199
15179.919025888328,31460.862631900625,-16920.44936662309,-7369.414850403649
15187.898598658872,31473.826643684704,-16918.81768927785,-7371.627673104725
15192.950092905772,31490.36693458163,-16916.82838402133,-7376.902684796177
15185.238741068692,31479.436931542987,-16922.863355024263,-7378.959045286066
15180.410764266344,31462.56136447923,-16930.15002371669,-7378.422603419138
15187.876246914417,31465.57884998069,-16922.036340479415,-7373.371109172239
15204.215372111246,31487.37180082462,-16909.96639847355,-7371.538266126903
15203.3883575664,31504.06855393273,-16909.45230835108,-7376.142725484697
15190.759621949152,31497.497141062875,-16919.801166033885,-7374.801620817378
15196.973406907728,31482.16384436653,-16924.226811436034,-7376.120373740241
15190.781973693607,31481.13566412159,-16921.701064312587,-7384.278760466428
15192.4360027833,31497.36303059614,-16918.974151489037,-7383.474097666037
15187.29510155858,31509.14239992409,-16917.45423286608,-7379.271969708439
15181.10366834446,31501.386344598097,-16920.047035222895,-7374.958083028565
15183.472953256722,31487.37180082462,-16917.118956699247,-7365.480943379515
15183.808229423552,31481.73916122188,-16917.409529377168,-7368.096097480786
15191.608988238451,31492.512702049346,-16911.285151396412,-7372.36528067175
15197.375738307925,31507.644833045582,-16914.883782253717,-7375.852152806778
15190.647863226875,31499.151170152567,-16932.02757025094,-7385.485754667015
15178.667328198831,31480.28629783229,-16940.565936632865,-7391.856001836777
15176.119229330923,31482.27560308881,-16931.15585221718,-7388.927923313132
15189.373813792923,31491.462170059945,-16918.795337533396,-7386.849211078788
15201.734328476708,31510.885835991605,-16910.68165429612,-7377.103850496274
15192.659520227851,31504.962623710948,-16921.991636990504,-7373.393460916694
15179.650804954865,31485.404847312555,-16923.913887013663,-7368.051393991876
15184.747002690674,31480.04042864328,-16919.53294510042,-7368.789001558901
15194.447659784277,31495.57489103972,-16914.5932095758,-7374.175771972629
15199.745023220185,31509.120048179637,-16910.905171740673,-7372.857019049767
15197.91218017485,31505.14143766659,-16918.43770962211,-7374.399289417182
15177.81796190953,31488.3329258362,-16930.686465583618,-7381.931827298621
15181.461296255744,31490.881024704104,-16916.96249448806,-7372.700556838579
15195.498191773677,31507.0860394342,-16906.12189842724,-7373.974606272532
15203.969502922238,31524.52040010934,-16904.490221082,-7379.830763319822
15191.832505683007,31512.62927205912,-16913.833250264317,-7376.634463862713
15185.618720724431,31496.75953349585,-16917.789509032908,-7366.665585835646
15186.132810846902,31494.90433870606,-16916.269590409946,-7362.686975322602
15187.317453303034,31508.27068189033,-16908.848811250784,-7366.397364902183
15193.508886517156,31522.307577408264,-16907.284189138914,-7369.750126570479
15194.827639440018,31512.56221682575,-16921.701064312587,-7364.877446279222
15185.641072468889,31495.86546371764,-16932.139328973215,-7363.357527656261
15179.069659599028,31489.09288514768,-16928.898326027196,-7368.856056792267
15187.071584114026,31503.979146954916,-16917.856564266272,-7372.879370794221
15195.989930151694,31522.598150086185,-16910.25697115147,-7379.540190641903
15192.167781849836,31522.41933613054,-16914.280285153425,-7384.546981399892
15185.95399689126,31511.10935343616,-16920.06938696735,-7377.059147007364
15174.867531641428,31505.90139697807,-16918.370654388746,-7375.539228384403
15185.305796302056,31516.585530827702,-16907.91003798366,-7380.724833098035
15192.838334183496,31533.639911847105,-16904.937255971105,-7390.581952402825
15190.24553182668,31521.97230124144,-16920.806994534374,-7397.13101352823
15183.182380578804,31503.241539387887,-16928.36188416027,-7395.387577460716
15182.847104411972,31508.605958057164,-16920.829346278828,-7385.619865133747
15178.376755520912,31512.293995892287,-16919.957628245073,-7396.03577804992
15193.307720817056,31529.90717052307,-16913.11799444175,-7400.975513574543
15192.05602312756,31525.97326349893,-16922.438671879612,-7394.493507682504
15186.42338352482,31510.416449358043,-16928.36188416027,-7385.753975600479
15188.85972367045,31511.265815647344,-16919.30942765587,-7380.925998798132
15190.223180082225,31520.07240296273,-16916.20253517658,-7383.585856388314
15199.186229608802,31534.690443836505,-16919.957628245073,-7384.681091866624
15195.3864330514,31530.35420541217,-16926.05965448137,-7375.203952217574
15192.90538941686,31522.687557064004,-16919.10826195577,-7360.7870770439
15193.57594175052,31523.51457160885,-16909.25114265098,-7356.048507219375
15204.4388895558,31536.567990370757,-16908.35707287277,-7361.345870655284
15209.780956480618,31554.695255124007,-16904.490221082,-7366.106792224264
15211.546744292587,31557.44451969201,-16911.48631709651,-7360.921187510632
15203.433061055312,31548.660284121077,-16919.979979989526,-7348.135989682197
15195.319377818034,31542.15592648458,-16921.812823034863,-7350.415867616638
15201.846087198985,31552.61654288966,-16911.799241518886,-7352.807504273356
15208.372796579932,31568.55333668629,-16906.97126471654,-7350.706440294557
15203.567171522043,31561.221964504955,-16917.118956699247,-7353.567463584836
15198.090994130493,31543.966417785457,-16927.28900042641,-7349.164169927141
15191.76545044964,31537.05972874877,-16918.05772996637,-7339.97760295601
15196.414613296343,31547.989731787413,-16907.686520539108,-7342.413943101638
15208.73042449122,31569.849737864704,-16898.96934020154,-7341.11754192323
15203.29895058858,31567.3016389968,-16905.361939115755,-7345.051448947364
15191.743098705185,31549.62140913265,-16919.73411080052,-7355.489713607993
15191.96661614974,31548.61558063216,-16918.3930061332,-7355.087382207797
15199.05211914207,31559.567935415263,-16915.95666598757,-7355.981451986009
15199.812078453551,31571.14613904311,-16920.829346278828,-7359.423620632127
15184.791706179583,31562.317199983267,-16927.11018647077,-7353.45570486256
15179.29317704358,31547.40858643157,-16917.96832298855,-7336.915413965633
15189.4855725152,31548.72733935444,-16905.205476904568,-7327.147701638663
15196.928703418816,31557.332760969733,-16896.82357273383,-7328.019419672421
15205.19884886728,31578.835139135736,-16887.949930185074,-7332.69093426358
15209.490383802698,31585.25008979441,-16893.135534898705,-7333.964983697532
15203.902447688872,31566.273458751853,-16906.792450760895,-7340.469341334026
15201.667273243342,31558.070368536755,-16911.218096163047,-7338.994126199977
15196.146392362882,31564.284153495333,-16909.742881028997,-7336.893062221177
15196.593427251986,31584.71364792748,-16902.925598970127,-7340.514044822937
15193.710052217251,31584.33366827174,-16908.35707287277,-7343.039791946387
15186.088107357991,31559.63499064863,-16921.96928524605,-7342.302184379361
15188.34563354798,31557.422167947552,-16916.180183432127,-7335.417847087127
15202.382529065912,31570.564993687272,-16902.567971058845,-7332.936803452588
15204.505944789164,31585.76417991688,-16897.404718089667,-7340.312879122839
15189.91025565985,31583.79722640481,-16907.01596820545,-7343.196254157574
15194.24649408418,31574.38714198913,-16910.88281999622,-7335.30608836485
15201.175534865324,31569.08977855322,-16904.490221082,-7324.085512648287
15202.337825577,31575.169453045062,-16902.165639658648,-7328.958192939544
15207.545782035088,31595.21896782148,-16897.739994256495,-7333.40619008615
15196.973406907728,31590.83802590824,-16905.786622260406,-7332.69093426358
15184.411726523844,31574.9012321116,-16920.829346278828,-7335.26138487594
15182.176552078314,31569.35799948669,-16921.72341605704,-7335.328440109306
15193.128906861417,31580.288002525333,-16914.235581664514,-7334.859053475744
15202.96367442175,31602.103305113716,-16907.284189138914,-7339.016477944431
15207.232857612713,31606.35013656022,-16906.993616460994,-7332.400361585661
15204.125965133426,31589.6086799632,-16913.207401419568,-7324.286678348384
15195.744060962685,31579.170415302568,-16916.895439254695,-7332.646230774669
15197.711014474751,31589.519272985373,-16909.228790906523,-7333.093265663775
15201.95784592126,31603.042078380837,-16903.05970943686,-7334.054390675354
15196.168744107335,31602.59504349173,-16904.557276315365,-7335.842530231778
15188.77031669263,31586.457083995,-16914.190878175603,-7337.161283154641
