 EXG Channel 0, EXG Channel 1, EXG Channel 2, EXG Channel 3
-42787.43032067184,-22158.73714193549,-65557.01828682641,-20148.62241132527
-42794.02408528615,-22116.69351061505,-65598.34666232427,-20142.632143811243
-42526.339593689394,-22064.055152422807,-65702.55049497492,-20176.18211223866
-42245.37816588618,-22067.072637924277,-65763.1237224488,-20225.91474365172
-42505.865395768335,-22146.75660690744,-65630.28730515091,-20205.172324797197
-42785.91040204888,-22160.52528149191,-65563.99203109647,-20160.69235333113
-42788.61496312797,-22120.76152810592,-65600.26891234743,-20148.443597369624
-42519.67877384171,-22067.92200421357,-65702.88577114175,-20176.09270526084
-42239.14202918315,-22066.044457679327,-65758.9662979801,-20220.550324982443
-42497.46113985314,-22139.782862637385,-65632.05309296287,-20197.975063082584
-42770.28653267462,-22145.370798751213,-65562.49446421796,-20149.315315403383
-42776.14268972191,-22110.926760545583,-65602.92876993761,-20146.051960712903
-42511.36392490434,-22064.56924254528,-65710.23949506754,-20180.51835066299
-42232.235340146464,-22069.59838504772,-65770.2762806745,-20226.182964585183
-42496.38825611929,-22150.84697614276,-65633.61771507475,-20200.85843811732
-42770.10771871897,-22162.827511170806,-65562.2262432845,-20150.23173692605
-42773.97457050975,-22134.19492652356,-65606.19212462808,-20146.11901594627
-42506.9829829911,-22097.292196427847,-65715.67096897018,-20184.38520245376
-42231.27421513489,-22094.162952204104,-65767.7281818066,-20232.888487921773
-42486.46408158113,-22155.116159333727,-65629.37088362825,-20205.10526956383
-42755.80260226758,-22161.754627436952,-65566.40601949763,-20153.89742301672
-42759.4459366138,-22131.93740033357,-65613.0317584314,-20145.873146757265
-42484.92181121371,-22072.88409148265,-65718.1073091158,-20174.058696515407
-42213.236357359456,-22076.99681246243,-65776.75828656653,-20226.361778540824
-42475.39996807575,-22155.071455844816,-65642.31254366787,-20198.913836349708
-42744.470267828736,-22153.99857211096,-65572.35158352274,-20146.633106068744
-42742.25744512766,-22109.406841922624,-65607.01913917293,-20137.13361467524
-42466.772194716,-22054.84623370722,-65712.56407649089,-20170.19184472464
-42199.735903708446,-22061.21648087698,-65771.10329521935,-20222.159650583228
-42462.01127314702,-22131.15508927764,-65629.34853188378,-20193.057679302416
-42732.66854675634,-22142.018037082915,-65568.86471138772,-20149.8070537814
-42732.60149152297,-22111.12792624568,-65610.61777003024,-20145.09083570133
-42457.38446204477,-22064.681001267552,-65718.21906783809,-20182.440600686143
-42189.677618703565,-22073.398181605124,-65768.28697541797,-20229.513374509024
-42453.13763059826,-22146.823662140807,-65627.78390977191,-20198.28798750496
-42717.33525006,-22151.74104592097,-65563.45558922953,-20146.54369909092
-42713.7813226916,-22117.18524899307,-65604.20281937157,-20138.54177457592
-42439.525418224985,-22074.068733938784,-65716.22976258157,-20178.84196982884
-42177.42886274205,-22085.17755093307,-65777.51824587802,-20239.01286590253
-42444.73337468307,-22155.6302494562,-65641.88786052322,-20211.76608941151
-42705.9805638767,-22163.52041524892,-65580.95700513804,-20159.41830389718
-42698.00099110616,-22123.689606629563,-65616.65274103318,-20149.114149703284
-42419.56531042639,-22077.64501305163,-65723.13645161825,-20185.771010609988
-42153.35603396369,-22091.70426031402,-65778.59112961187,-20235.10131062285
-42422.22516801658,-22168.30368856236,-65646.55937511438,-20209.307397521425
-42685.48401421118,-22162.201662326057,-65584.1756563396,-20163.911004532696
-42677.571496674005,-22124.80719385233,-65623.06769169185,-20157.138425962738
-42398.82289157187,-22081.243643908936,-65735.7204837466,-20195.069336303397
-42136.21224596647,-22087.45742886751,-65784.29082444798,-20242.38797931528
-42401.59450788433,-22138.374702736703,-65637.57397384333,-20204.792345141454
-42664.65218837884,-22143.35914175024,-65577.53718823638,-20164.60390861081
-42659.04190052056,-22116.067661770307,-65625.52638358192,-20163.776894065966
-42377.722844806056,-22079.65667005261,-65739.9673151931,-20197.595083426844
-42119.58254809172,-22085.490475355444,-65792.6280251298,-20244.600802016357
-42397.43708341564,-22159.67591520261,-65652.48258739503,-20215.9235138802
-42657.79020283106,-22160.90526114765,-65586.4331825296,-20162.77106556548
-42648.268359693095,-22119.152202505134,-65624.85583124826,-20150.8575857708
-42359.46146958607,-22056.27674535236,-65721.34831206183,-20176.271519216483
-42106.50677758536,-22074.13578917215,-65782.77090582502,-20237.939982168675
-42386.57413561036,-22156.367857023222,-65649.3980466602,-20220.460918004625
-42643.12745846838,-22159.38534252469,-65583.75097319495,-20169.163664479693
-42634.20911243071,-22124.628379896687,-65620.1396131682,-20164.02276325497
-42349.87257121475,-22080.37192587518,-65725.39397780824,-20199.76320263901
-42095.75558850236,-22086.60806257821,-65770.83507428587,-20243.90789793824
-42377.07464421685,-22161.55346173685,-65638.15511919917,-20218.20339181464
-42631.72806879617,-22161.754627436952,-65570.27287128841,-20165.52033013348
-42619.30049887902,-22115.39710943665,-65603.10758389326,-20153.6068503388
-42336.819152452845,-22068.257280380403,-65716.1627073482,-20189.257882745016
-42084.669123252526,-22080.483684597457,-65770.0751149744,-20240.35397056985
-42370.12325169126,-22159.921784391616,-65636.88106976522,-20220.52797323799
-42626.52011233808,-22156.23374655649,-65575.95021438005,-20175.93624304965
-42611.90207146431,-22109.831525067275,-65612.20474388657,-20163.97805976606
-42326.202073836575,-22070.7606757594,-65719.69428297214,-20201.43958347316
-42073.87323068061,-22073.5099403274,-65764.84480677186,-20248.86998520732
-42357.740385263016,-22146.48838597398,-65628.83444176131,-20221.15382208274
-42615.29953662152,-22156.077284345305,-65573.51387423443,-20176.89736806123
-42600.79325447002,-22121.61089439522,-65618.61969454524,-20170.77299008048
-42311.20405330707,-22074.247547894425,-65722.57765800686,-20202.11013580681
-42065.13369859859,-22083.545873587835,-65772.60086209785,-20247.64063926228
-42350.90075145969,-22151.964563365527,-65632.09779645178,-20217.15285982524
-42602.73785623763,-22149.63998194217,-65564.66258343012,-20169.14131273524
-42589.23740258663,-22106.970501777,-65602.59349377078,-20158.83715854134
-42302.017486335935,-22062.08819891074,-65718.33082656036,-20196.32103399289
-42058.58463747319,-22075.14161767264,-65763.63781257127,-20241.29274383697
-42344.93283569013,-22145.7284266625,-65617.25623813346,-20212.257827789526
-42602.17906262625,-22158.5806797243,-65566.4283712421,-20175.511559905
-42590.042065387024,-22125.81302235282,-65608.02496767342,-20170.70593484711
-42302.95625960306,-22078.874358996676,-65725.77395746399,-20212.079013833885
-42059.210486317934,-22087.971518989983,-65775.52894062149,-20255.95548819965
-42345.02224266795,-22156.837243656784,-65630.39906387318,-20217.17521156969
-42594.62417300036,-22158.3795140242,-65574.92203413512,-20168.9624987796
-42579.11206234837,-22120.940342061564,-65620.94427596859,-20165.453274900112
-42294.9319833436,-22073.152312416118,-65733.23944011205,-20206.669891675698
-42061.11038459664,-22085.334013144256,-65782.81560931393,-20258.257717878547
-42350.05138517039,-22153.395075010667,-65639.51857561094,-20222.8749064058
-42601.03912365903,-22157.463092501534,-65580.3311562933,-20177.344402950337
-42587.53867000803,-22117.878153071186,-65618.84321198979,-20171.510597647502
-42299.156463045656,-22067.452617580013,-65727.98678016505,-20209.128583565784
-42061.84799216366,-22080.215463663997,-65762.09554220385,-20253.29563060947
-42351.05721367088,-22150.66816218712,-65614.86460147674,-20215.23060980208
-42601.933193437246,-22150.466996487023,-65560.90749036163,-20166.68262084516
-42581.727216449646,-22103.05894649732,-65599.21838035803,-20154.076236972363
-42289.09817804077,-22053.59453601772,-65711.87117241278,-20188.743792622543
-42052.88494263708,-22066.84912047972,-65755.1665014227,-20231.48032802109
-42347.07860315783,-22142.733292905486,-65618.21736314504,-20204.72528990809
-42588.52214676406,-22136.966542836017,-65561.60039443975,-20158.39012365224
-42566.50567847558,-22097.202789450024,-65608.11437465124,-20151.952821249102
-42274.39073018917,-22052.499300539414,-65721.72829171756,-20189.07906878937
-42044.123058810605,-22070.626565292667,-65760.66503055871,-20238.945810669164
-42346.117478146254,-22148.50004297496,-65628.36505512775,-20214.29183653496
-42591.67374273226,-22145.66137142913,-65571.09988583326,-20167.88961504574
-42569.72432967715,-22101.56137961881,-65603.35345308227,-20158.74775156352
-42277.40821569064,-22047.47015803697,-65710.61947472328,-20196.90217934873
-42049.26396003532,-22067.18439664655,-65749.93619322017,-20242.09740663736
-42347.07860315783,-22140.90044986015,-65608.38259558471,-20209.642673688257
-42589.14799560881,-22130.551592177344,-65550.223356512,-20160.71470507559
-42574.41819601276,-22097.76158306141,-65606.14742113918,-20164.536853377445
-42282.79498610437,-22053.482777295445,-65727.78561446496,-20206.93811260916
-42054.98600661588,-22065.575071045765,-65772.62321384231,-20253.072113164915
-42351.66071077117,-22141.61570568272,-65627.47098534954,-20216.079976091383
-42598.088693390935,-22148.09771157476,-65572.79861841186,-20167.26376620099
-42579.33557979293,-22110.3679669342,-65622.17362191364,-20162.32403067637
-42281.56564015933,-22045.659666736086,-65732.07714940037,-20195.22579851458
-42060.95392238544,-22055.89676569662,-65774.38900165427,-20238.096444379866
-42362.47895508754,-22124.583676407776,-65636.63520057622,-20202.311301506918
-42606.69411500623,-22124.784842107874,-65584.5332842509,-20153.964478250084
-42587.69513221921,-22094.677042326577,-65625.92871498212,-20150.83523402634
-42293.65793390965,-22050.97938191645,-65741.35312334933,-20195.203446770127
-42070.56517250123,-22057.863719208686,-65775.19366445467,-20236.39771180126
-42372.04550171441,-22124.226048496494,-65637.66338082116,-20200.9701968396
-42613.71256276519,-22122.05792928433,-65590.56825525382,-20154.43386488365
-42587.873946174856,-22082.070658453784,-65637.1939941876,-20144.04030371193
-42286.639486150685,-22036.49545150941,-65750.271469387,-20184.13933326475
-42070.11813761213,-22061.99879193292,-65785.81074307094,-20235.7271594676
-42370.83850751383,-22132.652656156144,-65636.45638662057,-20199.07029856089
-42607.09644640642,-22129.210487510027,-65582.81219992784,-20148.778873536456
-42580.877850160345,-22085.311661399803,-65626.77808127142,-20141.961591477582
-42278.61520989123,-22035.154346842093,-65740.70492276012,-20182.75352510852
-42061.93739914148,-22053.818053462277,-65775.86421678832,-20228.731063453088
-42368.96096097958,-22128.58463866528,-65637.26104942097,-20195.91870259269
-42612.23734763114,-22136.117176546715,-65593.96572041103,-20159.060675985897
-42593.260716588586,-22110.32326344529,-65641.73139831203,-20163.7098388326
-42291.69098039758,-22055.44973080751,-65749.42210309769,-20202.37835674028
-42076.10840512615,-22064.83746347874,-65777.36178366683,-20243.43851130468
-42388.563440866885,-22131.780938122385,-65639.63033433323,-20212.838973145364
-42626.251891404616,-22124.33780721877,-65592.06582213234,-20168.783684823957
-42601.68732424824,-22083.6129288212,-65631.87427900723,-20160.155911464204
-42299.782311890405,-22038.37299804366,-65748.66214378622,-20202.579522440377
-42087.10546339816,-22059.070713409277,-65781.13922847978,-20247.23830786208
-42396.72182759307,-22129.83633635477,-65639.16094769967,-20211.29670277795
-42629.42583911727,-22120.49330717245,-65586.99197614098,-20162.74871382102
-42602.78255972655,-22087.45742886751,-65639.80914828887,-20164.872129544277
-42298.68707641209,-22043.33508531273,-65759.10040844684,-20208.726252165587
-42092.626344278615,-22066.11151291269,-65792.06923151841,-20253.966182943128
-42400.07458926136,-22137.301819002845,-65641.91021226767,-20212.123717322796
-42631.61631007389,-22134.95488583504,-65593.69749947757,-20161.295850431427
-42607.2082051287,-22119.979217049982,-65648.90630828218,-20160.826463797865
-42303.358591003256,-22082.11536194269,-65771.05859173043,-20207.586313198368
-42092.626344278615,-22084.439943366044,-65801.56872291192,-20253.56385154293
-42399.180519483154,-22145.10257781775,-65653.3990089177,-20211.34140626686
-42627.503589094114,-22117.364062948716,-65607.33206359531,-20164.93918477764
-42593.52893752205,-22062.89286171113,-65658.96459328706,-20159.57476610837
-42282.66087563764,-22012.154401797583,-65769.89630101876,-20196.745717137543
-42076.66719873753,-22042.776291701357,-65802.7310136236,-20246.00896191704
-42389.0551792449,-22116.358234448224,-65653.46606415106,-20208.12275506529
-42618.11585642289,-22114.748908847443,-65606.14742113918,-20155.55145210641
-42589.70678922019,-22070.00071644792,-65652.57199437285,-20148.443597369624
-42281.0291982924,-22009.04750931829,-65761.53674859247,-20182.552359408422
-42075.773128959314,-22025.61015195968,-65788.91763555023,-20224.148955839748
-42390.86567054578,-22101.20375170753,-65646.15704371418,-20191.04602230144
-42622.966184969686,-22105.741155831955,-65598.57017976882,-20154.12094046127
-42592.701922977205,-22076.86270199569,-65639.92090701114,-20158.27836492996
-42284.51607042743,-22031.98039912944,-65749.24328914205,-20200.254941017025
-42086.14433838658,-22053.41572206208,-65778.23350170058,-20243.01382816003
-42401.39334218423,-22119.867458327702,-65626.10752893776,-20203.92062710769
-42627.05655420501,-22115.46416467001,-65586.50023776296,-20161.42996089816
-42595.96527766768,-22083.389411376647,-65640.68086632263,-20159.954745764106
-42287.958239073545,-22044.899707424607,-65761.29087940346,-20201.819563128895
-42090.122948899625,-22075.74511477293,-65796.24900773156,-20247.752397984557
-42406.02015328648,-22143.984990594985,-65652.1920147171,-20211.609627200323
-42630.74459204014,-22126.260057241925,-65604.09106064928,-20163.37456266577
-42599.58626026944,-22078.04734445183,-65656.03651476341,-20162.927527776665
-42288.874660596215,-22031.287495051325,-65780.73689707958,-20204.27825501898
-42094.52624255732,-22060.76944598788,-65813.25868526204,-20251.686305008687
-42412.68097313416,-22121.722653117497,-65666.11715151276,-20213.35306326784
-42634.11970545289,-22112.446679168545,-65616.36216835525,-20166.503806889512
-42597.306382335,-22068.570204802774,-65650.67209609415,-20162.078161487363
-42287.48885243999,-22022.63736994712,-65766.16355969472,-20207.07222307589
-42095.97910594691,-22052.342838328223,-65796.85250483186,-20252.96035444264
-42414.7596853685,-22119.487478671967,-65653.0413810064,-20217.17521156969
-42634.76790604209,-22110.14444948965,-65607.82380197333,-20171.488245903045
-42597.32873407945,-22074.962803717,-65658.38344793124,-20166.727324334064
-42284.828994849806,-22032.27097180736,-65772.04206848647,-20208.256865532025
-42089.72061749943,-22058.288402353337,-65787.42006867172,-20251.373380586312
-42408.72471436557,-22131.11038578873,-65647.76636931495,-20215.677644691183
-42632.44332461874,-22125.27658048589,-65612.40590958667,-20179.400763440222
-42592.99249565512,-22086.18337943356,-65657.06469500836,-20176.830312827864
-42278.34698895776,-22047.62662024816,-65777.83117030039,-20219.76801392651
-42093.78863499029,-22081.198940420025,-65810.62117941632,-20261.476369080112
-42413.48563593455,-22149.39411275317,-65667.12298001326,-20216.303493535936
-42629.62700481737,-22132.116214289217,-65630.6896365511,-20171.42119066968
-42584.74470195112,-22081.55656833131,-65678.16474177418,-20163.08398998785
-42270.41211967613,-22049.79473946032,-65805.65909214725,-20212.21312430061
-42084.42325406352,-22074.247547894425,-65835.67748495072,-20260.44818883517
-42398.42056017168,-22126.48357468648,-65689.63118667975,-20218.806888914933
-42614.69603952122,-22120.158031005627,-65657.73524734202,-20179.84779832933
-42572.40653901178,-22080.640146808644,-65711.64765496823,-20183.89346407574
-42249.513238610416,-22035.89195440912,-65823.1381563113,-20227.188793085672
-42060.59629447416,-22058.86954770917,-65841.28777280901,-20264.829130748407
-42373.9006965042,-22127.936438076074,-65701.56701821888,-20224.372473284304
-42584.43177752874,-22129.09872878775,-65666.67594512415,-20185.256920487514
-42538.32012871744,-22091.16781844709,-65713.18992533564,-20186.28510073246
-42223.3169941088,-22052.275783094858,-65827.541449969,-20234.90014492275
-42039.49624770835,-22071.83355949325,-65840.28194430852,-20274.82036051993
-42358.656806785686,-22135.6254381687,-65694.43681173764,-20232.95554315514
-42573.14414657881,-22130.775109621896,-65654.51659614046,-20191.82833335737
-42526.563111133946,-22091.257225424917,-65695.73321291605,-20187.335632721857
-42205.68146773357,-22044.40796904659,-65813.95158934017,-20235.034255389484
-42026.06284929071,-22076.259204895403,-65832.45883374916,-20277.88254951031
-42347.83856246931,-22145.795481895864,-65685.67492791115,-20236.82239494591
-42557.92260860474,-22135.916010846617,-65647.1405204702,-20191.113077534807
-42513.95672726115,-22098.923873773085,-65701.38820426323,-20194.71170839211
-42193.05273211631,-22042.418663790068,-65811.15762128326,-20236.464767034624
-42015.51282590781,-22068.07846642476,-65834.51519423905,-20279.022488477527
-42341.155390877175,-22134.351388734747,-65685.13848604423,-20239.214031602627
-42551.41825096825,-22118.883981571675,-65636.56814534286,-20193.03532755796
-42505.84304402388,-22073.487588582942,-65683.32799474335,-20187.447391444137
-42185.67665644606,-22033.03093111884,-65806.26258924753,-20233.17906059969
-42010.68484910546,-22063.45165532251,-65817.57257194193,-20270.506473840054
-42338.42847805363,-22130.03750205487,-65672.26388123797,-20230.519203009517
-42545.450335198686,-22115.687682114563,-65630.42141561765,-20188.117943777797
-42494.62246830732,-22079.209635163505,-65676.19778826211,-20187.17917051067
-42172.91381036208,-22035.91430615357,-65790.16933323971,-20229.8262989314
-42001.5653373677,-22062.110550655198,-65806.12847878081,-20272.40637211876
-42326.44794302559,-22127.26588574241,-65662.40676193319,-20226.138261096272
-42534.20740773767,-22119.4204234386,-65626.4875085935,-20180.630109385267
-42495.98592471909,-22093.000661492428,-65681.38339297574,-20184.31814722039
-42174.61254294068,-22046.01729464737,-65794.75144085306,-20225.91474365172
-42005.72276183638,-22070.17953040356,-65809.68240614921,-20262.90688072525
-42332.30410007288,-22133.94905733455,-65662.67498286665,-20219.85742090433
-42538.49894267308,-22123.84606884075,-65622.86652599175,-20177.500865161524
-42489.70508452715,-22081.62362356468,-65679.3493842303,-20183.446429186635
-42165.09069980272,-22037.054245120795,-65797.90303682126,-20229.871002420303
-41993.921040763984,-22060.143597143127,-65811.29173174998,-20263.935060970198
-42324.257472068966,-22125.298932230347,-65668.88876782522,-20226.786461685475
-42535.34734670488,-22127.288237486868,-65634.06474996386,-20191.604815912822
-42484.8771077248,-22088.642071323644,-65680.91400634218,-20192.92356883569
-42155.81472585377,-22031.041625862315,-65798.35007171036,-20232.10617686584
-41992.17760469647,-22053.97451567346,-65815.5832666854,-20269.590052317388
-42322.87166391274,-22123.6225513962,-65672.64386089372,-20228.462842519624
-42525.62433786683,-22110.3679669342,-65637.55162209888,-20182.77587685297
-42472.04720640746,-22067.765542002388,-65687.70893665659,-20183.222911742083
-42143.07423151425,-22022.59266645821,-65805.45792644715,-20230.832127431888
-41982.14167143604,-22053.59453601772,-65813.05751956196,-20269.232424406106
-42319.74241968899,-22127.735272375976,-65673.24735799401,-20231.16740359872
-42522.025707009525,-22115.307702458824,-65632.745997041,-20181.85945533031
-42467.8227267054,-22075.96863221749,-65684.57969243285,-20180.250129729528
-42137.55335063378,-22029.946390384008,-65802.35103396786,-20225.46770876261
-41978.34187487864,-22058.73543724244,-65813.07987130641,-20263.71154352564
-42307.15838756065,-22120.538010661367,-65666.11715151276,-20217.84576390335
-42505.46306436814,-22106.724632587982,-65629.12501443923,-20176.74090585004
-42457.67503472269,-22078.382620618657,-65687.19484653411,-20183.021746041984
-42131.518379630856,-22049.146538871115,-65808.11778403733,-20229.871002420303
-41977.000770211314,-22079.8131322638,-65815.13623179629,-20267.15371217176
-42302.37511424722,-22121.99087405096,-65664.32901195635,-20217.532839480977
-42497.63995380878,-22103.170705219592,-65632.90245925217,-20176.18211223866
-42442.9675868711,-22066.022105934877,-65687.06073606739,-20176.919719805686
-42113.97226023344,-22025.34193102621,-65804.1838770132,-20220.639731960266
-41958.761746735785,-22056.76848373037,-65813.86218236234,-20259.55411905696
-42292.27212575342,-22119.286312971868,-65668.08410502483,-20218.96335112612
-42485.43590133618,-22105.40587966512,-65632.99186623,-20174.37162093778
-42427.231958774566,-22068.41374259159,-65683.9538435881,-20174.393972682235
-42104.47276883993,-22026.772442671358,-65812.27520850602,-20229.692188464665
-41951.899761188,-22060.47887330996,-65819.8300981319,-20269.612404061845
-42279.75514885845,-22126.438871197566,-65672.48739868253,-20224.752452940043
-42476.38344483179,-22114.793612336354,-65646.2911541809,-20186.17334201018
-42416.12314178028,-22071.788856004343,-65696.02378559396,-20187.73796412205
-42080.66816099503,-22023.64319844761,-65803.93800782418,-20223.545458739456
-41928.2963190432,-22057.64020176413,-65810.66588290523,-20256.514281811036
-42262.70076783905,-22121.40972869512,-65667.9499945581,-20215.00709235753
-42452.98116838708,-22105.85291455423,-65634.93646799761,-20171.37648718077
-42393.57023162487,-22069.933661214556,-65688.06656456788,-20176.472684916575
-42062.16091658604,-22030.57223922876,-65807.91661833723,-20228.038159374973
-41914.5946996921,-22059.80832097629,-65812.85635386186,-20264.046819692478
-42253.67066307911,-22125.09776653025,-65668.3523259583,-20221.109118593828
-42442.36408977081,-22112.960769291018,-65630.73434004001,-20171.7117633476
-42381.52264136346,-22074.068733938784,-65678.52236968547,-20170.102437746817
-42058.20465781745,-22038.708274210487,-65810.62117941632,-20229.982761142583
-41912.35952524657,-22068.257280380403,-65817.81844113093,-20265.991421460083
-42249.580293843785,-22135.4242724686,-65670.47574168156,-20220.863249404814
-42442.56525547091,-22115.307702458824,-65636.00935173147,-20177.79143783944
-42381.32147566336,-22068.48079782496,-65686.41253547819,-20177.63497562825
-42048.01226234582,-22026.25835254888,-65804.20622875766,-20227.0770343634
-41911.46545546835,-22068.36903910268,-65812.74459513958,-20268.24894765007
-42247.72509905399,-22135.75954863543,-65667.52531141345,-20221.24322906056
-42431.85876987681,-22113.541914646856,-65633.93063949712,-20177.210292483604
-42373.54306859292,-22071.386524604142,-65685.42905872215,-20180.09366751834
-42038.6245296746,-22026.28070429334,-65802.44044094568,-20227.032330874485
-41901.11659778555,-22062.60228903321,-65804.40739445775,-20263.979764459105
-42240.52783733938,-22125.589504908265,-65662.8985003112,-20217.44343250316
-42428.885987864254,-22106.456411654523,-65628.65562780567,-20173.499902904023
-42371.17378368066,-22069.5089780699,-65689.92175935766,-20183.96051930911
-42041.820829131706,-22030.996922373408,-65812.07404280592,-20230.742720454065
-41907.30803099967,-22064.725704756464,-65806.57551366992,-20259.174139401217
-42243.88059900768,-22125.25422874144,-65660.01512527646,-20212.95073186764
-42429.82476113138,-22112.692548357554,-65628.27564814992,-20175.17628373817
-42366.65873130068,-22077.95793747401,-65681.62926216474,-20180.406591940715
-42034.55651218373,-22034.752015441896,-65801.76988861202,-20225.735929696075
-41903.12825478653,-22067.63143153565,-65796.96426355414,-20259.934098712696
-42245.04288971936,-22132.742063133963,-65656.43884616361,-20219.790365670964
-42433.31163326641,-22122.683778129074,-65628.3427033833,-20181.14419950774
-42370.50323134699,-22086.51865560039,-65675.61664290627,-20180.18307449616
-42033.148352283046,-22038.50710851039,-65789.58818788388,-20224.886563406773
-41905.40813272096,-22077.46619909599,-65795.3772896978,-20261.67753478021
-42249.379128143686,-22142.95681035004,-65652.03555250593,-20214.224781301597
-42432.90930186621,-22140.788691137877,-65624.22998240351,-20170.19184472464
-42365.80936501138,-22081.3106991423,-65679.50584644149,-20172.47172265908
-42031.829599360186,-22017.004730344383,-65796.6289873873,-20225.35595004033
-41907.06216181066,-22057.5060912974,-65795.24317923107,-20263.28686038099
-42250.40730838863,-22129.143432276654,-65656.03651476341,-20218.20339181464
-42432.171694299184,-22108.91510354461,-65623.02298820294,-20174.058696515407
-42365.27292314445,-22057.304925597306,-65673.31441322737,-20172.762295337
-42028.253320247335,-22009.271026762846,-65789.38702218379,-20220.19269707116
-41902.41299896396,-22039.17766084405,-65780.60278661284,-20248.087674151386
-42248.64152057666,-22106.322301187796,-65639.11624421076,-20203.80886838542
-42435.72562166758,-22099.527370873377,-65620.47488933503,-20171.42119066968
-42368.04453945691,-22057.17081513057,-65664.41841893416,-20172.315260447893
-42027.4710091914,-22013.897837865097,-65779.46284764563,-20222.852554661345
-41906.99510657729,-22052.32048658377,-65777.51824587802,-20259.91174696824
-42253.67066307911,-22117.989911793466,-65636.1434621982,-20210.71555742211
-42433.53515071096,-22101.3155104298,-65612.5847235423,-20170.594176124832
-42360.48964983102,-22055.89676569662,-65669.29109922542,-20171.689411603144
-42023.93943356746,-22018.614055945167,-65802.61925490132,-20226.96527564112
-41903.50823444226,-22055.494434296423,-65796.51722866502,-20255.128473654804
-42246.94278799806,-22119.219257738503,-65648.77219781544,-20202.8700951183
-42427.231958774566,-22111.396147179144,-65633.34949414128,-20172.02468776997
-42359.10384167479,-22068.32433561377,-65685.49611395551,-20178.059658772905
-42019.80436084323,-22017.004730344383,-65803.37921421281,-20219.29862729295
-41909.76672288975,-22055.159158129594,-65804.25093224656,-20252.55802304245
-42255.90583752464,-22116.09001351476,-65665.49130266802,-20208.21216204312
-42432.68578442166,-22099.974405762485,-65640.68086632263,-20172.292908703435
-42361.8531062428,-22069.196053647527,-65692.53691345894,-20182.68646987516
-42023.157122511526,-22034.528497997344,-65812.00698757256,-20237.58235425739
-41908.55972868917,-22063.786931489343,-65803.96035956865,-20274.328622141915
-42247.72509905399,-22106.61287386571,-65651.18618621663,-20217.44343250316
-42423.85684536181,-22086.47395211148,-65624.96758997055,-20172.78464708145
-42351.88422821573,-22045.100873124706,-65683.17153253217,-20178.149065750727
-42010.34957293864,-22012.37791924213,-65800.27232173352,-20225.6241709738
-41901.96596407485,-22062.803454733308,-65800.9875775561,-20259.487063823588
-42244.59585483025,-22113.29604545785,-65656.77412233045,-20210.91672312221
-42421.46520870509,-22094.29706267084,-65634.91411625316,-20169.856568557807
-42348.97850143653,-22058.646030264623,-65688.4018407347,-20170.460065658102
-42007.756770581815,-22009.31573025176,-65798.61829264382,-20211.207295800126
-41901.65303965248,-22041.21166958948,-65780.96041452413,-20239.526956025
-42252.08368922278,-22103.014243008405,-65638.89272676621,-20197.32686249338
-42429.601243686826,-22091.90542601412,-65614.0822904208,-20161.36290566479
-42359.77439400845,-22053.952163929007,-65669.69343062562,-20166.727324334064
-42017.30096546423,-22009.248675018396,-65788.76117333904,-20214.60476095733
-41913.92414735844,-22047.157233614595,-65766.78940853947,-20243.61732526032
-42271.86498306572,-22120.76152810592,-65636.36697964276,-20211.65433068923
-42450.097793352346,-22100.80142030733,-65613.79171774289,-20171.935280792157
-42375.86765001627,-22052.141672628128,-65668.10645676928,-20172.04703951443
-42036.47876220688,-22014.72485240994,-65796.2266559871,-20223.14312733926
-41939.49454301531,-22064.233966378448,-65799.7805833555,-20262.41514234724
-42290.32752398581,-22130.66335089962,-65664.66428812317,-20214.20242955714
-42463.710005725625,-22116.2688274704,-65644.07833147983,-20173.008164526007
-42388.89871703371,-22062.98226868895,-65694.59327394882,-20167.9119667902
-42049.95686411344,-22009.963930840964,-65820.29948476548,-20212.99543535655
-41950.91628443197,-22048.140710370622,-65807.67074914822,-20242.633848504287
-42300.1846432906,-22100.868475540698,-65663.16672124466,-20191.7165746351
-42475.73524424258,-22084.730516043965,-65649.8450815493,-20158.054847485408
-42401.52745265096,-22042.865698679176,-65714.95571314762,-20162.167568465185
-42060.70805319644,-21999.3915557136,-65831.11772908185,-20204.680586419177
-41966.33898810613,-22038.88708816613,-65809.52594393802,-20229.491022764567
-42317.70841094356,-22094.632338837662,-65662.250299722,-20181.300661718924
-42487.760482759535,-22075.767466517387,-65645.55354661388,-20146.208422924094
-42404.36612419679,-22027.51005023838,-65697.07431758336,-20140.28521064344
-42066.29598931027,-21995.43529694501,-65829.86603139235,-20197.95271133813
-41974.02798819876,-22039.02119863286,-65815.35974924084,-20231.770900699008
-42324.99507963599,-22097.98510050596,-65677.51654118497,-20190.554283923422
-42498.243450909074,-22088.664423068098,-65663.7031631116,-20165.27446094447
-42412.27864173397,-22042.73158821244,-65711.7594136905,-20163.88865278824
-42073.47089928042,-22006.72292789494,-65836.66096170676,-20221.55615348293
-41989.85302327312,-22056.634373263645,-65829.4860517366,-20261.766941758036
-42342.630606011226,-22110.23385646747,-65681.249282509,-20210.80496439993
-42514.31435517244,-22087.90446375662,-65656.57295663035,-20173.07521975937
-42437.15613331272,-22048.27482083736,-65713.83812592484,-20178.95372855112
-42097.32021061424,-22013.629616931637,-65834.60460121687,-20231.279162320992
-42008.69554384894,-22050.86762319417,-65807.80485961496,-20253.56385154293
-42359.37206260825,-22099.549722617838,-65659.56809038736,-20202.579522440377
-42525.75844833356,-22073.532292071857,-65636.21051743157,-20163.53102487696
-42445.470982250095,-22040.138785855623,-65702.86341939728,-20174.32691744887
-42103.77986476182,-22007.10290755068,-65828.27905753601,-20229.692188464665
-42018.57501489818,-22045.16792835807,-65809.66005440474,-20260.716409768636
-42369.92208599116,-22095.593463849244,-65660.01512527646,-20211.699034178146
-42538.856570584365,-22080.438981108546,-65646.55937511438,-20181.88180707476
-42456.71390971112,-22035.51197475338,-65701.94699787462,-20187.82737109988
-42108.65254505308,-21990.473209675936,-65819.60658068735,-20232.933191410684
-42029.70618363693,-22035.48962300892,-65799.5794176554,-20258.324773111915
-42390.46333914559,-22105.584693620767,-65675.32607022834,-20221.444394760656
-42549.92068408975,-22082.830617765263,-65652.86256705076,-20180.04896402943
-42467.88978193877,-22041.83751843423,-65712.47466951307,-20181.65828963021
-42122.063591726255,-21996.776401612333,-65831.69887443767,-20228.5746012419
-42041.48555296488,-22034.439091019525,-65806.82138285892,-20250.09933115236
-42399.69460960563,-22096.12990571617,-65674.18613126113,-20205.731118408577
-42565.41044299727,-22080.528388086368,-65661.17741598815,-20177.23264422806
-42479.13270939979,-22042.17279460106,-65714.88865791424,-20184.206388498114
-42135.60874886617,-22006.27589300584,-65838.22558381862,-20236.15184261225
-42057.46705025042,-22047.917192926077,-65808.16248752624,-20260.60465104636
-42411.74219986704,-22106.47876339898,-65668.26291898047,-20214.403595257238
-42576.251039058094,-22087.07744921177,-65656.5953083748,-20184.98869955405
-42496.05297995245,-22041.546945756312,-65717.19088759314,-20190.442525201142
-42148.59511239471,-21997.78223011282,-65841.6901042092,-20236.978857157097
-42070.408710290045,-22038.97649514395,-65819.27130452053,-20262.23632839159
-42423.70038315062,-22091.212521936,-65674.76727661697,-20212.168420811704
-42584.18590833973,-22067.4079140911,-65652.90727053968,-20171.13061799176
-42497.17056717522,-22022.525611224846,-65711.35708229031,-20179.691336118143
-42147.43282168303,-21972.860035045152,-65830.67069419274,-20234.631923989287
-42074.25321033636,-22020.089271079218,-65803.66978689072,-20263.689191781188
-42425.93555759616,-22083.009431720904,-65659.41162817617,-20211.117888822304
-42591.07024563196,-22076.41566710659,-65662.18324448862,-20186.530969921467
-42504.12195970082,-22034.327332297245,-65728.88084994326,-20196.633958415267
-42149.265664728366,-21982.04660201628,-65836.41509251775,-20234.96720015612
-42078.298876082765,-22027.21947756046,-65813.97394108462,-20261.20814814665
-42435.32329026738,-22088.8655887682,-65679.84112260833,-20215.07414759089
-42593.23836484413,-22071.69944902652,-65663.92668055615,-20183.491132675543
-42501.059770710446,-22029.029968861338,-65715.44745152563,-20182.485304175058
-42154.697138631,-21999.05627954677,-65845.95928740017,-20237.06826413492
-42090.2347076219,-22038.46240502148,-65822.06527257744,-20262.8845289808
-42448.55552298493,-22096.01814699389,-65678.99175631902,-20213.978912112583
-42604.235423116144,-22083.098838698726,-65667.83823583582,-20184.31814722039
-42512.995602249575,-22040.921096911563,-65727.47269004259,-20190.598987412333
-42162.52024919036,-21993.691860877498,-65839.27611580802,-20235.74951121205
-42095.59912629117,-22031.51101249588,-65810.04003406048,-20264.560909814943
-42451.46124976412,-22081.93654798705,-65671.34745971531,-20217.398729014247
-42607.4093708288,-22068.145521658127,-65659.76925608746,-20185.055754787416
-42511.27451792652,-22024.805489159287,-65722.48825102905,-20192.543589179943
-42158.13930727712,-21984.281776461816,-65839.90196465277,-20241.315095581424
-42096.24732688038,-22032.807413674287,-65804.22858050211,-20266.34904937137
-42453.04822362045,-22094.162952204104,-65670.47574168156,-20220.818545915907
-42600.726199236655,-22069.91130947009,-65661.4009334327,-20185.6145483988
-42504.2337184231,-22030.92986714004,-65729.6184575103,-20196.27633050398
-42148.72922286144,-21992.28370097681,-65850.89902292479,-20243.43851130468
-42084.35619883015,-22035.154346842093,-65820.54535395448,-20268.316002883435
-42434.69744142264,-22087.300966656323,-65684.8032098774,-20220.639731960266
-42589.14799560881,-22067.78789374684,-65674.18613126113,-20186.48626643256
-42492.655514795246,-22032.36037878518,-65744.10238791733,-20194.599949669835
-42135.85461805518,-21993.82597134423,-65862.11959864135,-20241.89624093726
-42074.56613475873,-22032.8521171632,-65827.1391185688,-20262.23632839159
-42429.35537449782,-22093.13477195916,-65695.93437861615,-20215.744699924555
-42578.19564082571,-22092.061888225304,-65696.09084082732,-20187.357984466315
-42481.30082861195,-22058.243698864422,-65762.96726023761,-20201.953673595628
-42127.47271388444,-22016.624750688643,-65880.80565700599,-20255.799025988465
-42069.916971912025,-22052.83457670624,-65849.42380779074,-20281.39177338979
-42420.83935986034,-22094.855856282215,-65710.86534391229,-20226.51824075201
-42565.56690520846,-22058.84719596472,-65699.57771296236,-20185.32397572088
-42463.30767432543,-22013.4955064649,-65763.28018465999,-20192.9682723246
-42101.54469031629,-21976.48101764691,-65874.5471685585,-20241.49390953707
-42049.26396003532,-22029.767576428363,-65841.57834548692,-20265.611441804343
-42407.42831318716,-22083.79174277684,-65710.19479157863,-20217.890467392263
-42550.61358816786,-22059.80832097629,-65700.98587286305,-20185.74865886553
-42445.98507237257,-22016.200067543992,-65755.61353631181,-20190.911911834708
-42097.14139665859,-21981.353697938168,-65871.01559293456,-20243.81849096042
-42044.90536986654,-22022.659721691576,-65828.21200230265,-20258.257717878547
-42396.92299329317,-22074.5604723168,-65687.79834363441,-20206.446374231145
-42536.50963741656,-22053.907460440096,-65674.36494521677,-20173.90223430422
-42440.06186009191,-22016.37888149964,-65731.80892846691,-20180.764219852
-42090.54763204428,-21985.77934334032,-65852.68716248122,-20238.968162413617
-42045.68768092247,-22035.73549219793,-65816.52203995253,-20264.29268888148
-42401.52745265096,-22093.04536498134,-65684.53498894394,-20219.16451682621
-42548.06548929995,-22076.326260128768,-65671.12394227076,-20188.78849611145
-42450.70129045264,-22041.345780056214,-65736.10046340233,-20202.80303988493
-42093.833338479206,-22000.129163280628,-65853.17890085923,-20246.567755528424
-42048.48164897939,-22047.559565014788,-65813.77277538452,-20266.259642393547
-42404.924917808166,-22096.8675132832,-65677.18126501814,-20217.6222464588
-42540.28708222951,-22060.568280287775,-65654.6954100961,-20170.594176124832
-42443.70519443813,-22032.60624797419,-65729.93138193266,-20186.84389434384
-42092.29106811179,-22012.579084942237,-65862.96896493065,-20247.417121817725
-42048.68281467949,-22059.830672720756,-65828.70374068066,-20269.992383717585
-42398.77818808296,-22101.42726915208,-65685.02672732195,-20215.85645864683
-42533.15687574827,-22072.392353104635,-65674.38729696123,-20183.289966975448
-42428.81893263089,-22023.84436414771,-65737.59803028083,-20195.337557236857
-42069.46993702292,-21980.34786943768,-65855.70464798268,-20245.18194737219
-42030.98023307088,-22034.953181141995,-65816.14206029678,-20268.137188927794
-42386.26121118799,-22084.50699859941,-65682.32216624286,-20219.29862729295
-42525.78080007801,-22063.541062300334,-65680.08699179733,-20190.062545545406
-42416.6148801583,-22028.42647176105,-65743.7671117505,-20199.36087123881
-42057.31058803923,-21990.361450953656,-65863.32659284194,-20249.428778818703
-42021.34663121065,-22038.97649514395,-65828.8378511474,-20276.720258798632
-42373.38660638173,-22095.302891171326,-65685.33965174433,-20228.14991809725
-42505.03838122349,-22073.17466416057,-65675.25901499498,-20194.75641188102
-42400.18634798365,-22046.59844000321,-65751.47846358758,-20214.269484790504
-42041.105573309134,-21998.3410237242,-65864.95827018717,-20262.61630804733
-42007.39914267053,-22039.043550377315,-65821.37236849933,-20280.60946233385
-42365.29527488891,-22089.245568423936,-65684.82556162185,-20232.95554315514
-42497.03645670849,-22061.41764657708,-65674.76727661697,-20193.549417680435
-42386.52943212145,-22018.524648967345,-65747.9692397081,-20201.551342195435
-42032.36604122711,-21990.27204397584,-65872.55786330198,-20260.15761615725
-42002.74997982383,-22050.26412609388,-65832.25766804906,-20281.57058734543
-42356.37692885124,-22100.488495884954,-65696.91785537217,-20229.781595442488
-42489.81684324943,-22074.046382194327,-65694.03448033745,-20198.444449716146
-42376.6499610722,-22031.198088073503,-65761.89437650375,-20206.62518818679
-42017.23391023087,-22000.35268072518,-65884.73956403013,-20263.71154352564
-41995.2621454313,-22063.004620433407,-65845.19932808868,-20295.138096229806
-42346.85508571328,-22098.18626620606,-65705.09859384282,-20241.315095581424
-42475.73524424258,-22073.3087746273,-65700.13650657375,-20205.99933934204
-42358.14271666321,-22023.97847461444,-65758.85453925784,-20213.12954582328
-41994.72570356437,-21979.565558381742,-65874.77068600306,-20262.50454932505
-41963.09798516012,-22028.962913627973,-65833.62112446084,-20281.257662923057
-42321.91053890116,-22093.29123417035,-65704.98683512054,-20233.33552281088
-42457.47386902259,-22081.46716135349,-65704.09276534233,-20202.78068814048
-42337.02031815294,-22031.42160551806,-65762.34141139286,-20210.447336488647
-41974.29620913222,-21995.949387067485,-65874.86009298087,-20264.560909814943
-41949.86575244257,-22048.07365513726,-65829.62016220334,-20286.242101936597
-42303.96208810354,-22091.65955682511,-65697.34253851682,-20237.515299024024
-42435.43504898966,-22074.627527550165,-65693.2521692815,-20208.9721213546
-42318.71423944405,-22032.002750873897,-65750.87496648729,-20214.269484790504
-41960.19225838092,-21995.43529694501,-65868.69101151121,-20270.61823256233
-41939.27102557076,-22044.83265219124,-65821.79705164398,-20292.67940433972
-42291.91449784214,-22091.503094613923,-65683.23858776553,-20235.39188330077
-42415.31847897988,-22070.98419320395,-65684.11030579929,-20201.99837708454
-42291.71333214204,-22030.147556084103,-65755.41237061171,-20214.671816190697
-41923.91537712996,-21995.30118647828,-65873.36252610237,-20269.92532848422
-41907.28567925521,-22051.381713316645,-65830.84950814837,-20294.512247385057
-42259.23624744848,-22092.17364694758,-65691.12875355825,-20239.392845558268
-42389.81513855638,-22082.763562531894,-65694.0568320819,-20212.548400467444
-42269.54040164237,-22041.07755912275,-65762.38611488177,-20223.836031417373
-41903.41882746444,-21994.96591031145,-65879.97864246114,-20275.7367820426
-41885.850356322575,-22048.341876070725,-65831.49770873759,-20294.19932296268
-42237.93503498257,-22101.5166761299,-65697.00726235,-20242.76795897102
-42361.60723705378,-22076.37096361768,-65692.3580995033,-20209.91089462172
-42236.95155822654,-22030.79575667331,-65756.70877179013,-20216.12467958029
-41875.30033293967,-21999.63742490261,-65878.34696511591,-20270.66293605124
-41862.69394906688,-22057.9084226976,-65831.45300524867,-20290.89126478329
-42213.79515097084,-22093.89473127064,-65687.91010235669,-20229.35691229784
-42338.40612630917,-22058.288402353337,-65684.08795405483,-20198.17622878268
-42219.1148661512,-22021.095099579707,-65755.83705375636,-20212.3695865118
-41857.15071644196,-21990.24969223138,-65873.54134005801,-20265.34322087088
-41848.81351576013,-22052.02991390585,-65826.71443542415,-20287.605558348365
-42206.106150878215,-22104.13183023117,-65697.27548328346,-20238.275258335503
-42327.92315815963,-22072.03472519335,-65691.68754716964,-20200.657272417226
-42206.48613053395,-22033.992056130417,-65768.5775480959,-20214.38124351278
-41847.76298377073,-22005.381823227624,-65890.17103793276,-20270.707639540156
-41840.85629473404,-22059.093065153727,-65835.1410430838,-20288.76784906004
-42193.790339683335,-22103.640091853154,-65699.39889900672,-20237.738816468576
-42316.81434116535,-22081.82478926477,-65695.5543989604,-20210.313226021917
-42194.30442980581,-22041.815166689776,-65757.15580667923,-20215.744699924555
-41839.47048657781,-22015.77538439934,-65880.35862211688,-20269.50064533957
-41834.88837896448,-22071.252414137416,-65831.90004013777,-20286.756192059063
-42190.28111580385,-22123.801365351843,-65702.23757055253,-20238.074092635405
-42310.75701841796,-22099.080335984272,-65700.13650657375,-20207.899237620742
-42183.19561281152,-22049.16889061557,-65769.11398996282,-20218.24809530355
-41817.54342526716,-22016.445936733,-65884.06901169647,-20266.01377320454
-41811.70961996432,-22064.166911145083,-65834.2916767945,-20283.179912946216
-42161.715586389975,-22094.72174581549,-65699.86828564027,-20230.31803730941
-42275.19539298957,-22060.300059354315,-65693.67685242616,-20197.304510748927
-42154.451269442,-22028.02414036085,-65771.41621964172,-20221.086766849374
-41795.34814302303,-21999.97270106944,-65880.55978781698,-20273.16633143024
-41790.72133192079,-22050.17471911606,-65820.34418825438,-20279.469523366635
-42147.00813853838,-22097.64982433913,-65692.04517508092,-20225.557115740437
-42267.50639289694,-22082.629452065165,-65693.29687277041,-20199.785554383463
-42135.80991456627,-22043.11156786818,-65757.4240276127,-20210.402632999736
-41772.63877065644,-22004.39834647159,-65875.5977005479,-20268.941851728185
-41773.86811660149,-22053.147501128617,-65823.45108073368,-20290.93596827221
-42120.20839693647,-22089.15616144612,-65689.51942795746,-20230.31803730941
-42237.622110560194,-22061.238832621435,-65694.81679139337,-20201.48428696207
-42111.84884451018,-22025.900724637595,-65767.30349866195,-20219.186868570672
-41750.08586050104,-21992.417811443545,-65876.06708718147,-20271.48995059609
-41754.53385764764,-22046.77725395885,-65827.29558077999,-20290.712450827654
-42103.91397522855,-22095.03467023786,-65703.77984091996,-20239.973990914103
-42220.72419175199,-22069.620736792174,-65699.3094920289,-20208.078051576384
-42091.2852396113,-22028.404120016592,-65760.93325149218,-20219.589199970866
-41726.86239801197,-21989.86971257564,-65868.4004388333,-20271.06526745144
-41739.51348537368,-22051.828748205757,-65809.90592359376,-20285.25862518056
-42096.40378909157,-22102.768373819395,-65674.74492487252,-20231.43562453218
-42212.49874979243,-22083.65763231011,-65675.92956732864,-20203.942978852152
-42085.25026860837,-22043.11156786818,-65754.74181827805,-20224.730101195582
-41722.7496770322,-22007.12525929514,-65868.78041848904,-20275.96029948715
-41729.74577304671,-22050.532347027343,-65801.56872291192,-20282.50936061256
-42079.93055342801,-22095.99579524944,-65673.71674462757,-20226.987627385573
-42194.75146469491,-22078.65084155212,-65679.88582609723,-20198.913836349708
-42065.69249220997,-22041.725759711957,-65758.20633866863,-20216.9740458696
-41700.17441513234,-21998.519837679843,-65879.71042152768,-20274.842712264384
-41709.048057681095,-22047.917192926077,-65816.81261263044,-20288.499628126578
-42061.87034390812,-22093.738269059453,-65688.89357911273,-20239.526956025
-42174.74665340742,-22065.776236745864,-65688.73711690154,-20209.93324636617
-42043.00547158784,-22023.03970134732,-65758.00517296854,-20220.416214515717
-41677.55444974357,-21977.91152929205,-65869.67448826725,-20269.210072661648
-41693.96063017376,-22027.845326405208,-65813.45985096214,-20283.783410046508
-42046.96173035642,-22074.80634150581,-65685.36200348879,-20232.374397799304
-42160.88857184513,-22053.952163929007,-65689.51942795746,-20203.406536985225
-42031.02493655979,-22012.4449744755,-65759.03335321348,-20213.93420862368
-41669.50782173966,-21977.91152929205,-65869.40626733378,-20265.030296448505
-41690.093778382994,-22038.730625954944,-65811.22467651662,-20278.95543324416
-42046.98408210088,-22088.485609112457,-65688.98298609054,-20227.90404890824
-42163.03433931284,-22064.88216696765,-65696.6049309498,-20199.539685194457
-42032.45544820493,-22018.748166411897,-65765.73887655007,-20206.915760864707
-41677.19682183228,-21988.908587564063,-65881.72207852866,-20261.454017335654
-41705.42707507934,-22049.68298073804,-65824.1886883007,-20274.99917447557
-42063.79259393127,-22092.866551025694,-65690.7040704136,-20216.66112144722
-42176.64655168612,-22059.18247213155,-65686.03255582244,-20181.63593788576
-42051.45443099194,-22025.051358348293,-65765.2247864276,-20200.634920672765
-41698.63214476492,-21997.02227080134,-65885.32070938597,-20263.91270922574
-41730.438677124825,-22054.063922651283,-65824.92629586773,-20276.92142449873
-42088.580678532206,-22093.335937659256,-65701.14233507423,-20223.299589550446
-42201.144063609136,-22062.356419844204,-65703.13164033076,-20192.454182202124
-42065.781899187794,-22012.042643075307,-65769.04693472946,-20199.62909217228
-41707.8410634805,-21980.280814204318,-65883.73373552963,-20253.966182943128
-41742.24039819722,-22038.820032932763,-65827.80967090245,-20273.881587252807
-42096.02380943582,-22080.148408430625,-65703.35515777531,-20224.171307584205
-42201.25582233141,-22046.97841965895,-65698.75069841751,-20191.269539745997
-42065.1784020875,-22005.471230205447,-65773.27141443151,-20206.491077720057
-41706.87993846893,-21973.24001470089,-65890.03692746603,-20264.560909814943
-41740.40755515189,-22025.83366940423,-65831.05067384847,-20273.076924452416
-42096.91787921404,-22070.671268781574,-65707.91491364418,-20218.85159240384
-42205.36854331119,-22045.950239414007,-65707.06554735488,-20190.241359501048
-42066.40774803254,-22006.3429482392,-65775.08190573238,-20205.28408351947
-41707.32697335804,-21981.130180493616,-65891.46743911118,-20264.76207551504
-41743.26857844217,-22039.065902121773,-65829.19547905869,-20276.764962287543
-42097.02963793631,-22084.127018943676,-65700.5611897184,-20218.85159240384
-42207.17903461207,-22062.04349542183,-65708.18313457766,-20190.01784205649
-42069.31347481173,-22018.01055884487,-65780.04399300147,-20202.8700951183
-41708.77983674763,-21986.85222707417,-65895.71427055768,-20261.49872082457
-41746.7554505772,-22048.341876070725,-65824.12163306733,-20271.82522676292
-42108.38432411961,-22103.05894649732,-65702.01405310798,-20225.221839573605
-42218.198444628535,-22080.99777471993,-65716.94501840413,-20203.33948175186
-42076.689550481984,-22026.39246301561,-65793.16446699674,-20219.29862729295
-41711.52910131563,-21985.44406717349,-65899.2011426927,-20265.00794470405
-41748.92356978936,-22036.338989298223,-65839.23141231912,-20272.67459305222
-42098.996591448384,-22079.65667005261,-65718.17436434918,-20218.315150536917
-42196.47254901798,-22049.68298073804,-65726.55626851991,-20193.97410082509
-42057.824678161705,-22013.74137565391,-65806.03907180298,-20214.515353979517
-41697.11222614196,-21980.39257292659,-65908.63357885285,-20261.6328312913
-41736.87597952795,-22037.635390476637,-65839.32081929693,-20269.4335901062
-42090.72644599991,-22082.09301019824,-65720.43189053916,-20219.879772648783
-42193.45506351651,-22040.094082366715,-65721.6612364842,-20192.43183045767
-42047.676986178994,-21989.69089862,-65787.5765308829,-20200.18788578366
-41691.5913452615,-21965.305145419257,-65901.79394504952,-20257.877738222807
-41739.2005609513,-22033.7014834525,-65839.43257801922,-20275.848540764877
-42091.88873671159,-22079.50020784142,-65711.46884101258,-20223.14312733926
-42198.08187461876,-22052.208727861493,-65719.64957948323,-20197.23745551556
-42052.84023914817,-22003.481924948923,-65789.2752634615,-20209.508563221523
-41694.80999646306,-21970.11077047715,-65899.44701188171,-20261.54342431348
-41748.63299711144,-22032.315675296268,-65836.37038902885,-20277.569625087934
-42102.215242649945,-22077.756771773908,-65709.01014912249,-20227.300551807948
-42205.033267144354,-22052.67811449505,-65711.93822764614,-20200.12083055029
-42058.83050666219,-22005.560637183265,-65775.30542317693,-20208.14510680975
-41705.4941303127,-21987.947462552485,-65893.63555832334,-20266.97489821612
-41755.182058236845,-22057.193166875026,-65837.2421070626,-20280.92238675623
-42109.971297975935,-22092.397164392136,-65712.67583521317,-20225.400653529246
-42211.69408699204,-22055.06975115177,-65722.04121613994,-20192.632996157765
-42066.65361722155,-22024.35845427018,-65802.84277234587,-20209.754432410533
-41714.23366239473,-22007.54994243979,-65917.61898012388,-20269.85827325085
-41771.43177645586,-22049.12418712666,-65852.8436246924,-20279.380116388813
-42122.46592312645,-22064.88216696765,-65729.75256797702,-20217.46578424761
-42220.1653981406,-22030.080500850738,-65737.97800993657,-20187.447391444137
-42075.41550104803,-21990.964948053952,-65816.27617076352,-20203.384185240768
-41717.65347929639,-21960.79009303929,-65924.88329707185,-20254.72614225461
-41772.68347414535,-22020.223381545948,-65847.5909647454,-20259.218842890125
-42124.25406268288,-22058.51191979789,-65713.74871894703,-20201.32782475088
-42228.07791567778,-22038.77532944385,-65716.49798351503,-20181.09949601883
-42086.52431804232,-21999.74918362489,-65793.76796409702,-20206.647539931244
-41732.49503761471,-21971.362468166648,-65901.8610002829,-20262.14692141377
-41789.20141329782,-22025.83366940423,-65822.55701095545,-20262.996287703078
-42148.25983622788,-22069.12899841416,-65706.66321595469,-20214.515353979517
-42252.75424155644,-22049.727684226957,-65723.49407952954,-20198.623263671787
-42107.75847527486,-22008.8463436182,-65800.1829147557,-20220.30445579344
-41753.14804949141,-21980.236110715403,-65903.58208460595,-20274.79800877548
-41812.00019264224,-22040.138785855623,-65827.87672613582,-20281.4364768787
-42164.17427828006,-22084.23877766595,-65702.03640485245,-20224.23836281757
-42262.589009116775,-22063.496358811422,-65717.2132393376,-20201.528990450977
-42113.189949177504,-22024.067881592266,-65801.00992930055,-20219.20922031513
-41755.31616870358,-21995.41294520056,-65915.76378533409,-20272.29461339648
-41816.22467234429,-22046.88901268113,-65840.66192396426,-20273.54631108598
-42172.8020516398,-22088.37385039018,-65733.19473662315,-20225.44535701816
-42267.34993068576,-22067.452617580013,-65744.83999548436,-20197.550379937933
-42115.2910131563,-22017.83174488923,-65813.48220270661,-20203.942978852152
-41759.78651759464,-21984.192369483997,-65923.6092476379,-20259.15178765676
-41821.70084973584,-22046.48668128093,-65846.58513624492,-20264.91853772623
-42170.74569114992,-22091.883074269663,-65727.80796620941,-20210.51439172201
-42264.31009343983,-22068.97253620297,-65746.65048678523,-20189.347289722835
-42102.30464962777,-22012.73554715342,-65816.92437135272,-20199.98672008356
-41741.88277028594,-21973.64234610109,-65924.43626218275,-20255.64256377728
-41809.09446586305,-22026.5489252268,-65851.01078164707,-20266.483159838102
-42164.353092235695,-22073.107608927206,-65734.40173082372,-20217.6222464588
-42259.862096293225,-22053.236908106435,-65744.63882978426,-20196.924531093184
-42099.19775714848,-22002.900779593085,-65813.79512712898,-20209.91089462172
-41741.413383652376,-21974.089380990197,-65919.18360223575,-20268.651279050264
-41810.972012397295,-22038.663570721576,-65843.90292691028,-20280.90003501177
-42159.90509508909,-22077.82382700728,-65725.6621987417,-20230.42979603169
-42254.45297413504,-22060.925908199064,-65738.96148669261,-20209.84383938835
-42101.41057984955,-22023.442032747516,-65811.73876663909,-20227.412310530224
-41750.10821224549,-21994.87650333363,-65919.96591329169,-20287.78437230401
-41822.86314044752,-22055.06975115177,-65838.89613615228,-20292.455886895168
-42171.7515196504,-22094.60998709321,-65723.09174812934,-20236.91180192373
-42261.71729108302,-22057.953126186505,-65734.6699517572,-20206.356967253323
-42103.24342289489,-22007.37112848415,-65812.38696722829,-20217.15285982524
-41750.68935760133,-21984.237072972905,-65925.68795987224,-20274.75330528657
-41825.90297769344,-22046.01729464737,-65844.08174086592,-20276.407334376257
-42175.21604004098,-22078.717896785485,-65723.67289348519,-20220.505621493536
-42262.05256724985,-22043.64800973511,-65731.80892846691,-20190.01784205649
-42102.39405660559,-21991.188465498504,-65806.97784507011,-20200.925493350685
-41754.77972683665,-21976.8386455582,-65928.28076222906,-20267.287822638493
-41834.463695819824,-22052.879280195157,-65847.65801997877,-20274.127456441816
-42181.09454883272,-22085.08814395525,-65724.7681289635,-20213.15189756774
-42264.3771486732,-22039.915268411078,-65726.24334409754,-20178.909025062207
-42106.90910898556,-21997.893988835094,-65801.6804816342,-20195.80694387042
-41753.304511702605,-21976.8386455582,-65917.23900046814,-20255.35199109936
-41831.15563764043,-22031.57806772925,-65839.3431710414,-20259.084732423395
-42188.6047349697,-22072.03472519335,-65721.75064346203,-20206.58048469788
-42275.46361392303,-22031.868640407163,-65717.12383235978,-20176.33857444985
-42113.97226023344,-21983.141837494597,-65801.09933627836,-20192.43183045767
-41768.21312525429,-21966.132159964105,-65911.04756725402,-20250.97104918612
-41848.299425637655,-22035.71314045348,-65829.17312731424,-20255.06141842144
-42204.72034272198,-22077.577957818263,-65720.70011147263,-20204.434717230168
-42299.06705606783,-22050.241774349422,-65735.63107676877,-20184.206388498114
-42138.42506866754,-21997.73752662391,-65803.64743514627,-20197.32686249338
-41789.64844818693,-21971.317764677737,-65907.40423290781,-20254.279107365503
-41878.92131554143,-22032.38273052964,-65822.288790022,-20259.44236033468
-42228.70376452253,-22072.81703624929,-65704.13746883124,-20207.47455447609
-42318.37896327722,-22042.21749808997,-65714.55338174742,-20188.14029552225
-42165.694196903016,-22004.4430499605,-65798.41712694372,-20211.028481844485
-41815.0176781437,-21979.856131059663,-65909.57235211997,-20270.707639540156
-41903.84351060909,-22042.32925681225,-65824.56866795644,-20273.054572707963
-42255.21293344652,-22079.857835752708,-65714.7098439586,-20222.964313383614
-42341.35655657727,-22048.36422781518,-65724.2093353521,-20198.399746227235
-42183.46383374499,-22002.476096448438,-65809.81651661593,-20220.438566260167
-41830.10510565103,-21977.620956614133,-65909.30413118651,-20273.45690410816
-41914.30412701418,-22034.819070675265,-65823.45108073368,-20268.763037772544
-42262.99134051697,-22068.570204802774,-65704.09276534233,-20207.407499242723
-42354.18645789462,-22035.06493986427,-65716.98972189304,-20187.559150166413
-42195.91375540659,-22000.822067358746,-65800.8311153449,-20209.86619113281
-41840.85629473404,-21970.89308153309,-65903.91736077277,-20260.15761615725
-41933.50427550128,-22029.141727583617,-65819.69598766518,-20261.342258613386
-42286.95241057306,-22069.151350158616,-65708.47370725557,-20211.25199928904
-42370.99496972501,-22036.003713131395,-65708.92074214468,-20180.47364717408
-42208.49778753493,-21990.31674746475,-65782.45798140264,-20194.8681706033
-41861.95634149985,-21972.077723989216,-65888.49465709862,-20253.653258520757
-41961.24279037032,-22036.54015499832,-65809.90592359376,-20262.638659791788
-42308.25362303897,-22070.47010308148,-65690.18998029114,-20203.89827536324
-42395.71599909258,-22050.398236560613,-65712.22880032407,-20184.496961176035
-42233.33057562478,-22011.707366908475,-65795.80197284246,-20207.16163005372
-41886.99029528979,-21991.277872476327,-65904.34204391742,-20265.6337935488
-41982.74516853633,-22052.432245306045,-65815.06917656293,-20265.72320052662
-42326.80557093687,-22087.8150567788,-65698.75069841751,-20207.787478898463
-42408.23297598755,-22053.281611595343,-65711.02180612348,-20186.128638521277
-42241.31014839532,-22002.565503426256,-65791.55514139595,-20210.38028125528
-41887.21381273435,-21972.792979811788,-65897.56946534746,-20261.4316655912
-41982.6110580696,-22033.83559391923,-65816.76790914153,-20258.235366134093
-42329.26426282695,-22070.04541993683,-65704.96448337608,-20202.445411973647
-42416.39136271374,-22039.758806199887,-65719.98485565005,-20183.04409778644
-42246.987491486965,-21987.075744518726,-65798.55123741046,-20197.684490404667
-41890.99125754729,-21959.158415694048,-65903.6044363504,-20251.26162186404
-41994.27866867527,-22031.712178195976,-65821.12649931033,-20257.96714520063
-42338.9425681761,-22063.83163497825,-65710.26184681199,-20206.06639457541
-42420.12410403778,-22036.74132069842,-65731.9206871892,-20183.7146501201
-42253.08951772327,-22001.82789585923,-65820.27713302102,-20209.754432410533
-41905.16226353196,-21979.16322698155,-65926.51497441709,-20268.226595905613
-42004.29225019125,-22037.009541631884,-65835.72218843963,-20266.01377320454
-42344.06111765637,-22059.540100042832,-65708.22783806657,-20203.317130007403
-42429.9141681092,-22034.03675961933,-65727.20446910911,-20184.94399606514
-42262.70076783905,-21997.759878368364,-65809.59299917138,-20210.29087427746
-41916.18167354842,-21978.135046736606,-65915.20499172271,-20267.600747060867
-42024.16295101201,-22040.094082366715,-65831.45300524867,-20269.38888661729
-42372.35842613679,-22075.6110043062,-65719.62722773878,-20215.11885107981
-42456.04335737746,-22045.61496324718,-65731.1160243888,-20194.532894436463
-42286.34891347277,-21996.19525625649,-65802.19457175667,-20212.61545570081
-41938.33225230363,-21974.49171239039,-65905.05729974,-20270.23825290659
-42044.90536986654,-22047.246640592413,-65819.5842289429,-20272.00404071856
-42384.31660942038,-22086.07162071128,-65706.73027118806,-20218.4716127481
-42458.56910450091,-22050.7558644719,-65716.18505909265,-20199.316167749905
-42282.10208202626,-22001.62673015913,-65793.00800478554,-20217.577542969888
-41935.40417377999,-21971.63068910011,-65889.67929955474,-20264.180930159204
-42045.86649487812,-22029.47700375045,-65802.59690315687,-20261.074037679915
-42385.92593502116,-22062.08819891074,-65698.97421586206,-20208.05569983193
-42454.07640386539,-22027.912381638573,-65711.04415786793,-20180.697164618632
-42282.929096571104,-21992.797791099285,-65799.71352812214,-20205.95463585313
-41931.33615628912,-21968.590851854187,-65905.83961079593,-20262.6833632807
-42039.0715645637,-22032.047454362804,-65816.96907484163,-20263.24215689208
-42378.505155862,-22064.792759989832,-65704.58450372035,-20209.48621147707
-42452.19885733114,-22031.913343896074,-65719.51546901649,-20187.760315866508
-42278.63756163568,-21991.434334687518,-65807.7825078705,-20212.548400467444
-41930.8444179111,-21970.89308153309,-65913.37214867737,-20271.333488384906
-42043.54191345476,-22035.847250920207,-65816.87966786382,-20273.032220963505
-42386.86470828828,-22076.393315362136,-65711.24532356803,-20226.40648202973
-42460.53605801297,-22047.4031028036,-65731.13837613325,-20209.24034228806
-42284.60547740525,-22000.08445979172,-65823.45108073368,-20232.06147337693
-41933.97366213485,-21975.005802512864,-65926.89495407284,-20280.318889655937
-42050.76152691383,-22040.764634700376,-65829.4860517366,-20273.21103491915
-42394.26313570299,-22070.58186180376,-65723.87405918528,-20223.36664478381
-42470.37082557331,-22036.517803253868,-65743.65535302823,-20202.04308057345
-42289.29934374087,-21988.997994541885,-65831.1400808263,-20218.561019725923
-41946.78121170774,-21968.79201755429,-65937.55673617801,-20275.513264598045
-42065.55838174324,-22035.400216031103,-65849.33440081292,-20278.217825677137
-42404.54493815243,-22066.11151291269,-65736.50279480252,-20219.09746159285
-42479.91502045572,-22038.93179165504,-65751.05378044293,-20196.05281305943
-42304.94556485958,-21994.697689377987,-65834.51519423905,-20216.527010980488
-41961.80158398171,-21968.79201755429,-65941.58005017997,-20277.614328576845
-42079.41646330553,-22035.89195440912,-65847.38979904531,-20275.28974715349
-42413.97737431257,-22061.21648087698,-65736.79336748045,-20217.532839480977
-42488.07340718191,-22029.92403863955,-65762.3190596484,-20205.12762130828
-42302.03983808039,-21976.212796713447,-65835.87865065082,-20222.6737407057
-41951.430374554446,-21953.749293535864,-65937.55673617801,-20277.30140415447
-42067.45828002194,-22019.105794323183,-65839.74550244158,-20270.461770351147
-42404.47788291906,-22061.66351576609,-65744.30355361743,-20224.931266895685
-42472.44953780765,-22036.96483814297,-65763.39194338226,-20209.016824843507
-42284.58312566079,-21990.29439572029,-65834.98458087261,-20226.40648202973
-41936.83468542513,-21963.96404075194,-65935.45567219921,-20281.57058734543
-42058.316416539725,-22030.683997951037,-65844.59583098839,-20277.815494276943
-42395.78305432595,-22066.51384431289,-65738.7156175036,-20225.557115740437
-42466.16869761571,-22038.79768118831,-65761.8273212704,-20209.4191562437
-42282.30324772636,-21991.456686431968,-65843.88057516582,-20232.44145303267
-41939.85217092659,-21967.96500300944,-65944.06109381451,-20288.477276382124
-42064.95488464295,-22036.160175342586,-65850.16141535777,-20286.666785081245
-42397.59354562683,-22068.59255654723,-65736.90512620272,-20232.329694310392
-42468.35916857233,-22038.082425365737,-65756.015867712,-20214.738871424062
-42286.12539602821,-21994.429468444523,-65845.19932808868,-20238.342313568868
-41938.265197070265,-21976.816293813743,-65943.30113450302,-20289.4384013937
-42058.47287875091,-22040.20584108899,-65847.43450253422,-20277.524921599022
-42394.933688036646,-22073.75580951641,-65748.57273680839,-20227.90404890824
-42456.84802017784,-22040.51876551137,-65763.54840559345,-20209.352101010336
-42268.15459348614,-22000.97852956993,-65849.71438046866,-20233.782557699986
-41919.55678696118,-21974.49171239039,-65947.05622757152,-20290.39952640528
-42047.96755885692,-22045.391445802623,-65853.67063923724,-20288.90195952677
-42380.33799890733,-22083.56822533229,-65750.85261474283,-20236.643580990265
-42439.61482520281,-22056.88024245265,-65771.05859173043,-20217.085804591872
-42251.43548863357,-22001.40321271458,-65857.04575265,-20238.85640369134
-41897.07093203914,-21966.221566941927,-65953.96291660822,-20289.281939182518
-42018.6197183871,-22027.755919427385,-65855.92816542723,-20279.71539255564
-42354.32056836136,-22063.02697217786,-65754.85357700034,-20227.926400652697
-42418.78299937046,-22029.633465961637,-65772.46675163112,-20208.301569020936
-42221.59590978574,-21979.364392681648,-65855.54818577149,-20223.47840350609
-41877.64726610747,-21968.00970649835,-65966.63635571436,-20288.097296726384
-42008.47202640439,-22037.568335243268,-65870.85913072337,-20288.25375893757
-42339.72487923204,-22063.116379155683,-65765.91769050571,-20235.19071760067
-42400.029885772456,-22022.816183902763,-65776.78063831099,-20210.737909166564
-42211.5152730364,-21977.375087425124,-65858.23039510613,-20233.737854211075
-41869.22065844783,-21961.572404095223,-65943.39054148085,-20285.124514713825
-42003.420532157485,-22028.851154905697,-65839.05259836347,-20280.00596523356
-42336.95326291958,-22062.98226868895,-65739.49792855953,-20230.38509254278
-42397.97352528257,-22032.941524141017,-65759.39098112476,-20206.491077720057
-42210.95647942501,-21991.657852132063,-65853.76004621507,-20232.933191410684
-41866.85137353556,-21974.02232575683,-65959.88612888886,-20289.21488394915
-42001.07359898968,-22043.044512634817,-65864.48888355361,-20286.197398447683
-42328.21373083755,-22069.151350158616,-65760.2179956696,-20234.90014492275
-42386.82000479937,-22039.445881777512,-65786.19072272668,-20218.51631623701
-42193.164490838586,-21995.81527660075,-65882.97377621815,-20242.991476415573
-41841.50449532324,-21967.60737509816,-65971.10670460542,-20288.320814170937
-41973.245677142826,-22037.277762565347,-65875.82121799246,-20287.627910092822
-42302.39746599167,-22062.356419844204,-65769.53867310747,-20234.52016526701
-42355.61696953976,-22029.342893283712,-65785.56487388193,-20211.47551673359
-42168.39875798211,-21997.78223011282,-65883.42081110727,-20244.31022933844
-41824.2713003482,-21972.301241433768,-65970.3690970384,-20300.658977110263
-41957.39829032401,-22024.246695547903,-65866.9475754437,-20293.05938399546
-42280.71627387003,-22054.376847073658,-65764.24130967156,-20236.15184261225
-42334.33810881831,-22011.349738997196,-65778.05468774494,-20209.03917658796
-42142.53778964732,-21974.11173273465,-65869.67448826725,-20239.68341823619
-41805.45113151684,-21970.7366193219,-65969.4750272602,-20306.470430668644
-41938.265197070265,-22025.945428126503,-65855.21290960466,-20291.27124443904
-42262.61136086123,-22054.04157090683,-65755.85940550083,-20234.363703055824
-42319.94358538909,-22028.49352699441,-65776.98180401108,-20217.28697029197
-42123.56115860476,-21982.426581672025,-65863.08072365294,-20239.66106649173
-41783.09938706153,-21963.69581981848,-65962.88126264588,-20295.518075885542
-41926.93286263142,-22034.26027706388,-65867.3499068439,-20294.13226772932
-42253.357738656734,-22059.405989576106,-65764.46482711611,-20237.135319368284
-42309.8853003842,-22028.202954316494,-65790.23638847309,-20217.24226680306
-42110.37362937613,-21987.321613707736,-65882.48203784013,-20241.650371748256
-41764.72625311926,-21973.843511801188,-65969.54208249356,-20292.701756084178
-41903.82115886464,-22036.36134104268,-65866.61229927687,-20286.264453681048
-42226.82621798828,-22062.289364610835,-65765.04597247195,-20234.631923989287
-42283.82316634931,-22043.6033062462,-65787.80004832745,-20218.873944148298
-42082.67981799601,-22003.88425634912,-65877.98933720462,-20237.67176123521
-41740.92164527437,-21990.227340486927,-65980.15916110983,-20294.82517180743
-41879.12248124152,-22041.949277156506,-65880.06804943897,-20287.91848277074
-42195.265554817386,-22052.18637611704,-65775.08190573238,-20232.173232099205
-42243.008880973925,-22022.704425180487,-65802.21692350112,-20216.01292085802
-42048.01226234582,-21986.78517184081,-65896.69774731371,-20245.38311307229
-41710.076237926034,-21966.534491364306,-65982.19316985527,-20297.6414916088
-41853.70854779584,-22025.78896591532,-65866.20996787667,-20284.386907146803
-42172.5561824508,-22045.12322486916,-65762.7213910486,-20227.658179719238
-42218.9137004511,-22011.68501516402,-65785.9225017932,-20207.295740520447
-42014.55170089623,-21970.35663966616,-65872.2002353907,-20234.72133096711
-41672.34649328548,-21956.498558103867,-65961.94248937875,-20294.758116574063
-41820.89618693545,-22019.97751235694,-65847.99329614559,-20283.58224434641
-42141.8001820803,-22041.43518703404,-65742.11308266081,-20220.48326974908
-42199.40062754162,-22023.620846703157,-65783.01677501402,-20214.224781301597
-41999.0619419887,-21982.963023538952,-65872.02142143506,-20240.86806069232
-41661.90822862485,-21970.78132281081,-65968.55860573752,-20300.815439321454
-41808.9156519074,-22036.450748020503,-65858.25274685059,-20286.59972984788
-42129.126742974135,-22065.12803615666,-65760.70973404762,-20234.05077863345
-42177.83119414225,-22035.55667824229,-65779.50755113453,-20215.85645864683
-41970.11643291908,-21984.86292181765,-65863.68422075322,-20235.414235045224
-41630.884007320885,-21971.60833735565,-65952.13007356288,-20284.34220365789
-41787.23445978576,-22039.915268411078,-65849.96024965767,-20275.312098897943
-42107.8925857416,-22062.5575855443,-65762.45317011514,-20228.52989775299
-42153.98188280844,-22030.52753573985,-65784.55904538144,-20212.14606906725
-41947.00472915229,-21993.915378322054,-65876.93880521522,-20240.264563592027
-41607.79465529855,-21979.498503148377,-65973.49834126215,-20301.8436195664
-41758.42306118287,-22039.088253866223,-65870.68031676773,-20291.651224094778
-42075.16963185903,-22062.110550655198,-65771.88560627527,-20236.28595307898
-42117.5932428352,-22024.716082181465,-65790.77283034,-20214.42594700169
-41910.77255139024,-21990.83083758722,-65885.72304078615,-20243.639677004776
-41575.49638456063,-21984.371183439634,-65969.13975109336,-20298.26734045355
-41731.04217422511,-22042.21749808997,-65866.16526438776,-20286.197398447683
-42048.01226234582,-22061.752922743908,-65775.66305108822,-20231.033293131983
-42091.732274500406,-22020.53630596832,-65795.69021412019,-20210.357929510825
-41889.09135926859,-21971.742447822387,-65888.0476222095,-20241.829185703897
-41555.93860816224,-21954.039866213785,-65974.3700592959,-20295.808648563463
-41717.74288627421,-22023.03970134732,-65863.1477788863,-20284.74453505809
-42036.56816918471,-22048.23011734845,-65775.28307143248,-20235.97302865661
-42082.67981799601,-22014.18841054301,-65793.0750600189,-20214.671816190697
-41872.774585816216,-21966.042752986283,-65874.16718890276,-20234.40840654473
-41541.81230566648,-21958.44315987148,-65969.18445458227,-20293.90875028476
-41702.78956923361,-22028.38176827213,-65869.2498051226,-20290.377174660825
-42014.39523868504,-22049.92884992705,-65767.90699576223,-20236.710636223637
-42058.115250839626,-22017.16119255557,-65786.90597854924,-20219.70095869314
-41841.75036451225,-21968.79201755429,-65871.64144177931,-20241.180985114694
-41510.855139595886,-21964.433427385506,-65963.39535276835,-20299.563741631955
-41673.97817063072,-22046.263163836386,-65863.88538645332,-20298.714375342654
-41986.45555811591,-22070.98419320395,-65771.63973708627,-20244.421988060712
-42031.2708057488,-22044.72089346897,-65801.90399907876,-20226.42883377419
-41817.99046015626,-21997.670471390546,-65886.37124137537,-20247.461825306636
-41482.98251426012,-21981.174883982527,-65978.30396632003,-20306.06809926845
-41643.80331561605,-22049.03478014884,-65869.94270920071,-20301.91067479976
-41950.35749082059,-22055.06975115177,-65761.78261778149,-20239.95163916965
-41991.19412794044,-22023.53143972533,-65788.49295240558,-20225.735929696075
-41776.863250358496,-21981.10782874916,-65886.39359311982,-20256.067246921928
-41440.29068235048,-21967.11563672014,-65977.5216552641,-20309.867895825853
-41604.55365235253,-22036.584858487236,-65866.20996787667,-20297.77560207553
-41915.26525202576,-22060.501225054413,-65771.08094347488,-20245.226650861103
-41953.26321759978,-22027.73356768293,-65791.95747279614,-20226.652351218745
-41744.54262787612,-21984.639404373094,-65881.11858142837,-20254.05558992095
-41412.28394654799,-21968.65790708756,-65964.9152713913,-20303.050613766984
-41579.09501541794,-22038.663570721576,-65858.90094743979,-20290.98067176112
-41892.80174884817,-22061.41764657708,-65768.35403065135,-20243.99730491606
-41926.44112425341,-22018.63640768962,-65781.78742906898,-20216.348197024847
-41712.6466885384,-21977.509197891857,-65878.70459302719,-20244.779615972
-41380.544469421446,-21975.408133913057,-65970.39144878286,-20306.53748590201
-41552.6081982384,-22051.292306338823,-65857.8951189393,-20297.93206428672
-41864.0350537342,-22063.295193111324,-65761.84967301485,-20239.839880447376
-41900.84837685208,-22024.626675203643,-65793.20917048564,-20218.449261003647
-41687.32216207054,-21988.618014886142,-65894.797849035,-20250.41225557473
-41357.63393135476,-21984.59470088419,-65981.70143147724,-20303.63175912282
-41527.82011363746,-22060.568280287775,-65874.14483715831,-20293.03703225101
-41835.40246908694,-22077.197978162527,-65788.56000763894,-20238.096444379866
-41874.76389107274,-22035.109643353186,-65814.42097597373,-20220.10329009334
-41654.35333899896,-21979.90083454857,-65903.13504971685,-20239.66106649173
-41320.217111136575,-21967.719133820432,-65985.07654488999,-20293.39466016229
-41493.577241131934,-22037.72479745445,-65875.01655519207,-20283.515189113044
-41803.68534370486,-22056.187338374537,-65783.19558896967,-20230.20627858714
-41840.54337031167,-22017.541172211317,-65805.59203691388,-20214.738871424062
-41618.88112054839,-21967.719133820432,-65889.96987223267,-20236.598877501357
-41292.76916894545,-21958.890194760585,-65972.40310578384,-20289.796029304987
-41468.3868251308,-22027.398291516103,-65855.3470200714,-20275.267395409035
-41773.711654390296,-22049.370056315667,-65758.4745596021,-20218.695130192653
-41820.15857936843,-22027.89002989412,-65786.81657157143,-20208.41332774321
-41606.81117854252,-21989.02034628634,-65876.78234300403,-20239.41519730273
-41282.42031126265,-21982.136008994104,-65964.98232662468,-20295.40631716327
-41461.50248783857,-22054.7568267294,-65853.6929909817,-20284.07398272443
-41774.53866893514,-22075.99098396194,-65767.83994052887,-20234.989551900573
-41815.12943686598,-22044.340913813223,-65796.74074610959,-20223.9254383952
-41598.13870169386,-22001.58202667022,-65888.94169198773,-20250.434607319192
-41273.5913722028,-21983.655927617063,-65974.54887325155,-20299.49668639859
-41451.69007202269,-22045.88318418064,-65860.62203176285,-20282.01762223454
-41761.9099333179,-22072.168835660083,-65771.25975743053,-20229.71454020912
-41806.1663873394,-22057.349629086213,-65810.59882767187,-20219.410386015225
-41589.37681786738,-22006.45470696148,-65900.22932293765,-20244.712560738637
-41267.51169771096,-21979.34204093719,-65978.72864946468,-20296.076869496927
-41451.39949934477,-22046.330219069747,-65871.93201445723,-20286.331508914413
-41752.83512506904,-22062.624640777667,-65781.60861511333,-20229.692188464665
-41789.40257899792,-22017.719986166954,-65809.77181312702,-20215.11885107981
-41569.30495134652,-21960.49952036137,-65904.11852647287,-20242.991476415573
-41248.44565969058,-21945.032113198296,-65987.69169899127,-20294.758116574063
-41434.59098751438,-22017.004730344383,-65870.47915106764,-20273.434552363706
-41742.7544883197,-22038.104777110195,-65777.20532145564,-20216.884638891774
-41784.79811964013,-22009.8968756076,-65810.95645558316,-20209.575618454888
-41572.27773335907,-21968.434389643,-65902.62095959437,-20234.05077863345
-41252.75954637046,-21964.433427385506,-65987.4234780578,-20284.49866586908
-41445.409231830745,-22036.830727676243,-65880.22451165016,-20271.82522676292
-41758.9595030498,-22052.99103891743,-65793.05270827445,-20218.04692960345
-41802.34423903754,-22022.704425180487,-65818.31017950895,-20201.90897010672
-41586.69460853274,-21979.610261870654,-65907.29247418552,-20225.24419131806
-41273.926648369634,-21978.626785114626,-65995.76067873964,-20281.39177338979
-41471.91840075474,-22057.193166875026,-65892.54032284503,-20275.78148553151
-41782.71940740578,-22070.64891703712,-65800.76406011153,-20222.13729883877
-41816.58230025558,-22029.633465961637,-65824.85924063435,-20208.458031232123
-41602.162015695816,-21997.089326034704,-65922.46930867068,-20244.936078183186
-41289.75168344399,-21996.418773701047,-66006.75773701165,-20302.78239283352
-41484.1895084607,-22061.015315176883,-65888.51700884308,-20287.49379962609
-41792.0624365881,-22066.960879202,-65798.70769962165,-20233.827261188897
-41822.03612590267,-22011.819125630755,-65816.32087425243,-20211.05083358894
-41599.41275112781,-21964.701648318965,-65913.86388705538,-20237.67176123521
-41282.48736649601,-21957.34792439317,-65996.69945200675,-20289.77367756053
-41476.88048802382,-22034.483794508436,-65885.41011636378,-20277.323755898924
-41787.16740455239,-22063.116379155683,-65798.9312170662,-20228.865173919818
-41819.86800669051,-22025.096061837205,-65821.99821734408,-20212.61545570081
-41593.064855702505,-21976.10103799117,-65915.71908184518,-20240.42102580321
-41276.18417455962,-21962.689991317988,-65987.66934724682,-20285.48214262511
-41476.63461883481,-22034.752015441896,-65874.68127902523,-20270.86410175134
-41786.89918361893,-22055.114454640683,-65787.64358611628,-20220.170345326704
-41828.316966094615,-22026.01248335987,-65811.73876663909,-20208.14510680975
-41608.46520763221,-21983.74533459489,-65909.77351782007,-20234.833089689386
-41296.68072422513,-21976.615128113644,-65992.00558567114,-20280.832979778406
-41497.37703768934,-22049.973553415963,-65873.54134005801,-20260.403485346254
-41804.33354429407,-22065.217443134483,-65789.49878090605,-20204.72528990809
-41838.68817552187,-22029.029968861338,-65819.8300981319,-20188.02853679997
-41617.76353332562,-21989.4897329199,-65920.68116911425,-20225.802984929443
-41309.22005286456,-21985.4887706624,-66002.7791264986,-20284.69983156917
-41507.63648839432,-22054.198033118017,-65880.91741572827,-20270.037087206496
-41809.22857632978,-22077.153274673616,-65794.05853677494,-20219.43273775968
-41844.6784430359,-22047.02312314786,-65822.1323278108,-20204.72528990809
-41624.022021773104,-21996.95521556797,-65925.15151800532,-20236.040083889973
-41312.48340755504,-21965.126331463616,-65992.9220071938,-20279.693040811188
-41511.36922971836,-22026.16894557106,-65878.43637209373,-20257.877738222807
-41817.76694271171,-22044.16209985758,-65798.4841821771,-20210.08970857736
-41861.88928626648,-22020.089271079218,-65832.34707502689,-20206.13344980877
-41634.169713755815,-21972.65886934505,-65919.00478828012,-20231.547383254456
-41322.60874779329,-21960.320706405724,-65997.59352178496,-20285.6386048363
-41527.73070665964,-22029.633465961637,-65885.54422683052,-20273.054572707963
-41832.98848068577,-22049.41475980458,-65797.59011239889,-20221.13147033828
-41869.10889972555,-22011.573256441745,-65814.91271435174,-20195.494019448044
-41653.258103520646,-21966.892119275584,-65912.81335506598,-20222.98666512807
-41352.80595455241,-21962.39941864007,-65994.1737048833,-20276.42968612071
-41563.784070466056,-22031.77923342934,-65880.35862211688,-20260.425837090712
-41873.75806257225,-22047.738378970436,-65795.84667633136,-20213.15189756774
-41914.70645841437,-22017.6976344225,-65818.71251090914,-20204.412365485718
-41694.20649936277,-21972.6365176006,-65912.20985796569,-20234.72133096711
-41389.93220209268,-21963.5840610962,-65990.75388798164,-20287.225578692625
-41602.47494011819,-22038.01537013237,-65879.19633140521,-20278.01665997704
-41905.22931876533,-22052.275783094858,-65786.59305412688,-20218.6727784482
-41939.74041220432,-22021.005692601884,-65820.50065046558,-20202.646577673742
-41712.82550249404,-21973.150607723077,-65914.31092194449,-20222.405519772237
-41406.71836217861,-21963.5840610962,-66001.37096659791,-20273.34514538588
-41615.08132399098,-22036.27193406486,-65891.26627341108,-20256.11195041084
-41912.78420839122,-22046.531384769845,-65803.15569676826,-20199.18205728317
-41946.15536286299,-22009.941579096507,-65836.3927407733,-20187.22387399958
-41717.20644440728,-21959.381933138604,-65937.98141932266,-20221.8243744164
-41411.70280119214,-21955.15745343655,-66023.8344697755,-20282.39760189028
-41618.322326937,-22025.58780021522,-65901.16809620477,-20265.14205517078
-41919.78030440573,-22037.948314899008,-65804.51915318002,-20214.828278401885
-41955.118412389565,-21996.26231148986,-65823.02639758903,-20199.606740427826
-41725.27542415565,-21953.704590046957,-65917.9095528018,-20230.29568556496
-41428.15368511125,-21951.715284790436,-65993.25728336064,-20279.625985577823
-41644.29505399407,-22024.98430311493,-65872.06612492396,-20260.67170627972
-41946.49063902982,-22042.68688472353,-65788.6270628723,-20207.13927830926
-41981.47111910237,-22012.6461401756,-65828.36846451384,-20198.75737413852
-41752.16457273538,-21963.9863924964,-65924.43626218275,-20228.61930473081
-41450.281912122,-21959.225470927417,-65994.55368453905,-20279.15659894426
-41664.232810048205,-22029.052320605795,-65873.94367145821,-20261.230499891102
-41961.86863921507,-22035.73549219793,-65793.65620537475,-20209.48621147707
-41993.58576459716,-22002.990186570907,-65825.12746156781,-20193.549417680435
-41768.61545665449,-21975.54224437979,-65935.94741057724,-20229.24515357556
-41468.25271466407,-21956.073874959216,-66010.84810624697,-20281.45882862316
-41686.048112636585,-22021.095099579707,-65888.31584314298,-20262.996287703078
-41982.96868598088,-22048.52069002637,-65811.49289745008,-20213.66598769021
-42010.34957293864,-22019.172849556548,-65842.02538037603,-20199.9196648502
-41780.28306726016,-21967.04858148677,-65943.07761705847,-20230.63096173179
-41470.97962748762,-21954.30808714725,-66022.85099301947,-20281.257662923057
-41682.04715037908,-22019.955160612484,-65904.6549683398,-20261.610479546845
-41979.39240686804,-22030.952218884497,-65826.42386274623,-20213.844801645853
-42003.19701471293,-21996.575235912234,-65862.58898527491,-20207.22868528708
-41761.37349145097,-21954.48690110289,-65954.94639336424,-20234.251944333548
-41460.161383171246,-21952.408188868547,-66025.30968490955,-20284.722183313632
-41679.23083057771,-22029.4993554949,-65907.6053986079,-20270.282956395506
-41972.99980795381,-22048.56539351528,-65821.6852929217,-20219.745662182053
-41995.0609797312,-22008.868695362653,-65849.28969732401,-20204.61353118581
-41757.68545361584,-21958.26434591584,-65946.89976536033,-20235.5259937675
-41457.34506336988,-21954.017514469328,-66015.09493769347,-20289.68427058271
-41677.08506311,-22030.3487217842,-65894.59668333491,-20275.312098897943
-41977.38074986706,-22052.879280195157,-65815.29269400748,-20224.52893549549
-42006.90740429251,-22019.06109083427,-65838.67261870773,-20208.01099634302
-41773.48813694574,-21965.528662863813,-65932.84051809795,-20234.743682711563
-41473.8406507779,-21959.940726749985,-66008.16589691232,-20291.04772699448
-41686.76336845915,-22028.582933972237,-65885.25365415259,-20272.562834329943
-41986.29909590472,-22041.904573667594,-65804.89913283577,-20219.745662182053
-42010.148407238536,-22001.53732318131,-65831.3859500153,-20202.646577673742
-41771.07414854457,-21957.102055204163,-65933.4663669427,-20236.174194356703
-41475.69584556769,-21959.404284883058,-66006.3777573559,-20291.24889269458
-41699.48151105422,-22036.629561976144,-65886.43829660873,-20272.518130841032
-41989.78596803975,-22051.404065061102,-65802.12751652331,-20221.19852557165
-42008.69554384894,-22010.79094538581,-65831.67652269322,-20208.43567948767
-41767.29670373163,-21969.10494197666,-65932.03585529755,-20241.069226392417
-41475.338217656405,-21969.95430826596,-66014.29027489308,-20296.43449740821
-41696.329915086026,-22040.40700678909,-65898.88821827034,-20272.49577909658
-41988.44486337243,-22067.206748391003,-65829.4860517366,-20227.5240692525
-42003.19701471293,-22020.51395422387,-65846.98746764511,-20211.5202202225
-41760.74764260622,-21972.99414551189,-65949.55962295052,-20245.29370609447
-41459.11085118185,-21961.751218050864,-66015.34080688248,-20290.555988616463
-41680.16960384484,-22032.02510261835,-65893.76966879006,-20268.472465094623
-41966.42839508395,-22041.859870178687,-65813.77277538452,-20215.81175515792
-41984.153328437016,-22012.333215753224,-65849.04382813499,-20204.390013741257
-41741.48043888575,-21966.40038089757,-65949.96195435071,-20237.85057519085
-41442.36939458483,-21956.72207554842,-66015.69843479377,-20286.35386065887
-41668.72551068372,-22030.907515395586,-65894.59668333491,-20268.69598253917
-41958.49352580232,-22049.41475980458,-65823.36167375585,-20226.89822040775
-41978.27481964527,-22025.118413581666,-65857.6939532392,-20218.695130192653
-41733.21029343728,-21982.650099116578,-65951.41481774031,-20253.76501724303
-41434.74744972557,-21977.95623278096,-66016.41369061633,-20301.12836374383
-41652.74401339817,-22041.27872482285,-65888.40525012079,-20269.38888661729
-41936.0970778581,-22051.493472038925,-65815.73972889659,-20218.91864763721
-41952.480906543846,-22021.050396090795,-65852.91067992577,-20213.509525479025
-41703.48247331172,-21975.318726935235,-65952.75592240762,-20245.316057838925
-41410.94284188066,-21980.414924671048,-66020.01232147364,-20301.06130851046
-41632.78390559959,-22051.024085405363,-65888.78522977653,-20278.642508821787
-41917.858054382574,-22066.245623379426,-65817.4831649641,-20227.14408959676
-41928.0951533431,-22019.50812572338,-65847.50155776758,-20210.89437137775
-41674.648722964375,-21967.227395442416,-65939.23311701216,-20240.19750835866
-41377.28111473097,-21969.30610767676,-66018.89473425088,-20300.21194222116
-41600.21741392821,-22045.34674231371,-65896.4518781247,-20280.7882762895
-41884.4868999108,-22058.042533164327,-65821.6852929217,-20231.770900699008
-41900.20017626288,-22028.27000954986,-65858.11863638385,-20225.937095396173
-41648.89951335186,-21979.230282214918,-65955.90751837583,-20255.977839944106
-41348.62617833927,-21967.227395442416,-66017.33011213901,-20297.976767775628
-41573.44002407075,-22036.517803253868,-65894.1496484458,-20274.21686341964
-41854.06617570713,-22043.446844035014,-65814.77860388502,-20220.036234859974
-41866.29257992418,-22007.706404650977,-65841.55599374247,-20209.46385973261
-41618.635251359374,-21963.852282029664,-65947.39150373836,-20245.38311307229
-41323.34635536032,-21961.86297677314,-66018.13477493939,-20293.417011906746
-41555.58098025096,-22029.56641072827,-65894.5072763571,-20268.159540672248
-41838.19643714386,-22042.776291701357,-65819.49482196508,-20215.834106902374
-41851.11574543903,-22015.21659078796,-65854.542357271,-20207.76512715401
-41606.98999249816,-21969.753142565864,-65955.59459395344,-20238.61053450233
-41313.221015122064,-21963.11467446264,-66021.06285346304,-20280.94473850069
-41543.7569074341,-22040.988152144928,-65896.31776765797,-20257.855386478357
-41832.09441090756,-22062.155254144105,-65820.54535395448,-20213.464821990117
-41844.05259419115,-22019.50812572338,-65852.01661014755,-20204.211199785612
-41590.47205334569,-21965.595718097175,-65950.74426540664,-20233.00024664405
-41303.14037837272,-21969.10494197666,-66024.79559478708,-20289.57251186043
-41536.26907304157,-22042.68688472353,-65899.62582583736,-20270.461770351147
-41812.35782055352,-22052.16402437258,-65814.80095562947,-20214.58240921288
-41822.86314044752,-22020.960989112973,-65846.20515658917,-20200.210237528117
-41573.30591360401,-21979.83377931521,-65953.33706776347,-20239.01286590253
-41286.66714270916,-21973.597642612174,-66015.27375164912,-20292.768811317543
-41523.19330253521,-22037.948314899008,-65887.77940127604,-20270.90880524025
-41800.44434075884,-22040.429358533547,-65811.04586256098,-20214.917685379707
-41816.24702408875,-22015.28364602133,-65847.65801997877,-20206.28991201996
-41567.94149493474,-21977.95623278096,-65948.08440781647,-20240.86806069232
-41277.43587224912,-21966.15451170856,-66011.78687951408,-20287.136171714803
-41512.37505821885,-22033.165041585573,-65886.21477916418,-20267.220767405124
-41795.48225348977,-22046.79960570331,-65814.64449341828,-20224.30541805093
-41808.69213446285,-22002.476096448438,-65844.97581064413,-20212.056662089428
-41553.39050929434,-21948.407226611045,-65947.52561420508,-20241.33744732588
-41267.64580817769,-21949.882441745096,-66009.7305190242,-20290.98067176112
-41508.55290991699,-22027.353588027192,-65880.31391862797,-20268.49481683908
-41789.871965631486,-22042.66453297908,-65816.20911553015,-20223.07607210589
-41800.913727392406,-22003.21370401546,-65852.15072061429,-20214.940037124165
-41544.82979116796,-21948.34017137768,-65941.82591936897,-20235.61540074532
-41267.33288375531,-21962.041790728785,-66014.9831789712,-20294.512247385057
-41502.22736623614,-22025.721910681958,-65879.88923548332,-20262.124569669315
-41779.83603237105,-22031.756881684887,-65805.14500202477,-20206.96046435362
-41792.12949182147,-21998.07280279074,-65839.81255767496,-20197.12569679328
-41537.69958468671,-21950.128310934106,-65947.88324211637,-20235.682455978687
-41254.07829929332,-21951.402360368054,-66009.21642890172,-20289.88543628281
-41494.02427602104,-22023.442032747516,-65876.73763951512,-20266.52786332701
-41775.879773602464,-22038.395349788112,-65804.36269096883,-20219.365682526317
-41784.44049172884,-22001.78319237032,-65833.59877271637,-20205.172324797197
-41531.15052356131,-21960.11954070563,-65933.6675326428,-20239.81752870292
-41249.54089516889,-21966.355677408657,-66001.9297602093,-20296.03216600801
-41485.01652300555,-22032.06980610726,-65866.7017062547,-20267.95837497215
-41757.84191582703,-22035.802547431296,-65789.99051928408,-20214.06831909041
-41770.67181714437,-21999.12333478014,-65828.4355197472,-20207.675720176187
-41514.20790126418,-21955.33626739219,-65938.69667514523,-20246.09836889486
-41228.485551892,-21964.29931691877,-66009.23878064618,-20296.63566310831
-41471.78429028801,-22046.151405114106,-65886.7512210311,-20276.42968612071
-41745.034366254135,-22052.208727861493,-65817.55022019747,-20231.033293131983
-41751.31520644608,-22007.616997673154,-65845.31108681097,-20217.085804591872
-41495.16421498826,-21964.366372152137,-65948.19616653874,-20253.161520142738
-41212.97344124001,-21963.71817156293,-66016.45839410524,-20308.5938463919
-41452.472383078624,-22026.12424208215,-65892.2497501671,-20281.883511767806
-41722.41440086537,-22032.919172396563,-65823.47343247813,-20230.876830920795
-41728.29290965711,-22006.11943079465,-65857.80571196148,-20224.66304596222
-41468.9903222311,-21947.803729510757,-65956.4663119872,-20256.69309576668
-41186.24075487146,-21937.365464850125,-66018.80532727306,-20304.14584924529
-41431.64055724628,-22004.89008484961,-65889.96987223267,-20274.59684307538
-41707.48343556922,-22013.763727398364,-65821.12649931033,-20224.10425235084
-41714.63599379493,-21979.90083454857,-65861.42669456324,-20214.157726068228
-41455.9369034692,-21934.59384853767,-65965.9658033807,-20244.33258108289
-41174.68490298807,-21936.314932860725,-66026.69549306578,-20290.62304384983
-41421.11288560783,-22014.322521009748,-65899.64817758181,-20265.67849703771
-41697.60396451998,-22026.39246301561,-65832.8388134049,-20218.89629589275
-41701.73903724421,-21987.00868928536,-65875.44123833672,-20212.99543535655
-41443.91166495224,-21945.63561029859,-65981.90259717734,-20249.45113056316
-41167.50999301791,-21957.21381392644,-66040.82179556153,-20298.379099175825
-41419.81648442942,-22039.4011782886,-65915.56261963399,-20274.038049463998
-41693.42418830683,-22050.97938191645,-65847.90388916778,-20223.16547908372
-41697.6933714978,-22011.550904697287,-65878.54813081601,-20209.17328705469
-41436.71440323763,-21967.987354753892,-65976.85110293045,-20235.57069725641
-41165.02894938338,-21976.324555435724,-66048.98018228772,-20292.187665961705
-41415.30143204945,-22054.108626140194,-65929.13012851836,-20273.233386663604
-41685.556374258565,-22053.326315084258,-65862.92426144175,-20225.24419131806
-41686.606906247966,-22020.4468989905,-65902.19627644971,-20219.991531371063
-41419.81648442942,-21963.941689007486,-65996.81121072904,-20250.72517999711
-41138.74329790394,-21946.194403909973,-66046.85676656447,-20294.80282006297
-41383.74076887855,-22009.22632327394,-65914.82501206697,-20264.829130748407
-41654.9791878437,-22015.03777683232,-65852.01661014755,-20217.577542969888
-41658.26489427863,-21977.218625213936,-65891.62390132235,-20210.022653344
-41393.21790852761,-21924.6249705106,-65983.53427452258,-20242.20916535964
-41121.48775118444,-21936.58315379419,-66045.7391793417,-20298.312043942457
-41374.21892574059,-22010.16509654106,-65910.80169806501,-20266.72902902711
-41644.74208888318,-22018.703462922986,-65835.96805762865,-20214.60476095733
-41649.81593487453,-21985.35466019567,-65873.58604354692,-20210.24617078855
-41386.33357123537,-21937.119595661115,-65980.38267855438,-20247.05949390644
-41110.87067256816,-21944.45096784246,-66039.92772578332,-20298.602616620377
-41356.762213321,-22013.87548612064,-65902.68801482774,-20271.378191873813
-41627.24067297467,-22020.46925073496,-65831.56476397095,-20220.438566260167
-41636.44959169026,-21994.87650333363,-65879.21868314967,-20217.398729014247
-41373.01193154001,-21950.284773145293,-65980.04740238756,-20252.938002698185
-41099.69480034051,-21952.229374912906,-66035.4350251478,-20301.173067232736
-41351.15192546272,-22026.57127697125,-65908.96885501967,-20274.909767497757
-41617.91999553681,-22029.812279917274,-65841.44423502019,-20224.10425235084
-41619.75283858214,-21994.049488788783,-65879.01751744957,-20216.348197024847
-41358.19272496614,-21955.35861913665,-65990.44096355927,-20260.090560923883
-41084.09328271071,-21956.565613337232,-66044.75570258567,-20305.75517484608
-41340.132515446254,-22036.74132069842,-65921.12820400337,-20283.224616435127
-41608.66637333231,-22054.957992429496,-65855.27996483803,-20232.374397799304
-41603.7713412966,-22015.73068091043,-65888.53936058753,-20218.89629589275
-41333.04701245392,-21950.77651152331,-65990.06098390353,-20253.76501724303
-41061.65213127758,-21941.187613151986,-66050.54480439959,-20302.11184049986
-41313.66805001117,-22011.282683763824,-65924.81624183849,-20277.25670066556
-41577.530393306064,-22022.816183902763,-65862.85720620838,-20228.32873205289
-41575.04934967153,-21980.571386882235,-65895.42369787976,-20212.21312430061
-41304.70500048459,-21928.8270984682,-65990.59742577045,-20240.91276418123
-41033.019546630334,-21933.34215084817,-66047.43791192031,-20290.310119427457
-41284.9460583861,-22002.36433772616,-65914.15445973331,-20257.69892426717
-41551.13298310435,-22005.381823227624,-65841.31012455346,-20202.62422592929
-41559.49253553063,-21975.07285774623,-65885.27600589705,-20200.09847880584
-41296.88188992523,-21936.20317413845,-65993.21257987173,-20242.633848504287
-41028.14686633908,-21943.60160155316,-66040.01713276115,-20290.846561294387
-41282.26384905146,-22015.261294276872,-65900.29637817101,-20258.749456256566
-41549.03191912555,-22020.35749201268,-65834.76106342806,-20207.85453413183
-41551.13298310435,-21988.997994541885,-65879.21868314967,-20206.15580155323
-41283.11321534076,-21943.422787597512,-65989.01045191413,-20249.04879916296
-41015.13815106609,-21950.240069656385,-66058.09969402548,-20307.87859056933
-41266.50586921047,-22019.798698401297,-65927.18552675075,-20282.21878793464
-41523.52857870205,-22023.620846703157,-65856.01757240505,-20226.89822040775
-41518.45473271069,-21982.583043883213,-65884.40428786329,-20206.96046435362
-41252.06664229234,-21946.70849403244,-65997.86174271844,-20247.61828751782
-40983.80100533975,-21961.080665717207,-66055.86451957995,-20301.73186084412
-41240.39903168667,-22039.69175096652,-65926.82789883946,-20276.25087216507
-41494.20308997668,-22038.909439910585,-65859.1468166288,-20218.695130192653
-41495.92417429974,-22001.35850922567,-65910.42171840927,-20222.38316802778
-41224.97632801251,-21940.91939221852,-66010.44577484677,-20261.38696210229
-40954.095536958645,-21928.67063625701,-66050.88008056642,-20303.87762831183
-41212.50405460645,-21992.060183532263,-65912.63454111034,-20275.06622970894
-41474.53355485601,-21993.40128819958,-65839.87961290832,-20226.71940645211
-41470.73375829861,-21958.80078778277,-65873.13900865782,-20219.030406359485
-41206.4243801146,-21921.071043142205,-65976.29230931906,-20254.72614225461
-40940.326862374175,-21932.135156647582,-66029.5341646116,-20300.435459665718
-41204.90446149164,-22010.63448317462,-65900.22932293765,-20276.407334376257
-41467.87273500833,-22017.518820466856,-65833.77758667202,-20226.4735372631
-41466.12929894082,-21984.59470088419,-65868.37808708884,-20218.76218542602
-41197.59544105476,-21934.01270318183,-65967.97746038169,-20246.05366540595
-40941.66796704149,-21944.65213354256,-66034.3397896695,-20298.334395686918
-41206.75965628144,-22018.68111117853,-65910.51112538709,-20273.479255852613
-41464.92230474023,-22016.892971622103,-65836.77272042903,-20213.06249058992
-41464.63173206231,-21983.521817150333,-65873.22841563563,-20204.88175211928
-41198.60126955525,-21944.138043420084,-65984.78597221208,-20244.15376712725
-40937.89052222855,-21951.5811743237,-66045.02392351913,-20299.608445120863
-41195.561432309325,-22018.07761407824,-65908.94650327522,-20264.11387492584
-41455.28870288,-22028.94056188352,-65859.97383117364,-20224.372473284304
-41450.79600224448,-21996.552884167777,-65902.06216598299,-20220.5726767269
-41174.03670239887,-21939.846508484665,-66005.57309455551,-20249.428778818703
-40912.18601610494,-21946.55203182125,-66063.08413303902,-20297.4403259087
-41173.29909483184,-22021.45272749099,-65932.37113146439,-20270.10414243986
-41428.82423744491,-22026.146593826605,-65875.39653484781,-20225.087729106872
-41418.09540010636,-21976.615128113644,-65904.99024450663,-20212.3695865118
-41142.45368748352,-21921.8757059426,-66000.8792282199,-20246.12072063932
-40881.65353317899,-21928.648284512557,-66050.58950788851,-20294.80282006297
-41148.19808580853,-22003.481924948923,-65921.9105150593,-20270.998212218077
-41409.15470232424,-22005.471230205447,-65860.30910734048,-20223.120775594805
-41409.892309891264,-21982.27011946084,-65900.69870957121,-20223.299589550446
-41134.42941122406,-21934.079758415195,-66001.25920787564,-20261.4316655912
-40874.43391971993,-21941.34407536317,-66048.55549914307,-20308.03505278052
-41145.00178635142,-22018.345835011703,-65910.08644224243,-20278.977784988616
-41404.19261505516,-22023.64319844761,-65847.63566823432,-20232.06147337693
-41397.57649869639,-21983.946500294984,-65881.92324422876,-20221.66791220521
-41121.64421339562,-21931.889287458576,-65981.90259717734,-20249.786406729985
-40869.76240512877,-21948.094302188674,-66043.50400489617,-20303.85527656737
-41141.1125828162,-22021.25156179089,-65915.13793648934,-20276.474389609622
-41404.796112155454,-22027.957085127484,-65858.9456509287,-20232.30734256593
-41400.07989407538,-21992.753087610377,-65896.51893335806,-20226.451185518647
-41121.97948956245,-21944.54037482028,-65994.93366419479,-20260.761113257544
-40862.162812013965,-21956.051523214763,-66045.31449619705,-20309.15264000328
-41128.34973673221,-22022.860887391675,-65913.95329403321,-20279.5365786
-41386.73590263556,-22029.52170723936,-65855.7940549605,-20234.49781352256
-41380.65622814372,-21997.938692324005,-65897.54711360301,-20228.127566352792
-41105.573309132255,-21944.965057964928,-66006.333053867,-20263.219805147623
-40843.499105393785,-21944.60743005365,-66057.65265913638,-20306.11280275736
-41105.59566087672,-22013.51785820936,-65919.29536095803,-20271.15467442926
-41359.15384997772,-22014.50133496539,-65853.73769447062,-20220.438566260167
-41351.88953302975,-21968.948479765477,-65895.44604962421,-20211.27435103349
-41076.82896576273,-21918.925275674497,-66004.96959745522,-20248.646467762766
-40820.40975337145,-21928.67063625701,-66050.76832184414,-20294.467543896146
-41088.56363160177,-21998.11750627965,-65914.15445973331,-20260.224671390613
-41341.13834394674,-21999.12333478014,-65842.31595305396,-20208.23451378757
-41329.448381596616,-21958.510215104845,-65876.06708718147,-20198.93618809416
-41052.82319221774,-21921.451022797948,-65990.08333564799,-20244.131415382795
-40800.11436940603,-21938.28188637279,-66047.32615319802,-20299.5413898875
-41069.20702090347,-22008.35460524018,-65912.81335506598,-20272.49577909658
-41324.17336990516,-22016.40123324409,-65853.91650842625,-20224.797156428955
-41316.48436981253,-21985.868750318143,-65894.19435193471,-20219.924476137698
-41038.18279959951,-21938.326589861703,-66000.99098694217,-20255.64256377728
-40779.88604067398,-21947.311991132738,-66047.48261540922,-20302.35770968887
-41050.52096253884,-22018.815221645265,-65907.13601197435,-20273.993345975083
-41300.59227950481,-22016.28947452181,-65835.43161576171,-20215.945865624653
-41288.49998575449,-21986.561654396257,-65878.59283430492,-20207.80983064292
-41009.50551146335,-21947.87078474412,-65992.60908277144,-20254.05558992095
-40751.16404904891,-21946.417921354525,-66034.25038269167,-20295.763945074552
-41023.989441870384,-22027.33123628273,-65899.89404677082,-20263.890357481287
-41277.1452995712,-22033.5003177524,-65844.8417001774,-20219.633903459777
-41266.34940699928,-21986.40519218507,-65889.67929955474,-20217.398729014247
-40984.09157801767,-21939.846508484665,-65996.7218037512,-20259.710581268144
-40728.432324937865,-21934.370331093112,-66045.20273747477,-20304.68229111222
-41001.39182822607,-22002.20787551497,-65913.59566612192,-20278.083715210407
-41248.84799109078,-21997.178733012526,-65850.78726420252,-20223.947790139653
-41230.67602284861,-21960.991258739385,-65885.87950299734,-20210.49203997756
-40950.72042354589,-21919.99815940835,-65992.8773037049,-20249.182909629693
-40704.04657173712,-21940.91939221852,-66046.36502818645,-20303.452945167177
-40974.793252324256,-22009.82982037423,-65911.33813993193,-20275.513264598045
-41228.82082805882,-22014.054300076285,-65864.57829053144,-20237.872926935303
-41213.75575229595,-21972.860035045152,-65892.07093621146,-20225.065377362414
-40929.77683899127,-21919.14879311905,-65988.04932690255,-20253.72031375412
-40678.63263829144,-21926.077833900195,-66034.76447281415,-20302.514171900057
-40951.659196813016,-21999.816238858253,-65891.91447400028,-20269.09831393937
-41200.79174051186,-22008.39930872909,-65831.83298490441,-20219.969179626605
-41188.11830140571,-21970.244880943883,-65872.35669760188,-20214.783574912977
-40912.43188529395,-21930.54818279125,-65983.73544022268,-20256.64839227777
-40663.9475421843,-21945.322685876214,-66038.47486239372,-20308.191514991704
-40936.72823151687,-22012.914361109066,-65901.14574446031,-20274.306270397457
-41187.24658337195,-22017.40706174458,-65842.83004317642,-20227.792290185964
-41181.3233710913,-21989.4897329199,-65889.41107862128,-20224.461880262123
-40900.87603341056,-21945.836775998687,-65998.71110900774,-20261.163444657737
-40654.93978916881,-21955.023342969816,-66052.51175791166,-20310.381985948323
-40931.38616459205,-22021.51978272436,-65914.98147427816,-20281.21295943415
-41176.42833905558,-22022.5479629693,-65852.77656945903,-20231.703845465643
-41158.8151644248,-21977.375087425124,-65893.54615134551,-20224.05954886193
-40874.79154763121,-21922.792127465265,-65999.91810320831,-20263.979764459105
-40627.067163833046,-21932.224563625405,-66041.76056882866,-20305.710471357164
-40902.70887645589,-21999.860942347164,-65909.0582619975,-20273.54631108598
-41151.88612364366,-21998.408078957567,-65849.22264209064,-20222.20435407214
-41135.52464670237,-21969.283755932305,-65891.8474187669,-20217.398729014247
-40847.5894746291,-21925.027301910795,-66000.38748984189,-20257.58716554489
-40603.9331083218,-21939.891211973576,-66047.46026366476,-20306.939817302205
-40883.66519017997,-22007.32642499524,-65913.66272135529,-20276.340279142893
-41126.11456228668,-22009.02515757384,-65853.64828749279,-20229.021636131005
-41109.082533011744,-21973.77645656782,-65888.29349139852,-20225.95944714063
-40826.80235228567,-21929.967037435417,-65993.43609731628,-20264.627965048312
-40583.34715167846,-21934.638552026576,-66039.21246996075,-20308.48208766962
-40866.7449196273,-22015.484811721424,-65912.41102366579,-20285.86212228085
-41112.7035156135,-22018.569352456256,-65847.27804032303,-20231.703845465643
-41097.12434972816,-21977.8891775476,-65885.76774427507,-20223.903086650746
-40813.45836084585,-21933.900944459558,-65999.0240334301,-20267.511340083045
-40570.2266776832,-21944.65213354256,-66040.12889148341,-20311.231352237624
-40850.6963671084,-22016.065957077262,-65902.553904361,-20279.000136733077
-41100.834739307735,-22022.994997858408,-65849.11088336837,-20236.777691457
-41087.91543101257,-21993.378936455123,-65897.4577066252,-20235.660104234237
-40801.56723279563,-21950.79886326777,-66002.06387067604,-20273.032220963505
-40564.325817147,-21963.36054365165,-66044.06279850756,-20319.345035474904
-40849.77994558573,-22028.851154905697,-65908.49946838612,-20283.06815422394
-41097.683143339535,-22016.535343710824,-65850.18376710222,-20231.25681057654
-41081.43342512053,-21977.464494402942,-65891.13216294434,-20222.830202916884
-40791.128968135,-21922.90388618754,-65994.84425721696,-20256.40252308876
-40554.8710292424,-21943.5792498087,-66047.41556017585,-20312.34893946039
-40838.62642510253,-22013.629616931637,-65911.20402946521,-20284.02927923552
-41081.05344546479,-22001.02323305884,-65845.80282518898,-20230.698016965154
-41068.75998601437,-21969.6860873325,-65884.40428786329,-20230.80977568743
-40780.33307556308,-21919.3723105636,-65990.21744611472,-20267.712505783144
-40543.6728052703,-21935.644380527065,-66040.19594671679,-20314.40529995028
-40833.06084073315,-22014.18841054301,-65908.79004106403,-20288.745497315587
-41076.62780006263,-22013.271989020348,-65849.40145604628,-20247.126549139804
-41066.50245982438,-21983.87944506162,-65889.12050594336,-20246.32188633941
-40778.187308095374,-21939.60063929565,-66000.4321933308,-20282.88934026829
-40542.44345932525,-21950.351828378654,-66044.71099909676,-20326.944628589707
-40830.51274186525,-22021.765651913363,-65909.34883467542,-20293.72993632912
-41075.26434365086,-22027.01831186036,-65856.2410898496,-20245.517223539024
-41057.24883761988,-21988.19333174149,-65892.4062123783,-20237.20237460165
-40771.012398125225,-21942.46166258593,-66000.09691716396,-20274.663898308743
-40537.50372380063,-21961.12536920612,-66043.86163280746,-20323.055425054485
-40826.89175926349,-22030.013445617373,-65902.41979389427,-20289.93013977172
-41070.90575348208,-22029.16407932807,-65844.34996179938,-20237.694112979665
-41052.21969511744,-21989.623843386635,-65885.2983576415,-20232.44145303267
-40764.26217129972,-21947.71432253293,-66002.08622242049,-20277.703735554664
-40526.64077599535,-21947.893136488576,-66044.01809501865,-20318.763890119066
-40812.31842187863,-22007.21466627296,-65906.17488696276,-20277.72608729912
-41055.50540155237,-22013.0484715758,-65860.48792129611,-20229.37926404229
-41035.388831542594,-21975.408133913057,-65911.62871260986,-20227.121737852303
-40749.10768855902,-21917.874743685097,-66021.06285346304,-20269.81356976194
-40519.823493936485,-21929.72116824641,-66050.25423172167,-20309.711433614662
-40813.4360091014,-22001.96200632596,-65916.76961383458,-20274.01569771954
-41056.80180273078,-21999.950349324983,-65866.07585740995,-20220.75149068254
-41041.267340334336,-21960.65598257256,-65903.31386367248,-20210.76026091102
-40763.14458407695,-21921.652188498043,-66018.87238250642,-20257.47540682261
-40535.35795633292,-21935.465566571424,-66053.69640036779,-20302.8941515558
-40827.897587763975,-22002.274930748332,-65908.49946838612,-20266.59491856038
-41074.3926256171,-22007.885218606614,-65849.82613919093,-20223.701920950643
-41061.98740744441,-21972.92709027852,-65880.33627037243,-20218.4716127481
-40776.93561040588,-21923.44032805447,-65988.80928621403,-20257.989496945083
-40547.56200880552,-21936.35963634964,-66031.05408323456,-20302.625930622333
-40844.43787866091,-22008.533419195825,-65905.6607968403,-20275.75913378705
-41091.42465489205,-22011.349738997196,-65860.15264512929,-20236.33065656789
-41074.54908782829,-21981.688974105,-65904.11852647287,-20236.867098434817
-40785.69749423236,-21937.946610205963,-66017.46422260573,-20278.30723265496
-40554.20047690874,-21949.99420046737,-66057.83147309202,-20322.966018076662
-40840.36986117004,-22013.562561698265,-65914.44503241123,-20290.22071244964
-41082.03692222082,-22005.27006450535,-65860.77849397404,-20242.030351403995
-41066.32364586874,-21966.422732642022,-65904.94554101772,-20234.40840654473
-40772.86759291501,-21906.65416796853,-66006.1765916558,-20266.6843255382
-40545.41624133781,-21924.51321178832,-66045.80623457507,-20309.666730125755
-40840.36986117004,-21999.90564583608,-65915.38380567834,-20279.000136733077
-41080.44994836449,-21995.81527660075,-65868.66865976676,-20233.96137165563
-41061.96505569996,-21954.86688075863,-65913.52861088856,-20228.75341519754
-40776.868555172514,-21911.638606982066,-66023.87917326442,-20270.8864534958
-40549.95364546224,-21925.56374377772,-66061.40775220488,-20319.546201175
-40845.600169372585,-21993.468343432945,-65918.78127083555,-20281.794104789988
-41095.24680319391,-21991.5907968987,-65869.2945086115,-20233.71550246662
-41077.9465529855,-21954.55395633625,-65913.46155565519,-20224.05954886193
-40789.69845648986,-21911.169220348504,-66020.23583891819,-20260.60465104636
-40571.14309920587,-21934.43738632648,-66057.76441785865,-20305.21873297915
-40872.93635284143,-22010.79094538581,-65921.1058522589,-20272.518130841032
-41119.52079767237,-22008.35460524018,-65878.34696511591,-20230.787423942977
-41101.68410559704,-21966.892119275584,-65914.73560508914,-20218.985702870574
-40816.47584634732,-21925.854316455643,-66023.81211803104,-20256.08959866638
-40598.2334134857,-21945.993238209878,-66070.25904300917,-20302.35770968887
-40895.35515253009,-22011.64031167511,-65936.88618384436,-20267.980726716607
-41141.87254212768,-22014.993073343405,-65888.6511193098,-20227.188793085672
-41121.107771528696,-21978.559729881257,-65929.64421864084,-20225.33359829588
-40827.67407031942,-21926.703682744945,-66036.01617050364,-20268.00307846106
-40607.2858699901,-21947.222584154915,-66074.28235701112,-20318.62977965233
-40908.76619920328,-22031.24279156241,-65941.9153263468,-20288.41022114876
-41147.79575440833,-22024.067881592266,-65893.41204087879,-20242.49973803756
-41119.69961162801,-21965.036924485797,-65927.58785815095,-20231.86030767683
-40825.52830285172,-21911.459793026424,-66037.62549610442,-20271.06526745144
-40603.66488738834,-21931.933990947484,-66078.3950779909,-20319.83677385292
-40897.34445778662,-22006.45470696148,-65941.93767809126,-20290.62304384983
-41137.29043451434,-22002.476096448438,-65886.9523867312,-20245.472520050116
-41119.90077732811,-21967.45091288697,-65932.30407623101,-20243.77378747151
-40826.55648309666,-21919.81934545271,-66038.29604843809,-20284.69983156917
-40603.73194262171,-21935.733787504887,-66075.42229597835,-20331.16910829176
-40902.842986922624,-22004.778326127333,-65935.43332045476,-20294.98163401862
-41139.41385023759,-21994.20595099997,-65872.2002353907,-20238.990514158075
-41117.62089939367,-21958.666677316032,-65912.52278238807,-20233.827261188897
-40825.34948889607,-21915.90779017303,-66024.9297052538,-20274.86506400884
-40611.532701436605,-21939.5782875512,-66068.67206915285,-20322.653093654288
-40912.09660912712,-22012.534381453323,-65933.75693962061,-20289.68427058271
-41152.780193421866,-22011.483849463923,-65887.24295940912,-20246.59010727288
-41129.84730361072,-21977.59860486968,-65935.47802394367,-20242.09740663736
-40835.7430500678,-21934.01270318183,-66046.27562120862,-20281.525883856524
-40612.9855648262,-21940.248839884855,-66078.73035415773,-20319.054462796983
-40909.81673119268,-22011.282683763824,-65942.94350659175,-20281.45882862316
-41144.53239971786,-22015.015425087862,-65901.2575031826,-20237.180022857192
-41118.76083836089,-21980.19140722649,-65944.53048044807,-20237.96233391313
-40820.87914000501,-21933.744482248367,-66058.47967368123,-20285.616253091845
-40602.52494842112,-21947.69197078848,-66097.46111601128,-20332.867840870364
-40900.60781247709,-22019.843401890208,-65966.07756210299,-20297.328567186425
-41131.50133270041,-22002.25257900388,-65911.47225039867,-20251.19456663067
-41103.60635562019,-21958.15258719356,-65948.12911130537,-20246.38894157278
-40804.71882876383,-21918.835868696675,-66059.59726090399,-20286.622081592333
-40585.93995403528,-21932.09045315867,-66092.14140083092,-20325.60352392239
-40885.36392275857,-21993.468343432945,-65950.29723051754,-20286.756192059063
-41122.00184130691,-21989.959119553463,-65902.84447703892,-20243.304400837947
-41100.36535267417,-21960.141892450083,-65950.92307936228,-20240.801005458958
-40803.91416596343,-21919.685234985976,-66064.06760979505,-20280.318889655937
-40588.7786255811,-21928.760043234837,-66092.00729036418,-20320.73084363113
-40894.93046938544,-22001.13499178112,-65961.36134402291,-20290.26541593855
-41129.02028906588,-21999.5927214137,-65912.72394808817,-20243.058531648938
-41104.32161144276,-21963.24878492937,-65956.95805036523,-20240.979819414595
-40805.41173284194,-21916.779508206782,-66065.5428249291,-20280.5871105894
-40592.71253260524,-21938.68421777299,-66101.93146490234,-20331.68319841423
-40897.36680953107,-22008.913398851564,-65963.06007660151,-20294.80282006297
-41130.56255943329,-22003.571331926745,-65907.560695119,-20240.39867405876
-41100.56651837427,-21966.042752986283,-65947.95029734973,-20231.882659421284
-40803.48948281878,-21924.58026702169,-66069.5437871866,-20276.85436926536
-40581.20138421076,-21937.09724391666,-66107.72056671626,-20319.613256408367
-40874.83625112013,-21999.25744524687,-65969.02799237109,-20278.664860566245
-41111.51887315737,-21999.72683188043,-65923.27397147108,-20238.29761007996
-41083.55684084378,-21970.89308153309,-65973.16306509532,-20237.604706001843
-40783.41761629792,-21936.6278572831,-66092.25315955319,-20282.39760189028
-40573.154756206844,-21954.017514469328,-66128.1053576595,-20331.660846669776
-40874.27745750874,-22018.614055945167,-65985.00948965663,-20291.651224094778
-41108.34492544472,-22014.92601811004,-65942.317657747,-20247.774749729007
-41081.36636988716,-21980.102000248677,-65987.19996061324,-20248.512357296036
-40776.04154062767,-21920.33343557518,-66089.30272928509,-20288.432572893213
-40557.75440427714,-21919.21584835241,-66102.98199689174,-20321.89313434281
-40864.263875992765,-21984.371183439634,-65960.7131434337,-20287.9408345152
-41100.14183522962,-21985.511122406857,-65920.41294818079,-20251.61924977532
-41067.59769530269,-21945.4791480874,-65960.0202393556,-20243.840842704874
-40768.6207614685,-21908.755231947333,-66077.2998425126,-20290.958320016663
-40559.0731572,-21937.700741016957,-66114.33668307503,-20342.34498051941
-40863.213344003365,-22008.891047107107,-65967.4186667703,-20304.928160301228
-41090.82115779176,-21996.48582893441,-65909.17002071977,-20254.30145910996
-41055.59480853019,-21957.839662771185,-65951.54892820703,-20244.80196771645
-40757.10961307402,-21921.495726286856,-66069.16380753086,-20291.383003161314
-40555.2733606426,-21944.965057964928,-66105.64185448192,-20333.761910648576
-40867.30371323868,-22014.948369854497,-65970.74907669415,-20293.14879097328
-41098.53250962884,-22011.14857329709,-65930.53828841905,-20248.35589508485
-41072.17980291603,-21978.246805458883,-65976.62758548588,-20249.58524102989
-40771.37002603651,-21932.068101414217,-66087.53694147312,-20289.68427058271
-40558.17908742179,-21945.41209285404,-66111.56506676257,-20324.575343677443
-40863.43686144792,-22014.702500665488,-65973.45363777324,-20286.644433336787
-41093.81629154877,-22013.83078263173,-65937.6684949003,-20243.95260142715
-41062.590904544704,-21980.95136653797,-65987.64699550236,-20243.17029037121
-40758.83069739708,-21946.216755654423,-66105.3065783151,-20292.99232876209
-40548.90311347284,-21971.16130246655,-66133.89445947343,-20337.807576394986
-40850.62931187503,-22032.762710185376,-65987.46818154672,-20298.580264875924
-41073.3420936277,-22006.07472730574,-65935.58978266595,-20250.50166255256
-41041.200285100975,-21960.320706405724,-65978.50513202013,-20246.277182850503
-40734.33318547406,-21916.35482506213,-66087.67105193986,-20287.247930437083
-40525.92552017278,-21931.621066525116,-66101.21620907978,-20322.31781748746
-40836.90534077946,-22008.801640129288,-65966.30107954754,-20287.247930437083
-41061.02628243283,-22006.991148828405,-65919.67534061377,-20243.371456071312
-41024.74940118187,-21954.64336331408,-65952.93473636327,-20231.726197210097
-40724.85604582501,-21909.068156369707,-66067.71094414126,-20275.75913378705
-40520.225825336674,-21929.363540335125,-66098.71281370078,-20320.32851223093
-40829.46220987585,-22002.36433772616,-65962.25541380113,-20290.4889333831
-41056.60063703068,-21998.430430702025,-65913.88623879984,-20246.791272972976
-41025.889340149086,-21959.00195348286,-65954.49935847514,-20244.44433980517
-40720.98919403424,-21921.227505353392,-66070.88489185392,-20291.897093283784
-40522.460999782204,-21948.6307440556,-66105.82066843756,-20346.055370098995
-40834.22313144483,-22025.096061837205,-65971.84431217246,-20313.13125051633
-41059.8416399767,-22010.120393052148,-65923.31867495998,-20263.10804642535
-41027.11868609413,-21967.11563672014,-65959.90848063333,-20256.53663355549
-40720.609214378506,-21919.3723105636,-66070.3931534759,-20296.501552641577
-40515.42020027879,-21927.106014145134,-66096.85761891099,-20332.10788155888
-40822.64492781698,-21991.12141026514,-65952.08537007397,-20283.470485624133
-41047.65993924856,-21995.949387067485,-65904.83378229545,-20234.38605480028
-41014.93698536599,-21959.20311918296,-65954.23113754168,-20234.56486875592
-40710.41681890689,-21914.320816316704,-66069.16380753086,-20281.503532112067
-40507.48533099715,-21938.617162539624,-66093.70602294279,-20326.13996578932
-40815.5370730802,-22003.481924948923,-65959.23792829966,-20291.383003161314
-41038.5851309997,-21983.47711366142,-65913.32744518846,-20242.633848504287
-41005.21397652793,-21941.56759280772,-65958.79089341055,-20239.035217646982
-40696.73755130023,-21891.946720116943,-66069.56613893106,-20270.05943895095
-40496.53297621405,-21913.24793258285,-66101.05974686859,-20310.33728245941
-40810.19500615537,-21983.186540983505,-65963.3730010239,-20273.278090152515
-41035.8358664317,-21981.845436316187,-65918.08836675744,-20229.53572625348
-41006.01863932832,-21949.100130689163,-65959.70731493323,-20224.70774945113
-40700.42558913536,-21906.877685413085,-66069.43202846432,-20266.550215071467
-40503.28320303955,-21932.068101414217,-66094.30952004308,-20310.292578970504
-40819.00159347076,-22001.60437841468,-65956.04162884255,-20274.52978784201
-41046.02826190332,-21996.95521556797,-65918.40129117982,-20238.40936880224
-41012.34418300917,-21961.237127928394,-65968.29038480406,-20239.214031602627
-40708.04753399462,-21916.690101228967,-66076.11520005646,-20283.7387065576
-40514.54848224503,-21933.14098514807,-66102.69142421382,-20325.78233787803
-40826.84705577458,-21998.27396849084,-65953.82880614148,-20282.50936061256
-41050.85623870567,-21994.608282400168,-65901.07868922695,-20231.52503151
-41018.87089239012,-21957.884366260096,-65947.57031769399,-20230.966237898618
-40712.11555148549,-21911.3703860486,-66060.64779289339,-20275.177988431216
-40515.911938656805,-21936.44904332746,-66093.25898805368,-20319.769718619555
-40829.95394825387,-22006.991148828405,-65956.73453292067,-20284.900997269277
-41052.57732302872,-21990.92024456504,-65909.66175909778,-20240.152804869747
-41021.24017730238,-21954.017514469328,-65955.79575965354,-20241.29274383697
-40717.4129149214,-21907.10120285764,-66068.8955865974,-20284.521017613533
-40521.87985442637,-21930.145851391066,-66088.34160427352,-20323.636570410323
-40835.49718087878,-21997.06697429025,-65941.37888447987,-20279.49187511109
-41054.633683518616,-21977.59860486968,-65891.48979085563,-20225.4230052737
-41020.32375577972,-21938.10307241715,-65939.03195131206,-20226.182964585183
-40714.6636503534,-21899.345147531647,-66055.28337422412,-20276.317927398435
-40524.53971201655,-21927.061310656227,-66080.65260418088,-20319.16622151926
-40844.817858316645,-22004.711270893964,-65947.59266943844,-20282.419953634733
-41073.02916920533,-22001.02323305884,-65908.72298583067,-20241.203336859147
-41037.713412965946,-21958.286697660293,-65951.86185262942,-20235.235421089583
-40728.275862726674,-21909.91752265901,-66057.9879353032,-20271.691116296188
