 EXG Channel 0, EXG Channel 1, EXG Channel 2, EXG Channel 3
-14191.323720374552,-14625.88633607463,-27284.59564263769,-16293.661748607368
-14186.629854038938,-14635.8552141017,-27287.83664558371,-16294.377004429938
-14181.265435369663,-14636.838690857732,-27294.92214857604,-16302.468335922758
-14190.027319196144,-14639.543251936824,-27297.760820121865,-16304.904676068389
-14205.159450192386,-14645.645278173124,-27292.843436341696,-16300.255513221684
-14218.324627676562,-14669.494589506936,-27292.37404970813,-16301.976597544744
-14206.09822345951,-14651.27791777586,-27289.289508973303,-16299.473202165747
-14190.608464551982,-14636.749283879912,-27288.753067106376,-16298.690891109813
-14193.42478435335,-14632.681266389043,-27294.184541009017,-16296.790992831113
-14195.727014032247,-14622.89120231762,-27290.67531712953,-16291.493629395203
-14191.681348285836,-14619.6501993716,-27287.61312813916,-16293.728803840737
-14190.966092463266,-14633.396522211617,-27290.07182002924,-16299.65201612139
-14191.14490641891,-14644.192414783529,-27293.625747397637,-16304.79291734611
-14197.67161579986,-14653.08840907674,-27298.274910244338,-16309.643245892912
-14206.299389159609,-14665.985365627452,-27294.229244497925,-16305.552876657592
-14208.221639182764,-14673.070868619783,-27289.40126769558,-16308.570362159058
-14205.070043214566,-14672.065040119296,-27288.21662523945,-16310.157336015383
-14195.235275654231,-14672.355612797215,-27295.25742474287,-16308.07862378104
-14190.697871529805,-14640.37026648167,-27303.147590535595,-16309.75500461519
-14198.342168133518,-14608.966065521963,-27297.850227099687,-16304.837620835022
-14198.945665233812,-14624.008789540389,-27289.33421246221,-16302.17776324484
-14180.974862691744,-14608.183754466028,-27286.49554091639,-16303.183591745328
-14177.08565915652,-14597.7454898054,-27286.16026474956,-16306.424594691349
-14202.499592602206,-14623.472347673458,-27290.161227007065,-16311.118461026965
-14204.310083903085,-14628.210917497983,-27287.68018337252,-16308.503306925692
-14197.179877421842,-14620.99130403892,-27285.869692071643,-16304.725862112746
-14192.128383174942,-14629.239097742928,-27280.192348979992,-16300.99312078871
-14197.96218847778,-14655.99413585593,-27280.21470072445,-16302.669501622857
-14207.975769993756,-14667.818208672788,-27287.277851972325,-16310.47026043776
-14205.76294729268,-14626.243963985917,-27286.92022406104,-16307.13985051392
-14208.556915349594,-14626.914516319575,-27283.567462392744,-16302.334225456028
-14205.919409503867,-14641.018467070877,-27284.081552515217,-16304.725862112746
-14207.014644982177,-14639.99028682593,-27287.948404305986,-16308.100975525496
-14215.284790430642,-14642.448978716016,-27288.28368047281,-16308.7491761147
-14213.04961598511,-14662.90082489262,-27286.27202347184,-16308.123327269952
-14199.61621756747,-14654.116589321684,-27281.667564114043,-16301.484859166723
-14187.501572072695,-14635.609344912693,-27276.571366378237,-16299.361443443471
-14190.921388974357,-14645.51116770639,-27278.650078612576,-16308.950341814798
-14191.614293052471,-14615.068091758263,-27279.186520479503,-16309.017397048165
-14211.596752595517,-14630.468443687969,-27282.047543769782,-16304.815269090566
-14206.85818277099,-14646.673458418069,-27276.884290800608,-16299.249684721197
-14187.56862730606,-14615.403367925092,-27272.72686633192,-16295.628702119437
-14178.493819057205,-14629.462615187482,-27275.610241366656,-16299.182629487828
-14178.404412079384,-14634.961144323486,-27274.91733728854,-16297.372138186947
-14187.814496495068,-14629.350856465204,-27270.648154097576,-16292.164181728862
-14199.213886167276,-14655.837673644744,-27272.570404120732,-16289.929007283332
-14198.185705922331,-14644.103007805708,-27277.621898367637,-16291.694795095302
-14192.955397719788,-14625.238135485428,-27280.952308291475,-16296.813344575568
-14199.795031523114,-14644.438283972537,-27285.132084504618,-16301.887190566922
-14203.773642036158,-14642.784254882845,-27281.667564114043,-16299.182629487828
-14205.740595548225,-14625.998094796909,-27273.844453554688,-16294.667577107855
-14199.035072211633,-14610.910667289576,-27272.480997142917,-16293.617045118455
-14189.982615707231,-14637.33042923575,-27276.52666288932,-16301.03782427762
-14181.42189758085,-14634.22353675646,-27283.5898141372,-16301.283693466628
-14179.209074879776,-14612.072958001252,-27281.39934318058,-16297.483896909223
-14190.13907791842,-14628.903821576096,-27278.15834023456,-16298.802649832089
-14194.944702976312,-14635.207013512494,-27280.885253058103,-16301.864838822466
-14190.072022685055,-14644.572394439268,-27281.667564114043,-16303.6976818678
-14202.544296091117,-14688.247703104938,-27287.16609325005,-16314.627684906449
-14199.415051867372,-14625.551059907802,-27281.77932283632,-16307.877458080944
-14192.441307597315,-14596.560847349268,-27278.11363674565,-16301.261341722173
-14189.602636051492,-14626.6015918972,-27280.08059025772,-16309.106804025983
-14188.797973251105,-14642.04664731582,-27284.68504961551,-16318.807461119588
-14208.087528716032,-14679.374060556182,-27290.63061364062,-16327.859917623988
-14221.073892244563,-14694.99792993044,-27286.383782194112,-16322.115519298974
-14205.651188570404,-14641.554908937802,-27280.997011780382,-16311.073757538052
-14196.196400665807,-14605.099213731197,-27281.891081558595,-16305.03878653512
-14189.535580818128,-14603.89221953061,-27283.612165881656,-16307.095147025007
-14204.578304836548,-14660.933871380554,-27294.5421689203,-16317.08637679653
-14216.514136375685,-14650.495606719924,-27296.665584643557,-16313.554801172591
-14215.57536310856,-14626.825109341757,-27289.26715722885,-16306.312835969073
-14199.39270012292,-14605.054510242286,-27280.21470072445,-16306.17872550234
-14178.985557435222,-14586.949597233486,-27278.3371541902,-16308.637417392423
-14177.644452767903,-14608.697844588502,-27281.846378069687,-16311.31962672706
-14190.608464551982,-14624.61228664068,-27277.286622200805,-16305.307007468584
-14190.496705829706,-14627.428606442048,-27273.084494243205,-16304.189420245815
-14184.640548782416,-14630.42374019906,-27278.024229767827,-16314.784147117633
-14194.318854131565,-14652.440208487536,-27286.27202347184,-16326.697626912312
-14205.494726359217,-14677.89884542213,-27296.88910208811,-16331.391493247927
-14218.078758487554,-14673.517903508891,-27293.42458169753,-16324.28363851114
-14214.278961930151,-14625.774577352357,-27282.338116447703,-16312.906600583388
-14213.988389252234,-14651.322621264771,-27282.852206570176,-16308.525658670147
-14216.469432886772,-14702.552819556337,-27286.16026474956,-16313.912429083875
-14205.070043214566,-14650.406199742103,-27283.25453797037,-16311.677254638344
-14196.576380321549,-14589.7435652904,-27276.034924511307,-16300.166106243863
-14197.04576695511,-14606.149745720595,-27271.944555275983,-16297.193324231306
-14197.96218847778,-14638.42566471406,-27278.314802445748,-16303.898847567898
-14199.415051867372,-14656.396467256123,-27281.19817748048,-16310.917295326864
-14199.99619722321,-14649.556833452802,-27276.861939056154,-16310.671426137857
-14198.923313489357,-14633.173004767064,-27267.63066859611,-16303.809440590076
-14188.552104062092,-14603.691053830513,-27261.90862201555,-16297.975635287245
-14185.176990649345,-14597.477268871937,-27260.50046211487,-16299.093222510008
-14181.42189758085,-14622.51122266188,-27263.003857493863,-16303.764737101166
-14185.28874937162,-14634.715275134478,-27274.64911635508,-16312.459565694282
-14210.14388920592,-14669.271072062384,-27280.505273402367,-16316.035844807133
-14207.305217660096,-14636.79398736882,-27275.20790996646,-16309.553838915092
-14193.022452953155,-14604.115736975162,-27270.78226456431,-16300.479030666236
-14189.982615707231,-14621.326580205749,-27274.62676461062,-16304.971731301754
-14195.414089609872,-14632.99419081142,-27279.67825885752,-16312.101937782996
-14204.019511225166,-14641.51020544889,-27277.465436156446,-16310.090280782018
-14213.943685763325,-14661.13503708065,-27272.793921565288,-16310.000873804198
-14215.57536310856,-14668.444057517536,-27277.21956696744,-16315.074719795552
-14197.202229166298,-14627.987400053433,-27274.336191932704,-16311.006702304689
-14186.495743572206,-14621.483042416936,-27275.23026171092,-16310.671426137857
-14194.631778553938,-14629.507318676391,-27270.625802353123,-16306.737519113723
-14206.947589748812,-14655.815321900289,-27266.15545346206,-16305.530524913136
-14197.582208822038,-14648.238080529938,-27261.193366192983,-16306.424594691349
-14200.890267001423,-14634.290591989828,-27266.02134299533,-16314.717091884268
-14208.579267094048,-14620.879545316642,-27275.006744266364,-16321.064987309575
-14208.936895005334,-14609.904838789089,-27274.62676461062,-16318.695702397312
-14195.347034376508,-14611.670626601055,-27267.72007557393,-16314.404167461891
-14181.779525492137,-14646.405237484603,-27271.22929945341,-16317.354597729996
-14177.979728934732,-14644.751208394911,-27273.956212276964,-16321.981408832242
-14176.23629286722,-14619.13610924913,-27272.995087265383,-16323.367216988472
-14189.937912218324,-14634.067074545272,-27271.564575620247,-16325.535336200635
-14193.961226220275,-14629.28380123184,-27264.59083135019,-16322.18257453234
-14198.945665233812,-14635.8552141017,-27260.098130714672,-16320.796766376112
-14200.733804790236,-14663.750191181922,-27269.91054653055,-16328.7539874022
-14185.71343251627,-14649.08744681924,-27274.11267448815,-16327.882269368443
-14174.179932377332,-14622.578277895249,-27273.889157043595,-16322.003760576696
-14164.94866191729,-14608.899010288598,-27267.20598545146,-16312.28075173864
-14172.436496309818,-14627.8532895867,-27262.7356365604,-16313.487745939226
-14190.720223274258,-14671.439191274549,-27266.937764518,-16324.864783866977
-14182.159505147876,-14644.28182176135,-27272.458645398456,-16327.636400179435
-14190.362595362974,-14640.929060093053,-27274.67146809953,-16329.111615313484
-14206.85818277099,-14640.593783926224,-27270.759912819853,-16328.642228679924
-14199.437403611828,-14632.144824522118,-27270.044656997285,-16325.714150156278
-14195.57055182106,-14648.260432274394,-27274.62676461062,-16326.027074578653
-14190.47435408525,-14634.067074545272,-27270.804616308764,-16323.881307110943
-14199.079775700544,-14630.915478577075,-27273.15154947657,-16325.311818756085
-14211.864973528978,-14649.981516597452,-27273.59858436568,-16324.082472811042
-14208.981598494243,-14632.502452433402,-27269.709380830456,-16320.32737974255
-14203.304255402596,-14618.487908659925,-27269.2846976858,-16320.975580331751
-14202.499592602206,-14637.84451935822,-27277.286622200805,-16328.552821702102
-14216.424729397862,-14652.61902244318,-27279.63355536861,-16330.072740325064
-14226.572421380572,-14647.545176451824,-27272.928032032018,-16321.646132665412
-14220.939781777834,-14650.830882886754,-27269.374104663624,-16320.70735939829
-14196.062290199076,-14620.432510427538,-27268.323572674224,-16315.454699451291
-14183.321795859552,-14615.716292347466,-27270.35758141966,-16315.678216895843
-14194.0506331981,-14624.925211063051,-27271.475168642424,-16315.298237240106
-14191.413127352373,-14638.47036820297,-27264.34496216118,-16315.499402940202
-14191.390775607915,-14649.512129963892,-27261.39453189308,-16318.002798319198
-14173.263510854664,-14608.295513188305,-27259.9863719924,-16317.287542496628
-14191.502534330197,-14646.025257828864,-27261.86391852664,-16323.18840303283
-14190.80963025208,-14633.28476348934,-27256.655962068555,-16315.521754684658
-14178.873798712946,-14607.289684687816,-27248.38581662009,-16304.010606290176
-14180.349013846995,-14628.79206285382,-27250.24101140988,-16303.6976818678
-14179.589054535516,-14622.71238836198,-27248.430520109003,-16300.07669926604
-14175.163409133364,-14611.067129500763,-27249.503403842857,-16302.021301033654
-14187.76979300616,-14621.483042416936,-27248.11759568663,-16307.050443536096
-14188.23917963972,-14621.79596683931,-27242.797880506263,-16306.022263291154
-14174.403449821884,-14613.212896968473,-27239.556877560244,-16307.095147025007
-14164.054592139077,-14607.692016088013,-27240.85327873865,-16310.112632526474
-14163.831074694524,-14628.680304131543,-27247.268229397327,-16311.006702304689
-14168.077906141032,-14632.547155922312,-27250.933915488,-16308.212734247772
-14167.273243340642,-14614.50929814688,-27239.936857215984,-16296.969806786754
-14179.253778368686,-14632.636562900134,-27244.653075296053,-16299.093222510008
-14193.223618653254,-14654.273051532871,-27253.34790388917,-16307.542181914114
-14193.38008086444,-14651.166159053584,-27255.73954054589,-16316.214658762772
-14191.658996541382,-14623.74056860692,-27255.29250565678,-16311.721958127257
-14198.543333833615,-14620.99130403892,-27251.62681956611,-16305.463469679771
-14192.307197130584,-14597.566675849755,-27243.96017121794,-16299.584960888023
-14198.409223366883,-14635.519937934869,-27244.407206107047,-16305.195248746306
-14205.025339725657,-14660.822112658278,-27247.62585730861,-16314.024187806152
-14198.655092555891,-14618.867888315664,-27246.128290430104,-16311.833716849533
-14195.637607054428,-14604.830992797732,-27235.01947343582,-16306.066966780065
-14184.484086571229,-14597.633731083124,-27224.11182214163,-16300.009644032676
-14186.13811566092,-14597.007882238377,-27228.112784399127,-16302.289521967115
-14192.061327941576,-14619.985475538431,-27234.974769946908,-16304.100013267996
-14186.696909272305,-14634.916440834577,-27235.39945309156,-16298.377966687438
-14179.879627213437,-14633.28476348934,-27230.39266233357,-16291.94066428431
-14181.42189758085,-14628.501490175902,-27233.924237957508,-16290.51015263917
-14176.526865545138,-14607.960237021476,-27235.95824670294,-16289.16904797185
-14178.650281268392,-14602.819335796756,-27240.02626419381,-16292.611216617968
-14181.354842347484,-14598.37133865015,-27240.450947338457,-16296.232199219728
-14188.37329010645,-14614.352835935691,-27234.05834842424,-16293.639396862913
-14179.52199930215,-14597.7454898054,-27230.01268267783,-16291.113649739464
-14173.911711443869,-14578.50063782938,-27231.53260130079,-16296.165143986362
-14179.432592324329,-14612.363530679171,-27239.15454616005,-16304.07766152354
-14197.8504297555,-14652.820188143276,-27249.704569542955,-16313.286580239128
-14212.021435740166,-14621.147766250107,-27247.08941544168,-16307.206905747284
-14203.684235058336,-14602.84168754121,-27245.077758440708,-16304.547048157105
-14192.642473297416,-14600.94178926251,-27247.849374753165,-16304.547048157105
-14198.230409411242,-14627.361551208682,-27253.52671784481,-16309.687949381823
-14209.808613039091,-14631.876603588657,-27253.90669750055,-16308.637417392423
-14210.300351417109,-14608.183754466028,-27238.998083948863,-16298.467373665258
-14205.13709844793,-14604.719234075455,-27238.30517987075,-16297.372138186947
-14207.260514171188,-14622.622981384156,-27244.608371807142,-16302.267170222662
-14207.48403161574,-14638.47036820297,-27253.146738189072,-16310.89494358241
-14218.302275932108,-14648.03691482984,-27257.930011502507,-16311.498440682702
-14214.122499718966,-14619.918420305065,-27245.077758440708,-16297.930931798332
-14207.327569404551,-14609.793080066813,-27237.411110092537,-16292.722975340246
-14211.037958984132,-14645.287650261838,-27242.57436306171,-16301.462507422271
-14205.47237461476,-14634.335295478735,-27249.77162477632,-16312.437213949826
-14206.18763043733,-14622.757091850888,-27249.57045907622,-16309.598542404005
-14206.0535199706,-14626.89216457512,-27242.663770039533,-16301.395452188905
-14199.370348378465,-14599.46657412846,-27243.13315667309,-16302.22246673375
-14208.825136283058,-14617.616190626168,-27249.21283116494,-16311.677254638344
-14220.090415488532,-14643.879490361154,-27255.068988212228,-16318.360426230483
-14221.76679632268,-14639.36443798118,-27254.7337120454,-16319.947400086809
-14209.272171172164,-14617.45972841498,-27244.138985173584,-16310.090280782018
-14202.119612946464,-14594.325672903738,-27234.795955991263,-16308.100975525496
-14202.946627491312,-14620.164289494072,-27238.26047638184,-16315.745272129212
-14210.993255495225,-14654.496568977424,-27247.268229397327,-16322.629609421449
-14212.66963632937,-14622.287705217328,-27246.30710438575,-16318.919219841866
-14214.435424141338,-14614.486946402423,-27236.651150781054,-16312.683083138834
-14217.430557898351,-14624.433472685036,-27235.19828739146,-16315.409995962382
-14214.301313674609,-14626.13220526364,-27234.617142035622,-16316.907562840888
-14226.952401036311,-14648.729818907956,-27238.10401417065,-16323.23310652174
-14239.759950609205,-14660.777409169366,-27241.054444438752,-16323.300161755104
-14247.828930357568,-14648.193377041029,-27240.495650827368,-16315.968789573764
-14238.0612180306,-14624.165251751572,-27239.445118837968,-16312.996007561209
-14230.43927317134,-14627.808586097788,-27247.49174684188,-16314.247705250706
-14226.661828358392,-14628.79206285382,-27248.02818870881,-16315.074719795552
-14206.746424048712,-14621.192469739017,-27248.318761386727,-16314.873554095457
-14214.971866008267,-14658.274013790371,-27246.798842763765,-16316.70639714079
-14223.10790099,-14664.018412115383,-27244.67542704051,-16316.66169365188
-14216.491784631227,-14588.938902490008,-27246.597677063663,-16312.32545522755
-14216.782357309146,-14607.46849864346,-27249.39164512058,-16318.449833208304
-14208.601618838504,-14619.449033671504,-27245.681255541,-16318.89686809741
-14204.645360069915,-14605.36743466466,-27245.0330549518,-16315.56645817357
-14205.76294729268,-14609.055472499786,-27247.000008463863,-16313.443042450315
-14215.62006659747,-14639.006810069895,-27246.24004915238,-16318.338074486028
-14228.427616170362,-14652.350801509716,-27246.15064217456,-16323.344865244017
-14233.635572628447,-14651.233214286947,-27253.370255633625,-16329.916278113877
-14244.409113455906,-14652.41785674308,-27248.609334064644,-16329.245725780218
-14230.394569682428,-14623.449995929002,-27241.568534561226,-16318.315722741572
-14224.963095779787,-14644.32652525026,-27241.12149967212,-16320.215621020274
-14213.586057852037,-14634.603516412202,-27238.81926999322,-16323.27781001065
-14210.725034561758,-14614.822222569255,-27238.93102871549,-16318.159260530383
-14217.162336964886,-14623.829975584744,-27235.7794327473,-16310.872591837957
-14221.945610278322,-14621.70655986149,-27238.66280778203,-16312.571324416558
-14217.564668365085,-14629.440263443026,-27245.52479332981,-16322.94253384382
-14212.222601440264,-14636.19049026853,-27249.12342418712,-16323.680141410843
-14217.028226498154,-14635.050551301309,-27251.67152305502,-16320.059158809088
-14210.970903750767,-14619.873716816152,-27251.805633521755,-16312.683083138834
-14198.655092555891,-14618.42085342656,-27245.97182821892,-16310.26909473766
-14197.515153588673,-14607.98258876593,-27248.11759568663,-16311.386681960426
-14193.961226220275,-14613.950504535498,-27255.49367135688,-16319.075682053051
-14198.789203022625,-14635.8552141017,-27261.77451154882,-16322.853126866
-14215.843584042024,-14642.13605429364,-27264.233203438904,-16326.921144356866
-14210.345054906018,-14621.930077306042,-27257.97471499142,-16325.065949567075
-14195.056461698588,-14601.254713684884,-27250.263363154336,-16320.573248931558
-14186.272226127652,-14601.902914274087,-27247.24587765287,-16321.489670454226
-14186.629854038938,-14642.203109527009,-27248.318761386727,-16324.574211189058
-14192.32954887504,-14645.645278173124,-27244.67542704051,-16320.819118120566
-14189.245008140208,-14606.730891076431,-27234.43832807998,-16315.56645817357
-14179.85727546898,-14578.344175618193,-27233.410147835035,-16314.76179537318
-14180.974862691744,-14604.98745500892,-27235.064176924727,-16320.975580331751
-14195.436441354328,-14618.286742959828,-27240.518002571825,-16321.154394287396
-14210.255647928198,-14623.338237206726,-27239.266304882327,-16313.487745939226
-14211.261476428686,-14643.94654559452,-27230.43736582248,-16309.08445228153
-14205.740595548225,-14612.922324290554,-27227.799859976752,-16304.971731301754
-14207.439328126828,-14603.713405574968,-27238.595752548663,-16313.51009768368
-14205.114746703475,-14609.45780389998,-27239.31100837124,-16314.426519206349
-14206.969941493267,-14613.972856279954,-27237.05348218125,-16307.765699358666
-14216.067101486577,-14650.495606719924,-27240.518002571825,-16309.151507514896
-14214.658941585893,-14667.974670883976,-27242.08262468369,-16317.75692913019
-14189.28971162912,-14603.869867786154,-27239.825098493708,-16311.721958127257
-14194.609426809482,-14601.165306707062,-27241.00974094984,-16308.950341814798
-14210.14388920592,-14614.106966746684,-27241.90381072805,-16308.212734247772
-14207.305217660096,-14600.51710611786,-27240.16037466054,-16311.409033704882
-14212.24495318472,-14603.489888130414,-27240.13802291608,-16313.84537385051
-14216.58119160905,-14607.08851898772,-27232.560781545733,-16309.442080192815
-14224.560764379594,-14626.556888408291,-27230.81734547822,-16308.302141225597
-14220.537450377638,-14611.067129500763,-27225.207057619937,-16301.84248707801
-14218.369331165472,-14624.79110059632,-27224.33533958618,-16298.13209749843
-14227.466491158784,-14678.882322178164,-27228.224543121403,-16306.312835969073
-14203.751290291702,-14613.816394068766,-27222.86012445213,-16303.809440590076
-14194.117688431465,-14564.329631844716,-27221.80959246273,-16299.584960888023
-14216.804709053602,-14577.78538200681,-27221.563723273724,-16296.142792241908
-14214.591886352526,-14575.617262794643,-27221.474316295906,-16291.31481543956
-14200.979673979244,-14600.31594041776,-27224.89413319756,-16297.12626899794
-14202.656054813391,-14625.014618040876,-27234.14775540206,-16306.245780735706
-14212.177897951353,-14625.238135485428,-27237.366406603625,-16307.98921680322
-14220.537450377638,-14611.245943456406,-27234.684197268987,-16299.853181821489
-14221.342113178029,-14615.045740013808,-27235.757081002845,-16304.524696412647
-14226.974752780769,-14620.36545519417,-27240.54035431628,-16312.638379649925
-14219.777491066156,-14592.40342288058,-27241.859107239143,-16312.37015871646
-14225.0077992687,-14623.986437795931,-27242.127328172606,-16321.377911731948
-14230.551031893616,-14626.065150030274,-27236.092357169677,-16316.169955273865
-14229.969886537778,-14614.397539424604,-27234.460679824435,-16310.671426137857
-14238.731770364258,-14654.13894106614,-27238.26047638184,-16317.46635645227
-14233.948497050822,-14626.556888408291,-27236.025301936308,-16309.196211003808
-14213.071967729566,-14591.241132168903,-27234.43832807998,-16301.775431844644
-14208.825136283058,-14597.790193294311,-27227.643397765565,-16299.786126588122
-14209.04865372761,-14587.955425733977,-27219.59676976165,-16298.020338776154
-14196.151697176898,-14593.83393452572,-27218.076851138696,-16294.801687574589
-14194.788240765123,-14612.497641145905,-27227.24106636537,-16297.12626899794
-14203.99715948071,-14605.568600364755,-27231.554953045244,-16299.65201612139
-14209.361578149985,-14587.441335611504,-27226.48110705389,-16293.974673029745
-14220.984485266745,-14612.095309745708,-27221.98840641837,-16293.840562563011
-14220.380988166453,-14625.28283897434,-27222.882476196584,-16299.115574254463
-14210.032130483643,-14595.59972233769,-27223.44126980797,-16300.27786496614
-14214.971866008267,-14603.199315452495,-27221.58607501818,-16297.193324231306
-14224.516060890684,-14605.233324197929,-27220.8261157067,-16293.08060325153
-14230.86395631599,-14599.444222384003,-27217.629816249588,-16292.477106151237
-14218.503441632203,-14595.26444617086,-27215.461697037423,-16293.281768951629
-14206.724072304258,-14608.854306799689,-27219.10503138364,-16296.56747538656
-14218.592848610026,-14627.026275041851,-27229.99033093337,-16307.452774936291
-14225.365427179984,-14609.949542277998,-27229.43153732199,-16306.17872550234
-14216.916467775878,-14598.572504350246,-27225.229409364398,-16301.954245800289
-14212.289656673627,-14610.709501589476,-27226.97284543191,-16305.955208057789
-14222.9067352899,-14651.054400331308,-27235.354749602648,-16314.337112228528
-14224.784281824146,-14640.169100781572,-27232.985464690384,-16314.158298272883
-14218.52579337666,-14611.111832989674,-27219.842638950664,-16305.21760049076
-14216.827060798058,-14620.723083105457,-27218.501534283347,-16306.46929818026
-14207.99812173821,-14586.390803622104,-27218.56858951671,-16306.46929818026
-14199.772679778658,-14582.50160008688,-27221.407261062537,-16311.096109282507
-14215.754177064202,-14623.092368017718,-27231.264380367327,-16315.588809918025
-14234.23906972874,-14642.784254882845,-27227.799859976752,-16311.56549591607
-14225.343075435529,-14625.104025018696,-27220.93787442897,-16305.686987124323
-14207.796956038112,-14607.17792596554,-27222.167220374016,-16308.033920292131
-14193.38008086444,-14580.8922744861,-27224.67061575301,-16310.47026043776
-14199.638569311926,-14624.724045362957,-27228.96215068843,-16316.572286674058
-14210.613275839482,-14616.878583059142,-27228.358653588137,-16313.308931983584
-14219.218697454777,-14600.382995651127,-27227.39752857656,-16313.018359305664
-14217.542316620627,-14593.968044992453,-27226.7269762429,-16311.341978471515
-14217.207040453795,-14596.51614386036,-27232.180801889997,-16311.99017906072
-14225.29837194662,-14613.257600457384,-27238.10401417065,-16315.7005686403
-14246.666639645891,-14642.650144416111,-27239.445118837968,-16318.27101925266
-14236.8095203411,-14631.541327421824,-27228.269246610314,-16314.13594652843
-14216.04474974212,-14610.7989085673,-27223.62008376361,-16309.307969726084
-14221.208002711295,-14635.698751890512,-27227.486935554374,-16314.22535350625
-14215.821232297569,-14607.580257365737,-27227.285769854283,-16313.532449428136
-14217.743482320724,-14569.448181324982,-27222.90482794104,-16308.927990070342
-14221.610334111492,-14604.629827097637,-27221.407261062537,-16311.878420338444
-14226.259496958197,-14625.88633607463,-27221.49666804036,-16314.873554095457
-14213.653113085404,-14610.754205078389,-27228.224543121403,-16320.953228587296
-14216.022397997664,-14613.03408301283,-27234.035996679784,-16322.339036743528
-14220.693912588826,-14605.546248620303,-27233.54425830177,-16319.18744077533
-14213.04961598511,-14584.401498365582,-27233.09722341266,-16320.170917531364
-14215.217735197277,-14599.332463661727,-27234.304217613248,-16324.41774897787
-14213.071967729566,-14614.866926058165,-27231.44319432297,-16329.75981590269
-14208.176935693851,-14607.155574221084,-27235.041825180277,-16331.212679292285
-14218.682255587848,-14621.438338928026,-27234.326569357705,-16330.832699636543
-14223.443177156829,-14622.019484283865,-27229.520944299813,-16325.960019345286
-14210.590924095026,-14599.623036339646,-27224.178877374998,-16319.008626819686
-14202.99133098022,-14608.809603310778,-27226.81638322072,-16322.964885588275
-14212.870802029469,-14641.264336259885,-27233.8795344686,-16327.591696690524
-14227.265325458686,-14643.27599326086,-27234.795955991263,-16324.28363851114
-14234.507290662204,-14609.144879477606,-27232.896057712565,-16315.767623873668
-14235.110787762498,-14604.853344542187,-27234.34892110216,-16313.286580239128
-14225.857165558002,-14609.636617855624,-27235.421804836013,-16317.533411685636
-14232.406226683406,-14611.6482748566,-27244.25074389586,-16324.104824555496
-14240.184633753854,-14629.79789135431,-27238.506345570844,-16318.047501808109
-14229.880479559955,-14589.587103079211,-27230.526772800305,-16310.023225548652
-14218.81636605458,-14580.288777385806,-27229.25272336635,-16310.783184860133
-14220.805671311102,-14609.7483765779,-27229.0292059218,-16317.242839007717
-14229.209927226297,-14628.188565753528,-27234.5277350578,-16324.574211189058
-14246.800750112625,-14657.178778312062,-27234.795955991263,-16326.965847845777
-14228.539374892638,-14597.231399682929,-27225.94466518696,-16316.08054829604
-14215.418900897374,-14581.115791930652,-27227.084604154184,-16317.823984363557
-14221.967962022778,-14617.571487137258,-27232.516078056826,-16324.082472811042
-14207.48403161574,-14612.005902767884,-27233.6783687685,-16320.28267625364
-14208.646322327417,-14594.102155459184,-27229.923275700006,-16312.32545522755
-14217.09528173152,-14589.296530401294,-27222.90482794104,-16303.116536511963
-14227.488842903238,-14623.673513373556,-27226.682272753987,-16305.530524913136
-14221.275057944664,-14654.56362421079,-27229.275075110803,-16310.336149971028
-14214.569534608072,-14627.18273725304,-27233.656017024045,-16310.157336015383
-14211.48499387324,-14597.097289216195,-27228.20219137695,-16305.195248746306
-14228.964058037289,-14625.908687819086,-27225.251761108848,-16304.79291734611
-14229.656962115405,-14577.673623284534,-27216.691042982467,-16296.36630968646
-14215.91063927539,-14569.403477836073,-27213.83001969219,-16297.7968213316
-14216.871764286969,-14601.210010195971,-27225.318816342213,-16307.832754592033
-14218.369331165472,-14616.56565863677,-27228.15748788804,-16309.71030112628
-14223.9572672793,-14604.138088719616,-27225.76585123132,-16306.6481121359
-14220.224525955264,-14591.487001357917,-27227.15165938755,-16304.837620835022
-14221.073892244563,-14600.807678795778,-27232.11374665663,-16309.71030112628
-14227.690008603337,-14631.474272188458,-27240.07096768272,-16319.857993108988
-14221.900906789411,-14592.6939955585,-27236.360578103137,-16316.192307018318
-14228.025284770169,-14601.65704508508,-27236.87466822561,-16317.555763430091
-14217.497613131716,-14606.932056776532,-27233.6783687685,-16318.628647163949
-14210.322703161562,-14598.147821205595,-27232.001987934356,-16316.862859351975
-14217.497613131716,-14620.007827282889,-27238.551049059755,-16324.440100722326
-14232.29446796113,-14654.85419688871,-27245.25657239635,-16333.89488862692
-14231.042770271632,-14644.348876994716,-27244.898944485063,-16337.202946806306
-14238.329438964063,-14619.583144138234,-27252.18561317749,-16342.56736547558
-14233.032075528155,-14627.495661675412,-27249.03401720929,-16343.61789746498
-14215.53065961965,-14610.642446356112,-27250.01749396533,-16340.108673585495
-14224.784281824146,-14621.214821483472,-27251.06802595473,-16337.314705528584
-14231.713322605292,-14633.016542555875,-27250.39747362107,-16338.409941006894
-14234.23906972874,-14644.639449672635,-27254.84547076768,-16340.980391619254
-14239.223508742274,-14640.124397292662,-27257.840604524685,-16349.116426600986
-14225.790110324637,-14608.250809699395,-27254.17491843401,-16348.267060311684
-14223.465528901284,-14593.722175803445,-27255.31485740124,-16345.294278299129
-14230.23810747124,-14630.08846403223,-27252.967924233428,-16345.204871321306
-14241.05635178761,-14651.166159053584,-27254.465491111936,-16354.57025224808
-14222.280886445153,-14606.820298054256,-27255.5830783347,-16351.75393244671
-14202.253723413198,-14605.859173042676,-27254.5325463453,-16352.022153380174
-14218.414034654385,-14637.41983621357,-27256.655962068555,-16353.18444409185
-14223.890212045932,-14620.097234260707,-27253.616124822634,-16351.396304535428
-14216.04474974212,-14627.674475631056,-27251.13508118809,-16351.32924930206
-14204.53360134764,-14616.74447259241,-27248.92225848702,-16350.815159179589
-14199.61621756747,-14583.328614631728,-27253.05733121125,-16350.6586969684
-14210.367406650474,-14606.46267014297,-27251.5821160772,-16352.580946991558
-14219.15164222141,-14618.17498423755,-27245.681255541,-16350.8598626685
-14213.027264240654,-14623.22647848445,-27240.361540360635,-16350.211662079297
-14208.735729305236,-14649.869757875176,-27247.53645033079,-16358.481807527758
-14203.61717982497,-14606.12739397614,-27251.17978467701,-16357.252461582715
-14204.846525770012,-14584.98264372142,-27241.322665372216,-16343.059103853597
-14210.948552006312,-14602.55111486329,-27233.656017024045,-16335.191289805329
-14210.412110139385,-14611.402405667592,-27236.96407520343,-16338.18642356234
-14205.450022870304,-14608.295513188305,-27236.517040314324,-16337.04648459512
-14203.326607147052,-14600.919437518054,-27233.410147835035,-16339.28165904065
-14215.105976475,-14604.898048031098,-27231.174973389505,-16336.577097961555
-14225.857165558002,-14617.102100503696,-27225.743499486867,-16329.8045193916
-14220.917430033378,-14631.764844866377,-27228.537467543774,-16331.547955459111
-14213.697816574317,-14613.99520802441,-27233.38779609058,-16335.638324694435
-14214.547182863616,-14616.789176081322,-27236.315874614225,-16341.941516630832
-14228.472319659271,-14627.22744074195,-27236.762909503334,-16340.108673585495
-14238.329438964063,-14632.61421115568,-27229.543296044267,-16332.285563026138
-14209.272171172164,-14575.25963488336,-27228.559819288235,-16330.050388580608
-14203.348958891507,-14602.528763118837,-27237.29935137026,-16340.890984641432
-14203.170144935864,-14616.74447259241,-27242.216735150425,-16342.343848031029
-14204.91358100338,-14589.989434479408,-27241.16620316103,-16333.783129904645
-14204.466546114272,-14564.843721967189,-27234.550086802257,-16326.56351644558
-14203.416014124872,-14577.673623284534,-27231.510249556333,-16325.42357747836
-14211.864973528978,-14595.912646760064,-27237.05348218125,-16332.129100814953
-14198.252761155696,-14573.60560579367,-27230.951455944956,-16327.435234479335
-14207.9534182493,-14585.630844310625,-27233.499554812857,-16328.597525191011
-14224.516060890684,-14607.55790562128,-27234.05834842424,-16333.023170593164
-14227.041808014132,-14626.51218491938,-27226.414051820524,-16332.017342092677
-14222.392645167429,-14607.759071321378,-27222.68131049649,-16330.050388580608
-14224.001970768211,-14629.686132632034,-27231.845525723165,-16339.773397418669
-14220.202174210808,-14625.841632585722,-27234.460679824435,-16339.929859629854
-14221.38681666694,-14609.726024833444,-27231.80082223425,-16338.387589262438
-14222.839680056535,-14597.387861894114,-27231.510249556333,-16337.8064439066
-14213.876630529956,-14575.729021516923,-27224.938836686477,-16334.408978749392
-14209.205115938796,-14573.65030928258,-27222.7260139854,-16332.620839192969
-14208.71337756078,-14589.02830946783,-27225.743499486867,-16331.726769414756
-14211.350883406509,-14595.398556637592,-27220.58024651769,-16330.430368236348
-14209.09335721652,-14588.737736789912,-27215.28288308178,-16327.7034554128
-14215.642418341926,-14614.12931849114,-27219.373252317106,-16330.296257769616
-14200.487935601228,-14572.398611593082,-27224.11182214163,-16331.190327547827
-14198.52098208916,-14565.111942900652,-27223.03893840777,-16325.177708289351
-14211.596752595517,-14587.798963522788,-27216.6239877491,-16323.210754777285
-14218.548145121116,-14584.088573943209,-27214.67938598149,-16328.105786812996
-14219.62102885497,-14601.522934618348,-27218.43447904998,-16337.404112506403
-14221.610334111492,-14614.956333035989,-27220.088508139677,-16343.908470142898
-14231.86978481648,-14622.041836028318,-27223.53067678579,-16346.970659133276
-14231.065122016087,-14597.767841549856,-27216.57928426019,-16337.04648459512
-14216.201211953308,-14580.713460530456,-27211.550141757747,-16332.442025237326
-14215.597714853016,-14595.97970199343,-27214.701737725944,-16335.012475849686
-14213.831927041048,-14599.399518895092,-27217.652167994045,-16335.459510738792
-14218.302275932108,-14587.329576889228,-27225.29646459776,-16336.174766561362
-14220.917430033378,-14590.727042046434,-27219.10503138364,-16331.212679292285
-14206.299389159609,-14566.609509779157,-27213.114763869617,-16326.630571678948
-14196.464621599273,-14567.682393513012,-27210.611368490623,-16324.462452466782
-14204.578304836548,-14582.41219310906,-27211.86306618012,-16324.641266422424
-14216.849412542511,-14574.544379060791,-27213.00300514734,-16322.339036743528
-14234.9096220624,-14589.296530401294,-27214.589979003667,-16324.127176299951
-14252.612203671004,-14639.923231592564,-27216.355766815635,-16329.357484502494
-14242.0621802881,-14622.46651917297,-27215.86402843762,-16329.603353691502
-14213.898982274412,-14565.938957445498,-27211.460734779925,-16324.41774897787
-14214.994217752725,-14569.828160980722,-27209.158505101022,-16320.70735939829
-14211.552049106604,-14542.693143211978,-27205.023432376795,-16315.454699451291
-14212.781395051648,-14547.007029891853,-27207.68328996698,-16317.287542496628
-14209.585095594535,-14567.145951646084,-27212.44421153596,-16320.305027998094
-14203.728938547249,-14583.574483820736,-27218.747403472356,-16325.021246078164
-14213.742520063224,-14583.798001265288,-27217.808630205232,-16331.167975803372
-14226.281848702652,-14605.233324197929,-27217.272188338306,-16331.011513592186
-14229.902831304413,-14601.589989851713,-27213.78531620328,-16331.726769414756
-14223.644342856926,-14601.32176891825,-27206.81157193322,-16332.106749070495
-14216.424729397862,-14603.378129408138,-27206.588054488668,-16335.817138650078
-14217.631723598448,-14595.622074082146,-27209.71729871241,-16331.65971418139
-14212.513174118185,-14571.035155181307,-27201.6706707085,-16323.054292566098
-14204.91358100338,-14553.377277061616,-27190.405391503024,-16314.247705250706
-14207.215810682275,-14573.18092264902,-27192.86408339311,-16321.109690798485
-14213.898982274412,-14592.738699047412,-27200.307214296725,-16332.46437698178
-14232.24976447222,-14601.858210785176,-27206.945682399957,-16329.04456008012
-14247.24778500173,-14593.118678703153,-27200.95541488593,-16319.478013453248
-14242.553918666115,-14586.547265833293,-27201.64831896405,-16319.522716942158
-14251.718133892791,-14630.759016365888,-27209.96316790142,-16329.648057180411
-14242.196290754831,-14600.60651309568,-27213.00300514734,-16332.620839192969
-14225.47718590226,-14560.708649242955,-27212.712432469423,-16327.658751923893
-14224.67252310187,-14563.815541722244,-27211.080755124185,-16326.071778067564
-14222.839680056535,-14593.766879292356,-27212.108935369128,-16327.23406877924
-14219.442214899327,-14610.016597511363,-27220.24497035086,-16333.649019437911
-14204.53360134764,-14559.144027131086,-27217.361595316124,-16330.56447870308
-14204.444194369817,-14559.300489342271,-27213.405336547537,-16326.80938563459
-14202.343130391018,-14559.12167538663,-27201.223635819395,-16318.203964019296
-14205.114746703475,-14571.035155181307,-27199.368441029605,-16316.192307018318
-14213.854278785502,-14592.135201947118,-27199.18962707396,-16315.946437829309
-14218.771662565669,-14600.584161351224,-27201.983595130878,-16317.488708196726
-14221.073892244563,-14582.41219310906,-27208.979691145385,-16320.595600676012
-14232.629744127958,-14571.392783092591,-27209.91846441251,-16319.343902986517
-14233.926145306366,-14570.342251103191,-27208.19738008945,-16320.170917531364
-14225.81246206909,-14572.040983681796,-27210.499609768347,-16320.930876842844
-14217.139985220432,-14570.454009825473,-27210.700775468445,-16325.244763522716
-14221.342113178029,-14594.951521748486,-27213.137115614078,-16329.357484502494
-14227.980581281256,-14585.206161165974,-27210.924292913,-16326.317647256572
-14231.042770271632,-14588.916550745556,-27215.61815924861,-16327.815214135077
-14225.18661322434,-14577.181884906518,-27223.217752363416,-16326.585868190035
-14224.024322512669,-14570.856341225666,-27229.0292059218,-16325.937667600832
-14228.405264425906,-14562.250919610373,-27223.68713899698,-16321.04263556512
-14228.449967914818,-14571.526893559325,-27215.95343541544,-16314.448870950804
-14226.14773823592,-14558.182902119506,-27215.573455759702,-16311.543144171614
-14222.61616261198,-14576.77955350632,-27216.28871158227,-16314.76179537318
-14223.174956223364,-14586.368451877648,-27212.064231880217,-16316.259362251683
-14220.224525955264,-14595.17503919304,-27207.03508937777,-16317.153432029896
-14209.406281638896,-14598.55015260579,-27203.436458520468,-16313.577152917049
-14196.174048921352,-14557.780570719313,-27200.55308348573,-16308.07862378104
-14186.115763916465,-14535.16060533054,-27194.786333416265,-16305.955208057789
-14192.106031430489,-14565.335460345204,-27200.35191778564,-16313.890077339422
-14203.348958891507,-14572.97975694892,-27206.18572308847,-16318.628647163949
-14207.305217660096,-14566.676565012523,-27199.14492358505,-16313.018359305664
-14208.802784538602,-14570.20814063646,-27195.009850860817,-16309.08445228153
-14219.24104919923,-14585.608492566167,-27202.989423631363,-16315.857030851488
-14227.690008603337,-14596.292626415803,-27209.985519645878,-16324.395397233417
-14224.918392290878,-14569.805809236266,-27209.024394634296,-16322.56255418808
-14222.347941678518,-14571.593948792692,-27200.262510807814,-16318.315722741572
-14219.397511410418,-14570.185788892006,-27194.7192781829,-16316.66169365188
-14218.302275932108,-14581.07108844174,-27195.233368305373,-16317.980446574742
-14223.823156812568,-14599.868905528654,-27202.497685253347,-16325.155356544896
-14232.629744127958,-14596.583199093724,-27209.069098123207,-16326.764682145678
-14240.318744220584,-14566.45304756797,-27202.788257931265,-16316.549934929602
-14236.787168596646,-14554.248995095371,-27199.48019975188,-16313.8006703616
-14225.410130668895,-14543.520157756826,-27196.75328692833,-16311.677254638344
-14222.169127722877,-14567.682393513012,-27199.837827663163,-16316.952266329798
-14225.343075435529,-14570.811637736757,-27203.168237587004,-16321.109690798485
-14241.458683187806,-14598.952484005988,-27204.866970165607,-16325.870612367466
-14231.333342949552,-14583.820353009743,-27201.782429430776,-16323.635437921936
-14231.981543538755,-14593.766879292356,-27206.029260877283,-16325.8035571341
-14220.984485266745,-14567.481227812914,-27208.48795276737,-16327.144661801418
-14217.318799176071,-14542.894308912077,-27207.95151090044,-16329.223374035762
-14228.427616170362,-14566.341288845691,-27208.84558067865,-16328.888097868932
-14237.368313952484,-14586.614321066658,-27212.175990602493,-16329.268077524672
-14244.543223922636,-14609.681321344537,-27217.76392671632,-16331.771472903669
-14242.017476799188,-14621.37128369466,-27217.69687148296,-16334.028999093653
-14243.224470999774,-14618.107929004183,-27220.848467451156,-16338.09701658452
-14241.682200632358,-14582.300434386783,-27215.28288308178,-16331.32443801456
-14246.57723266807,-14560.663945754046,-27210.83488593517,-16327.27877226815
-14234.753159851214,-14562.921471944032,-27212.6230254916,-16330.430368236348
-14230.036941771144,-14586.41315536656,-27219.32854882819,-16336.577097961555
-14233.38970343944,-14602.7969840523,-27226.928141943,-16336.7559119172
-14245.8619768455,-14619.247867971406,-27221.608426762632,-16332.062045581586
-14240.832834343057,-14605.769766064856,-27211.661900480023,-16325.624743178458
-14233.076779017065,-14587.12841118913,-27205.82809517719,-16326.295295512116
-14238.038866286144,-14628.590897153725,-27211.550141757747,-16334.364275260485
-14253.43921821585,-14653.311926521294,-27215.23817959287,-16338.387589262438
-14246.331363479065,-14576.533684317314,-27205.13519109907,-16325.04359782262
-14235.691933118336,-14549.823349693224,-27196.350955528134,-16318.159260530383
-14227.913526047889,-14564.12846614462,-27194.786333416265,-16316.482879696236
-14236.027209285166,-14604.451013141992,-27197.893225895557,-16319.679179153343
-14245.05731404511,-14599.421870639548,-27202.29651955325,-16318.718054141767
-14243.24682274423,-14577.27129188434,-27200.888359652563,-16308.79387960361
-14234.507290662204,-14590.45882111297,-27198.13909508456,-16305.485821424223
-14223.53258413465,-14598.03606248332,-27198.09439159565,-16307.8998098254
-14216.76000556469,-14579.528818074325,-27201.53656024177,-16316.84050760752
-14216.804709053602,-14555.366582318138,-27202.7212026979,-16315.141775028918
-14230.327514449064,-14571.482190070414,-27201.11187709712,-16306.6481121359
-14240.899889576423,-14575.21493139445,-27198.74259218485,-16301.864838822466
-14235.513119162692,-14577.584216306714,-27195.881568894576,-16303.317702212062
-14225.790110324637,-14586.010823966364,-27196.32860378368,-16305.70933886878
-14227.19827022532,-14598.617207839156,-27202.34122304216,-16313.554801172591
-14236.027209285166,-14579.506466329867,-27199.68136545198,-16307.028091791644
-14239.111750019998,-14559.41224806455,-27190.315984525205,-16296.232199219728
-14235.334305207052,-14563.07793415522,-27188.974879857884,-16297.662710864868
-14229.858127815502,-14588.536571089811,-27194.45105724944,-16307.944513314307
-14233.970848795278,-14603.869867786154,-27197.021507861795,-16313.018359305664
-14232.227412727763,-14573.024460437831,-27186.62794669008,-16302.893019067413
-14228.427616170362,-14571.12456215913,-27187.544368212744,-16301.70837661128
-14236.742465107736,-14589.83297226822,-27189.600728702637,-16305.977559802242
-14234.9096220624,-14598.281931672327,-27194.16048457152,-16312.347806972006
-14223.487880645738,-14611.312998689771,-27196.216845061404,-16316.639341907425
-14222.72792133426,-14612.162364979073,-27189.064286835703,-16307.318664469562
-14216.067101486577,-14552.63966949459,-27184.6162896891,-16299.473202165747
-14212.937857262834,-14541.39674203357,-27184.683344922465,-16300.255513221684
-14216.804709053602,-14553.109056128153,-27189.243100791347,-16305.195248746306
-14225.454834157808,-14592.358719391672,-27193.132304326573,-16311.878420338444
-14229.165223737387,-14590.704690301978,-27190.695964180944,-16307.60923714748
-14222.549107378616,-14566.251881867873,-27188.304327524227,-16302.93772255632
-14213.697816574317,-14560.12750388712,-27188.6172519466,-16303.787088845622
-14215.843584042024,-14580.8922744861,-27188.77371415779,-16305.463469679771
-14223.487880645738,-14597.074937471742,-27190.38303975857,-16307.519830169658
-14227.712360347792,-14596.829068282732,-27193.534635726766,-16307.296312725106
-14230.796901082624,-14588.469515856448,-27189.15369381353,-16305.575228402047
-14232.048598772122,-14596.40438513808,-27182.09054256565,-16300.434327177329
-14234.328476706563,-14616.096272003208,-27185.28684202276,-16301.954245800289
-14220.202174210808,-14566.251881867873,-27190.53950196976,-16298.89205680991
-14211.61910433997,-14534.266535552328,-27182.671687921487,-16290.331338683529
-14198.56568557807,-14530.556145972749,-27176.212033773903,-16286.17391421484
-14199.99619722321,-14547.54347175878,-27180.212996031405,-16291.292463695108
-14190.586112807528,-14549.398666548572,-27179.20716753092,-16294.913446296863
-14197.358691377483,-14563.323803344229,-27185.06332457821,-16300.121402754952
-14219.218697454777,-14594.37037639265,-27180.70473440942,-16300.479030666236
-14233.747331350723,-14621.974780794952,-27178.134283797062,-16300.054347521584
-14215.441252641827,-14562.07210565473,-27179.20716753092,-16298.780298087631
-14213.161374707386,-14570.632823781112,-27180.70473440942,-16306.245780735706
-14225.0077992687,-14610.530687633836,-27185.91269086751,-16314.27005699516
-14231.19923248282,-14572.689184271,-27183.65516467752,-16310.492612182214
-14220.895078288922,-14539.54154724378,-27175.049743062227,-16301.50721091118
-14206.612313581982,-14545.263593824338,-27177.10610355212,-16298.243856220706
-14212.513174118185,-14566.341288845691,-27187.253795534827,-16308.413899947873
-14225.030151013156,-14598.773670050345,-27193.71344968241,-16314.292408739617
-14226.080683002554,-14580.735812274912,-27183.968089099897,-16302.334225456028
-14210.38975839493,-14546.761160702845,-27173.440417461446,-16292.164181728862
-14205.76294729268,-14546.850567680664,-27170.24411800434,-16295.114611996964
-14213.273133429664,-14552.63966949459,-27170.37822847107,-16298.199152731797
-14222.213831211786,-14582.32278613124,-27176.18968202945,-16299.6967196103
-14234.127311006465,-14585.452030354982,-27173.48512095036,-16294.622873618946
-14241.682200632358,-14589.385937379117,-27170.735856382355,-16288.207922960271
-14225.968924280278,-14559.41224806455,-27168.031295303263,-16289.750193327687
-14205.248857170209,-14534.31123904124,-27167.025466802774,-16290.979539272732
-14200.040900712122,-14535.719398941925,-27171.875795349577,-16293.70645209628
-14224.471357401771,-14574.20910289396,-27174.13332153956,-16298.333263198529
-14227.265325458686,-14572.35390810417,-27169.171234270485,-16295.204018974784
-14219.084586988043,-14586.994300722396,-27169.171234270485,-16295.807516075078
-14201.225543168252,-14572.376259848626,-27170.35587672661,-16298.914408554365
-14203.1030897025,-14555.031306151308,-27177.642545419043,-16305.84344933551
-14213.407243896396,-14573.382088349115,-27174.625059917576,-16302.669501622857
-14206.008816481688,-14564.59785277818,-27174.736818639856,-16298.17680098734
-14208.132232204944,-14580.869922741644,-27180.48121696487,-16305.374062701949
-14212.423767140364,-14570.49871331438,-27189.57837695818,-16311.65490289389
-14202.209019924288,-14547.521120014326,-27189.936004869465,-16307.251609236197
-14202.298426902107,-14540.323858299716,-27183.94573735544,-16298.713242854268
-14209.406281638896,-14543.386047290094,-27180.637679176056,-16299.160277743376
-14216.782357309146,-14532.992486118375,-27183.65516467752,-16306.268132480162
-14211.015607239677,-14519.6261429341,-27174.602708173123,-16304.07766152354
-14209.987426994734,-14541.083817611196,-27176.34614424064,-16304.390585945916
-14220.04571199962,-14565.7377917454,-27175.29561225124,-16303.6976818678
-14224.426653912862,-14541.530852500304,-27172.14401628304,-16303.13888825642
-14208.489860116228,-14550.628012493611,-27166.5113766803,-16305.731690613236
-14209.719206061269,-14589.520047845846,-27169.260641248304,-16312.884248838933
-14220.001008510711,-14604.719234075455,-27176.748475640838,-16319.008626819686
-14225.700703346814,-14574.052640682774,-27177.28491750776,-16316.862859351975
-14231.57921213856,-14540.636782722093,-27169.975897070875,-16304.971731301754
-14232.048598772122,-14543.8330821792,-27167.271335991783,-16300.27786496614
-14229.925183048868,-14561.64742251008,-27172.814568616697,-16304.167068501363
-14229.276982459663,-14583.708594287467,-27178.76013264181,-16307.341016214015
-14226.706531847303,-14571.437486581504,-27172.032257560764,-16299.540257399114
-14228.740540592737,-14561.602719021168,-27174.178025028472,-16302.669501622857
-14225.47718590226,-14543.54250950128,-27175.407370973517,-16304.725862112746
-14222.23618295624,-14532.97013437392,-27173.48512095036,-16303.854144078989
-14210.836793284036,-14519.044997578265,-27173.060437805707,-16305.865801079966
-14216.089453231032,-14545.151835102062,-27175.80970237371,-16304.412937690371
-14220.380988166453,-14564.59785277818,-27173.038086061253,-16303.22829523424
-14218.749310821211,-14564.441390566994,-27173.820397117182,-16306.961036558276
-14210.367406650474,-14551.477378782914,-27174.870929106582,-16309.442080192815
-14201.739633290725,-14526.82340464871,-27170.266469748796,-16303.94355105681
-14206.120575203966,-14535.719398941925,-27167.651315647523,-16300.322568455049
-14225.253668457708,-14549.398666548572,-27166.109045280107,-16295.60635037498
-14227.354732436506,-14553.332573572705,-27164.47736793487,-16297.41684167586
-14222.079720745054,-14564.843721967189,-27163.337428967647,-16296.858048064478
-14219.442214899327,-14552.371448561127,-27166.846652847133,-16297.46154516477
-14226.304200447108,-14553.176111361518,-27171.09348429364,-16297.640359120413
-14233.859090073,-14568.777628991322,-27172.009905816307,-16299.763774843666
-14232.607392383505,-14547.632878736602,-27170.825263360177,-16300.65784462188
-14216.156508464395,-14534.177128574507,-27169.528862181767,-16303.6976818678
-14211.932028762343,-14522.576573202205,-27167.696019136434,-16307.296312725106
-14228.62878187046,-14542.961364145443,-27173.21690001689,-16313.241876750217
-14233.412055183897,-14560.194559120484,-27170.311173237704,-16312.32545522755
-14227.466491158784,-14567.816503979744,-27166.824301102675,-16310.716129626768
-14224.873688801968,-14553.31022182825,-27170.937022082453,-16311.498440682702
-14216.692950331326,-14537.30637279825,-27170.17706277097,-16312.236048249728
-14213.76487180768,-14535.36177103064,-27166.33256272466,-16302.043652778108
-14213.09431947402,-14530.489090739382,-27162.555117911717,-16298.042690520608
-14208.802784538602,-14537.440483264982,-27161.43753068895,-16298.08739400952
-14209.830964783549,-14536.21113731994,-27163.493891178838,-16298.042690520608
-14216.424729397862,-14549.510425270848,-27163.85151909012,-16298.93676029882
-14226.23714521374,-14559.12167538663,-27162.08573127815,-16293.281768951629
-14227.466491158784,-14564.776666733822,-27157.57067889818,-16288.9455305273
-14210.501517117204,-14514.842869620668,-27155.134338752552,-16287.269149693151
-14208.691025816326,-14516.452195221447,-27155.84959457512,-16286.732707826222
-14221.230354455753,-14540.323858299716,-27162.80098710072,-16291.56068462857
-14226.214793469286,-14555.45598929596,-27156.56485039769,-16292.790030573611
-14232.67444761687,-14580.087611685709,-27156.073112019672,-16297.327434698038
-14222.794976567624,-14522.39775924656,-27157.0118852868,-16295.740460841713
-14225.499537646716,-14532.92543088501,-27162.309248722704,-16304.412937690371
-14241.838662843546,-14571.281024370315,-27171.11583603809,-16315.253533751194
-14245.146721022931,-14545.107131613153,-27173.32865873917,-16313.644208150412
-14249.170035024888,-14550.739771215887,-27171.18289127146,-16308.972693559252
-14243.827968100068,-14569.403477836073,-27171.585222671656,-16309.352673214991
-14229.925183048868,-14554.15958811755,-27175.60853667361,-16312.973655816751
-14214.793052052624,-14533.797148918768,-27175.00503957332,-16312.526620927649
-14228.38291268145,-14551.231509593908,-27174.826225617675,-16311.386681960426
-14230.215755726786,-14547.58817524769,-27166.354914469117,-16302.445984178305
-14221.140947477932,-14540.30150655526,-27163.784463856755,-16301.775431844644
-14231.333342949552,-14580.020556452342,-27168.34421972564,-16306.871629580455
-14226.81829056958,-14547.141140358584,-27160.14112951054,-16301.216638233262
-14218.995180010224,-14504.426956704494,-27150.932210794952,-16287.13503922642
-14222.9067352899,-14522.420110991015,-27149.97108578337,-16284.27401593614
-14219.464566643785,-14520.073177823208,-27142.773824068765,-16282.999966502186
-14216.402377653409,-14524.029436591798,-27144.472556647368,-16283.201132202284
-14222.951438778811,-14532.545451229267,-27151.155728239504,-16288.140867726908
-14239.357619209006,-14564.351983589171,-27153.547364896225,-16290.778373572632
-14249.617069913991,-14576.153704661574,-27154.21791722988,-16291.001891017188
-14231.512156905192,-14531.15964307304,-27147.333579937647,-16284.855161291976
-14221.073892244563,-14532.16547157353,-27150.46282416139,-16288.409088660372
-14220.29158118863,-14550.672715982524,-27155.737835852844,-16296.209847475273
-14225.633648113448,-14557.959384674954,-27157.36951319808,-16302.22246673375
-14228.29350570363,-14540.905003655556,-27159.247059732326,-16305.016434790665
-14225.29837194662,-14529.952648872451,-27157.771844598275,-16308.19038250332
-14235.468415673784,-14564.93312894501,-27164.678533634968,-16315.946437829309
-14227.9582295368,-14557.400591063571,-27175.452074462424,-16321.221449520765
-14221.163299222388,-14551.007992149353,-27177.933118096964,-16318.405129719393
-14236.407188940906,-14557.668811997037,-27175.675591906976,-16317.622818663458
-14229.165223737387,-14566.676565012523,-27173.552176183723,-16314.672388395356
-14217.47526138726,-14546.828215936212,-27172.993382572346,-16309.933818570831
-14217.408206153896,-14544.995372890877,-27172.814568616697,-16311.878420338444
-14222.72792133426,-14553.869015439632,-27170.33352498216,-16309.933818570831
-14224.449005657318,-14539.183919332496,-27160.275239977276,-16300.70254811079
-14223.24201145673,-14542.49197751188,-27160.968144055387,-16303.27299872315
-14224.180784723852,-14548.348134559172,-27165.773769113275,-16308.123327269952
-14217.67642708736,-14535.764102430834,-27165.10321677962,-16306.402242946891
-14225.81246206909,-14574.20910289396,-27161.70575162241,-16305.284655724128
-14227.645305114424,-14546.7835124473,-27152.429777673457,-16295.13696374142
-14223.912563790387,-14527.650419193556,-27156.94483005343,-16296.768641086655
-14234.23906972874,-14549.063390381742,-27163.560946412203,-16304.234123734728
-14237.591831397038,-14553.153759617062,-27163.695056878933,-16306.357539457982
-14236.8095203411,-14543.49780601237,-27161.99632430033,-16306.89398132491
-14247.046619301633,-14539.765064688334,-27163.9632778124,-16305.463469679771
-14254.243881016242,-14555.388934062594,-27164.812644101698,-16303.049481278596
-14256.68022116187,-14575.17022790554,-27162.75628361181,-16310.358501715482
-14246.599584412526,-14546.828215936212,-27163.985629556853,-16311.18551626033
-14251.382857725965,-14537.30637279825,-27163.71740862339,-16307.877458080944
-14239.37997095346,-14517.390968488571,-27152.94386779593,-16300.65784462188
-14229.72401734877,-14520.721378412412,-27151.625114873063,-16297.953283542787
-14231.713322605292,-14529.103282583152,-27159.42587368797,-16302.51303941167
-14221.252706200208,-14511.40070097455,-27163.829167345662,-16309.173859259352
-14234.619049384482,-14539.183919332496,-27168.36657147009,-16312.32545522755
-14241.548090165626,-14546.939974658488,-27165.03616154625,-16307.408071447382
-14230.282810960152,-14543.743675201378,-27157.615382387088,-16300.300216710595
-14222.86203180099,-14544.59304149068,-27156.833071331155,-16302.445984178305
-14229.947534793322,-14561.937995187998,-27165.0138098018,-16312.459565694282
-14233.412055183897,-14544.525986257317,-27166.019638302285,-16306.804574347088
-14236.317781963086,-14540.077989110709,-27157.123644009072,-16295.539295141614
-14242.553918666115,-14543.095474612175,-27158.174175998472,-16300.903713810889
-14247.851282102023,-14546.559995002746,-27162.80098710072,-16304.122365012452
-14235.803691840612,-14567.995317935389,-27165.617306902088,-16308.36919645896
-14240.698723876323,-14551.142102616084,-27164.56677491269,-16305.75404235769
-14254.266232760696,-14566.564806290247,-27164.56677491269,-16302.401280689392
-14247.895985590934,-14563.323803344229,-27166.55608016921,-16303.585923145523
-14228.025284770169,-14526.44342499297,-27163.40448420101,-16298.266207965162
-14223.644342856926,-14543.78837869029,-27167.070170291685,-16301.663673122368
-14222.079720745054,-14551.030343893808,-27164.20914700141,-16301.149582999897
-14230.43927317134,-14556.93120443001,-27159.3588184546,-16297.7968213316
-14224.069026001576,-14547.275250825316,-27156.18487074195,-16295.114611996964
-14222.48205214525,-14562.183864377006,-27160.699923121923,-16297.349786442492
-14215.284790430642,-14576.712498272957,-27165.99728655783,-16301.663673122368
-14220.872726544469,-14559.613413764646,-27168.411274959,-16301.663673122368
-14223.9572672793,-14526.39872150406,-27164.56677491269,-16294.242893963206
-14221.655037600403,-14529.863241894633,-27157.660085876,-16293.058251507076
-14221.05154050011,-14536.188785575485,-27159.18000449896,-16301.551914400092
-14227.824119070068,-14556.886500941098,-27164.32090572368,-16309.889115081922
-14247.29248849064,-14584.669719299043,-27166.623135402577,-16311.006702304689
-14244.140892522442,-14582.83687625371,-27159.51528066579,-16307.251609236197
-14234.015552284189,-14553.846663695178,-27158.57650739867,-16303.787088845622
-14238.53060466416,-14526.30931452624,-27160.34229521064,-16301.931894055831
-14220.112767232988,-14531.11493958413,-27164.45501619041,-16301.931894055831
-14206.52290660416,-14528.92446862751,-27162.264545233797,-16298.668539365355
-14218.123461976464,-14527.963343615933,-27155.51431840829,-16294.958149785776
-14221.29740968912,-14534.557108230249,-27151.02161777277,-16293.438231162816
-14209.920371761367,-14526.264611037328,-27149.814623572187,-16295.785164330622
-14191.591941308016,-14525.437596492482,-27148.89820204952,-16296.343957942005
-14193.71535703127,-14529.371503516615,-27146.685379348444,-16292.231236962229
-14209.182764194342,-14532.232526806894,-27141.298608934718,-16282.59763510199
-14220.984485266745,-14547.364657803138,-27140.42689090096,-16278.93194901132
-14223.57728762356,-14555.143064873584,-27137.789385055232,-16275.802704787578
-14221.319761433571,-14561.35684983216,-27142.974989768863,-16275.51213210966
-14221.72209283377,-14543.743675201378,-27144.427853158457,-16274.26043442016
-14225.700703346814,-14536.21113731994,-27136.94001876593,-16267.30904189456
-14225.924220791368,-14550.605660749156,-27139.37635891156,-16268.985422728709
-14226.572421380572,-14563.6367277666,-27143.46672814688,-16275.847408276488
-14222.929087034356,-14536.16643383103,-27145.724254336867,-16281.480047879226
-14234.86491857349,-14544.749503701869,-27142.639713602035,-16282.396469401894
-14223.733749834748,-14566.296585356784,-27136.91766702148,-16282.664690335358
-14215.24008694173,-14532.992486118375,-27133.98958849783,-16279.848370533988
-14205.584133337035,-14500.336587469172,-27130.592123340622,-16276.160332698862
-14199.124479189451,-14505.768061371811,-27133.788422797734,-16279.714260067256
-14202.834868769036,-14529.7291314279,-27137.163536210483,-16286.576245615037
-14203.90775250289,-14519.268515022815,-27127.172306438963,-16283.402297902385
-14199.146830933909,-14517.25685802184,-27128.289893661728,-16283.93873976931
-14193.089508186522,-14513.747634142355,-27129.8545157736,-16284.69869908079
-14189.781450007136,-14518.10622431114,-27139.46576588938,-16291.784202073122
-14197.135173932931,-14551.902061927563,-27148.02648401576,-16297.573303887048
-14211.708511317793,-14536.25584080885,-27148.115890993584,-16291.337167184016
-14201.694929801812,-14513.568820186714,-27146.41715841498,-16289.549027627592
-14197.47045009976,-14512.652398664046,-27147.98178052685,-16295.293425952606
-14214.234258441242,-14560.954518431963,-27155.693132363933,-16304.122365012452
-14221.856203300502,-14555.344230573684,-27159.71644636589,-16304.144716756908
-14222.370293422971,-14531.696084939967,-27148.741739838333,-16291.694795095302
-14225.924220791368,-14525.370541259115,-27143.7573008248,-16289.750193327687
-14219.352807921508,-14520.497860967858,-27143.86905954708,-16290.823077061545
-14204.734767047736,-14522.084834824183,-27144.718425836378,-16291.113649739464
-14210.300351417109,-14537.172262331518,-27147.758263082294,-16295.449888163792
-14229.589906882038,-14536.635820464591,-27145.210164214397,-16292.432402662327
-14239.24586048673,-14528.812709905233,-27138.57169611117,-16288.476143893737
-14232.67444761687,-14549.219852592929,-27133.251980930803,-16293.058251507076
-14216.871764286969,-14564.061410911252,-27131.84382103012,-16295.852219563987
-14209.38392989444,-14554.718381728931,-27133.386091397537,-16295.427536419338
-14211.149717706408,-14526.152852315052,-27128.356948895093,-16289.817248561056
-14208.601618838504,-14501.29771248075,-27124.400690126506,-16283.8940362804
-14215.642418341926,-14523.291829024773,-27129.92157100697,-16291.895960795398
-14217.587020109537,-14537.596945476167,-27138.951675766908,-16300.79195508861
-14214.748348563711,-14522.956552857942,-27137.36470191058,-16299.875533565944
-14209.562743850083,-14501.744747369856,-27139.08578623364,-16298.579132387536
-14216.357674164496,-14521.749558657357,-27146.439510159435,-16300.881362066431
-14215.642418341926,-14530.489090739382,-27147.825318315667,-16300.03199577713
-14213.139022962932,-14548.63870723709,-27146.61832411508,-16302.580094645036
-14218.48108988775,-14548.571652003724,-27153.94969629642,-16302.736556856224
-14217.631723598448,-14521.235468534884,-27152.876812562565,-16299.584960888023
-14226.259496958197,-14528.008047104842,-27152.250963717812,-16301.328396955538
-14225.454834157808,-14546.090608369186,-27155.17904224146,-16302.110708011474
-14212.937857262834,-14523.87297438061,-27156.02840853076,-16304.122365012452
-14216.178860208853,-14520.341398756673,-27159.58233589916,-16310.537315671125
-14230.215755726786,-14551.030343893808,-27160.99049579984,-16313.666559894868
-14229.209927226297,-14532.8807273961,-27161.05755103321,-16313.174821516852
-14227.690008603337,-14523.87297438061,-27165.058513290707,-16312.906600583388
-14227.57824988106,-14545.621221735624,-27165.32673422417,-16316.70639714079
-14238.083569775054,-14568.084724913208,-27165.840824346644,-16318.494536697215
-14224.985447524245,-14522.129538313096,-27157.302457964717,-16305.50817316868
-14220.492746888727,-14519.06734932272,-27150.351065439118,-16304.61410339047
-14218.212868954286,-14538.82629142121,-27153.346199196127,-16313.353635472493
-14205.584133337035,-14515.73693939888,-27156.766016097787,-16316.41582446287
-14196.263455899174,-14495.262741477818,-27154.955524796907,-16315.23118200674
-14206.277037415151,-14521.05665457924,-27154.37437944107,-16316.41582446287
-14220.29158118863,-14581.093440186196,-27150.7086933504,-16314.582981417536
-14212.781395051648,-14550.918585171532,-27148.71938809388,-16310.202039504296
-14195.27997914314,-14499.286055479772,-27152.74270209583,-16312.012530805176
-14194.85529599849,-14502.705872381435,-27156.967181797885,-16311.431385449338
-14199.750328034204,-14511.959494585932,-27158.352989954117,-16310.22439124875
-14210.367406650474,-14541.061465866742,-27157.682437620457,-16308.995045303707
-14217.855241043002,-14559.367544575638,-27161.19166149994,-16312.32545522755
-14219.084586988043,-14539.273326310316,-27163.918574323485,-16316.013493062675
-14220.76096782219,-14527.292791282272,-27171.026429060275,-16319.969751831264
-14225.208964968797,-14529.237393049883,-27170.7135046379,-16313.443042450315
-14222.951438778811,-14537.418131520526,-27168.00894355881,-16309.285617981628
-14222.23618295624,-14531.137291328583,-27164.6114784016,-16308.995045303707
-14219.442214899327,-14532.79132041828,-27163.11391152309,-16309.442080192815
-14217.832889298546,-14542.804901934256,-27165.930231324463,-16312.057234294089
-14223.465528901284,-14545.30829731325,-27160.76697835529,-16306.08931852452
-14220.895078288922,-14536.099378597664,-27152.38507418455,-16298.13209749843
-14222.683217845348,-14543.743675201378,-27150.95456253941,-16300.926065555344
-14220.380988166453,-14539.49684375487,-27155.42491143047,-16308.19038250332
-14217.028226498154,-14537.239317564883,-27152.92151605148,-16309.21856274826
-14210.702682817304,-14517.815651633222,-27145.456033403403,-16300.859010321978
-14203.885400758434,-14493.653415877036,-27141.07509149016,-16294.242893963206
-14206.880534515443,-14523.425939491504,-27142.9079345355,-16298.6461876209
-14215.307142175096,-14546.157663602551,-27151.93803929544,-16304.301178968097
-14210.546220606117,-14511.6242184191,-27153.480309662857,-16297.550952142592
-14217.519964876172,-14503.242314248362,-27155.26844921928,-16289.347861927494
-14219.375159665962,-14509.16552652902,-27154.17321374097,-16288.185571215818
-14219.732787577248,-14524.20825054744,-27149.993437527828,-16288.431440404827
-14208.825136283058,-14530.39968376156,-27152.876812562565,-16296.299254453095
-14213.831927041048,-14555.16541661804,-27161.884565578053,-16307.296312725106
-14228.092340003532,-14548.571652003724,-27165.4608446909,-16305.50817316868
-14241.369276209984,-14552.818483450234,-27168.99242031484,-16312.861897094475
-14242.9115465774,-14567.54828304628,-27168.590088914647,-16317.75692913019
-14223.443177156829,-14511.803032374744,-27165.88552783555,-16316.929914585344
-14222.951438778811,-14514.082910309186,-27170.937022082453,-16323.367216988472
-14242.084532032552,-14544.481282768404,-27173.19454827244,-16324.7530251447
-14241.570441910082,-14539.07216061022,-27175.00503957332,-16318.583943675036
-14226.572421380572,-14523.895326125066,-27166.5113766803,-16310.403205204391
-14217.631723598448,-14521.615448190623,-27162.7115801229,-16312.057234294089
-14226.684180102848,-14541.39674203357,-27173.351010483624,-16318.829812864044
-14233.747331350723,-14551.991468905386,-27168.18775751445,-16312.057234294089
-14244.766741367192,-14589.073012956742,-27164.03033304576,-16311.677254638344
-14219.933953277345,-14540.905003655556,-27159.29176322124,-16303.965902801265
-14207.238162426733,-14507.10916603913,-27154.17321374097,-16300.143754499408
-14211.730863062246,-14526.376369759604,-27155.15669049701,-16302.356577200482
-14214.278961930151,-14533.573631474212,-27151.08867300614,-16298.243856220706
-14210.680331072848,-14517.05569232174,-27141.343312423625,-16290.532504383626
-14208.892191516425,-14503.756404370832,-27145.97012352588,-16293.88526605192
-14221.342113178029,-14536.59111697568,-27153.703827107413,-16299.853181821489
-14223.219659712277,-14535.518233241824,-27161.10225452212,-16304.055309779083
-14217.922296276369,-14508.271456750806,-27154.32967595216,-16295.069908508052
-14219.285752688142,-14506.34920672765,-27151.60276312861,-16294.019376518652
-14211.708511317793,-14518.10622431114,-27148.67468460497,-16296.254550964184
-14207.864011271478,-14531.49491923987,-27149.255829960806,-16299.6967196103
-14225.588944624538,-14561.937995187998,-27154.687303863444,-16311.587847660525
-14230.841604571537,-14536.747579186867,-27151.60276312861,-16311.789013360622
-14235.58017439606,-14504.58341891568,-27144.22668745836,-16304.815269090566
-14243.179767510865,-14526.890459882075,-27146.61832411508,-16309.151507514896
-14244.856148345012,-14553.64549799508,-27154.24026897434,-16318.382777974935
-14254.53445369416,-14575.192579649996,-27157.302457964717,-16324.350693744504
-14260.25650027472,-14570.342251103191,-27151.669818361977,-16317.42165296336
-14254.020363571688,-14547.096436869677,-27151.87098406208,-16311.096109282507
-14238.396494197428,-14531.181994817496,-27157.615382387088,-16315.030016306642
-14236.854223830012,-14527.561012215736,-27156.85542307561,-16315.454699451291
-14217.922296276369,-14499.174296757496,-27155.290800963736,-16309.71030112628
-14214.949514263812,-14502.504706681337,-27155.447263174923,-16306.983388302731
-14217.38585440944,-14511.288942252271,-27153.41325442949,-16306.916333069365
-14219.263400943686,-14530.131462828096,-27152.13920499554,-16310.716129626768
-14212.312008418085,-14531.964305873433,-27147.24417295983,-16310.403205204391
-14215.687121830835,-14540.97205888892,-27150.306361950203,-16309.576190659547
-14218.43638639884,-14525.415244748026,-27148.02648401576,-16306.51400166917
-14214.0554444856,-14501.7223956254,-27139.264600189283,-16296.03103351963
-14213.362540407485,-14502.795279359256,-27134.861306531588,-16293.147658484895
-14208.847488027512,-14517.010988832832,-27136.872963532565,-16296.254550964184
-14211.552049106604,-14537.105207098151,-27139.063434489184,-16299.249684721197
-14217.05057824261,-14530.287925039283,-27135.86713503208,-16293.46058290727
-14217.966999765278,-14518.709721411436,-27129.206315184398,-16289.07964099403
-14223.174956223364,-14533.81950066322,-27131.97793149685,-16295.539295141614
-14218.346979421018,-14525.236430792384,-27136.649446088013,-16298.534428898623
-14206.835831026536,-14489.451287919435,-27133.810774542188,-16299.56260914357
-14219.419863154872,-14508.15969802853,-27134.01194024229,-16301.171934744352
-14239.111750019998,-14551.343268316185,-27139.19754495592,-16308.838583092522
-14234.82021508458,-14538.491015254382,-27131.352082652105,-16308.27978948114
-14219.643380599426,-14503.15290727054,-27134.41427164248,-16312.727786627744
-14212.62493284046,-14522.531869713292,-27148.25000146032,-16324.484804211235
-14223.711398090292,-14534.266535552328,-27153.16738524048,-16326.339999001028
-14234.037904028644,-14562.653251010568,-27153.05562651821,-16324.954190844795
-14230.171052237876,-14572.867998226644,-27152.94386779593,-16329.268077524672
-14213.787223552135,-14532.768968673823,-27149.166422982984,-16328.575173446558
-14220.76096782219,-14547.051733380764,-27157.07894052016,-16331.123272314462
-14224.113729490487,-14518.73207315589,-27156.05076027522,-16322.339036743528
-14232.67444761687,-14516.519250454814,-27156.90012656452,-16318.606295419491
-14227.310028947595,-14507.645607906055,-27158.107120765108,-16318.293370997117
-14217.72113057627,-14509.232581762384,-27153.636771874044,-16317.555763430091
-14221.453871900305,-14519.782605145288,-27156.14016725304,-16321.512022198682
-14229.746369093224,-14525.929334870498,-27156.52014690878,-16320.886173353932
-14236.653058129914,-14544.168358346027,-27153.346199196127,-16320.394434975917
-14244.029133800166,-14573.918530216042,-27152.586239884644,-16327.748158901712
-14230.841604571537,-14526.644590693068,-27150.14989973901,-16322.383740232435
-14217.654075342904,-14493.25108447684,-27153.32384745167,-16324.7530251447
-14213.407243896396,-14494.34631995515,-27149.591106127635,-16318.963923330775
-14221.587982367038,-14504.96339857142,-27148.56292588269,-16317.33224598554
-14226.035979513645,-14520.497860967858,-27147.780614826755,-16320.394434975917
-14226.639476613936,-14542.804901934256,-27153.502661407318,-16324.41774897787
-14231.601563883016,-14555.366582318138,-27156.09546376413,-16323.501327455204
-14249.840587358543,-14542.648439723069,-27146.014827014784,-16319.18744077533
-14235.379008695962,-14510.10429979614,-27134.973065253864,-16315.99114131822
-14225.633648113448,-14484.28803495026,-27137.632922844045,-16320.41678672037
-14229.791072582137,-14514.865221365122,-27142.773824068765,-16329.983333347242
-14242.464511688297,-14533.26070705184,-27142.81852755768,-16327.546993201611
-14239.938764564844,-14496.425032189492,-27139.24224844483,-16322.674312910356
-14233.166185994887,-14501.878857836587,-27144.56196362519,-16327.725807157256
-14229.366389437484,-14514.217020775915,-27145.38897817004,-16325.647094922911
-14219.24104919923,-14516.653360921546,-27145.456033403403,-16322.13787104343
-14216.648246842416,-14518.285038266784,-27148.540574138235,-16324.238935022227
-14210.43446188384,-14509.657264907037,-27142.25973394629,-16323.724844899756
-14208.065176971577,-14518.955590600444,-27140.315132178683,-16327.748158901712
-14207.394624637918,-14535.093550097174,-27139.04108274473,-16330.98916184773
-14203.416014124872,-14509.34434048466,-27142.550306624213,-16331.167975803372
-14224.963095779787,-14520.386102245582,-27144.539611880737,-16330.005685091695
-14225.968924280278,-14519.73790165638,-27138.12466122206,-16322.56255418808
-14213.586057852037,-14501.655340392035,-27134.72719606485,-16316.594638418514
-14217.542316620627,-14515.982808587887,-27136.73885306583,-16319.880344853444
-14209.652150827904,-14516.16162254353,-27147.691207848933,-16329.581001947046
-14206.321740904064,-14502.34824447015,-27145.679550847955,-16327.189365290327
-14216.469432886772,-14522.82244239121,-27137.252943188305,-16320.7520628872
-14224.314895190586,-14555.366582318138,-27139.80104205621,-16325.870612367466
-14212.781395051648,-14536.92639314251,-27142.81852755768,-16326.8540891235
-14202.723110046758,-14494.748651355343,-27144.56196362519,-16327.792862390625
-14207.260514171188,-14489.317177452704,-27140.18102171195,-16322.47314721026
-14208.53456360514,-14497.922599068,-27132.42496638596,-16317.13108028544
-14218.43638639884,-14518.620314433612,-27134.168402453477,-16320.41678672037
-14217.855241043002,-14496.134459511572,-27138.392882155524,-16324.618914677969
-14217.430557898351,-14504.58341891568,-27142.37149266857,-16327.926972857354
-14213.809575296593,-14511.53481144128,-27134.928361764956,-16321.959057087786
-14207.416976382374,-14488.8701425636,-27129.92157100697,-16313.912429083875
-14204.868877514467,-14477.9177877805,-27132.13439370804,-16310.291446482115
-14204.466546114272,-14494.43572693297,-27132.760242552788,-16316.304065740596
-14209.495688616717,-14529.751483172357,-27134.101347220105,-16328.37400774646
-14217.251743942708,-14535.384122775093,-27134.391919898026,-16326.496461212217
-14220.313932933084,-14527.046922093265,-27135.442451887426,-16318.583943675036
-14214.837755541535,-14525.549355214758,-27135.80007979871,-16317.779280874644
-14210.9038485174,-14499.934256068977,-27133.76607105328,-16322.428443721348
-14210.322703161562,-14506.215096260918,-27135.84478328762,-16327.748158901712
-14211.216772939775,-14512.406529475038,-27137.342350166127,-16330.206850791796
-14219.308104432595,-14523.06831158022,-27134.25780943129,-16324.596562933511
-14229.72401734877,-14543.743675201378,-27135.665969331974,-16329.715112413778
-14216.33532242004,-14523.8282708917,-27135.37539665406,-16332.978467104253
-14203.304255402596,-14493.742822854856,-27134.950713509406,-16330.430368236348
-14214.949514263812,-14505.857468349634,-27133.162573952985,-16329.871574624964
-14225.141909735432,-14495.35214845564,-27128.87103901757,-16324.171879788862
-14219.017531754678,-14497.386157201072,-27131.575600096658,-16328.46341472428
-14208.020473482666,-14488.937197796966,-27125.47357386036,-16328.485766468735
-14200.264418156674,-14485.696194850943,-27126.76997503877,-16333.067874082077
-14213.340188663027,-14505.142212527064,-27131.91087626349,-16336.37593226146
-14233.0097237837,-14536.30054429776,-27130.100384962607,-16336.599449706013
-14226.460662658295,-14517.905058611042,-27127.731100050343,-16331.9055833704
-14212.04378748462,-14494.592189144158,-27128.602818084102,-16326.317647256572
-14208.646322327417,-14492.96051179892,-27130.592123340622,-16330.206850791796
-14208.512211860683,-14494.905113566532,-27124.93713199343,-16327.41288273488
-14221.118595733476,-14508.651436406546,-27121.69612904741,-16322.115519298974
-14228.092340003532,-14528.835061649688,-27126.61351282758,-16325.021246078164
-14215.57536310856,-14509.34434048466,-27130.41330938498,-16324.507155955693
-14215.9553427643,-14521.30252376825,-27137.297646677216,-16327.636400179435
-14223.018494012178,-14527.002218604352,-27135.28598967624,-16328.150490301909
-14222.638514356437,-14501.409471203027,-27128.04402447272,-16320.953228587296
-14215.463604386285,-14498.257875234827,-27120.46678310237,-16316.08054829604
-14207.707549060293,-14481.225845959883,-27119.058623201683,-16315.409995962382
-14211.328531662051,-14505.522192182803,-27127.66404481698,-16321.489670454226
-14226.52771789166,-14521.838965635176,-27132.8049460417,-16322.450795465804
-14223.66669460138,-14480.6670523485,-27128.06637621717,-16317.33224598554
-14208.892191516425,-14466.697212063937,-27122.880771503544,-16317.823984363557
-14199.415051867372,-14488.95954954142,-27123.707786048388,-16325.200060033809
-14201.225543168252,-14503.622293904102,-27134.72719606485,-16333.42550199336
-14212.267304929175,-14508.517325939814,-27139.063434489184,-16333.85018513801
-14216.178860208853,-14485.33856693966,-27134.5036786203,-16328.552821702102
-14221.319761433571,-14499.308407224227,-27131.575600096658,-16331.100920570008
-14218.01170325419,-14510.01489281832,-27125.31711164917,-16327.41288273488
-14202.14196469092,-14477.426049402482,-27125.04889071571,-16324.529507700146
-14210.836793284036,-14489.7195088529,-27130.97210299636,-16326.09412981202
-14222.504403889703,-14501.565933414216,-27128.446355872915,-16323.568382688569
-14211.663807828882,-14499.286055479772,-27127.86521051708,-16321.824946621056
-14206.791127537625,-14489.384232686072,-27125.652387816,-16317.689873896825
-14206.031168226144,-14509.25493350684,-27127.596989583613,-16321.556725687591
-14215.508307875194,-14511.8253841192,-27130.7038820629,-16322.607257676991
-14214.681293330348,-14496.313273467216,-27126.79232678322,-16314.851202351
-14207.61814208247,-14493.7204711104,-27121.405556369493,-16305.575228402047
-14212.62493284046,-14488.736032096867,-27123.528972092747,-16309.03974879262
-14218.212868954286,-14470.429953387971,-27131.240323929826,-16315.745272129212
-14227.310028947595,-14490.166543742009,-27136.113004221083,-16319.746234386712
-14247.270136746183,-14525.147023814565,-27136.33652166564,-16322.94253384382
-14247.58306116856,-14553.712553228444,-27138.504640877803,-16329.89392636942
-14221.18565096684,-14499.375462457594,-27135.93419026544,-16327.435234479335
-14215.9553427643,-14521.59309644617,-27142.974989768863,-16331.23503103674
-14216.24591544222,-14521.838965635176,-27150.14989973901,-16334.028999093653
-14211.887325273434,-14488.82543907469,-27151.46865266188,-16327.32347575706
-14206.85818277099,-14470.407601643516,-27146.283047948247,-16322.741368143725
-14200.66674955687,-14471.502837121823,-27142.7067688354,-16326.787033890134
-14205.807650781591,-14501.789450858769,-27147.13241423755,-16338.27583054016
-14223.689046345837,-14519.8273086342,-27151.982742784352,-16347.372990533471
-14224.896040546422,-14491.172372242496,-27142.23738220184,-16337.940554373332
-14215.396549152918,-14484.310386694717,-27142.863231046587,-16336.599449706013
-14210.836793284036,-14500.29188398026,-27146.283047948247,-16341.025095108163
-14209.47333687226,-14511.19953527445,-27147.51239389329,-16344.71313294329
-14206.344092648518,-14491.239427475864,-27146.23834445934,-16342.165034075384
-14210.769738050669,-14489.652453619536,-27145.724254336867,-16335.794786905622
-14211.328531662051,-14501.275360736296,-27144.38314966955,-16335.683028183346
-14206.56761009307,-14500.403642702538,-27142.930286279952,-16336.308877028094
-14204.24302866972,-14498.39198570156,-27142.215030457384,-16339.03578985164
-14214.927162519356,-14510.037244562776,-27151.37924568406,-16338.409941006894
-14231.936840049844,-14521.079006323696,-27154.396731185527,-16339.259307296195
-14229.656962115405,-14500.29188398026,-27149.50169914981,-16335.392455505427
-14222.660866100892,-14490.43476467547,-27153.033274773752,-16339.32636252956
-14223.24201145673,-14518.06152082223,-27160.722274866377,-16347.395342277929
-14233.38970343944,-14543.766026945834,-27159.649391132523,-16353.385609791949
-14235.9601540518,-14507.556200928237,-27150.574582883663,-16350.993973135231
-14228.539374892638,-14495.754479855834,-27149.47934740536,-16351.66452546889
-14226.23714521374,-14511.892439352565,-27149.255829960806,-16357.386572049449
-14226.684180102848,-14500.604808402635,-27153.14503349603,-16361.700458729323
-14223.57728762356,-14502.68352063698,-27159.7611498548,-16363.756819219212
-14233.523813906171,-14506.818593361211,-27158.844728332133,-16356.80542669361
-14224.24783995722,-14479.10243023663,-27158.57650739867,-16352.916223158389
-14218.302275932108,-14492.267607720803,-27159.71644636589,-16354.23497608125
-14220.67156084437,-14520.386102245582,-27167.38309471406,-16361.8122174516
-14205.204153681298,-14464.57379634068,-27166.109045280107,-16358.370048805482
-14201.493764101717,-14464.305575407216,-27162.555117911717,-16356.134874359952
-14204.064214714075,-14481.561122126714,-27162.33160046716,-16356.313688315597
-14208.378101393952,-14484.600959372636,-27163.538594667745,-16358.884138927957
-14208.62397058296,-14495.083927522175,-27164.119740023583,-16364.270909341683
-14209.406281638896,-14485.137401239564,-27164.544423168238,-16360.940499417842
-14221.09624398902,-14498.034357790277,-27163.20331850092,-16356.04546738213
-14230.483976660247,-14518.128576055597,-27159.247059732326,-16354.391438292438
-14227.980581281256,-14516.698064410455,-27154.575545141168,-16354.905528414907
-14214.390720652427,-14501.789450858769,-27151.446300917425,-16356.04546738213
-14215.307142175096,-14503.711700881924,-27154.59789688562,-16356.29133657114
-14226.393607424929,-14501.700043880946,-27147.11006249309,-16353.00563013621
-14222.660866100892,-14500.738918869369,-27144.204335713905,-16351.95509814681
-14208.512211860683,-14498.816668846212,-27142.88558279104,-16352.133912102452
-14200.175011178851,-14487.082003007175,-27141.656236846,-16350.345772546028
-14204.28773215863,-14489.026604774786,-27142.103271735108,-16350.52458650167
-14223.174956223364,-14511.512459696823,-27138.951675766908,-16345.495443999223
-14224.04667425712,-14513.233544019884,-27130.346254151616,-16338.208775306795
-14218.548145121116,-14497.587322901169,-27129.630998329045,-16338.141720073429
-14206.47820311525,-14468.306537664716,-27129.340425651128,-16335.079531083053
-14209.696854316817,-14487.014947773809,-27136.33652166564,-16338.320534029071
-14234.82021508458,-14523.984733102889,-27139.7563385673,-16345.8083684216
-14235.401360440415,-14504.873991593598,-27133.654312331,-16342.321496286571
-14216.62589509796,-14480.041203503752,-27127.731100050343,-16339.393417762927
-14207.28286591564,-14481.404659915526,-27127.26171341678,-16344.71313294329
-14203.237200169233,-14491.06061352022,-27131.687358818934,-16348.848205667522
-14201.04672921261,-14480.108258737118,-27126.546457594213,-16341.09215034153
-14200.71145304578,-14485.696194850943,-27129.76510879578,-16340.935688130345
-14198.588037322526,-14505.05280554924,-27130.435661129435,-16340.533356730148
-14204.779470536649,-14520.58726794568,-27135.37539665406,-16345.09311259903
-14207.215810682275,-14482.63400586057,-27135.95654200989,-16344.623725965468
-14194.14004017592,-14462.048049217232,-27127.395823883515,-16338.722865429268
-14195.168220420865,-14503.085852037177,-27123.41721337047,-16342.343848031029
-14189.915560473868,-14488.400755930035,-27123.77484128176,-16347.32828704456
-14184.171162148854,-14462.271566661784,-27125.652387816,-16352.580946991558
-14191.770755263658,-14467.568930097692,-27126.99349248332,-16355.307859815106
-14207.595790338017,-14490.479468164382,-27127.79815528371,-16353.89969991442
-14216.402377653409,-14504.96339857142,-27132.335559408137,-16358.817083694588
-14218.637552098937,-14493.96634029941,-27138.102309477606,-16363.510950030202
-14221.275057944664,-14489.384232686072,-27140.583353112143,-16360.67227848438
-14207.305217660096,-14479.996500014842,-27136.82826004365,-16356.984240649252
-14212.446118884816,-14486.925540795988,-27133.02846348625,-16354.19027259234
-14214.658941585893,-14490.591226886658,-27132.46966987487,-16354.704362714812
-14207.126403704457,-14505.745709627356,-27138.05760598869,-16360.851092440022
-14206.008816481688,-14505.857468349634,-27137.94584726642,-16362.974508163275
-14217.274095687164,-14502.281189236784,-27138.72815832236,-16364.315612830596
-14216.111804975488,-14496.626197889593,-27131.575600096658,-16356.917185415889
-14204.511249603183,-14474.900302279031,-27123.17134418146,-16346.993010877732
-14205.740595548225,-14484.690366350456,-27120.243265657817,-16346.52362424417
-14204.91358100338,-14477.358994169115,-27122.63490231453,-16349.831682423555
-14216.603543353503,-14503.421128204003,-27126.45705061639,-16354.391438292438
-14236.72011336328,-14534.601811719158,-27129.8545157736,-16357.543034260636
-14221.364464922484,-14466.205473685915,-27119.371547624058,-16342.969696875776
-14223.24201145673,-14487.931369296475,-27123.32780639265,-16346.210699821797
-14229.05346501511,-14521.615448190623,-27128.69222506192,-16356.872481926976
-14217.698778831817,-14499.710738624424,-27127.26171341678,-16356.47015052678
-14202.14196469092,-14439.718656506378,-27119.46095460188,-16340.265135796684
-14206.545258348617,-14445.217185642385,-27113.917721976963,-16336.7559119172
-14210.702682817304,-14472.888645278055,-27113.56009406568,-16336.979429361754
-14214.658941585893,-14481.382308171073,-27121.56201858068,-16341.002743363708
-14221.275057944664,-14492.424069931993,-27127.731100050343,-16342.90264164241
-14225.968924280278,-14502.460003192426,-27127.731100050343,-16338.722865429268
-14222.258534700695,-14494.368671699604,-27122.07610870315,-16334.967772360777
-14203.728938547249,-14470.184084198963,-27112.53191382073,-16328.66458042438
-14197.224580910754,-14479.86238954811,-27113.94007372142,-16336.442987494826
-14194.609426809482,-14473.179217955974,-27115.12471617755,-16338.722865429268
-14199.86208675648,-14477.58251161367,-27109.961463208376,-16333.42550199336
-14218.302275932108,-14511.11012829663,-27108.53095156324,-16334.386627004938
-14209.808613039091,-14492.11114550962,-27104.351175350093,-16334.073702582564
-14208.579267094048,-14497.766136856811,-27110.564960308668,-16340.08632184104
-14220.96213352229,-14510.618389918613,-27117.739870278823,-16343.930821887354
-14227.15356673641,-14471.748706310836,-27119.79623076871,-16337.225298550762
-14223.845508557024,-14447.877043232564,-27117.538704578725,-16333.872536882463
-14201.203191423798,-14441.730313507356,-27108.687413774423,-16334.028999093653
-14192.150734919398,-14456.974203225876,-27111.03434694223,-16341.293316041629
-14208.04282522712,-14507.53384918378,-27119.528009835245,-16353.452665025314
-14216.76000556469,-14492.446421676448,-27118.589236568125,-16350.52458650167
-14220.559802122094,-14476.420220901991,-27114.051832443696,-16346.47892075526
-14223.15260447891,-14496.782660100778,-27111.906064975985,-16346.456569010805
-14207.48403161574,-14473.514494122805,-27110.45320158639,-16344.04258060963
-14206.545258348617,-14482.499895393838,-27114.11888767706,-16349.317592301082
-14213.206078196295,-14471.301671421728,-27111.168457408963,-16345.964830632787
-14212.759043307193,-14463.836188773656,-27107.391012596014,-16340.287487541138
-14205.584133337035,-14470.273491176784,-27111.88371323153,-16341.919164886376
-14211.037958984132,-14495.48625892237,-27121.76318428078,-16347.32828704456
-14217.274095687164,-14505.432785204985,-27128.446355872915,-16350.14460684593
-14224.225488212764,-14490.702985608934,-27122.74666103681,-16342.545013731124
-14229.366389437484,-14483.192799471952,-27113.69420453241,-16335.079531083053
-14231.936840049844,-14520.58726794568,-27117.78457376773,-16339.683990440846
-14215.083624730543,-14471.502837121823,-27116.37641386705,-16337.828795651056
-14195.682310543336,-14434.220127370374,-27113.023652198757,-16336.33122877255
-14206.85818277099,-14473.089810978152,-27113.046003943207,-16336.46533923928
-14209.987426994734,-14478.834209303166,-27112.777783009744,-16332.486728726237
-14207.394624637918,-14477.895436036044,-27111.57078880916,-16335.303048527603
-14215.061272986088,-14463.255043417816,-27113.56009406568,-16338.029961351152
-14216.111804975488,-14466.63015683057,-27114.252998143795,-16342.299144542116
-14216.268267186677,-14463.657374818013,-27112.487210331823,-16341.270964297171
-14210.993255495225,-14469.178255698474,-27105.62522478405,-16336.644153194924
-14216.469432886772,-14493.96634029941,-27107.5474748072,-16339.818100907578
-14225.030151013156,-14516.8768783661,-27111.59314055361,-16349.406999278905
-14232.8085580836,-14502.236485747871,-27118.61158831258,-16348.7587986897
-14235.691933118336,-14481.359956426615,-27112.88954173202,-16341.38272301945
-14235.066084273589,-14472.218092944397,-27112.71072777638,-16337.314705528584
-14228.025284770169,-14465.467866118894,-27110.497905075303,-16339.192252062829
-14226.013627769187,-14484.422145416993,-27105.98285269533,-16345.629554465955
-14227.265325458686,-14482.63400586057,-27108.66506202997,-16351.686877213346
-14229.120520248476,-14476.15199996853,-27095.65634675698,-16348.647039967424
-14230.81925282708,-14490.72533735339,-27082.982907650818,-16346.6577347109
-14235.982505796255,-14495.530962411282,-27081.731209961323,-16349.205833578806
-14220.179822466353,-14470.452305132429,-27081.39593379449,-16345.696609699324
-14203.57247633606,-14448.368781610585,-27081.55239600568,-16338.164071817884
-14210.210944439286,-14475.079116234676,-27081.28417507221,-16331.682065925845
-14208.981598494243,-14483.393965172048,-27076.43384652541,-16325.84826062301
-14200.309121645583,-14466.71956380839,-27072.03055286772,-16324.641266422424
-14197.783374522136,-14463.344450395638,-27078.624317482037,-16331.27973452565
-14197.24693265521,-14455.878967747569,-27086.380372808027,-16335.794786905622
-14205.718243803767,-14458.270604404284,-27084.25695708477,-16336.554746217102
-14208.020473482666,-14467.300709164228,-27077.707895959367,-16335.347752016516
-14211.172069450864,-14493.9216368105,-27076.277384314228,-16338.454644495803
-14214.927162519356,-14507.556200928237,-27080.747733205288,-16343.439083509336
-14214.81540379708,-14479.035375003265,-27085.48630302981,-16342.656772453402
-14229.992238282231,-14485.606787873125,-27084.100494873583,-16338.320534029071
-14220.470395144272,-14480.555293626225,-27079.004297137773,-16333.783129904645
-14216.134156719943,-14478.63304360307,-27080.41245703846,-16337.493519484226
-14214.323665419062,-14486.277340206783,-27081.708858216865,-16343.014400364686
-14212.200249695808,-14479.77298257029,-27081.127712861027,-16346.277755055162
-14223.10790099,-14496.782660100778,-27079.384276793517,-16345.42838876586
-14225.365427179984,-14485.897360551044,-27075.763294191755,-16343.908470142898
-14210.948552006312,-14450.313383378194,-27071.7399801898,-16342.701475942313
-14213.09431947402,-14482.052860504731,-27073.97515463533,-16347.820025422578
-14220.179822466353,-14515.401663232047,-27083.27348032874,-16359.644098239434
-14225.208964968797,-14489.495991408348,-27084.949861162888,-16360.38170580646
-14217.609371853992,-14446.357124609603,-27077.19380583689,-16349.04937136762
-14220.850374800011,-14454.917842735988,-27079.004297137773,-16350.8598626685
-14204.511249603183,-14475.52615112378,-27081.08300937212,-16355.66548772639
-14198.43157511134,-14493.742822854856,-27078.959593648862,-16354.167920847884
-14209.160412449886,-14492.40171818754,-27081.239471583307,-16354.704362714812
-14225.566592880084,-14514.574648687205,-27086.24626234129,-16355.307859815106
-14226.460662658295,-14523.694160424968,-27085.37454430754,-16354.033810381152
-14215.977694508756,-14484.48920065036,-27086.715648974856,-16354.860824926
-14224.471357401771,-14520.16258480103,-27095.924567690443,-16363.7121157303
-14221.029188755654,-14484.265683205806,-27095.87986420153,-16354.57025224808
-14214.703645074804,-14453.979069468864,-27091.342460077103,-16345.450740510314
-14215.642418341926,-14501.275360736296,-27091.65538449948,-16349.943441145831
-14209.13806070543,-14496.626197889593,-27089.97900366533,-16348.490577756236
-14198.85625825599,-14459.410543371505,-27088.123808875534,-16347.57415623357
-14203.773642036158,-14460.550482338724,-27086.089800130107,-16344.288449798638
-14208.601618838504,-14470.09467722114,-27079.630145982523,-16339.795749163122
-14207.796956038112,-14485.20445647293,-27076.36679129205,-16341.338019530538
-14191.658996541382,-14470.34054641015,-27078.490207015304,-16339.795749163122
-14190.630816296438,-14493.698119365949,-27082.848797184088,-16347.75297018921
-14201.851392013,-14498.146116512553,-27083.47464602884,-16348.870557411976
-14217.028226498154,-14511.11012829663,-27080.41245703846,-16342.299144542116
-14207.19345893782,-14476.822552302188,-27077.529082003723,-16338.029961351152
-14198.252761155696,-14455.320174136185,-27079.764256449256,-16343.23791780924
-14204.33243564754,-14482.38813667156,-27086.98386990832,-16351.15043534642
-14214.435424141338,-14508.338511984171,-27079.943070404897,-16344.534318987648
-14220.96213352229,-14503.085852037177,-27069.72832318882,-16335.41480724988
-14212.826098540558,-14485.651491362036,-27066.666134198444,-16333.98429560474
-14202.723110046758,-14466.138418452552,-27068.25310805477,-16336.353580517003
-14206.724072304258,-14477.38134591357,-27072.5893464791,-16342.23208930875
-14220.649209099916,-14505.745709627356,-27074.779817435723,-16345.361333532494
-14218.458738143294,-14487.14905824054,-27073.68458195741,-16343.439083509336
-14210.836793284036,-14484.690366350456,-27076.16562559195,-16345.406037021405
-14215.083624730543,-14512.004198074845,-27079.518387260247,-16351.66452546889
-14213.809575296593,-14502.728224125887,-27082.558224506167,-16354.23497608125
-14212.557877607094,-14460.90811025001,-27082.290003572703,-16348.37881903396
-14211.820270040069,-14454.850787502624,-27078.82548318213,-16344.199042820816
-14209.808613039091,-14460.43872361645,-27074.802169180177,-16344.131987587452
-14206.277037415151,-14471.01109874381,-27077.707895959367,-16347.551804489114
-14218.61520035448,-14502.839982848169,-27086.55918676367,-16359.04060113914
-14226.035979513645,-14504.248142748853,-27082.6923349729,-16358.23593833875
-14223.130252734454,-14484.91388379501,-27074.64570696899,-16350.211662079297
-14222.0573690006,-14499.06253803522,-27074.153968590974,-16352.245670824728
-14200.599694323504,-14451.00628745631,-27066.777892920723,-16345.294278299129
-14194.520019831662,-14450.179272911462,-27064.565070219647,-16344.579022476555
-14211.932028762343,-14467.993613242345,-27070.443579011397,-16349.272888812173
-14231.512156905192,-14487.618444874102,-27076.36679129205,-16353.497368514223
-14238.374142452973,-14502.147078770053,-27076.54560524769,-16355.799598193122
-14227.19827022532,-14514.239372520373,-27077.417323281446,-16356.47015052678
-14218.86106954349,-14509.97018932941,-27079.45133202688,-16356.648964482423
-14231.9591917943,-14490.39006118656,-27077.75259944828,-16349.764627190189
-14240.63166864296,-14486.232636717874,-27079.83131168262,-16347.417694022382
-14232.741502850236,-14464.059706218208,-27073.237547068304,-16347.305935300104
-14240.095226776031,-14470.29584292124,-27076.16562559195,-16352.80446443611
-14243.358581466508,-14491.239427475864,-27077.19380583689,-16356.514854015692
-14228.181746981354,-14469.24531093184,-27076.72441920333,-16354.57025224808
-14222.124424233964,-14455.119008436086,-27071.002372622774,-16343.752007931713
-14222.280886445153,-14478.163656969507,-27070.667096455945,-16341.963868375287
-14218.81636605458,-14479.996500014842,-27072.45523601237,-16348.423522522871
-14214.390720652427,-14463.746781795837,-27069.12482608853,-16353.318554558582
-14226.751235336214,-14482.254026204828,-27072.41053252346,-16354.19027259234
-14228.38291268145,-14467.032488230763,-27073.68458195741,-16348.937612645344
-14234.127311006465,-14463.299746906729,-27072.49993950128,-16350.278717312662
-14240.162282009398,-14480.443534903949,-27080.41245703846,-16352.580946991558
-14229.209927226297,-14491.35118619814,-27082.93820416191,-16353.027981880665
-14214.346017163518,-14466.250177174828,-27076.187977336405,-16346.769493433178
-14220.984485266745,-14474.140342967552,-27073.03638136821,-16345.13781608794
-14217.966999765278,-14460.48342710536,-27071.02472436723,-16346.210699821797
-14221.520927133672,-14478.901264536533,-27074.01985812424,-16352.7597609472
-14230.416921426884,-14493.675767621491,-27075.584480236117,-16360.113484872996
-14229.902831304413,-14475.05676449022,-27071.203538322872,-16358.705324972312
-14243.91737507789,-14489.20541873043,-27070.55533773367,-16352.04450512463
-14226.684180102848,-14431.090883146631,-27062.39695100748,-16335.32540027206
-14218.078758487554,-14432.700208747412,-27063.29102078569,-16332.576135704056
-14217.832889298546,-14431.04617965772,-27068.811901666155,-16335.347752016516
-14230.43927317134,-14456.638927059046,-27066.777892920723,-16338.432292751348
-14237.10009301902,-14466.205473685915,-27057.16664280494,-16335.750083416711
-14235.624877884971,-14448.547595566226,-27054.707950914857,-16338.968734618276
-14237.569479652582,-14455.454284602916,-27058.105416072063,-16343.304973042605
-14233.836738328546,-14466.428991130471,-27059.62533469502,-16345.338981788038
-14238.217680241783,-14479.281244192272,-27061.68169518491,-16348.28941205614
-14243.559747166604,-14482.052860504731,-27062.53106147421,-16350.94926964632
-14242.732732621758,-14484.645662861549,-27065.36973302004,-16356.313688315597
-14244.67733438937,-14502.750575870345,-27065.97323012033,-16358.839435439044
-14238.195328497332,-14501.387119458572,-27065.88382314251,-16364.114447130496
-14244.900851833923,-14492.781697843278,-27070.711799944856,-16369.255348355216
-14242.330401221565,-14444.971316453377,-27065.6379539535,-16361.074609884574
-14240.765779109692,-14449.32990662216,-27068.007238865765,-16365.455551797815
-14245.034962300657,-14468.77592429828,-27075.27155581374,-16372.652813512424
-14250.77936062567,-14488.668976863502,-27079.898366915982,-16378.218397881796
-14247.314840235096,-14503.599942159646,-27076.67971571442,-16375.491485058248
-14253.8639013605,-14529.63972445008,-27071.5388144897,-16375.267967613694
-14257.10490430652,-14513.993503331363,-27068.655439454968,-16377.14551414794
-14240.363447709497,-14457.085961948153,-27070.756503433768,-16378.553674048624
-14236.742465107736,-14452.503854334816,-27076.903233158977,-16381.95113920583
-14244.878500089468,-14443.09376991913,-27075.36096279156,-16376.09498215854
-14266.939671866856,-14472.10633422212,-27079.674849471437,-16373.546883290635
-14274.092230092554,-14501.275360736296,-27079.96542214935,-16376.743182747745
-14246.24195650124,-14455.342525880638,-27068.9907156218,-16369.34475533304
-14223.33141843455,-14435.114197148589,-27069.25893655526,-16367.154284376418
-14230.126348748963,-14455.610746814102,-27073.46106451286,-16366.6625459984
-14245.929032078868,-14482.991633771851,-27074.779817435723,-16365.768476220188
-14252.098113548533,-14483.796296572244,-27072.477587756825,-16366.617842509491
-14254.087418805057,-14488.132534996574,-27072.41053252346,-16375.9161682029
-14241.10105527652,-14466.58545334166,-27073.03638136821,-16376.787886236656
-14235.177842995863,-14482.097563993642,-27075.49507325829,-16368.629499510467
-14238.329438964063,-14478.38717441406,-27075.09274185809,-16363.421543052382
-14242.86684308849,-14473.961529011907,-27072.11995984554,-16361.18636860685
-14242.173939010376,-14469.535883609758,-27071.33764878961,-16356.492502271236
-14257.328421751074,-14513.904096353544,-27076.5903087366,-16366.327269831572
-14261.552901453126,-14502.616465403613,-27080.54656750519,-16373.211607123809
-14242.732732621758,-14412.918914904469,-27071.002372622774,-16359.845263939533
-14242.755084366214,-14424.720635976868,-27067.515500487745,-16359.889967428444
-14250.287622247652,-14459.768171282789,-27073.81869242414,-16368.204816365816
-14250.734657136758,-14485.651491362036,-27074.6904104579,-16366.99782216523
-14251.271099003685,-14492.602883887635,-27075.986811636307,-16365.388496564448
-14255.070895561088,-14477.58251161367,-27075.42801802493,-16362.750990718723
-14256.814331628602,-14469.357069654116,-27073.1928435794,-16360.784037206657
-14247.136026279451,-14456.773037525778,-27069.795378422183,-16362.348659318526
-14243.000953555222,-14464.752610296324,-27073.1928435794,-16369.612976266502
-14232.562688894594,-14458.58352882666,-27074.39983777998,-16365.835531453557
-14229.835776071046,-14454.113179935595,-27072.477587756825,-16357.408923793904
-14234.10495926201,-14454.895490991532,-27072.5893464791,-16358.034772638652
-14243.559747166604,-14474.319156923197,-27068.70014294388,-16357.565386005092
-14243.58209891106,-14495.91094206702,-27073.37165753504,-16366.640194253943
-14244.118540777989,-14491.77586934279,-27079.518387260247,-16372.228130367772
-14240.609316898504,-14459.701116049424,-27072.812863923653,-16362.505121529714
-14233.859090073,-14443.026714685764,-27065.503843486767,-16352.133912102452
-14230.953363293813,-14454.224938657871,-27066.82259640963,-16354.927880159365
-14239.335267464552,-14503.197610759453,-27078.579613993123,-16367.198987865328
-14246.286659990152,-14505.455136949437,-27079.5407390047,-16370.842322211543
-14251.67343040388,-14491.35118619814,-27073.773988935234,-16368.227168110272
-14247.940689079844,-14475.213226701408,-27066.196747564885,-16361.298127329128
-14223.10790099,-14433.080188403152,-27057.6360294385,-16355.106694115007
-14214.591886352526,-14451.341563623138,-27056.809014893654,-16361.476941284767
-14215.642418341926,-14440.031580928751,-27056.02670383772,-16363.7121157303
-14222.571459123072,-14423.04425514272,-27052.673942169426,-16360.180540106365
-14217.698778831817,-14435.002438426309,-27045.811956621645,-16354.682010970357
-14223.018494012178,-14455.655450303011,-27050.282305512705,-16363.689763985843
-14229.276982459663,-14469.066496976197,-27059.40181725047,-16371.37876407847
-14240.274040731674,-14465.53492135226,-27062.195785307384,-16371.512874545202
-14257.57429094008,-14492.178200742985,-27063.49218648579,-16370.90937744491
-14266.470285233294,-14519.134404556084,-27063.35807601906,-16373.189255379351
-14232.227412727763,-14435.33771459314,-27060.25118353977,-16365.85788319801
-14216.067101486577,-14430.465034301882,-27063.469834741336,-16362.348659318526
-14217.966999765278,-14463.344450395638,-27061.12290157353,-16361.253423840217
-14222.392645167429,-14465.758438796813,-27060.07236958413,-16360.180540106365
-14221.81149981159,-14468.932386509465,-27061.45817774036,-16359.800560450622
-14223.644342856926,-14456.281299147762,-27060.83232889561,-16362.706287229812
-14226.259496958197,-14462.271566661784,-27066.21909930934,-16373.680993757367
-14229.232278970752,-14471.43578188846,-27074.37748603553,-16375.267967613694
-14236.25072672972,-14449.262851388796,-27071.7399801898,-16366.28256634266
-14250.891119347943,-14481.270549448796,-27071.628221467523,-16364.606185508514
-14255.026192072177,-14500.49304968036,-27071.851738912075,-16366.215511109294
-14229.366389437484,-14439.271621617274,-27067.20257606537,-16362.974508163275
-14224.091377746032,-14440.992705940333,-27064.140387075,-16362.6615837409
-14226.23714521374,-14458.807046271211,-27058.887727128,-16361.409886051404
-14233.233241228252,-14461.24338641684,-27056.272573026727,-16360.649926739923
-14231.445101671829,-14446.446531587426,-27054.462081725847,-16357.543034260636
-14224.940744035332,-14458.158845682008,-27057.434863738403,-16361.119313373483
-14228.226450470263,-14471.8157615442,-27055.803186393165,-16360.895795928933
-14249.05827630261,-14523.694160424968,-27057.14429106049,-16359.979374406264
-14229.67931385986,-14455.364877625094,-27050.751692146267,-16354.212624336797
-14208.266342671675,-14402.838278155124,-27047.465985711337,-16350.457531268305
-14218.749310821211,-14462.33862189515,-27054.707950914857,-16361.409886051404
-14230.19340398233,-14483.550427383236,-27058.798320150177,-16368.495389043735
-14235.15549125141,-14457.15301718152,-27054.864413126044,-16362.303955829617
-14230.953363293813,-14446.088903676142,-27051.48929971329,-16359.308822072606
-14228.38291268145,-14452.548557823726,-27050.17054679043,-16363.62270875248
-14228.159395236898,-14466.049011474732,-27051.846927624578,-16368.204816365816
-14242.665677388391,-14477.046069746742,-27056.429035237918,-16368.85301695502
-14261.329384008572,-14499.174296757496,-27056.04905558217,-16364.270909341683
-14248.588889669049,-14479.14713372554,-27047.823613622622,-16357.677144727368
-14244.856148345012,-14464.640851574046,-27046.92954384441,-16358.213586594296
-14243.224470999774,-14475.34733716814,-27049.321180501127,-16361.789865707144
-14241.615145398991,-14470.899340021531,-27054.149157303476,-16364.181502363865
-14248.946517580334,-14443.004362941309,-27050.90815435745,-16356.268984826684
-14244.163244266898,-14456.95185148142,-27041.36395947504,-16352.29037431364
-14232.048598772122,-14441.775016996267,-27038.905267584956,-16354.637307481446
-14222.81732831208,-14421.949019664413,-27043.867354854032,-16360.158188361907
-14219.86689804398,-14431.113234891089,-27042.235677508797,-16362.885101185457
-14221.833851556046,-14429.973295923864,-27035.82072685012,-16358.593566250036
-14229.165223737387,-14441.931479207457,-27037.318293728626,-16355.173749348372
-14224.694874846326,-14434.063665159189,-27039.97815131881,-16355.687839470846
-14234.507290662204,-14474.945005767942,-27045.99077057729,-16362.080438385065
-14243.738561122247,-14481.896398293544,-27054.082102070108,-16363.80152270812
-14244.856148345012,-14461.042220716745,-27048.7847386342,-16355.441970281838
-14242.44215994384,-14435.42712157096,-27038.815860607134,-16344.646077709924
-14232.58504063905,-14412.04719687071,-27038.97232281832,-16343.193214320328
-14230.841604571537,-14441.260926873796,-27044.13557578749,-16352.446836524829
-14229.67931385986,-14444.52428156427,-27041.8333461086,-16351.910394657898
-14244.409113455906,-14454.7613805248,-27047.510689200248,-16354.6596592259
-14258.088381062556,-14480.19766571494,-27051.64576192448,-16361.23107209576
-14258.177788040375,-14480.398831415036,-27049.6341049235,-16365.85788319801
-14246.599584412526,-14451.162749667496,-27048.672979911924,-16365.276737842172
-14237.949459308322,-14433.683685503447,-27051.802224135667,-16364.449723297326
-14239.938764564844,-14434.086016903642,-27053.411549736447,-16363.66741224139
-14241.972773310275,-14433.303705847706,-27051.846927624578,-16366.6625459984
-14240.92224132088,-14452.727371779369,-27052.31631425814,-16369.8141419666
-14231.065122016087,-14465.62432833008,-27055.0879305706,-16372.04931641213
-14235.20019474032,-14455.05195320272,-27057.8371951386,-16374.19508387984
-14246.286659990152,-14456.169540425486,-27057.054884082663,-16368.473037299282
-14252.411037970904,-14458.158845682008,-27054.842061381587,-16363.555653519114
-14242.643325643938,-14452.995592712832,-27053.16568054744,-16364.114447130496
-14218.749310821211,-14421.390226053029,-27050.103491557064,-16365.567310520091
-14217.09528173152,-14425.078263888154,-27055.49026197079,-16369.367107077493
-14229.366389437484,-14438.869290217075,-27054.015046836743,-16367.020173909686
-14240.72107562078,-14475.973186012889,-27046.393101977483,-16367.422505309882
-14235.311953462597,-14475.10146797913,-27045.74490138828,-16370.976432678275
-14212.66963632937,-14433.28135410325,-27038.771157118223,-16366.930766931864
-14210.613275839482,-14437.572889038667,-27039.39700596297,-16366.416676809393
-14231.780377838655,-14460.416371871994,-27040.939276330388,-16360.202891850817
-14241.72690412127,-14452.392095612538,-27046.0354740662,-16359.778208706166
-14239.111750019998,-14444.81485424219,-27052.182203791406,-16364.829702953066
-14225.343075435529,-14426.19585111092,-27051.39989273547,-16365.299089586628
-14231.62391562747,-14437.61759252758,-27052.74099740279,-16371.66933675639
-14249.39355246944,-14464.52909285177,-27052.40572123596,-16374.128028646472
-14244.833796600557,-14454.850787502624,-27047.39893047797,-16368.830665210566
-14234.797863340124,-14446.088903676142,-27042.459194953342,-16369.05418265512
-14228.606430126005,-14459.321136393684,-27043.308561242648,-16374.798580980132
-14225.857165558002,-14434.689514003936,-27045.387273476998,-16377.212569381309
-14243.850319844523,-14443.607860041602,-27048.248296767277,-16372.04931641213
-14255.808503128112,-14445.664220531493,-27046.10252929956,-16367.824836710077
-14252.522796693183,-14455.119008436086,-27038.592343162574,-16369.121237888485
-14228.606430126005,-14438.198737883418,-27038.815860607134,-16373.546883290635
-14229.031113270656,-14445.686572275948,-27042.079215297606,-16383.135781661962
-14237.278906974663,-14441.596203040624,-27043.576782176115,-16379.38068859347
-14240.832834343057,-14449.307554877703,-27043.19680252037,-16379.447743826837
-14242.665677388391,-14486.523209395791,-27039.374654218514,-16381.660566527911
-14228.494671403729,-14444.680743775458,-27039.26289549624,-16384.25336888473
-14220.537450377638,-14420.116176619074,-27042.83917460909,-16387.67318578639
-14228.71818884828,-14417.56807775117,-27050.97520959082,-16384.81216249611
-14230.416921426884,-14425.346484821615,-27055.11028231505,-16382.733450261769
-14226.14773823592,-14454.448456102427,-27054.149157303476,-16382.107601417018
-14216.916467775878,-14434.264830859283,-27057.94895386088,-16381.794676994645
-14216.76000556469,-14429.928592434955,-27061.815805651644,-16381.749973505734
-14227.980581281256,-14458.024735215276,-27060.25118353977,-16381.280586872172
-14219.419863154872,-14453.57673806867,-27050.17054679043,-16376.676127514378
-14208.311046160585,-14426.307609833197,-27044.06852055413,-16372.80927572361
-14204.66771181437,-14414.729406205346,-27045.633142666,-16377.14551414794
-14210.412110139385,-14434.7565692373,-27051.06461656864,-16383.582816551068
-14227.53354639215,-14457.398886370527,-27050.84109912409,-16380.900607216432
-14242.263345988196,-14470.072325476684,-27047.39893047797,-16380.72179326079
-14234.462587173295,-14466.58545334166,-27041.54277343068,-16380.788848494156
-14225.924220791368,-14483.013985516309,-27042.570953675626,-16380.542979305146
-14221.520927133672,-14448.637002544046,-27047.510689200248,-16379.403040337926
-14225.991276024732,-14428.945115678922,-27045.029645565708,-16372.071668156585
-14226.415959169384,-14421.166708608474,-27038.63704665149,-16368.00365066572
-14216.916467775878,-14412.158955592986,-27038.838212351588,-16369.612976266502
-14223.174956223364,-14435.985915182342,-27046.0354740662,-16377.257272870216
-14240.788130854144,-14481.806991315723,-27054.26091602575,-16386.33208111907
-14244.8114448561,-14439.249269872818,-27047.77891013371,-16376.944348447842
-14233.993200539731,-14398.166763563964,-27037.407700706448,-16366.126104131474
-14230.752197593714,-14425.748816221812,-27040.91692458593,-16371.132894889462
-14228.695837103824,-14439.38338033955,-27039.329950729603,-16375.42442982488
-14219.86689804398,-14425.57000226617,-27041.54277343068,-16373.122200145985
-14232.048598772122,-14429.7050749904,-27038.659398395943,-16368.942423932842
-14235.9601540518,-14413.008321882287,-27028.735223857788,-16359.107656372507
-14236.429540685362,-14419.266810329773,-27027.59528489057,-16359.219415094783
-14228.986409781744,-14435.76239773779,-27032.222095992816,-16361.879272684966
-14227.511194647694,-14435.963563437888,-27034.099642527064,-16363.57800526357
-14236.407188940906,-14422.977199909354,-27032.579723904106,-16364.740295975243
-14246.86780534599,-14429.481557545849,-27030.322197714115,-16363.957984919309
-14242.464511688297,-14436.18708088244,-27032.69148262638,-16367.62367100998
-14236.362485451997,-14440.76918849578,-27037.474755939813,-16372.742220490243
-14241.10105527652,-14467.591281842148,-27040.559296674648,-16379.403040337926
-14250.57819492557,-14463.366802140094,-27045.54373568818,-16379.671261271387
-14255.562633939104,-14436.075322160164,-27040.380482719003,-16372.33988909005
-14244.118540777989,-14411.890734659522,-27039.39700596297,-16369.545921033136
-14231.646267371923,-14399.820792653656,-27043.39796822047,-16372.183426878864
-14232.138005749945,-14410.750795692302,-27043.621485665022,-16375.513836802702
-14242.48686343275,-14429.52626103476,-27044.22498276532,-16376.184389136362
-14250.757008881214,-14450.872176989578,-27045.45432871036,-16374.463304813304
-14252.411037970904,-14466.831322530668,-27044.62731416551,-16377.05610717012
-14254.802674627625,-14478.744802325346,-27050.751692146267,-16381.280586872172
-14252.969831582288,-14455.923671236476,-27055.803186393165,-16384.521589818192
-14247.605412913015,-14407.174516579453,-27052.91981135843,-16379.045412426642
-14243.358581466508,-14402.435946754927,-27051.891631113485,-16374.776229235678
-14242.509215177204,-14441.551499551715,-27055.669075926435,-16379.514799060202
-14247.270136746183,-14465.736087052355,-27062.4863579853,-16387.494371830748
-14229.992238282231,-14420.47380453036,-27057.814843394142,-16385.52741831868
-14236.049561029622,-14410.884906159034,-27057.524270716225,-16383.62752003998
-14239.759950609205,-14437.975220438866,-27048.270648511727,-16381.99584269474
-14231.62391562747,-14446.871214732077,-27045.655494410457,-16381.079421172077
-14232.830909828055,-14436.924688449466,-27045.655494410457,-16382.129953161471
-14228.315857448086,-14419.490327774329,-27042.615657164533,-16379.827723482576
-14227.846470814524,-14425.838223199631,-27044.917886843432,-16378.061935670608
-14238.932936064357,-14451.207453156409,-27049.58940143459,-16380.632386282969
-14245.370238467483,-14461.511607350303,-27052.49512821378,-16384.25336888473
-14237.994162797231,-14452.682668290458,-27051.154023546464,-16386.265025885707
-14232.048598772122,-14444.90426122001,-27052.517479958235,-16385.639177040957
-14246.845453601534,-14427.76047322279,-27052.45042472487,-16384.43218284037
-14244.476168689273,-14422.418406297971,-27050.796395635178,-16381.99584269474
-14229.589906882038,-14416.56224925068,-27049.58940143459,-16382.465229328303
-14233.72497960627,-14423.491290031829,-27049.231773523305,-16384.23101714027
-14232.629744127958,-14420.04912138571,-27048.74003514529,-16385.52741831868
-14251.047581559133,-14430.487386046338,-27048.762386889743,-16390.221284654293
-14256.769628139691,-14429.414502312482,-27044.582610676604,-16389.126049175986
-14254.825026372078,-14436.56706053818,-27042.570953675626,-16391.76355502171
-14245.48199718976,-14437.349371594117,-27048.427110722914,-16395.473944601294
-14251.785189126158,-14455.029601458264,-27055.892593370987,-16402.738261549268
-14250.399380969928,-14440.031580928751,-27047.9353723449,-16400.637197570468
-14238.10592151951,-14417.903353918,-27040.268723996727,-16395.630406812477
-14231.333342949552,-14411.51075500378,-27044.20263102086,-16395.608055068024
-14238.754122108714,-14427.916935433976,-27048.7847386342,-16401.508915604223
-14232.71915110578,-14429.414502312482,-27044.62731416551,-16397.172677179897
-14238.15062500842,-14440.031580928751,-27043.554430431657,-16390.847133499043
-14244.453816944815,-14439.495139061826,-27042.459194953342,-16390.780078265678
-14242.509215177204,-14435.494176804326,-27042.101567042064,-16390.601264310037
-14248.164206524398,-14458.38236312656,-27048.941200845387,-16391.85296199953
-14244.520872178182,-14469.66999407649,-27055.26674452624,-16393.52934283368
-14234.999029040222,-14434.600107026114,-27053.232735780806,-16388.835476498065
-14235.356656951506,-14421.367874308571,-27049.499994456768,-16385.326252618583
-14235.803691840612,-14427.738121478336,-27050.99756133528,-16390.95889222132
-14233.210889483797,-14431.269697102272,-27053.031570080708,-16397.172677179897
-14238.754122108714,-14437.572889038667,-27058.708913172355,-16401.553619093134
-14240.475206431773,-14411.980141637345,-27058.84302363909,-16398.647892313944
-14258.289546762651,-14430.263868601784,-27053.29979101417,-16398.0220434692
-14246.085494290051,-14433.28135410325,-27049.477642712314,-16397.060918457617
-14240.743427365236,-14440.433912328948,-27051.154023546464,-16396.703290546335
-14246.644287901438,-14459.499950349324,-27054.26091602575,-16394.57987482308
-14241.52573842117,-14454.895490991532,-27048.672979911924,-16384.275720629183
-14244.900851833923,-14449.218147899885,-27041.274552497216,-16378.464267070804
-14237.144796507931,-14404.51465898927,-27040.693407141374,-16372.831627468066
-14239.804654098112,-14419.490327774329,-27045.58843917709,-16378.24074962625
-14243.805616355612,-14446.401828098516,-27050.572878190625,-16387.58377880857
-14255.361468239009,-14455.409581114003,-27050.706988657355,-16388.94723522034
-14248.588889669049,-14425.882926688544,-27044.13557578749,-16382.442877583848
-14242.665677388391,-14410.214353825371,-27044.64966590997,-16386.846171241545
-14247.67246814638,-14440.076284417664,-27045.70019789937,-16393.417584111405
-14252.858072860012,-14472.95570051142,-27048.002427578263,-16401.66537781541
-14254.377991482974,-14427.626362756058,-27048.225945022816,-16402.514744104712
-14253.908604849412,-14408.8508974136,-27044.560258932142,-16399.698424303344
-14257.373125239985,-14433.437816314436,-27046.25899151075,-16403.989959238763
-14254.9144333499,-14436.209432626896,-27048.82944212311,-16402.24652317125
-14258.0660293181,-14457.175368925977,-27056.02670383772,-16406.023967984198
-14269.376012012484,-14463.947947495932,-27061.011142851254,-16403.63233132748
-14268.169017811895,-14442.445569329926,-27054.015046836743,-16391.33887187706
-14257.48488396226,-14438.556365794704,-27043.75559613176,-16386.48854333026
-14263.363392754009,-14451.341563623138,-27040.35813097455,-16391.271816643693
-14252.679258904369,-14423.066606887176,-27043.576782176115,-16394.177543422884
-14247.136026279451,-14412.315417804171,-27037.25123849526,-16387.829647997576
-14258.0660293181,-14439.04810417272,-27024.86837206702,-16383.404002595424
-14239.514081420191,-14403.821754911156,-27024.220171477817,-16385.72858401878
-14228.941706292831,-14399.530219975735,-27028.087023268585,-16389.19310440935
-14241.078703532065,-14437.9081652055,-27034.323159971616,-16400.547790592645
-14262.424619486885,-14476.263758690806,-27037.720625128823,-16408.996749996753
-14273.287567292164,-14458.807046271211,-27036.044244294677,-16406.649816828947
-14260.54707295264,-14423.446586542916,-27035.485450683293,-16398.82670626959
-14252.366334481996,-14420.585563252636,-27035.68661638339,-16394.870447500998
-14252.098113548533,-14455.543691580737,-27039.821689107623,-16398.402023124938
-14236.764816852192,-14424.89944993251,-27040.87222109702,-16393.685805044868
-14239.044694786631,-14400.983083365332,-27032.91500007093,-16389.260159642716
-14250.622898414482,-14428.922763934466,-27031.886819825988,-16396.256255657227
