 EXG Channel 0, EXG Channel 1, EXG Channel 2, EXG Channel 3
5969.100412023117,10609.166098733676,19396.150934237357,2916.589726995197
5711.541260664614,10606.036854509934,19045.80969164487,2654.2473023232583
5231.17992057561,10593.18460144813,17829.539517109337,1955.4423636725385
5217.768873902425,10621.616020395282,17406.15277363691,1819.5437573842717
5709.730769363734,10653.601366710827,18419.26794281816,2480.686006627799
5969.905074823508,10647.05230558542,19390.16066672333,2915.807415939262
5713.46351068777,10635.272936257476,19068.6531744782,2658.158857602937
5237.75133344547,10632.47896820056,17867.850407105732,1967.9593405675105
5217.41124599114,10675.595483254849,17418.44623308733,1826.8974813100676
5698.3760831804375,10694.393300341762,18394.68102391732,2470.5159629006343
5960.964377041385,10676.82482919989,19381.93522476378,2914.4886630163987
5724.862900359977,10674.612006498815,19100.97379696057,2683.4610323263446
5245.663850982649,10668.420573284697,17897.220599320008,1987.8300413882785
5208.470548209018,10701.25528588954,17406.130421892456,1816.213347460431
5689.211867953762,10721.036579732488,18367.076619515017,2457.1049162274503
5963.646586376022,10700.11534692232,19374.335631648974,2914.24279382739
5731.121388807463,10689.185343883675,19120.30805591441,2689.808927751652
5256.906778443668,10682.524524035996,17924.042692666375,2001.5093089949264
5196.758234114437,10707.603181314847,17387.556122250095,1799.494242607861
5682.707510317267,10730.357257170352,18342.13207270289,2444.297366654559
5977.504667938312,10717.505004108549,19378.78362879558,2927.6538405005745
5756.669432719878,10708.810175515437,19153.3215824749,2720.609631611065
5283.013615967467,10699.713015522126,17963.381762907717,2039.5072745689483
5201.496803938961,10714.800443029457,17385.87974141595,1808.3231816677076
5675.689062558301,10732.0336380045,18309.364415331416,2432.562700815523
5980.544505184234,10717.303838408452,19357.817692496505,2923.921099176538
5776.897761451932,10705.725634780603,19165.45857971413,2737.172274252448
5300.783252809436,10702.886963234778,17979.51972240445,2058.8862370116994
5200.781548116392,10719.471957620615,17363.10331381599,1804.3222194102077
5666.278978142617,10734.581736872404,18258.514196695596,2420.9397936987634
5980.119822039584,10718.063797719931,19330.52621251657,2924.3234305767337
5783.1338981549625,10709.45837610464,19164.69862040265,2743.766038866763
5306.550002878905,10703.401053357253,17990.159152765173,2067.6704725826357
5203.866088851224,10735.520510139528,17360.666973670362,1807.2279461893968
5662.367422862938,10764.153094786776,18224.740710823626,2405.450034791236
5990.4016244890245,10758.431048206216,19317.808069921502,2922.937622420505
5795.472061094291,10747.07636202292,19186.02218461301,2754.7630971387744
5312.584973881838,10732.994763016077,18019.037606601432,2075.784155819912
5191.93025731209,10764.13074304232,17353.782636378128,1786.9325622239785
5645.469504054726,10795.646702724303,18190.587245295912,2375.856325132409
5981.103298795617,10789.61173172137,19299.233770279145,2909.213651324946
5794.890915738454,10776.491257726104,19203.36713831033,2761.5356757087325
5318.642296629227,10774.948987358688,18063.696392023136,2102.360379977272
5179.078004250289,10806.42024355176,17372.87102614296,1792.140518682065
5617.0157333631205,10835.231642154651,18177.243253856093,2360.858304602898
5961.567874141679,10824.726322260658,19293.57877893195,2902.128148332614
5799.070691951596,10818.311371601983,19235.26307764805,2775.416109015478
5331.986288069044,10814.46687155567,18110.858572823832,2126.142636077718
5171.545466368851,10831.543604319526,17382.795200681114,1790.6206000591042
5613.282992039084,10864.758296580112,18162.15582634876,2355.0915545334287
5970.955606812908,10853.62712784137,19289.309595740982,2913.0805031157142
5811.855889780032,10831.543604319526,19253.747970312597,2798.3937023155336
5350.493532478039,10824.368694349372,18141.59222144988,2157.211560870596
5177.245161204954,10837.48916834464,17377.833113412038,1797.169661184509
5606.86804138041,10865.607662869414,18117.742910116067,2338.238339214128
5972.296711480226,10850.453180128716,19257.25719419208,2907.2690495573343
5830.072561511107,10836.66215379979,19260.47584539364,2815.492786823844
5362.988157628555,10823.765197249078,18152.72339018862,2168.5215435649807
5178.0721757498,10846.541624849036,17358.163578291365,1795.5379838392716
5600.766015144112,10877.834067086467,18074.49228459505,2330.4152286547696
5976.811763860198,10864.087744246452,19233.363179369357,2909.057189113759
5836.576919147601,10844.57467133697,19265.236766962626,2822.8241590051844
5373.0687943778985,10838.606755567404,18177.757343978566,2189.5545350974244
5169.891437279158,10864.9147587913,17354.319078245055,1790.9558762259337
5586.505602181626,10898.285913263073,18042.775159212968,2305.560088820468
5980.94683658443,10893.033253316076,19211.860801203347,2898.5518692197647
5854.011279822741,10875.621244385393,19272.18815948822,2825.863996251106
5392.872439965301,10866.211159969707,18206.524039092543,2199.2104887021173
5179.010949016923,10892.854439360432,17359.19175853631,1784.205649400431
5576.067337520997,10920.01180887363,18004.285455260928,2279.274437341027
5972.699042880421,10910.489965735673,19183.541140978472,2879.865810855128
5861.677928170911,10893.994378327654,19291.50006669761,2835.899929511539
5400.695550524659,10887.758241624624,18235.76012084009,2215.9072418102314
5173.825344303292,10914.178003570796,17357.11304630197,1782.6410272885594
5559.52704662407,10935.59097475898,17975.965795036056,2260.901303398765
5970.486220179346,10937.69203873778,19179.45077174315,2879.441127710477
5875.7595271777545,10929.265431078127,19323.32895080196,2853.0437175087595
5415.112425698331,10917.44135826127,18278.451952749725,2234.548596685958
5166.73984131096,10929.176024100308,17372.28988078712,1774.7732132402914
5549.289947663539,10963.105972183464,17965.996917008986,2245.7915241469773
5965.948816054919,10961.988384960698,19175.874492630304,2875.015482308326
5872.742041676288,10938.563756771537,19354.934317461768,2859.704537356441
5419.158091444742,10924.34804729796,18333.43724410978,2257.63794870829
5166.113992466211,10945.001059174663,17401.458907301298,1791.2240971593974
5531.699124777213,10974.706527555769,17945.768588276933,2234.883872852787
5956.426972916958,10970.92908274282,19155.310887731423,2870.0757467837034
5876.966521378341,10947.459751064747,19359.35996286392,2867.7064618714408
5425.617745592326,10932.752303213156,18358.270032199627,2275.608751250357
5158.179123184576,10955.729896513212,17405.929256192358,1792.1181669376097
5518.1092641483865,10992.36440567546,17916.17487861811,2220.1093697678293
5952.381307170547,10988.877533540432,19125.22543969458,2859.324557700701
5887.047158127685,10965.162332673352,19365.61845131141,2874.9484270749604
5432.770303818024,10942.49766379567,18373.91625331834,2283.856544954365
5148.120838179689,10962.278957638617,17391.914712418882,1778.30478886423
5501.747787207101,11006.915391315866,17873.885378108665,2192.9967037435417
5940.3337169091365,11003.830850581033,19088.97091018807,2842.2701766813016
5889.081166873118,10983.110783470964,19360.92458497579,2875.484868941888
5457.021946552032,10971.107896698464,18406.95213162329,2308.890498744309
5166.78454479987,10990.017472507652,17409.192610882834,1793.3475128826517
5497.61271448287,11024.305048502094,17840.827148059267,2178.6468838032347
5944.915824522474,11024.84149036902,19063.95930814258,2839.1409324575584
5898.334789077615,10993.280827198128,19363.718553032704,2882.6821306564966
5466.141458289798,10976.561722345556,18430.04148364562,2322.3238971619485
5156.0557074613225,10990.196286463295,17403.73878523574,1784.2503528893417
5484.8275166544345,11029.334191004538,17815.18969716903,2158.9773486825643
5928.867272003565,11016.079606542542,19036.712531651563,2814.799882745729
5899.765300722755,10988.631664351424,19368.9712129797,2881.698653900463
5489.946066134699,10991.783260319622,18461.780960772157,2348.3413277079258
5178.966245528012,11018.113615287974,17425.710550035306,1808.8372717901796
5484.179316065231,11045.785074923644,17793.173228880554,2156.0716219033748
5943.530016366246,11047.796731924622,19021.24512448849,2830.535510842265
5919.613649799067,11017.398359465404,19386.8749602884,2908.3866367801
5498.730301705636,10999.65107436789,18490.8158768196,2368.5249529510684
5167.052765733334,11010.804594851088,17428.526869836674,1805.2609926773305
5461.827571609923,11042.074685344063,17759.042115097298,2135.284499559939
5926.542690580212,11041.627650454957,18985.169408937625,2809.3013536097237
5926.341524880115,11015.721978631256,19390.74181207917,2908.721912946929
5512.856604201389,11000.99217903521,18522.57770569059,2383.590028713945
5171.321948924297,11016.593696665012,17443.54724211064,1810.1560247130424
5456.306690729462,11055.016345383689,17738.053827053765,2118.61009819628
5929.917803992964,11060.336060564048,18972.04893494236,2805.434501818955
5938.634984330533,11035.749141663213,19408.15382100985,2920.43422704151
5528.23460438664,11020.996990322708,18555.99356365127,2399.8173951884983
5170.696100079549,11027.747217148211,17452.44323640385,1806.333876411185
5440.660469610747,11063.80058095462,17707.476640638906,2090.9833420495206
5914.74096950781,11065.186389110851,18938.14133860366,2781.160507340492
5935.304574406693,11036.017362596676,19408.04206228758,2913.438131026999
5533.28609863354,11025.690856658322,18581.183979652404,2409.2498313486376
5168.818553545303,11038.252537042206,17462.36741094201,1811.9888677583776
5428.031733993499,11078.530380550668,17677.50295132434,2076.03002500892
5903.721559491344,11074.57412178208,18902.043271308336,2763.8826088765395
5940.020792486763,11051.14949359292,19407.19269599828,2917.081465373214
5542.092685948931,11037.313763775082,18610.576523611133,2425.9242327122965
5168.9079605231245,11051.395362781926,17486.261425764733,1818.716742839425
5412.07258845241,11087.292264377147,17661.812026716714,2060.182638190108
5902.246344357293,11091.606151057023,18880.71970709797,2758.7193559073635
5956.851656061609,11066.438086800348,19416.82629785851,2928.503206789876
5566.9478257832325,11046.790903424131,18648.820358374163,2450.2652824241263
5182.45311766304,11057.72090646278,17509.328426042608,1828.573862144216
5397.9239342122,11085.52647656518,17640.77903518427,2037.9203007126212
5888.030634883718,11093.215476657806,18857.071561464258,2740.793256854208
5953.610653115589,11066.259272844703,19422.83891711699,2928.838482956706
5578.078994521975,11055.485732017249,18679.486951766845,2468.0572710105507
5187.415204932118,11062.258310587204,17524.013522149744,1834.497074424872
5401.589620302871,11101.53032559518,17625.199869298922,2028.7784372304009
5890.936361662908,11104.68192156338,18820.07942439073,2719.4920443883
5967.759307355798,11080.922017207387,19415.686358891293,2921.037724141804
5600.654256421835,11067.488618789748,18697.502457797826,2471.655901867855
5190.611504389227,11060.559578008602,17520.392539547986,1823.5000161528608
5366.385622785762,11078.329214850572,17565.744229047803,1978.0399773168535
5855.285329256693,11080.13970615145,18755.95226954845,2672.0839943985934
5950.973147269863,11057.564444251591,19389.64657660086,2900.2729535428234
5594.775747630089,11051.75299069321,18710.824097493183,2472.4829164127013
5192.846678834758,11063.062973387596,17543.95127820388,1831.9042720680563
5375.885114179268,11105.575991341591,17573.34382216261,1985.617218687203
5875.5807132221125,11114.270819934703,18765.585871408686,2686.7243870168195
5986.914752353997,11095.696520292346,19428.56096369755,2931.073657402236
5629.085675368986,11080.676148018378,18755.70640035944,2504.9376493618074
5208.761120886937,11084.185371897862,17556.267089398752,1841.8060948617567
5374.275788578486,11121.982171771786,17538.60921127906,1971.2003435135296
5870.350405019571,11126.63133461849,18719.27305689729,2671.838125209585
5983.584342430156,11098.021101715696,19407.751489609655,2923.7646369653507
5629.197434091263,11075.982281682764,18768.290432487775,2509.363294763958
5200.870955094213,11077.837476472554,17575.735458819327,1842.9236820845224
5351.655823189714,11119.210555459327,17526.963952417846,1949.3179856917843
5847.05988729714,11125.312581695627,18699.424707820977,2648.2123313203256
5979.292807494737,11108.235848931772,19425.31996075153,2929.7772562238288
5641.535597030592,11099.228095916284,18815.832592944214,2536.677126488343
5207.151795286155,11102.178526184383,17610.134793536043,1863.8225631502348
5339.34001199484,11143.886881337989,17512.189449332887,1940.3102326762955
5849.786800120688,11162.729401913812,18677.207073832404,2648.748773187253
5997.487127481357,11140.400009202958,19425.69994040727,2944.462352330965
5667.709489787757,11127.05601776314,18846.54388982581,2563.812144257086
5234.2421095659865,11137.53898591268,17641.628401473572,1890.1305663741311
5351.320547022885,11170.507808984255,17502.086460839088,1942.746572821924
5844.511788429236,11168.987890361295,18638.31503848017,2632.4096479904238
6006.003142118829,11154.906291354451,19420.782556627106,2941.668384274052
5678.438327126304,11143.082218537596,18872.650727349606,2571.456440860801
5229.503539741461,11137.606041146046,17660.20270111593,1887.2248395949407
5322.486796675539,11162.192960046885,17478.035983805177,1909.0848456722315
5813.711084569823,11162.26001528025,18605.16740145295,2597.9879615292507
5995.207249546916,11154.325145998617,19424.64940841787,2933.979384181426
5681.656978327868,11146.01029706124,18909.151126045123,2590.924810281373
5227.93891762959,11140.690581880875,17690.01992821931,1908.168424149564
5306.505299389994,11170.083125839608,17469.967004056813,1905.642677026114
5810.537136857169,11186.466954525347,18581.92158721943,2597.317409195591
5993.463813479401,11161.58946294659,19412.22183850072,2940.796666240295
5686.686120830313,11143.529253426705,18927.479556498474,2605.9004790664294
5221.434559993096,11133.44861667736,17714.74095758688,1916.1479969201089
5281.314883388864,11163.645823436478,17461.65215511944,1893.5280315313375
5773.612055017002,11174.084088097106,18552.640801982976,2576.2173624297816
5974.397775459025,11155.82271287712,19413.80881235705,2934.448770814988
5676.963111992253,11134.38738994448,18954.23459461148,2609.4097029459126
5217.210080291043,11132.711009110331,17738.299696242775,1925.2898604023287
5260.103077900777,11165.21044554835,17437.35580889652,1876.2501330673851
5754.7248309522665,11187.204562092373,18509.01019680621,2558.514780821178
5959.712679351888,11166.283329282203,19386.494980632662,2928.212634111957
5671.732803789711,11148.44663720687,18959.66606851412,2617.478682694278
5215.734865156993,11150.860625608042,17752.89538537209,1930.2742994158623
5251.9670429190455,11187.517486514746,17425.464680846297,1859.3075107702628
5748.846322160522,11208.975161191842,18473.537978355645,2528.004649639684
5978.510496438801,11194.893562184998,19379.2753671736,2926.513901533354
5701.661789615368,11180.521390500237,18979.447362357067,2636.812941648119
5233.1245223432215,11175.961634631352,17760.42792325353,1942.903035033111
5242.333441058808,11202.135527388516,17383.1528285924,1841.068487294732
5728.841510873021,11220.151033419495,18414.372910782447,2505.2729255286367
5964.22773173186,11206.181193134928,19345.434826068264,2917.997886895882
5693.011664511164,11191.138469116506,18981.347260635765,2641.551511472644
5219.422902992118,11186.243437080791,17771.0450018698,1951.039070014843
5221.099283826266,11223.950829976897,17364.980860350235,1835.8605308366457
5708.255554229683,11241.340487163126,18380.4876661882,2494.521736445634
5949.766153069277,11220.50866133078,19332.04613113953,2913.505186260365
5689.837716798511,11205.711806501366,19003.654301602164,2657.2424360802697
5213.41028373364,11199.319207587148,17793.977891680945,1967.8252301007783
5190.522097411406,11230.589298080124,17343.90316532888,1826.1822254874976
5682.50634461717,11255.80206582571,18347.34002916098,2488.196192764782
5940.713696564877,11237.875966772554,19330.52621251657,2929.553738779276
5690.150641220885,11218.161728162971,19030.878726348725,2682.1646311479367
5217.500652968962,11213.713731016367,17825.940886252032,1993.462680991016
5179.1227077392,11242.770998808266,17337.845842581493,1823.8129405752352
5669.072946199531,11266.709717119898,18318.953313702743,2475.701567614265
5946.659260589989,11251.264661701282,19322.323122301477,2933.979384181426
5708.076740274041,11230.164614935473,19047.44136899011,2699.4425296118893
5236.901967156168,11221.55919332018,17852.897090065133,2011.96992540001
5180.106184495233,11245.229690698348,17326.021769764637,1816.6156788606263
5658.209998394251,11259.981842038853,18273.780438158567,2451.740497558176
5942.211263443382,11240.22289994036,19299.122011556865,2923.183491609513
5716.592754911513,11222.98970496532,19067.177959344142,2712.1159687180484
5242.355792803263,11214.518393816756,17880.859122378723,2031.192425631574
5172.104259980233,11238.278298172749,17324.792423819592,1812.7041235809477
5642.697887742268,11253.365725680082,18247.89711807932,2429.880491480886
5939.774923297754,11237.585394094634,19290.49423819712,2913.125206604625
5727.031019572141,11222.45326309839,19088.56857878788,2719.9390792774057
5253.151685375176,11213.423158338448,17909.469355281515,2041.8095042478449
5166.851600033236,11238.7029813174,17318.80215630557,1801.751768797847
5635.142998116374,11262.75345835131,18211.46377461717,2414.3907325733585
5944.647603589011,11244.246213942317,19276.05501127899,2915.181567094513
5733.557728953091,11222.36385612057,19099.856209737805,2725.1246839910373
5257.532627288417,11212.618495538056,17929.585925291292,2049.5655595738363
5154.736954538459,11240.22289994036,17306.866324766437,1790.5758965701934
5611.964239116221,11264.675708374469,18177.578530022925,2392.5754299849787
5934.522263350757,11252.628118113056,19265.080304751435,2907.67138095753
5733.89300511992,11231.058684713684,19121.49269837054,2739.5639109091653
5262.561769790861,11226.588335822624,17968.254443198974,2074.1524784746744
5143.941061966546,11255.37738268106,17314.95765625926,1791.179393670487
5589.321921982994,11276.030394557762,18150.30940178745,2373.1517640533166
5913.556327051679,11262.105257762109,19238.794653271994,2896.920191874527
5735.927013865354,11250.66116460099,19141.721027102594,2757.869989618062
5265.914531459157,11242.949812763907,18002.542019193414,2099.27583924244
5136.050896173822,11268.587263654144,17319.964447017246,1794.2415826608635
5576.670834621291,11292.637740688057,18127.91295384323,2361.1935807697278
5913.153995651484,11275.583359668655,19237.833528260413,2893.3886162505887
5744.308918036094,11260.652394372511,19167.246719270555,2757.154733795492
5277.000996708989,11253.768057080277,18034.75088295351,2101.712179388068
5129.077151903767,11272.94585382293,17312.700130069272,1776.1590213965203
5571.798154330034,11289.910827864507,18099.258017451528,2343.4462956722136
5924.978068468341,11265.815647341688,19227.37291185533,2893.5227267173204
5761.251540333216,11239.7535133068,19185.59750146836,2768.3306060231457
5289.070938714855,11221.648600298,18062.48939782255,2111.8822231152326
5127.400771069619,11242.61453659708,17312.85659228046,1768.045338159244
5563.371546670383,11274.063441045697,18069.23962464805,2320.7816267945323
5923.905184734486,11256.09263850363,19200.729632464605,2880.1116800441364
5773.254427105717,11229.672876557455,19189.37494628131,2774.589094470632
5307.33231393484,11217.960562462877,18080.415496875703,2126.9696506225646
5124.986782668446,11240.379362151549,17289.588426302485,1752.9355589074564
5547.568863340481,11267.290862475737,18015.46132748858,2289.0421496679965
5922.78759751172,11260.585339139145,19175.583919952383,2870.8133543507283
5786.441956334348,11250.258833200793,19204.70824297765,2789.453004533411
5312.38380818174,11235.484330115834,18101.71670934161,2142.9734996525644
5114.414407541086,11258.730144349354,17284.782801244593,1748.1969890829314
5527.675810775258,11290.5143249648,17978.55859739287,2269.998463392075
5912.282277617726,11285.149906295528,19150.952297562635,2860.5539036457426
5781.703386509823,11269.101353776618,19214.1853826267,2792.738710968341
5310.372151180763,11255.042106514227,18126.30362824245,2155.6245870142684
5099.461090500485,11279.360804481605,17280.55832154254,1746.0959251041324
5508.587421010426,11315.28005782128,17952.451759869073,2255.983919618597
5894.713806475855,11300.751423925332,19135.909573544213,2851.3002814412453
5776.942464940842,11280.701909148922,19232.558516568963,2795.21975460288
5315.66951461667,11272.834095100654,18167.632003740317,2169.9520552101203
5088.821660139759,11292.011891843307,17293.008243204145,1741.625576213071
5487.621484711348,11320.71153172392,17925.182631633597,2230.324116983905
5892.232762841316,11310.563839741211,19115.74830004553,2837.4198481345
5790.644084291946,11288.167391796997,19244.449644619184,2799.60069651612
5332.701543891614,11269.146057265529,18196.398698854293,2185.151241439729
5092.800270652803,11287.809763885709,17302.2842171531,1744.240730314342
5481.519458475049,11315.52592701029,17905.02135813491,2222.1657302577178
5894.289123331204,11306.04878736124,19109.13218368676,2844.415944149011
5800.009465218719,11282.244179516338,19268.298955953,2819.359638614612
5342.804532385413,11259.601862383111,18242.644458132323,2210.34165744086
5092.263828785876,11282.557103938712,17324.345388930487,1754.366070552596
5465.850885611879,11307.322836795192,17885.35182301424,2205.021942260497
5883.336768548104,11294.358825011112,19085.93107294215,2825.998106717838
5801.685846052867,11274.33166197916,19277.172598501755,2819.5831560591646
5362.876398906279,11270.531865421755,18275.90385388182,2234.593300174868
5099.952828878502,11286.42395572948,17328.14518548789,1753.4720007743838
5456.440801196194,11312.19551708645,17847.219746973486,2182.111404193807
5879.559323735157,11306.920505394995,19058.5501859844,2815.22456589038
5812.325276413593,11288.94970285293,19286.38151721734,2827.160397429514
5367.056175119421,11274.689289890444,18300.066089638007,2245.6797654247007
5086.00534033839,11290.603731942623,17329.061607010557,1746.721773948881
5438.067667253932,11322.231450346882,17819.838860015734,2166.442831330637
5875.692471944389,11318.90104042304,19034.834985117315,2821.639516549053
5823.814073063621,11298.784470413264,19294.2046277767,2854.451877409444
5390.816079475413,11286.021624329283,18326.82112775101,2279.0062164075634
5096.7118259324825,11295.85639188962,17328.167537232344,1760.11046887761
5439.699344599169,11329.33930508367,17787.182961366532,2160.698433005623
5879.11228884605,11320.108034623629,19002.626121357214,2809.4578158209106
5841.024916294207,11301.75725242582,19297.780906889548,2857.625825122097
5409.815062262423,11290.961359853907,18351.385694907392,2294.875954970832
5099.416387011574,11293.911790122009,17332.794348334595,1758.367032810096
5432.099751484365,11324.466624792412,17753.677696428025,2137.0279356274527
5886.376605794026,11322.47731953589,18976.94396697807,2800.472414549877
5854.726535645311,11297.823345401686,19302.050090080516,2861.2915112127675
5415.984143732088,11276.052746302215,18367.79187533759,2298.116957916851
5095.05779684279,11285.596941184634,17329.463938410754,1756.9141694205011
5410.373855873806,11315.86120317712,17713.9809982754,2116.7996068954
5869.769259663733,11314.207174087427,18949.674838742598,2784.4685655198773
5851.485532699291,11288.793240641742,19311.99661636312,2864.733679858885
5429.439893894183,11277.773830625276,18403.91229437736,2323.732057062633
5102.232706812943,11292.973016854883,17343.210261250766,1764.2902450907525
5399.35444585734,11323.751368969844,17690.422259619507,2098.247658997496
5853.564244933635,11315.503575265837,18917.913009871605,2768.1517920675037
5836.353401703049,11280.23252251536,19303.033566836544,2854.7200983429075
5412.676085552703,11261.166484494985,18415.82577417204,2318.7476180490994
5075.142392533111,11276.030394557762,17345.71365662976,1750.0968873616323
5368.799611186935,11310.966171141406,17662.97431742839,2070.084460983808
5840.041439538174,11312.843717675652,18903.07145155328,2753.4666959603665
5857.364041491037,11304.126537338085,19339.86924169889,2874.724909630407
5453.669184883736,11301.08670009216,18485.58556861705,2362.489981948135
5103.417349269074,11309.781528685276,17389.09839261751,1776.8295737301796
5379.908428181223,11344.024401190807,17661.63321276107,2072.967836018543
5851.485532699291,11341.610412789632,18887.02289903437,2753.377288982545
5874.664291699444,11322.790243958265,19346.15008189083,2884.090290557181
5460.955853576166,11304.32770303818,18504.361033959514,2372.369452997381
5096.309494532286,11308.507479251324,17391.333567063044,1770.369919582596
5364.753945440525,11342.348020356658,17632.888869391547,2051.5995683192696
5847.797494864166,11342.19155814547,18859.530253354344,2742.849617344096
5879.246399312782,11313.536621753768,19345.658343512816,2883.933828345994
5488.537906234015,11299.633836702567,18539.76619717672,2392.7095404517104
5119.912936677091,11303.634798960067,17411.226619628265,1786.4855273348724
5366.564436741404,11332.848528963154,17604.47980218885,2034.8357599777887
5851.597291421568,11336.201290631449,18822.649875003084,2727.695134603397
5896.54664952119,11319.549241012244,19340.070407398987,2889.700578415463
5500.18316509523,11298.024511101785,18554.495996772766,2409.361590070914
5120.20350935501,11312.128461853084,17418.289770876145,1800.3436088971628
5356.550855225427,11349.746447771366,17578.797647809704,2028.644326763669
5840.577881405102,11348.450046592958,18790.508066476355,2717.6144978540538
5898.938286177908,11326.366523071114,19336.98586666416,2897.3672267636334
5515.494110047115,11313.313104309214,18572.936185948394,2427.041819935062
5123.600974512216,11317.314066566714,17422.424843600376,1797.7284547958918
5347.587805698849,11356.183750174494,17555.99886846529,2011.2323178329848
5832.128922000996,11358.7318490424,18768.42454295451,2709.1208349610374
5898.379492566525,11334.01081967483,19346.664172013305,2902.351665777167
5521.372618838861,11321.158566613029,18610.665930588955,2442.643337564866
5122.841015200736,11328.735807983376,17447.458797390318,1806.982077000389
5319.916346063179,11360.92231999902,17526.405158806465,1991.383968756672
5811.922945013398,11369.795962547776,18736.14862396105,2693.29579988668
5900.994646667797,11354.86499725163,19357.147140162844,2911.9405641484936
5524.993601440621,11337.073008665206,18646.67459090645,2462.469334896724
5115.666105230583,11336.715380753922,17469.0729342786,1811.6982950804584
5311.534441892439,11372.589930604689,17519.207897091856,1977.034148816365
5812.1911659468615,11378.40138416307,18723.676350554982,2682.298741614669
5907.856632215576,11352.003973961351,19364.970250722203,2910.95708739246
5540.081028947953,11330.345133584158,18676.715335454384,2473.5110966576453
5126.931384436058,11329.831043461689,17494.397460746462,1821.197786473964
5307.511127890483,11365.884407268097,17504.723966684815,1964.003081798921
5810.805357790632,11372.522875371324,18696.47427755288,2668.57477051911
5917.154957908983,11341.409247089536,19366.0207827116,2912.789930437795
5564.556189126514,11326.947668426952,18710.242952137345,2495.4828614572125
5143.315213121798,11326.366523071114,17512.301208055163,1832.0830860236988
5307.511127890483,11355.714363540932,17481.165228028924,1947.52984613536
5809.3748461454925,11357.882482753095,18661.65025969151,2648.860531909529
5924.151053923494,11332.021514418306,19360.857529742425,2909.8395001696945
5574.1674392422965,11319.124557867592,18730.784205291773,2506.010533095662
5148.456114346518,11329.696932994955,17532.395426320487,1846.6564234085588
5291.172002693654,11366.48790436839,17454.07491374909,1936.0634012297871
5791.314636625604,11374.467477138936,18618.26552370376,2631.1132468120154
5928.107312692084,11358.664793809032,19351.201576137733,2914.153386849569
5581.8564393349225,11341.230433133893,18744.239955453868,2519.8015594245862
5142.532902065862,11344.918470969018,17532.75305423177,1842.3872402175955
5274.117621674254,11388.750241845875,17423.765948267694,1915.2986306308069
5776.003691673719,11398.339140217202,18579.90993021845,2618.5739181725885
5924.575737068145,11376.97087251793,19340.78566322156,2917.2379275844014
5593.389939473861,11359.87178800962,18773.09605754567,2539.918129434363
5147.562044568306,11356.049639707762,17562.86085401307,1861.1403538155976
5262.382955835218,11394.87461982663,17419.20619239881,1907.7213892604575
5758.882255420954,11407.123375788138,18548.684543214385,2597.317409195591
5921.111216677573,11381.754145831364,19333.87897418487,2909.504224002865
5603.716445412212,11360.855264765652,18801.348662537177,2548.9035307053964
5159.6990418075375,11357.43544786399,17593.23687472783,1870.7963074202903
5257.197351121587,11391.432451180512,17404.72226199177,1891.3152088302625
5759.753973454711,11405.379939720624,18526.24339178126,2582.7887752996417
5938.053838974695,11384.592817377188,19342.88672720036,2920.344820063689
5622.983649132687,11364.096267711671,18834.76452049786,2573.781022284153
5176.909885038124,11367.359622402148,17626.76449141079,1894.3773978206395
5258.538455788906,11402.7424338749,17404.096413147025,1892.7680722198572
5756.267101319683,11408.844460111197,18508.026720050184,2576.84321127453
5940.065495975673,11386.40330867807,19340.696256243737,2920.791854952795
5633.779541704601,11370.712384070444,18859.418494632067,2591.0142172591945
5180.530867639884,11370.06418348124,17648.468035276896,1908.23547938293
5237.550167745372,11397.02038729434,17381.58820648053,1873.1655923325527
5732.417789985871,11405.44699495399,18473.202702188813,2554.26794937467
5938.813798286176,11388.72789010142,19344.07136965649,2923.4964160318877
5641.937928430788,11369.550093358766,18888.006375790403,2601.94422029784
5185.314140953319,11372.545227115776,17676.430067590485,1914.1810434080412
5231.22462406452,11408.956218833471,17376.02262211116,1863.3755282611287
5730.406132984893,11423.01546609586,18460.7080770383,2546.131914392938
5948.670917590966,11408.799756622286,19357.59417505195,2925.4633695439543
5654.365498347938,11389.912532557551,18926.40667276462,2614.3494384705355
5187.012873531923,11386.470363911434,17708.97420751741,1925.1110464466867
5214.8184436343245,11421.584954450722,17369.29474703011,1850.6797374105145
5709.529603663636,11434.861890657174,18431.986085413228,2524.8307019270305
5929.336658637126,11412.934829346515,19341.098587643934,2916.343857806189
5657.293576871583,11407.235134510414,18949.764245720417,2630.33093575608
5185.247085719953,11401.803660607777,17732.04120779529,1935.8175320407788
5200.64743764966,11436.381809280136,17353.693229400305,1838.5650919157376
5702.779376838133,11454.106742633194,18395.955073351277,2513.4760157437345
5937.830321530142,11433.967820878965,19333.498994529127,2921.7753317088286
5663.350899618972,11414.901782858586,18965.65633602814,2638.265805037714
5197.764062614926,11420.132091061128,17750.771969648835,1949.7873723253456
5194.545411413362,11453.950280422006,17330.15684248887,1825.1540452425536
5690.016530754153,11475.6091207992,18352.34681991897,2491.3477887329805
5937.539748852223,11455.559606022787,19312.24248555213,2913.0805031157142
5676.449021869782,11440.896861660109,18974.015888454425,2650.201636576848
5206.481242952495,11438.393466281112,17763.333650032717,1966.707642878013
5190.499745666951,11474.692699276531,17314.71178707025,1826.2269289764083
5679.868838771444,11495.189248942048,18311.107851398927,2479.3449019604805
5948.335641424137,11478.738365022942,19303.614712192382,2922.57999450922
5704.36635069446,11453.905576933095,19007.319987692837,2675.9955496782723
5232.677487454115,11445.45661752899,17807.99243545442,1989.9534571115323
5187.996350287956,11472.256359130904,17313.99653124768,1816.9286032830005
5660.668690284335,11480.884132490652,18279.122505083385,2457.1049162274503
5938.299708163704,11463.18155088205,19294.0034620766,2921.350648564178
5709.149624007896,11450.664573987076,19034.27619150593,2700.24719241228
5236.164359589143,11441.545062249312,17838.0108282579,2014.4733207790043
5182.900152552146,11468.79183874033,17313.90712426986,1819.0520190062543
5659.685213528302,11484.907446492609,18253.127426281862,2445.303195155048
5945.944004767419,11464.433248571546,19276.65850837928,2911.158253092558
5723.387685225926,11446.529501262845,19046.703761423083,2699.889564500995
5249.329537073319,11439.175777337048,17857.166273256098,2016.864957435722
5183.011911274423,11468.478914317957,17298.774993273615,1802.8246525317015
5656.757135004656,11487.768469782886,18219.55510610999,2429.947546714252
5952.783638570743,11470.803495741307,19263.135702983825,2912.1640815930464
5736.999897599208,11454.486722288932,19059.265441806965,2714.507605374766
5257.42086856614,11437.141768591617,17880.859122378723,2034.2099111330408
5171.903094280136,11461.728687492454,17291.71184202574,1798.2872484072743
5640.038030152086,11484.12513543667,18184.03818417051,2410.680342993777
5951.50958913679,11464.79087648283,19248.27179292104,2913.6169449826416
5744.197159313818,11441.03097212684,19080.320785083863,2734.4900649178107
5263.858170969269,11422.79194865131,17908.79880294786,2055.198199176574
5159.252006918431,11442.59559423871,17274.545702284064,1788.8101087582245
5621.642544465369,11463.516827048878,18141.14518656077,2391.0555113620176
5946.122818723062,11445.970707651462,19226.21062114365,2907.2019943239684
5752.512008251191,11425.854137641683,19093.9553492016,2741.284995232224
5277.448031598095,11417.896916615597,17935.173861405117,2070.9561790175653
5166.136344210666,11439.466350014967,17283.329937855,1789.3465506251516
5617.909803141332,11455.023164155862,18120.469822939616,2376.4821739771573
5941.920690765463,11427.999905109396,19212.307836092456,2895.4002732515664
5763.5314182676575,11413.31480900226,19115.88241051226,2752.080887804137
5289.562677092872,11406.92221008804,17960.654850084167,2083.808432079367
5152.144152181644,11425.4965097304,17262.922795167302,1773.700329506437
5601.704788411234,11441.5003587604,18080.326089897884,2357.617301656878
5946.435743145436,11419.014503838362,19202.22719934311,2901.234078554401
5774.103793395018,11398.92028557304,19136.35660843332,2765.089603077126
5295.910572518179,11380.01070976385,17990.80735335438,2099.521708431448
5144.768076511393,11396.77451810533,17264.152141112347,1770.0793469046769
5581.297645723539,11407.21278276596,18049.883013949755,2331.4434088997136
5937.249176174304,11387.409137178558,19186.55862647994,2885.81137488024
5777.098927152029,11369.192465447482,19154.997963309048,2767.5259432227544
5303.532517377439,11355.87082575212,18027.643028216724,2111.9492783485985
5136.564986296295,11372.254654437858,17267.862530691928,1758.143515365543
5571.976968285677,11395.701634371477,18030.772272440467,2312.824405768443
5938.344411652614,11379.697785341476,19182.356498522346,2880.4693079554213
5787.626598790479,11356.608433319145,19176.500341475054,2778.254780561302
5318.374075695762,11344.426732591002,18064.277537378974,2131.149426835708
5139.962451453502,11365.660889823544,17278.211388374733,1762.6362160010597
5570.077070006975,11386.805640078264,18005.961836095077,2304.1295771753284
5937.115065707572,11358.173055431016,19154.953259820137,2873.2049910074466
5795.00267446073,11331.797996973752,19172.275861773,2781.7640044407854
5330.466369446083,11320.845642190652,18076.34747938484,2144.8733979312656
5133.771018239381,11339.732866255388,17261.000545144147,1755.4166025419954
5552.530950609559,11369.214817191938,17953.569347091838,2281.2190391086388
5932.734123794333,11351.623994305612,19117.64819832423,2865.7842118482845
5806.737340299766,11337.564747043223,19174.73455366308,2796.963190670394
5347.2972330209295,11330.725113239898,18099.168610473705,2172.4330988446595
5133.167521139088,11347.66773553702,17255.010277630125,1764.2902450907525
5530.894461976822,11364.00686073385,17915.37021581772,2265.528114501013
5921.558251566679,11344.694953524466,19098.40334634821,2863.705499613941
5806.826747277588,11324.91365968152,19194.381737039297,2809.927202454472
5351.231140045064,11313.201345586938,18136.406616736247,2191.186212442662
5122.125759378167,11324.645438748055,17263.79451320106,1759.2163990993977
5514.197708868708,11346.14781691406,17893.040823106865,2243.779867146
5916.417350341958,11327.037075404773,19082.82418046286,2854.228359964891
5809.307790912127,11299.835002402664,19205.46820228913,2814.9563449569164
5356.39439301424,11285.909865607007,18164.234538583107,2205.804253316433
5113.29682031832,11297.421014001491,17267.326088825,1754.209608341409
5498.193859838708,11320.756235212832,17863.625927403682,2219.505872667536
5911.768187495254,11309.33449379617,19059.935994140626,2841.599624347642
5812.347628158049,11283.965263839396,19209.96090292465,2814.397551345533
5360.529465738472,11273.728164878865,18178.78552422351,2206.6536196057345
5107.083035359745,11285.105202806615,17256.709010208728,1742.5419977357385
5482.637045697814,11307.211078072916,17826.47732811896,2196.5282793674805
5903.162765879962,11298.471545990891,19039.46179621957,2824.053504950226
5823.076465496596,11281.081888804662,19233.07260669144,2818.6890862809523
5377.606198502326,11272.476467189368,18221.969094511165,2225.6526023927454
5112.492157517929,11289.754365653322,17273.115190638924,1747.4817332603616
5483.374653264839,11322.14204336906,17806.18194415354,2192.952000254631
5910.650600272489,11307.47929900638,19015.366615696745,2831.183711431469
5843.215387250828,11286.535714451757,19235.441891603696,2844.192426704458
5390.59256203086,11266.933234564453,18230.485109148634,2246.8420561363764
5110.368741794675,11276.589188169144,17255.1220363524,1745.8053524262134
5460.84409485389,11299.320912280193,17746.41337948005,2165.794630741433
5889.081166873118,11280.65720566001,18962.37062959321,2808.295525109235
5821.265974195716,11245.810836054186,19216.88994370579,2827.1156939406037
5379.34963456984,11229.27054515726,18243.29265872153,2246.5514834584574
5092.308532274787,11246.682554087944,17251.992792128658,1738.2504628003196
5448.50593191456,11283.629987672566,17725.805071092258,2154.3281858358605
5898.066568144152,11276.723298635878,18962.147112148657,2809.971905943383
5860.470933970325,11259.646565872024,19265.63909836281,2857.737583844374
5425.729504314602,11251.37642042356,18311.130203143384,2290.7408822465995
5119.689419232538,11260.674746116969,17289.0296326911,1757.249445587331
5445.130818501809,11277.907941092008,17709.242428450874,2129.741266935023
5892.16570760795,11264.474542674368,18934.43094902408,2786.726091709864
5860.381526992504,11242.346315663615,19255.53610986902,2845.444124393955
5427.562347359937,11223.45909159888,18321.56846780401,2287.142251389296
5111.374570295164,11235.998420238308,17289.722536769215,1743.6372332140486
5430.1775014612085,11267.067345031184,17683.001480460345,2104.215574767062
5885.236666826805,11262.172312995472,18912.25801852441,2772.823306658662
5865.902407872964,11241.116969718572,19266.37670592984,2851.255577952335
5444.527321401515,11230.097559702106,18361.55573863456,2304.889536486809
5113.6767999740605,11240.625231340557,17303.334749142497,1744.732468692359
5414.68774255368,11271.94002532244,17649.652677733025,2086.557696647369
5879.358158035059,11268.922539820976,18877.63516636314,2761.35686175309
5872.004434109264,11246.794312810222,19266.466112907663,2854.3848221760777
5455.971414562633,11235.618440582568,18383.326337734023,2324.447312885203
5110.234631327943,11245.922594776464,17302.954769486758,1752.9355589074564
5402.796614503457,11278.936121336952,17621.802404141716,2074.0407197523978
5871.557399220157,11275.09162129064,18851.036590461325,2752.617329671065
5876.631245211512,11255.355030936604,19270.422371676254,2861.2244559794017
5465.2250367671295,11246.83901629913,18412.45066075929,2345.5473596510124
5116.426064542064,11257.18787398194,17322.95958077426,1768.626483515082
5389.698492252647,11281.484220204857,17602.803421354703,2064.161248703152
5857.699317657866,11275.873932346574,18829.19893612849,2743.475466188844
5875.558361477657,11256.204397225903,19281.82176134846,2870.165153761525
5471.41646998125,11242.234556941336,18448.816948988075,2365.149839538317
5107.351256293208,11253.566891380178,17338.18111874832,1767.3747858255847
5369.760736198514,11284.52405745078,17577.702412331393,2041.5189315699256
5850.658518154445,11283.071194061184,18803.38267128261,2727.1363409920145
5886.801288938676,11261.032374028253,19285.219226505666,2869.0922700276697
5490.527211490537,11247.107237232594,18469.84994052052,2372.0565285750067
5129.5241867928735,11258.081943760151,17350.563985176563,1770.1240503935876
5384.937570683667,11287.653301674522,17556.580013821127,2029.516044797426
5869.92572187492,11288.033281330265,18781.52266520532,2728.879777059529
5912.997533440296,11265.256853730303,19294.070517309967,2888.6276946816083
5520.724418249657,11255.578548381156,18497.700214111832,2398.14101435435
5141.7952944988365,11265.905054319508,17360.95754634828,1778.6177132866042
5375.035747889966,11297.33160702367,17530.048493152677,2009.712399210024
5860.269768270227,11299.075043091185,18755.326420703703,2706.0809977151152
5928.442588858913,11292.347168010136,19315.416433264785,2892.2710290278237
5543.411438871794,11289.843772631142,18546.784644935688,2422.1914913882606
5148.187893413055,11301.846659403642,17385.07507861556,1792.296980893252
5374.9463409121445,11344.58319480219,17511.429490021408,2009.421826532105
5864.293082272182,11345.946651213962,18727.342036645656,2707.332695404613
5927.325001636148,11320.979752657386,19301.29013076903,2893.366264506133
5545.28898540604,11309.915639152008,18556.61941249602,2426.013639690118
5153.194684171043,11327.729979482889,17395.602750254006,1794.5992105721486
5356.081468591866,11362.375183388613,17480.69584139536,1976.6541691606249
5843.684773884389,11367.337270657692,18683.577321002165,2672.173401376415
5927.593222569612,11349.05354369325,19291.2541975086,2884.514973701832
5558.632976845858,11340.24695637786,18575.81956098313,2439.2235206632045
5152.054745203823,11345.320802369217,17400.900113689913,1798.488414107372
5341.038744573444,11377.127334729115,17447.74937006824,1962.2149422424964
5836.688677869878,11380.25657895286,18647.23338451784,2660.9975291487613
5935.371629640059,11364.588006089689,19291.276549253053,2893.612133695142
5568.62420661738,11351.892215239077,18607.58138985412,2462.402279663358
5154.334623138264,11356.787247274786,17425.241163401744,1811.854757291646
5326.510110677495,11384.68222435501,17433.55601233912,1949.295633947329
5825.825730064599,11393.846439581686,18626.222744729846,2651.878017410996
5939.283184919737,11380.211875463949,19297.91501735628,2898.484813986399
5585.611532403414,11372.366413160136,18640.796082114703,2482.697663628777
5164.661129076616,11379.451916152468,17450.36452416951,1825.198748731464
5323.827901342857,11411.929000846028,17424.25768664571,1941.7854478103457
5824.886956797476,11421.227326539438,18601.43466012891,2643.227892306792
5951.84486530362,11406.385768221113,19300.463116224186,2909.4371687694997
5604.029369834587,11392.795907592286,18670.32273654017,2504.512966217156
5173.221847202998,11393.332349459211,17472.693916880362,1835.3240889697183
5313.188470982132,11426.50233823089,17401.123631134466,1925.33456389124
5818.851985794543,11440.427475026543,18565.69422074488,2628.0957613105493
5953.454190904402,11421.45084398399,19286.51562768407,2907.5149187463426
5613.282992039084,11408.240963010903,18681.02922213426,2521.0309053696283
5179.972074028501,11409.336198489214,17479.1759227724,1853.2948915117847
5309.343970935818,11445.702486718,17377.4531337563,1926.1392266916307
5811.945296757853,11472.658690531098,18533.9770953628,2621.971383329795
5955.309385694192,11463.89680670462,19283.565197415974,2911.7170467039405
5618.937983386277,11451.044553642816,18703.760946245307,2531.424466541346
5174.987635014968,11452.542120521322,17494.822143891113,1856.1112113131535
5288.087461958821,11485.242722659435,17355.034334067623,1904.1451101476089
5791.180526158872,11497.044443731838,18497.923731556384,2599.194955729837
5948.067420490673,11475.564417310288,19273.52926415554,2907.246697812879
5631.074980625508,11470.93760620804,18730.38187389158,2549.842303972519
5185.515306653418,11474.670347532076,17522.448900037874,1873.076185354732
5274.765822263458,11500.553667611322,17333.48725241271,1891.1140431301649
5775.690767251345,11512.578906128278,18460.14928342692,2583.101699722016
5951.487237392335,11498.787879799353,19271.785828088025,2910.800625181273
5638.026373151109,11493.781089041364,18751.70543810194,2559.9676442107734
5188.488088665973,11498.363196654702,17537.245754867286,1879.3123220577625
5262.874694213235,11526.99578130195,17315.896429526383,1876.384243534117
5765.14074386844,11537.836377362772,18429.616800500968,2569.2212664152703
5953.141266482028,11521.5196039104,19260.63230760483,2911.6946949594853
5644.664841254335,11508.309722937312,18768.96098482144,2569.5118390931893
5184.129498497188,11505.761624069408,17555.350667876086,1881.212220336464
5248.167246361643,11536.942307584564,17306.687510810796,1860.693318926492
5751.148551839417,11547.469979223011,18408.24853280169,2546.578949282044
5950.101429236106,11529.253307491936,19266.063781507462,2905.3244477897224
5645.1342278878965,11506.18630721406,18793.81612465574,2575.36799614048
5189.8068415888365,11503.504097879422,17570.147522705498,1889.2588483403745
5241.864054425247,11533.701304638542,17277.429077318797,1848.332804242707
5743.861883146988,11545.19010128857,18364.953203791763,2533.704344475788
5954.012984515784,11520.960810299017,19244.98608648611,2904.05039835577
5663.686175785801,11499.838411788753,18804.075575360726,2590.835403303552
5206.1236150412105,11499.03374898836,17591.068755515666,1908.302534616296
5235.963193889045,11523.397150444644,17266.074391135502,1838.1851122599976
5731.881348118943,11535.355333728236,18326.88818298437,2509.2068325527707
5956.784600828243,11518.412711431112,19234.48076659212,2897.14370931908
5678.214809681751,11500.821888544786,18836.73147400993,2604.224098232281
5209.990466831979,11500.508964122411,17620.416595985484,1912.437607340528
5229.0341531079,11534.505967438934,17256.954879397737,1819.8566818066456
5720.928993335842,11553.81787464832,18293.00293839013,2485.290465985592
5954.348260682615,11538.953964585538,19223.2378391311,2890.639351682586
5681.634626583413,11522.860708577718,18853.6517445626,2608.7615023567087
5220.0934553257775,11526.638153390664,17652.938384167956,1925.356915635695
5225.860205395246,11563.406773019646,17255.50201600814,1814.648725348559
5709.417844941359,11582.539866273388,18262.42575197527,2467.8561053104527
5954.012984515784,11571.252235323458,19215.66059776075,2889.700578415463
5697.884344802421,11563.742049186474,18889.146314757625,2636.164741058915
5222.239222793487,11555.360145015737,17682.50974208233,1947.865122302189
5203.731978384492,11582.361052317745,17243.432074002278,1805.7974345442576
5690.575324365535,11604.19870665058,18241.5045191651,2456.546122616068
5948.447400146413,11589.58066577681,19214.677121004715,2894.1262238176137
5699.113690747463,11569.24057832248,18909.50875395641,2650.671023210409
5227.089551340288,11560.90337764065,17713.9809982754,1964.9642068104995
5198.993408559967,11590.810011721853,17248.349457782442,1800.5224228528052
5674.839696268999,11600.085985670805,18214.50361186309,2434.507302583135
5944.468789633369,11576.14726735917,19213.04544365948,2886.437223724988
5710.669542630857,11563.786752675383,18945.22684159599,2660.2375698372807
5230.621126964227,11550.375706002202,17745.51930970184,1969.4345557015608
5181.134364740177,11579.52238077192,17233.619658186395,1783.9374284669673
5661.093373428986,11604.243410139492,18183.010003925563,2419.978668687185
5950.235539702838,11595.928561202118,19199.32147256392,2890.6169999381304
5719.65494390189,11577.197799348569,18945.65152474064,2668.664177496932
5249.553054517872,11569.799371933865,17762.886615143612,1988.098262321742
5182.944856041057,11598.543715303387,17217.392291711843,1781.366977854607
5661.495704829181,11627.310410417367,18150.48821574309,2410.9932674161514
5957.924539795464,11609.71958753104,19186.89390264677,2889.924095860016
5733.13304580844,11590.139459388192,18965.209301139035,2682.052872425661
5261.600644779282,11590.497087299478,17790.17809512354,2008.997143387454
5182.363710685219,11619.800224280383,17213.570143409986,1778.818878986702
5644.418972065327,11634.172395965148,18116.602971148848,2389.982627628163
5953.633004860045,11621.409549881168,19179.294309531964,2887.3312935032004
5748.935729138342,11612.021817209938,19005.978883025517,2706.416273881945
5268.976720449534,11601.605904293763,17828.44428163103,2028.1525883856525
5172.7301088249815,11628.226831940035,17212.20668699821,1773.722681250892
5641.088562141485,11651.718515362563,18092.172514459195,2379.9466943677303
5965.524132910268,11638.5980413673,19168.38665823777,2889.879392371105
5763.576121756569,11617.497994601488,19013.62317962923,2708.137358205004
5289.830898026336,11607.953799719073,17846.370380684184,2033.0252686769093
5180.799088573348,11632.071331986348,17203.869486316384,1762.3456433231406
5635.411219049838,11648.343401949813,18056.677944264167,2351.761144609588
5960.047955518718,11628.696218573596,19143.44211142565,2866.56652290422
5775.243732362239,11609.496070086489,19024.26260998996,2712.4959483737885
5304.04660749991,11600.018930437438,17878.042802577354,2051.420754363627
5176.552257126839,11623.957648749072,17204.204762483212,1754.2990153192302
5620.077922353497,11643.649535614197,18021.317484535877,2328.627089098345
5962.528999153256,11632.272497686448,19128.958181018614,2863.28081646929
5786.285494123161,11615.77691027843,19044.20036604409,2720.2743554442354
5312.517918648472,11602.499974071978,17904.64137847917,2060.696728312579
5169.645568090149,11630.193785452102,17201.29903570402,1746.5206082487832
5607.58329720298,11653.886634574728,17990.874408587744,2309.136367933317
5955.242330460826,11638.128654733737,19110.808564520903,2853.826028564695
5790.688787780856,11621.92364000364,19057.499653995,2730.9137858049617
5321.928003064157,11616.849794012283,17939.35363761826,2084.478984413026
5159.587283085261,11639.089779745314,17200.986111281647,1749.1581140945095
5587.6678928933015,11657.082934031838,17962.97943150752,2299.569821306446
5956.4716764058685,11646.622317626754,19107.03111970796,2861.447973423955
5796.679055294879,11622.48243361502,19083.718250241072,2747.811704613174
5325.973668810567,11612.11122418776,17970.780190322424,2101.3992549656937
5158.290881906853,11644.633012370232,17205.903495061815,1748.8898931610458
5586.170326014796,11672.527989450457,17947.288506899895,2290.8079374799654
5955.309385694192,11656.501788676,19095.45291608011,2856.6870518549745
5808.190203689362,11634.73118957653,19099.900913226717,2757.7582308957853
5338.758866639003,11623.331799904325,17996.060013301376,2112.6868859156234
5143.15875091061,11640.96732627956,17190.726660576664,1727.5886806951382
5551.122790708875,11654.73600086403,17886.067078836808,2247.7361259145887
5927.8837952475305,11635.602907610288,19045.541470711407,2826.6463073070418
5796.3437791280485,11615.553392833875,19091.898988711717,2748.437553457922
5339.34001199484,11608.333779374812,18016.489507733528,2122.4322464981374
5141.951756710024,11637.882785544729,17196.448707157222,1728.5498057067164
5551.033383731054,11669.465800460075,17873.63950891966,2241.812913633933
5936.377458140548,11654.959518308582,19039.23827877501,2829.3955718750444
5825.15517773094,11644.431846670132,19118.765785546995,2771.415146757978
5368.531390253472,11636.072294243848,18047.15610112621,2148.293214832928
5144.54455906684,11644.11892224776,17185.898683774314,1726.5828521946494
5540.2374911591405,11669.577559182351,17827.416101386083,2220.0646662789186
5940.825455287154,11662.581463167842,19013.980807540516,2825.1710921729914
5832.195977234362,11647.2481664715,19128.153518218223,2781.3616730405897
5372.979387400078,11636.92166053315,18074.179360172675,2164.8111539853994
5137.503759563418,11648.96925079456,17186.725698319162,1724.1241603045655
5536.214177157185,11683.16741981118,17803.678548774547,2208.7099800956225
5942.457132632391,11671.298643505412,18998.066365488336,2818.912603725505
5852.938396088886,11654.713649119574,19157.3225447324,2799.6454000050308
5392.44775682065,11635.4464453991,18118.726386872106,2189.8451077753434
5138.911919464103,11646.3988001822,17208.02691078507,1735.5682534656828
5517.528118792548,11675.612530185286,17794.067298658767,2202.764416070511
5931.996516227307,11665.397782969212,19003.34137717979,2825.059333450715
5850.1667797764285,11649.59509963931,19179.04844034296,2810.865975721595
5408.205736661642,11644.655364114686,18159.607727480856,2210.989858030064
5146.735030023459,11656.501788676,17221.952047580726,1732.1037330751103
5518.265726359574,11692.17517282667,17768.38514427962,2179.138622181252
5931.79535052721,11676.998338341517,18972.71948727602,2805.546260541232
5856.693489157377,11655.07127703086,19187.2291788136,2809.2119466319023
5415.0900739538765,11648.768085094463,18190.095506917896,2224.356201214337
5142.219977643487,11662.134428278736,17232.41266398581,1737.1552273220095
5502.731263963136,11692.823373415871,17748.827367881226,2167.8509912313216
5934.008173228285,11682.36275701079,18961.49891155945,2803.5793070291647
5869.679852685911,11652.053791529392,19199.56734175293,2811.894155966539
5425.707152570147,11633.703009331586,18215.04005373002,2226.5466721709577
5147.025602701378,11653.886634574728,17236.525384965586,1725.755837649803
5486.749766677591,11676.148972052211,17706.44846039396,2129.651859957202
5927.973202225352,11666.06833530287,18927.18898382056,2781.093452107126
5884.074376115129,11645.661192615176,19206.161106367243,2820.678391537475
5448.304766214463,11621.029570225426,18247.76300761259,2250.6642044382343
5150.043088202845,11622.862413270765,17246.114283336912,1732.8413406421353
5479.574856707437,11645.325916448346,17685.50487583934,2122.387543009226
5926.6991527914,11639.961497779072,18905.530143443364,2775.5502194822097
5892.612742497056,11619.956686491572,19209.24564710208,2826.735714284863
5462.542827432493,11601.941180460595,18273.60162420292,2268.9479314026757
5150.825399258781,11611.217154409547,17250.092893849956,1734.4730179873727
5470.902379858778,11634.77589306544,17655.59824175814,2099.70052238709
5926.855615002587,11634.06063724287,18883.26780596588,2765.603693199598
5899.385321067014,11617.63210506822,19219.303932106966,2833.4635893659106
5470.276531014029,11604.15400316167,18299.84257219345,2285.331760088415
5149.484294591463,11617.363884134757,17256.46314101972,1739.6809744454592
5460.620577409337,11645.571785637354,17628.731444922858,2090.0669205268528
5922.608783556078,11644.320087947855,18858.077389964747,2762.183876297936
5905.241478114304,11622.236564426014,19224.91421996525,2842.4936941258543
5480.044243340998,11607.39500610769,18319.98149394769,2298.474585828136
5148.299652135331,11622.236564426014,17258.98888814317,1738.0940005891323
5446.740144102591,11659.36281196628,17598.288368974732,2068.363376660749
5910.1588618944725,11662.670870145665,18829.06482566176,2740.6814981319308
5907.767225237754,11642.487244902522,19230.010417701054,2839.1409324575584
5490.236638812618,11631.601945352788,18350.648087340367,2313.5843650799234
5146.869140490191,11644.767122836964,17269.538911526073,1743.301957047219
5429.8869287832895,11671.79038188343,17568.784066293727,2050.5937398187807
5890.712844218355,11660.525102677955,18793.883179889104,2720.833149055618
5904.012132169263,11640.185015223626,19227.08233917741,2837.3974963900446
5493.075310358442,11628.897384273694,18372.195168995284,2324.8719960298536
5131.088808904745,11635.513500632464,17276.535007540584,1736.6411371995375
5405.657637793736,11672.572692939364,17543.593650292594,2033.2487861214624
5883.604989481568,11671.83508537234,18773.6324994126,2722.5095298897663
5910.874117717042,11651.36088745128,19240.783958528515,2858.4304879224883
5502.552450007493,11631.780759308427,18407.421518256848,2351.0235370425626
5135.916785707091,11641.25789895748,17294.215237404733,1753.0920211186435
5395.867573722312,11675.724288907562,17523.499432027274,2022.6317075051916
5878.017053367741,11676.394841241225,18755.23701372588,2713.2112041963583
5917.087902675617,11655.808884597884,19250.059932477467,2860.8444763236616
5521.014990927576,11643.805997825384,18440.211527372783,2368.2567320176045
5150.803047514325,11656.457085187089,17313.348330658475,1762.4126985565065
5396.44871907815,11688.26361754699,17503.89695213997,2010.740579454968
5879.469916757335,11683.41328900019,18726.20209767844,2700.448358112378
5927.325001636148,11659.653384644198,19256.363124413863,2866.410060693033
5541.243319659629,11648.96925079456,18480.42231564788,2393.313037552004
5157.016832472901,11654.959518308582,17334.67189486884,1772.5827422836712
5386.524544539994,11692.488097249045,17477.186617515876,1996.0554833478316
5866.64001543999,11692.309283293402,18685.968957658883,2684.556267804655
5921.066513188662,11663.050849801404,19236.33596138191,2861.8950083130608
5539.343421380928,11652.389067696222,18485.60792036151,2397.8504416764317
5147.293823634842,11658.87107358826,17336.32592395853,1771.1298788940762
5363.524599495483,11690.767012925984,17448.17405321289,1975.3130644933065
5855.710012401344,11693.225704816068,18653.670686920963,2670.318206586624
5926.274469646749,11669.756373137996,19235.933629981715,2867.192371748969
5550.563997097493,11655.78653285343,18506.10447002703,2417.7211424971997
5146.7797335123705,11654.4007246972,17343.47848218423,1779.9588179539226
5353.153390068221,11690.69995769262,17422.02251220018,1960.4715061749823
5846.255224496749,11697.07020486238,18622.422948172447,2657.376546547001
5933.896414506008,11678.250036031011,19244.069664963445,2874.5237439303096
5567.484267650159,11665.554245180398,18541.800205922154,2437.725953784699
5160.302538907831,11669.01876557097,17368.691249929816,1792.5875535711712
5349.465352233095,11708.648408490231,17408.54441029363,1948.938006036044
5844.221215751317,11713.677550992674,18600.697052561885,2642.132656828482
5944.6699553334665,11696.064376361892,19249.411731888264,2873.6520258965525
5589.634846405369,11684.732041923053,18574.47845631581,2446.4207823778133
5177.245161204954,11688.867114647284,17394.552218264605,1796.946143739956
5343.810360885902,11718.572583028386,17394.328700820053,1933.850578528712
5844.198864006861,11726.50745231002,18580.04404068518,2636.075334081094
5957.924539795464,11702.613437487298,19254.642040090806,2882.57037193422
5604.878736123888,11682.273350032969,18598.685395560908,2463.743384330676
5179.659149606126,11677.64653893072,17405.549276536618,1802.891707765068
5340.211730028597,11711.732949225065,17374.81562791057,1917.1761771650529
5844.668250640422,11718.684341750662,18555.43477003989,2619.311525739613
5969.636853890044,11692.778669926962,19259.17944421523,2885.0514155687592
5627.453998023749,11676.953634852603,18635.16344251197,2484.977541563218
5196.64647539216,11671.991547583528,17433.9136402504,1817.7332660833915
5329.326430478863,11695.527934494963,17355.928403845835,1902.3122671022732
5831.994811534263,11704.066300876892,18527.6739034264,2604.604077888021
5970.665034134989,11684.240303545035,19262.62161286135,2881.899819600561
5633.265451582129,11671.320995249867,18666.344126027125,2487.7715096201314
5198.9040015821465,11672.952672595104,17469.631727889984,1819.8566818066456
5328.05238104491,11708.22372534558,17360.734028903727,1890.2646768408629
5832.687715612378,11717.857327205817,18518.554391688634,2593.9869992717504
5982.645569163033,11696.98079788456,19276.703211868196,2893.8356511396946
5649.872797712422,11678.518256964477,18699.156486887518,2511.8443383984973
5204.201365018054,11679.635844187242,17478.617129161015,1831.9713273014224
5312.942601793123,11716.583277771864,17326.602915120475,1874.9537318889777
5816.169776459906,11727.870908721794,18472.80037078862,2567.7013477923097
5980.991540073341,11707.642579989742,19263.783903573025,2880.0446248107705
5657.204169893762,11695.50558275051,18722.89403949905,2518.3710477794466
5209.36461798723,11697.628998473763,17510.311902798643,1841.64963265057
5311.400331425707,11741.99721121755,17327.42992966532,1869.1422783305975
5815.365113659515,11755.676478824196,18454.114312423982,2560.526437822156
5991.407452989513,11736.878661737284,19261.52637738304,2887.130127803103
5680.986425994209,11721.45595806312,18750.118464245614,2541.683917246332
5226.240185050987,11717.32088533889,17536.12816764452,1857.720536913936
5302.370226665763,11747.093408953358,17311.00139749067,1851.1938275329865
5800.747072785744,11755.363554401822,18413.61295147097,2536.6324229994325
5995.207249546916,11736.923365226194,19254.798502301997,2888.828860381706
5688.31779817555,11715.17511787118,18767.77634236531,2553.7985627411085
5227.469530996029,11706.145013111236,17550.366228862553,1864.0907840836985
5295.843517284813,11744.344144385355,17298.46206885124,1848.5786734317155
5794.667398293901,11757.28580442498,18385.40504996837,2530.619803740955
5995.050787335728,11732.184795401668,19246.081321964422,2890.5499447047646
5700.812423326066,11709.877754435272,18799.24759855838,2571.74701353872
5237.460760767551,11700.825297930873,17589.57118863716,1885.5708105052488
5282.276008400441,11732.56477505741,17290.2813303806,1840.040307049788
5779.647026019934,11745.595842074854,18361.06400025654,2516.7170186897542
5990.111051811105,11723.400559830734,19251.35633365588,2890.3934824935777
5709.194327496806,11715.37628357128,18836.686770521017,2592.5564876266108
5248.390763806196,11714.281048092967,17625.937476865947,1907.1849473935304
5274.743470519004,11745.28291765248,17287.219141390222,1831.300774967763
5769.432278803859,11763.723106828107,18342.86968026992,2501.853108626975
5992.279171023271,11745.193510674657,19255.826682546936,2891.4663662274324
5716.838624100522,11729.256716878024,18862.59244234472,2599.1502522409264
5255.431563309618,11729.144958155746,17651.910203923013,1910.850633484201
5266.450973326084,11763.588996361375,17275.28330985109,1812.8605857921343
5755.373031541471,11776.776525590009,18308.51504904211,2476.595637392478
5993.128537312572,11757.978708503091,19241.52156609554,2885.185526035491
5727.098074805507,11742.019562962005,18878.3057186968,2609.5438134126443
5255.096287142788,11737.415103604211,17667.578776786184,1921.5347673338376
5252.458781297062,11767.321737685412,17258.40774278733,1804.568088599216
5746.3876302704375,11784.04084253798,18280.57536847298,2470.337148944992
6001.801014161231,11763.23136845009,19243.734388796616,2900.6305814541083
5746.700554692812,11740.074961194392,18910.693396412546,2642.4008777619456
5270.563694305861,11728.832033733372,17702.201628947452,1949.8767793031668
5249.284833584408,11759.073943981402,17256.150216597347,1804.210460687931
5736.262290032183,11777.111801756835,18248.031228546053,2451.069945224517
6000.079929838173,11753.977746245591,19229.965714212147,2890.907572616049
5749.941557638831,11730.731932012071,18923.970332618992,2639.1822265603814
5275.771650763947,11719.131376639769,17719.0324925223,1946.4122589125943
5238.064257867844,11744.187682174168,17232.770291897094,1777.5448295527494
5725.198176526807,11765.980633018093,18210.56970483896,2428.4499798357465
6007.545412486245,11756.458789880133,19221.9861414416,2888.3371220036893
5769.387575314949,11739.22559490509,18953.78755972237,2655.4990000127555
5294.100081217299,11732.22949889058,17759.690315686505,1973.3461109812392
5242.89223467019,11761.666746338218,17241.040437345557,1785.524402323294
5718.805577612588,11779.078755268903,18190.050803428985,2423.6220030334
6003.298581039737,11759.096295725858,19211.190248869687,2891.488717971888
5777.344796341038,11743.427722862689,18976.4298768556,2674.833258966596
5302.347874921307,11734.4199698472,17783.114943875666,1987.9418001105548
5233.951536888068,11757.464618380622,17225.59538192694,1773.4768120618835
5709.887231574921,11779.10110701336,18149.795311664977,2401.8737556783863
6013.043941622251,11763.074906238904,19193.84529517237,2887.443052225477
5803.384578631471,11748.836845020873,18988.18689443909,2687.86432598404
5324.565508909883,11735.872833236794,17805.064356930776,2004.124463096197
5238.488941012495,11764.527769628496,17218.576934167973,1768.8052974707243
5710.334266464027,11791.595732163874,18126.77301487601,2391.56960148449
6019.19067134746,11770.89801679826,19186.133943335288,2890.751110404862
5809.710122312323,11744.187682174168,19002.76023182395,2699.420177867434
5334.377924725763,11734.352914613832,17836.267392190384,2023.8610534502332
5233.7727229324255,11764.28190043949,17217.347588222932,1765.5419427802497
5693.279885444628,11782.833848337395,18086.53987485646,2364.5910459269344
6008.6182962201,11761.152656215749,19161.055286056435,2874.2778747413013
5805.91032575492,11736.3198681259,19014.15962149616,2699.353122634068
5327.895918833723,11721.433606318666,17856.7639418559,2026.3420970847724
5209.431673220596,11745.886414752773,17202.55073339352,1744.732468692359
5668.938835732799,11776.553008145453,18050.35240058332,2339.199464225705
6011.18874683246,11770.786258075985,19152.673381885696,2871.3944997065664
5836.509863914235,11756.861121280328,19048.134273068223,2725.2140909688583
5366.54208499695,11745.551138585944,17901.310968555328,2064.4071178921604
5235.22558632202,11765.600653362351,17220.700349891227,1764.0220241572888
5688.027225497631,11790.47814494111,18045.70323773661,2345.5473596510124
6029.070142396706,11775.90480755625,19154.28270748648,2882.6821306564966
5842.544834917168,11748.546272342954,19065.903909910197,2734.020678284249
5367.659672219715,11737.45980709312,17929.74238750248,2072.5208011294367
5220.65224893716,11761.219711449112,17214.553620166018,1752.3320618071632
5661.540408318092,11792.646264153274,18007.45940297358,2319.641687827312
6016.866089924109,11785.180781505202,19135.619000866296,2871.506258428843
5854.547721689668,11764.90774928424,19085.59579677532,2748.63871915802
5380.646035748248,11754.111856712325,17957.8385302828,2094.246696739995
5211.666847666126,11774.228426722102,17212.273742231577,1749.2251693278754
5645.871835454922,11796.3343019884,17980.257329971475,2300.486242829113
6008.350075286637,11782.90090357076,19123.16907920469,2862.5879123911755
5850.412648965436,11763.812513805928,19109.422756364675,2756.9535680953945
5378.2320473470745,11752.100199711347,17994.51774293396,2111.8822231152326
5199.7310161269925,11776.888284312285,17215.917076577793,1754.321367063685
5626.559928245536,11801.89988635777,17949.814254023346,2296.731149760622
5999.364674015603,11786.09720302787,19104.125392928767,2866.1418397595694
5859.643919425478,11771.277996454,19123.951390260627,2778.83592591714
5390.301989352941,11758.4257433922,18015.930714122143,2132.736400692034
5191.8632020787245,11771.61327262083,17207.89280031834,1745.3136140481968
5607.337428013972,11795.686101399197,17919.572343775315,2275.4299372947144
5992.815612890197,11782.14094425928,19092.10015441181,2863.034947280282
5857.20757927985,11753.240138678568,19133.04855025393,2779.171202083969
5388.402091074239,11737.28099313748,18039.578859755857,2144.404011297704
5188.197515988054,11759.431571892688,17211.78200385356,1748.8898931610458
5601.995361089153,11786.879514083805,17890.515075983414,2262.7117946996445
5987.384138987558,11772.015604021026,19064.808674431883,2848.4616098954216
5867.847009640576,11754.380077645788,19143.2185939811,2786.726091709864
5407.378722116795,11740.23142340558,18064.903386223723,2159.647901016224
5184.129498497188,11756.481141624588,17202.08134675996,1738.4739802448728
5582.437584690761,11783.414993693232,17846.035104517356,2232.0004978180527
5978.845772605631,11766.204150462649,19031.90690659367,2828.792074774751
5868.092878829584,11741.125493183792,19143.50916665902,2782.1663358409805
5414.9783152316,11732.095388423848,18093.96065401562,2169.415613343193
5187.348149698752,11754.76005730153,17212.921942820783,1736.3729162660738
5573.072203763986,11778.05057502396,17817.11194719219,2213.672067364701
5980.94683658443,11764.460714395133,19007.7893743264,2827.6744875519857
5885.3260738046265,11742.354839128831,19153.70156213064,2799.757158727308
5435.094885241376,11730.79898724544,18127.957657332143,2195.857727033821
5181.424937418096,11748.769789787506,17217.79462311204,1738.496331989328
5558.208293701207,11782.99031054858,17790.17809512354,2194.538974110958
5976.94587432693,11777.201208734656,18992.27726367441,2818.912603725505
5892.5456872636905,11759.99036550407,19170.733591405584,2807.4238070754777
5443.141513245287,11753.038972978473,18153.72921868911,2213.5156051535137
5172.59599835825,11765.600653362351,17212.54196316504,1734.2495005428198
5539.991621970132,11803.24099102509,17757.164568563054,2178.6915872921454
5971.804973102209,11802.749252647072,18966.975088951003,2814.2634408788017
5902.447510057391,11783.52675241551,19180.12132407681,2817.504443824821
5447.477751669616,11764.304252183943,18176.237425355605,2221.6739918797007
5172.148963469143,11778.81053433544,17219.627466157373,1731.924919119468
5535.588328312437,11812.695778929685,17733.874050840623,2161.4360405726484
5969.368632956581,11808.71716841664,18949.56308002032,2806.797958230729
5903.229821113328,11782.878551826305,19191.073678859917,2822.019496204793
5462.565179176949,11765.153618473249,18210.994387983606,2238.504855454547
5182.341358940764,11780.799839591962,17237.352399510433,1743.301957047219
5531.676773032757,11805.945552104182,17717.35611168815,2155.065793402886
5964.94298755443,11785.896037327771,18934.22978332398,2793.766891213285
5912.617553784556,11754.983574746082,19211.52552503652,2824.031153205771
5476.311502016963,11738.443283849154,18251.36163846989,2255.894512640776
5173.758289069926,11747.56279558692,17240.436940245265,1736.7081924329034
5511.04611290051,11775.770697089518,17681.146285670555,2131.730572191545
5958.170408984472,11767.2770341965,18907.474745210977,2791.2411440898354
5915.925611963941,11742.84657750685,19214.341844837887,2841.0408307362595
5481.161830563764,11730.776635500984,18272.215816046693,2279.9896931635967
5171.6125216022165,11750.155597943736,17248.215347315712,1746.1629803374983
5496.025740626543,11784.018490793524,17655.55353826923,2115.994944095009
5953.409487415492,11781.962130303638,18886.35234670071,2779.3053125507013
5935.5727953401565,11767.701717341151,19228.669313033737,2850.4732668963998
5511.940182678722,11762.739630072074,18303.6200170064,2303.0343416970186
5182.319007196308,11768.61813886382,17252.88686190687,1751.6838612179592
5484.738109676613,11794.635569409797,17620.86363087459,2097.2418304970065
5946.703964078899,11793.80855486495,18854.59051782972,2770.4540217464
5935.148112195506,11773.535522643986,19230.3903973568,2858.296377455757
5511.336685578428,11758.313984669923,18335.784177277583,2322.7485803065997
5178.966245528012,11770.719202842618,17275.193902873267,1760.1328206220653
5479.530153218527,11807.063139326949,17608.458412701897,2089.7539961044786
5946.525150123257,11806.10201431537,18834.898630964595,2767.3024257782017
5947.553330368201,11785.158429760746,19238.12410093833,2866.1418397595694
5532.235566644141,11769.33339468639,18364.39441018038,2341.9040253047974
5189.538620655372,11777.581188390395,17288.98492920219,1773.2532946173303
5471.014138581055,11804.582095692407,17588.09597350311,2084.03194952392
5937.427990129947,11797.1836682777,18811.742223708898,2762.094469320115
5952.046031003718,11773.736688344085,19252.58567960092,2881.85511611165
5539.164607425286,11751.56375784442,18403.845239144,2362.892313348331
5181.402585673641,11758.537502114476,17303.111231697945,1775.8684487186017
5447.522455158527,11791.506325186054,17563.06201971317,2061.5684463463363
5921.290030633215,11791.908656586247,18789.412830998044,2741.888492332517
5947.978013512852,11771.233292965091,19261.325211682943,2877.764746876329
5551.011031986598,11761.152656215749,18440.18917562833,2382.785365913554
5182.475469407495,11765.488894640075,17330.42506342233,1785.524402323294
5437.665335853736,11798.14479328928,17551.170891662943,2045.944576972077
5921.826472500143,11800.469374712631,18771.35262147816,2730.0197160267494
5958.125705495561,11777.692947112671,19267.0472582635,2881.0951568001697
5562.455125147716,11761.398525404757,18466.944213741328,2392.9107061518084
5186.565838642817,11765.354784173343,17339.499871671185,1781.6351987880707
5426.221242692619,11793.80855486495,17524.61701925004,2023.8610534502332
5904.682684502922,11784.599636149364,18737.780301306284,2710.7301605618195
5951.956624025896,11755.65412707974,19261.571080871952,2878.658816654541
5569.026538017576,11742.824225762395,18484.08800173855,2405.450034791236
5188.398681688152,11753.038972978473,17343.567889162052,1786.6419895460594
5418.666353066726,11786.432479194698,17498.93486487089,2012.1040358667417
5904.682684502922,11783.66086288224,18715.540315573253,2706.036294226205
5968.787487600743,11759.409220148233,19266.77903733004,2886.0795958137032
5589.478384194182,11744.3217926409,18511.62535090749,2419.7327994981765
5189.270399721909,11742.444246106656,17354.453188711785,1784.719739522903
5406.529355827493,11779.838714580384,17468.670602878406,1991.383968756672
5900.815832712154,11783.99613904907,18681.76682970129,2690.814756252141
5980.812726117698,11759.610385848331,19273.32809845544,2891.555773205253
5604.789329146067,11743.114798440314,18540.01206636573,2433.4791223381903
5205.74363538547,11748.099237453847,17379.509494246184,1794.755672783336
5408.45160585065,11779.794011091471,17457.852358562035,1972.7202621364904
5902.849841457587,11778.832886079894,18664.69009693743,2672.1063461430485
5990.312217511203,11754.4247811347,19285.66626139477,2891.2652005273344
5617.283954296584,11736.543385570454,18580.62518604102,2450.1535237018497
5201.452100450051,11741.907804239729,17408.991445182735,1808.3902369010727
5388.335035840873,11777.46942966812,17447.68231483487,1971.3121022358064
5888.6117802395565,11782.297406470469,18649.915593852475,2676.8896194564845
5985.148964542028,11753.08367646738,19297.24446502262,2908.699561202474
5625.330582300495,11740.790217016962,18617.99730277029,2478.6519978823662
5207.55412668635,11742.80187401794,17430.985561726757,1820.303716695752
5375.348672312341,11776.553008145453,17425.9117157354,1954.235369471952
5876.363024278048,11783.437345437687,18614.130450979526,2660.3046250706466
5993.262647779304,11764.37130741731,19297.266816767074,2912.6111164821527
5640.149788874363,11749.932080499182,18653.558928198687,2500.1320243039163
5209.945763343068,11747.875720009297,17456.69006785036,1835.7040686254584
5363.815172173402,11777.938816301685,17414.087642918545,1940.5784536097592
5866.908236373453,11784.867857082829,18588.783572767206,2638.8022469046414
5990.848659378131,11756.145865457758,19286.94031082872,2901.85992739915
5647.8834924559,11737.66097279322,18668.981631872848,2501.763701649153
5215.399588990163,11736.297516381444,17469.54232091216,1833.6477081355704
5354.673308691181,11769.825133064403,17386.371479793965,1920.6630493000805
5858.6827944139,11778.38585119079,18544.124787345503,2617.23281350527
6003.767967673299,11754.648298579252,19281.330022970444,2901.949334376972
5668.380042121416,11736.74455127055,18695.84842870813,2516.8287774120304
5224.183824561099,11731.22367039009,17493.950425857358,1842.7672198733355
5344.056230074911,11759.610385848331,17368.266566785165,1903.5416130473156
5847.35045997506,11767.634662107786,18512.631179407977,2596.13276673946
6010.607601476622,11751.742571800063,19278.983089802638,2898.887145386594
5678.706548059768,11726.954487199127,18707.583094547164,2522.5284722481338
5235.404400277663,11724.473443564588,17507.249713808265,1851.8420281221904
5342.826884129869,11758.93983351467,17359.81760738106,1897.5289937888376
5836.308698214138,11767.85817955234,18487.19489421784,2587.0132550016947
6003.276229295281,11750.84850202185,19280.033621792038,2905.4585582564546
5692.341112177505,11740.544347827954,18752.51010090233,2555.3408331085247
5233.638612465694,11729.65904827822,17538.251583367775,1872.4950399988936
5316.854157072801,11762.180836460691,17346.04893279659,1891.8740024416447
5822.4059131629365,11775.10014475586,18470.162864942893,2585.94037126784
5993.5085169683125,11746.199339175146,19281.665299137272,2912.0523228707702
5684.339187662505,11730.217841889602,18777.43229597,2572.886952505941
5241.349964302774,11734.308211124922,17570.9968889948,1898.75833973388
5321.0562850304,11771.747383087562,17343.187909506312,1894.623267009648
5826.1610062314285,11781.068060525426,18445.620649530967,2580.5759525985663
6020.665886481511,11758.783371303483,19281.53118867054,2927.497378289387
5718.93968807932,11744.56766182991,18797.794735168784,2594.4340341608568
5255.520970287439,11732.94475471315,17575.57899660814,1900.814700223768
5315.133072749743,11762.89609228326,17313.48244112521,1872.4503365099836
5821.444788151359,11783.347938459869,18415.78107068313,2562.2698738896697
6021.04586613725,11760.99619400456,19278.29018572452,2922.132959620113
5722.627725914446,11739.583222816376,18824.10273839268,2599.3514179410245
5259.298415100386,11733.414141346711,17608.167840023976,1909.33071486124
5308.584011624338,11762.829037049894,17303.75943228715,1858.7040136699693
5803.831613520577,11769.154580730748,18374.028012040617,2538.1746933668487
6022.0963981266505,11747.383981631276,19261.749894827597,2914.7792356943173
5739.547996467113,11730.821338989896,18841.58180255673,2610.8849180799625
5269.669624527648,11718.84080396185,17625.132814065553,1920.5959940667144
5297.117566718765,11743.360667629322,17287.04032743458,1847.84106586469
5793.303941882127,11758.358688158833,18348.569375106024,2522.416713525857
6022.252860337837,11737.817435004406,19267.67310710825,2917.372038051133
5741.604356957002,11714.191641115149,18870.192035459524,2624.452426964334
5272.396537351196,11707.083786378358,17656.15703536952,1936.8010087968123
5284.824107268347,11737.07982743738,17283.173475643813,1844.4883041963944
5780.09406090904,11752.971917745104,18324.228325394197,2513.7889401661087
6024.823310950197,11733.794121002453,19267.516644897063,2923.921099176538
5756.021232130674,11713.83401320386,18905.68660565455,2649.709898198831
5280.934903733123,11701.942885153638,17689.394079374564,1959.8009538413232
5281.337235133318,11733.883527980272,17279.150161641857,1843.1919030179863
5773.455592805814,11748.434513620678,18294.50050526864,2502.25544002717
6025.00212490584,11724.585202286864,19253.54680461249,2924.9716311659377
5767.398270058426,11705.809736944406,18925.020864608392,2669.826468208608
5288.176868936643,11690.252922803513,17716.082062254198,1980.6998349070357
5271.010729194967,11720.248963862536,17268.644841747864,1838.341574471185
5764.358432812504,11738.532690826976,18261.9116618528,2492.174803277827
6031.752351731343,11724.249926120036,19240.80631027297,2932.43711381401
5789.079462180074,11708.648408490231,18939.59420199325,2687.417291094934
5318.105854762299,11698.813640929897,17743.217080022943,2000.503480494437
5275.27991238593,11719.667818506698,17260.397048043855,1829.110304011143
5754.791886185633,11737.839786748862,18224.09251023442,2464.525695386612
6035.552148288745,11720.830109218372,19226.90352522177,2919.093122374192
5792.007540703719,11689.917646636684,18951.84295795476,2681.516430558733
5312.920250048667,11671.49980920551,17757.432789496517,1992.613314701714
5261.220665123542,11698.433661274155,17242.98503911317,1802.1541001980424
5739.995031356219,11721.277144107478,18191.436611585214,2436.049572950551
6024.085703383173,11701.674664220174,19212.03961515899,2902.5975349661758
5798.578953573579,11682.45216398861,18977.61451931173,2687.2831806282024
5325.169006010176,11669.756373137996,17791.742717235415,2010.2711928214069
5256.035060409911,11694.32094029438,17237.665323932808,1798.8683937631124
5730.383781240437,11716.650333005233,18162.82637868242,2425.4101425898248
6020.509424270324,11692.018710615484,19202.65188248776,2904.6091919671526
5800.948238485842,11672.997376084017,18993.41720264163,2704.426968625423
5328.119436278276,11664.436657957633,17817.53663033684,2028.9125476971328
5242.80282769237,11687.481306491054,17231.5185942076,1795.6944460504587
5714.402283954893,11712.582315514364,18134.327904501904,2416.178872129783
6025.158587117027,11692.17517282667,19201.1319638648,2913.6169449826416
5814.3592851590265,11670.02459407146,19023.52500242293,2724.4988351462885
5335.786084626447,11656.837064842828,17849.52197665238,2050.5937398187807
5235.8290834223135,11682.385108755245,17229.797509884538,1799.1142629521207
5699.761891336667,11705.630922988765,18101.40378491924,2404.6900754797557
6015.323819556692,11684.061489589392,19176.388582752774,2906.5314419903093
5818.851985794543,11663.609643412789,19030.744615881995,2733.059553272671
5346.783142898458,11651.249128729,17869.660898406615,2062.3060539133617
5232.006935120456,11672.505637706,17213.480736432164,1782.0151784438108
5688.854240042477,11692.622207715774,18063.58463330086,2376.504525721613
6013.245107322348,11667.655309159198,19161.457617456632,2898.3730552641223
5828.239718465772,11646.041172270916,19045.38500850022,2738.669841130953
5357.064945347899,11636.228756455035,17888.123439326697,2075.784155819912
5225.502577483961,11660.88273058924,17196.11343099039,1781.1211086655985
5676.31491140305,11681.826315143862,18011.169792553163,2361.7747261255654
6017.5142905133125,11662.268538745468,19127.23709669556,2898.0154273528374
5836.308698214138,11637.100474488792,19044.17801429964,2749.041050558216
5360.417707016195,11622.661247570664,17898.6734627096,2086.580048391825
5215.958382601546,11643.001335024994,17180.087230215937,1770.5040300493276
5664.401431608371,11670.49398070502,17978.84917007079,2342.8651503163755
6020.308258570226,11654.288965974923,19108.662797053195,2888.3818254926
5855.508846701247,11636.005239010485,19061.92529939715,2760.3063297636904
5376.510963024016,11618.235602168514,17933.8327567378,2104.1485195336963
5216.248955279464,11642.755465835986,17197.633349613352,1771.2192858718977
5656.555969304558,11678.205332542102,17964.90168153068,2331.242243199616
6015.837909679164,11656.837064842828,19097.419869592177,2885.967837091426
5861.923797359919,11633.703009331586,19082.377145573755,2779.1488503395144
5393.051253920943,11622.415378381656,17976.256367713973,2140.1348281067408
5215.243126778976,11643.001335024994,17202.036643271047,1780.919942965501
5639.859216196444,11661.106248033791,17932.893983470676,2316.5124436035685
6012.8204241776975,11642.420189669156,19084.56761653037,2885.3196365022227
5873.837277154598,11609.585477064307,19097.35281435881,2785.6532079760086
5416.45353036565,11591.748784988977,18006.40887098418,2146.415668298682
5223.267403038431,11606.791509007397,17202.707195604708,1761.2504078448303
5637.512283028636,11628.696218573596,17898.226427820497,2276.7486902175774
6028.95838367443,11626.952782506083,19070.70953496808,2866.0077292928377
5908.370722338048,11612.82648001033,19131.37216941979,2794.8844784360504
5450.361126704351,11606.25506714047,18057.21438613109,2172.366043611293
5247.988432406,11625.209346438569,17230.02102732909,1773.2309428728752
5662.0992019294745,11652.813750840873,17902.316797055817,2279.4532512966694
6051.824218252208,11638.463930900569,19070.083686123337,2869.2040287499462
5930.566004582168,11615.508689344966,19144.805567837426,2804.898059952028
5466.856714112368,11599.34837810378,18075.22989216207,2180.032691959464
5243.875711426224,11612.78177652142,17215.02300679958,1759.6634339885038
5634.584204504991,11632.943050020103,17852.49475866494,2247.4455532366696
6030.701819741943,11618.883802757717,19033.91856359465,2850.070935496204
5917.691399775911,11590.787659977395,19146.99603879405,2807.066179164193
5460.173542520231,11576.840171437285,18096.419345905702,2195.3659886558044
5225.703743184059,11591.81584022234,17213.726605621174,1759.9316549219675
5619.362666530928,11621.767177792452,17829.494813620426,2242.081134567396
6033.607546521133,11610.85952649826,19026.654246646674,2857.022328021804
5937.495045363313,11587.166677375635,19169.683059416184,2826.0428102067485
5480.044243340998,11574.29207256938,18131.288067255984,2219.148244756251
5229.280022296908,11591.234694866502,17222.555544681018,1768.2241521148865
5607.985628603176,11618.190898679602,17800.86222897318,2229.273584994505
6027.840796451664,11611.194802665092,19005.554199880866,2854.9436157874607
5936.578623840645,11587.05491865336,19181.44007699968,2836.279909167279
5478.747842162591,11572.794505690874,18163.005192638066,2233.5204164410134
5212.158586044144,11588.15015413167,17226.35534123842,1761.1610008670093
5583.309302724517,11617.453291112575,17777.549359506294,2207.882965550776
6009.132386342572,11604.757500261963,18991.718470063028,2839.967947002405
5940.825455287154,11586.20555236406,19206.049347644966,2844.5500546157427
5490.571914979448,11567.743011443974,18200.51141983407,2250.9100736272426
5215.980734346001,11583.00925290695,17232.993809341646,1760.2222275998863
5574.480363664671,11607.327950874324,17738.813786365245,2185.9782559845758
6009.802938676231,11592.017005922438,18957.117969646213,2825.8416445066505
5949.743801324821,11559.226996806505,19201.42253654272,2841.2643481808127
5506.061673886976,11540.004496574938,18221.097376477406,2260.633082465301
5217.523004713417,11548.6769734236,17237.777082655084,1752.8908554185457
5564.8914652933445,11571.878084168207,17715.635027365093,2162.3971655842265
6001.555144972223,11549.61574669072,18933.872155412693,2808.608449531609
5957.924539795464,11517.608048630722,19212.86662970384,2846.3605459166224
5517.729284492646,11492.6635018186,18248.38885645733,2274.7593849610557
5213.589097689283,11499.6148943442,17240.906326878827,1753.1367246075542
5548.440581374238,11528.76156911392,17683.44851534945,2143.6217002417684
6001.465737994402,11521.743121354952,18912.325073757776,2802.12644363957
5965.881760821553,11496.887981520653,19223.4390048312,2850.4285634074886
5528.9051567203,11482.51580983589,18284.933958641763,2287.321065344938
5217.344190757774,11498.027920487872,17261.13465561088,1753.404945541018
5538.315241135984,11526.504042923933,17669.009288431324,2119.906499374688
5992.145060556539,11518.502118408933,18900.769221874383,2781.898114907517
5974.710699881399,11502.632379845663,19255.781979058025,2856.843514066162
5550.452238375216,11490.94241749554,18345.663648326838,2312.690295301711
5222.12746407121,11502.073586234284,17297.52329558412,1762.0550706452216
5533.196691655719,11535.020057561404,17670.30568960973,2114.2738597719504
5987.205325031916,11524.917069067606,18896.23181774996,2777.74069043883
5974.867162092586,11500.79953680033,19275.54092115652,2864.018424036315
5552.039212231543,11481.308815635302,18386.276768002124,2331.7563333220883
5209.7669493874255,11485.779164526364,17320.679702839818,1767.8218207146908
5501.61367674037,11514.925839296084,17651.39611380054,2093.7549583619784
5959.623272374067,11501.112461222703,18872.22604420496,2757.601768684598
5954.08003974915,11471.541103308333,19275.227996734146,2857.022328021804
5537.845854502422,11454.509074033387,18408.74027117971,2336.696068846711
5194.835984091281,11466.087277661238,17331.699112856284,1764.5584660242162
5481.966493364155,11497.335016409756,17633.022979858277,2072.6549115961684
5954.929406038453,11492.954074496518,18859.977288243448,2754.0478413162045
5967.535789911246,11467.942472451028,19293.556427187494,2872.4897351848767
5558.05183149002,11450.239890842426,18440.92678319535,2359.338385979937
5197.540545170373,11456.185454867536,17338.091711770503,1769.6993672489366
5471.908208359267,11495.144545453137,17597.707223618894,2062.9766062470208
5950.235539702838,11495.524525108878,18826.2932093493,2750.8515418590955
5978.309330738704,11472.658690531098,19297.557389444995,2887.063072569737
5571.485229907659,11454.12909437765,18464.306707895605,2380.416081001292
5205.520117940917,11463.069792159771,17348.66408689786,1781.6351987880707
5457.714850630146,11485.868571504185,17564.626641825038,2045.2293211495069
5940.847807031609,11479.967710967983,18791.268025787835,2731.785503838719
5985.730109897865,11458.375925824155,19301.267779024576,2890.1699650490245
5589.679549894279,11446.574204751756,18494.973301288283,2402.9019359233303
5197.6746556371045,11436.202995324493,17344.596069406995,1778.6624167755149
5444.661431868248,11471.742269008431,17532.931868187414,2029.6278035197024
5933.784655783732,11473.373946353668,18764.87061558612,2729.930309048928
5986.378310487069,11448.429399541546,19301.64775868032,2901.0329128543035
5586.907933581821,11424.781253907831,18515.223981764797,2415.8435959629533
5200.669789394116,11426.211765552973,17367.283090029134,1794.8003762722465
5431.809178806446,11455.961937422984,17513.441147022386,2020.68710573758
5928.956678981385,11457.45950430149,18737.80265305074,2721.056666500171
5999.185860059961,11430.324486532749,19304.262912781585,2905.86088965665
5614.735855428678,11409.02327406684,18546.739941446776,2436.9659944732184
5219.154682058655,11411.571372934744,17385.767982693673,1804.7692542993132
5435.072533496921,11444.629602984143,17500.36537651603,2007.3207625533064
5934.142283695017,11447.781198952342,18717.507269085323,2708.718503560842
6007.1877845749605,11417.963971848962,19304.48643022614,2909.995962380882
5623.20716657724,11395.12048901564,18572.10917140355,2456.1661429603278
5219.3334960142965,11401.378977463124,17408.87968646046,1816.88389979409
5418.532242599994,11432.492605744912,17479.84647510606,1991.1157478232085
5915.590335797112,11432.313791789267,18684.806666947206,2697.4085208664565
6005.3102380407145,11406.184602521016,19305.604017448903,2919.473102029932
5631.477312025704,11383.519933643334,18597.09842170458,2478.339073459992
5224.65321119466,11390.024291279828,17423.810651756605,1834.4523709359607
5406.372893616306,11425.340047519214,17457.472378906295,1982.2868087633624
5905.017960669752,11432.157329578082,18652.08371306464,2681.516430558733
6010.495842754346,11405.223477509437,19304.82170639297,2921.2612415863564
5650.208073879251,11386.738584844898,18628.97200929785,2496.041655068595
5230.129388586211,11387.49854415638,17441.937916509858,1837.335745970696
5401.723730769602,11421.87552712864,17440.373294397985,1972.9214278365885
5900.279390845227,11423.149576562591,18622.22178247235,2671.4804972983
6010.629953221078,11397.19920124998,19303.055918581,2921.4624072864544
5639.859216196444,11376.277968439814,18651.748436897808,2504.9823528507177
5200.759196371937,11368.253692180358,17452.130311981477,1836.7322488704024
5356.05911684741,11396.394538449593,17410.421956827875,1948.8262473137677
5856.045288568174,11397.512125672356,18582.793305253184,2650.671023210409
5985.819516875687,11372.165247460038,19290.2036655192,2921.6188694976413
5636.417047550327,11350.5287588273,18669.763942928785,2520.360353035969
5205.341303985275,11346.036058191785,17470.615204646016,1854.814810134746
5342.53631145195,11373.081668982706,17389.880703673447,1939.617328598181
5842.321317472615,11378.803715563265,18554.13836886148,2636.030630592183
5987.048862820729,11359.447104864968,19296.81978187797,2922.222366597935
5650.766867490634,11340.403418589049,18701.257550866318,2531.245652585704
5208.694065653571,11335.418979575514,17493.50339096825,1854.233664778908
5332.05334330241,11367.069049724229,17382.325814047555,1917.5785085652485
5843.148332017462,11375.87563703962,18547.05286586915,2621.770217629697
5997.800051903731,11356.519026341322,19311.974264618668,2925.6868869885075
5662.076850185019,11341.76687500082,18735.16514720501,2548.523551049656
5213.656152922649,11334.927241197496,17519.23024883631,1868.874057397134
5320.564546652383,11361.592872332678,17365.986688850724,1912.728180018447
5828.306773699138,11371.092363726184,18512.877048596984,2611.4660634358006
5995.162546058005,11350.059372193738,19309.314407028487,2927.0056399113705
5677.656016070368,11339.263479621826,18772.42550521201,2570.98705422724
5225.055542594855,11335.977773186896,17553.62958355303,1887.783633206324
5311.109758747788,11360.743506043376,17357.11304630197,1901.6417147686143
5814.024008992196,11368.477209624913,18484.64679534993,2592.8694120489854
5997.934162370463,11350.349944871656,19306.140459315837,2925.7539422218733
5686.909638274866,11335.061351664228,18794.464325244942,2577.826688030564
5228.028324607411,11327.975848671897,17577.165970464466,1892.3657408196616
5303.644276099715,11355.468494351924,17349.66991539835,1887.2471913393963
5811.498261868747,11366.219683434929,18463.94907998432,2580.106565965005
6000.28109553827,11338.078837165694,19306.453383738208,2927.631488756119
5694.688045345312,11317.71639796691,18824.81799421525,2592.5117841377005
5234.2421095659865,11313.111938609116,17602.423441698964,1904.681552014536
5298.749244064003,11349.969965215918,17339.61163039346,1880.9663511474555
5796.43318610587,11357.234282163892,18436.12115813746,2561.0628796890837
5998.627066448577,11327.014723660315,19303.368843003376,2925.4633695439543
5710.423673441848,11310.653246719034,18852.534157339836,2613.7012378813315
5250.603586507272,11305.467642005402,17633.73823568085,1925.982764480444
5290.18852593762,11328.24406960536,17322.557249374062,1867.8905806411003
5790.62173254749,11339.777569744298,18398.525523963635,2549.0599929165837
6002.650380450533,11311.7708339418,19291.187142275237,2925.597480010686
5712.301219976094,11285.842810373642,18869.432076148045,2618.1492350279373
5251.8552841967685,11284.836981873152,17657.78871271476,1934.3870203956392
5285.718177046559,11316.688217721963,17321.305551684567,1865.208371306464
5779.624674275479,11325.628915504089,18370.80936083905,2533.9725654092517
6010.80876717672,11306.13819433906,19291.47771495315,2928.4585033009653
5731.166092296373,11282.5124004498,18898.5116956844,2639.9868893607727
5267.0544704263775,11280.053708559715,17687.091849695666,1955.9117503061
5275.570485063849,11305.266476305304,17306.2851794106,1855.395955490584
5770.303996837616,11318.029322389284,18338.689904056777,2517.9240128903407
6017.179014346482,11299.320912280193,19283.47579043815,2930.403105068577
5750.165075083384,11282.400641727523,18923.478594240976,2657.488305269278
5280.018482210456,11276.119801535584,17712.46107965244,1967.9816923119656
5273.0447379404,11300.19263031395,17296.293949639075,1842.1860745174972
5763.464363034292,11313.96130489842,18313.14186014436,2502.456605727268
6019.235374836371,11297.443365745949,19277.30670896849,2935.923985949038
5762.704403722812,11276.477429446868,18945.070379384804,2676.6884537563865
5283.907685745679,11260.764153094788,17734.969286318934,1982.197401785541
5262.740583746503,11291.408394743014,17290.4824960807,1839.79443786078
5756.155342597407,11312.28492406427,18285.58215923097,2493.694721900788
6024.599793505645,11287.42978422997,19267.449589663694,2931.3418783357
5773.209723616806,11263.98280429635,18962.41533308212,2683.7739567487192
5296.201145196098,11255.667955358978,17761.344344776197,1998.6706374491023
5256.66090925466,11285.686348162457,17282.2794058656,1833.9829843024
5740.509121478692,11299.790298913753,18259.497673451624,2477.3555967039583
6014.206232333927,11278.980824825863,19264.14153148431,2931.699506246985
5775.064918406596,11261.546464150724,18989.70681306205,2696.4920993437886
5296.044682984911,11248.962432022385,17784.18782760952,2007.9242596535996
5240.210025335554,11270.621272399578,17258.340687553966,1813.084103236688
5726.539281194125,11292.391871499049,18216.202344441692,2456.2555499381483
6015.972020145896,11276.477429446868,19243.66733356325,2930.1348841351137
5791.538154070157,11255.735010592343,19008.0352435154,2716.519262375744
5314.440168671628,11245.56496686518,17814.0050547129,2028.8901959526772
5244.769781204436,11270.733031121854,17256.75371369764,1815.654553849048
5716.950382822798,11285.485182462357,18183.054707414474,2442.3751166314028
6013.982714889374,11266.88853107554,19226.97058045513,2928.279689345323
5793.52745932668,11246.481388387849,19014.494897662986,2726.4434369139003
5312.696732604115,11231.438664369423,17826.410272885594,2046.6374810501911
5236.253766566964,11264.765115352287,17247.053056604036,1821.086027751688
5710.155452508385,11287.42978422997,18161.26175657055,2440.5422735860675
6020.732941714877,11266.486199675346,19229.496327578585,2934.985212681915
5817.510881127225,11247.286051188235,19052.80578765938,2749.868065103062
5338.401238727718,11230.723408546855,17872.700735652536,2070.9561790175653
5224.832025150303,11245.453208142902,17247.99182987116,1805.59626884416
5691.894077288399,11267.827304342663,18129.276410255006,2410.3227150824923
6020.978810903885,11253.74570533582,19219.728615251617,2924.9716311659377
5821.265974195716,11233.495024859312,19073.034116391435,2754.0478413162045
5337.998907327522,11215.278353128238,17898.092317353763,2076.946446531588
5221.099283826266,11232.332734147636,17241.4204170013,1796.432053617484
5679.377100393427,11254.84094081413,18093.312453426417,2392.0613398625064
6007.254839808326,11234.679667315444,19186.491571246574,2909.683037958508
5813.487567125269,11210.942114703908,19068.36260180028,2748.236387757825
5331.673363646671,11189.68560572691,17911.481012282493,2076.231190709018
5200.692141138571,11208.706940258377,17230.736283151662,1775.8684487186017
5654.901940214866,11234.232632426338,18053.61575527379,2358.667833646278
6004.773796173787,11224.21905091036,19171.0241640835,2899.088311086692
5838.230948237294,11214.65250428349,19094.53649455744,2767.2353705448354
5370.096012365343,11205.108309401074,17961.392457651193,2115.4361504836265
5224.094417583277,11225.582507322137,17248.41651301581,1797.59434432916
5671.151658433874,11250.549405878712,18045.03268540295,2369.9107611072973
6020.889403926063,11233.69619055941,19161.99405932356,2915.9191746615384
5847.5292739307015,11209.489251314311,19104.43831735114,2786.3461120541238
5370.63245423227,11197.50871628627,17974.669393857646,2132.8034559254
5203.821385362314,11214.27252462775,17228.545812195043,1789.9276959809897
5642.630832508902,11242.346315663615,18002.09498430431,2351.0011852981074
6001.108110083117,11229.60582132409,19144.000905037035,2907.693732701985
5839.259128482238,11210.092748414609,19124.80075654993,2794.1021673801147
5366.676195463681,11198.179268619928,18007.973493096055,2145.454543287104
5198.367559715219,11222.855594498587,17236.21246054321,1793.6380855605703
5627.632811979391,11242.61453659708,17971.60720486727,2336.3831444243365
5989.909886111008,11219.815757252663,19117.44703262413,2900.0494360982702
5845.607023907545,11194.64769299599,19132.892088042747,2805.6580192635083
5374.789878700957,11177.414498020948,18026.592496227324,2158.709127749101
5186.565838642817,11199.36391107606,17224.54484993754,1775.5778760406824
5617.30630604104,11231.7515887918,17946.260326654952,2313.36084763537
6001.801014161231,11216.641809540011,19116.30709365691,2896.651970941064
5868.15993406295,11194.513582529258,19161.61407966782,2816.4315600909663
5392.291294609463,11179.806134677665,18069.127865925773,2178.244552403039
5183.54835314135,11200.034463409718,17234.55843145352,1773.789736484258
5597.569715687003,11226.923611989452,17917.963018174534,2290.40560607977
5991.18393554496,11219.88281248603,19102.91839872818,2886.5266307028096
5873.390242265492,11201.6437890105,19186.42451601321,2822.4888828383546
5398.438024334672,11179.627320722024,18104.26480820952,2185.9782559845758
5177.848658305247,11197.531068030725,17247.678905448785,1768.3582625816182
5582.437584690761,11226.342466633614,17900.752174943947,2270.0655186254407
5985.193668030938,11216.686513028922,19093.620073034774,2875.730738130896
5876.49713474478,11194.558286018168,19202.02603364301,2825.79694101774
5410.195041918164,11176.40866952046,18131.645695167263,2199.992799758053
5178.966245528012,11190.914951671954,17245.354324025433,1767.5759515256825
5582.549343413037,11222.36385612057,17871.516093196406,2260.5883789763902
5991.318046011692,11203.990722178309,19065.479226765543,2870.723947372908
5883.426175525925,11171.647747951478,19201.556647009453,2832.3236503986896
5427.897623526767,11151.419419219425,18163.11695136034,2224.736180870078
5178.40745191663,11156.269747766228,17247.343629281953,1770.6157887716042
5563.639767603847,11184.45529752437,17833.29461017783,2237.990765332075
5978.219923760882,11170.328995028614,19038.61242993026,2853.8483803091503
5893.573867508634,11148.625451162512,19215.45943206065,2838.4256766349886
5440.83928356639,11133.113340510528,18189.91669296225,2234.7497623860554
5183.660111863627,11154.660422165443,17255.904347408337,1763.7090997349144
5552.285081420551,11184.83527718011,17805.82431624226,2206.541860883458
5975.537714426246,11178.576788732624,19014.20432498507,2838.85035977964
5903.900373446986,11163.422305991926,19220.33211235191,2843.6783365819856
5460.933501831711,11155.554491943658,18222.058501488984,2260.431916765204
5187.973998543501,11176.296910798184,17261.604042244442,1772.5380387947607
5547.546511596026,11206.427062323935,17773.07901061523,2196.5282793674805
5980.320987739681,11199.699187242888,18990.109144462247,2834.759990544318
5914.092768918606,11179.40380327747,19224.131908909312,2851.948482030449
5473.025795582032,11171.983024118308,18237.972943541165,2271.1384023592955
5186.722300854004,11186.913989414454,17255.300850308045,1764.7596317243135
5544.640784816836,11225.090768944116,17742.859452111657,2183.094880949841
5991.362749500603,11219.547536319202,18963.309402860334,2834.290603910757
5935.773961040254,11195.497059285291,19225.450661832176,2861.604435635142
5491.130708590831,11181.88484691201,18259.497673451624,2288.528059545524
5188.041053776867,11193.999492406783,17256.910175908826,1772.783907983769
5526.602927041403,11226.342466633614,17710.091794740176,2170.1308691657628
5969.212170745393,11212.953771704886,18934.22978332398,2820.924260726483
5931.281260404738,11193.194829606397,19236.76064452656,2869.1369735165804
5499.736130206124,11180.49903875578,18289.62782497738,2305.0459986979963
5195.193612002566,11193.999492406783,17269.158931870334,1772.1804108834758
5521.171453138763,11215.971257206353,17684.722564783402,2145.8568746872998
5977.258798749304,11212.327922860137,18915.230800536967,2811.536528055254
5952.627176359556,11194.11125112906,19248.33884815441,2878.412947465533
5519.3386100934285,11175.02286136423,18314.415909578314,2320.200481438694
5198.255800992943,11190.266751082749,17270.477684793197,1775.913152207512
5514.756502480091,11220.41925435296,17651.463169033905,2136.8044181829
5981.840906362642,11217.73704501832,18891.44854443652,2810.351885599123
5969.100412023117,11199.36391107606,19262.822778561447,2892.628656939108
5532.436732344238,11180.96842538934,18344.16608144833,2341.7699148380657
5200.26745799392,11188.702128970875,17279.708955253238,1781.4787365768834
5506.553412264992,11217.401768851492,17630.564287968195,2123.6615924431794
5971.760269613299,11211.635018782024,18863.39710514511,2800.740635483341
5972.922560324974,11192.16664936145,19262.53220588353,2901.234078554401
5551.681584320258,11176.02868986472,18376.59846265298,2367.89910410632
5204.31312374033,11183.762393446255,17292.270635637124,1790.553544825738
5499.400854039294,11217.468824084855,17602.62460739906,2107.277763757439
5973.749574869821,11218.474652585346,18835.524479809344,2789.78828070024
5985.819516875687,11198.201620364383,19267.159016985777,2906.4867385013986
5576.022634032087,11187.338672559104,18412.473012503742,2391.167270084294
5219.0429233363775,11198.73806223131,17314.488269625697,1801.5058996088387
5489.56608647896,11224.666085799468,17578.216502453866,2090.1786792491293
5965.077098021162,11220.21808865286,18808.1882963405,2774.656149703997
5988.009987832307,11195.497059285291,19265.43793266272,2904.3856745226
5579.57656140048,11179.7390794443,18430.242649345717,2399.23624983266
5211.152757543655,11197.240495352806,17313.28127542511,1802.1764519424976
5467.817839123945,11230.231670168838,17541.80551073617,2073.8395540523
5943.12768496605,11226.744798033811,18768.75981912134,2760.596902441609
5982.176182529472,11206.002379179285,19265.281470451533,2909.392465280589
5583.555171913526,11191.02671039423,18456.729466525256,2411.9320406832744
5207.688237153082,11197.128736630528,17330.223897722233,1801.818824031213
5454.8314755954125,11231.908051002983,17531.00961816426,2056.6510625661685
5934.678725561944,11229.158786434984,18750.94547879046,2748.392849969012
5979.806897617209,11204.907143700975,19267.114313496862,2908.6772094580188
5581.588218401458,11181.97425388983,18473.336812655547,2419.442226820257
5203.396702217663,11193.239533095304,17336.14711000289,1807.8314432896905
5446.114295257842,11232.109216703084,17504.723966684815,2046.1680944166296
5931.88475750503,11226.230707911338,18718.55780107472,2732.120780005548
5987.384138987558,11200.727367487832,19265.1473599848,2908.1631193355465
5607.404483247338,11192.144297616996,18508.07142353909,2444.0514974655507
5212.493862210973,11192.658387739468,17354.654354411883,1812.8605857921343
5438.380591676306,11220.866289242063,17481.120524540012,2024.039867405876
5934.969298239863,11223.101463687595,18689.947568171927,2721.5931083670985
6005.37729327408,11200.54855353219,19265.81791231846,2917.103817117669
5627.342239301472,11183.941207401896,18529.23852553827,2459.787125562087
5224.943783872579,11187.293969070191,17364.422066738854,1823.745885341869
5438.760571332046,11223.995533465808,17460.08753300757,2019.8600911927333
5936.198644184905,11227.057722456184,18670.72506794036,2724.1859107239143
6015.90496491253,11206.22589662384,19275.026831034047,2932.1688928805465
5640.485065041193,11194.155954617972,18560.843892198078,2481.915352572841
5238.108961356755,11202.560210533167,17391.355918807498,1841.4037634615615
5438.872330054322,11239.708809817888,17447.54820436814,2012.4393120335717
5938.813798286176,11245.207338953896,18649.53561419673,2710.350180906079
6025.04682839475,11215.725388017345,19278.468999680164,2929.6878492460078
5657.07005942703,11203.208411122372,18583.933244220407,2495.7957858795867
5244.009821892956,11211.389149593017,17399.40254681141,1849.6962606544807
5417.302896654952,11247.733086077344,17409.751404494215,1995.384931014172
5910.650600272489,11248.671859344466,18601.591122340094,2692.4687853418336
6020.352962059136,11228.84586201261,19272.63519437733,2936.572186538242
5660.623986795425,11215.524222317246,18614.59983761309,2518.683972201821
5237.974850890023,11220.709827030878,17423.050692445122,1862.839086394201
5402.617800547815,11254.282147202748,17403.045881157625,1985.416052987105
5905.576754281135,11254.952699536409,18589.185904167403,2684.511564315744
6025.605622006134,11229.583469579637,19286.62738640635,2940.595500540197
5675.085565458008,11217.424120595948,18652.351933998103,2534.21843459826
5244.166284104143,11220.866289242063,17453.82904456008,1872.137412087609
5389.229105619086,11254.103333247103,17392.58526475254,1968.942817323544
5892.92566691943,11260.764153094788,18566.76710447873,2667.0548518961496
6026.052656895239,11238.099484217106,19291.00832831959,2941.266052873857
5681.83579228351,11223.682609043432,18683.04087913524,2548.009460927184
5246.289699827397,11229.047027712706,17478.103039038546,1882.3074558147737
5374.096974622843,11268.31904272068,17374.256834299187,1958.48220091846
5872.563227720646,11275.628063157566,18531.80897615063,2653.0179563782167
6019.235374836371,11251.823455312664,19289.48840969663,2944.931738964526
5688.27309468664,11242.145149963517,18713.372196361088,2565.890856491429
5250.670641740638,11245.408504653991,17507.13795508599,1890.75641521888
5362.697584950636,11278.645548659031,17363.751514405194,1934.6775930735585
5859.129829303006,11284.32289175068,18505.85860083802,2627.6934299103536
6021.559956259723,11267.693193875934,19292.416488220275,2943.702393019485
5697.7278825912335,11252.583414624143,18743.65881009803,2580.754766554209
5244.434505037607,11247.5542721217,17526.80749020666,1896.1878891215197
5351.253491789519,11289.195572041936,17359.169406791854,1929.3802296376505
5852.558416433146,11298.784470413264,18488.200722718328,2617.4339792053675
6026.298526084248,11275.42689745747,19298.67497666776,2938.337974350211
5713.3964554544045,11262.03820252874,18785.56833095173,2589.5613538696
5261.332423845819,11263.5581211517,17572.807380295682,1911.0517991842985
5344.235044030553,11295.409357000512,17360.890491114915,1916.550328320304
5843.193035506372,11304.28299954927,18474.387344644947,2604.201746487826
6028.578404018689,11282.870028361089,19305.559313959995,2944.127076164136
5721.08545554703,11270.04012704374,18813.2397905874,2608.359170956513
5262.584121535316,11267.983766553853,17593.370985194564,1922.361781878684
5331.002811313011,11301.28786579226,17341.377418205433,1906.626153782148
5833.291212712671,11317.202307844438,18440.815024473075,2595.2163452167924
6027.729037729388,11297.75629016832,19295.858656866392,2951.883131490127
5724.773493382156,11278.556141681212,18831.992904185405,2626.3746769874906
5261.913569201657,11275.873932346574,17613.308741248697,1938.09740997522
5317.345895450819,11311.52496475279,17328.838089566005,1903.6757235140471
5819.209613705828,11321.270325335305,18413.79176542661,2583.9287142668622
6023.973944660896,11296.884572134564,19292.66235740928,2953.246587901901
5737.402228999404,11288.212095285904,18858.993811487417,2647.2065028198367
5269.714328016559,11290.313159264704,17634.78876767025,1952.938968293544
5311.467386659073,11326.880613193583,17314.018882992135,1891.9857611639216
5819.164910216918,11346.10311342515,18389.71893664824,2577.3125979080914
6039.754276246343,11323.81842420321,19297.110354555887,2963.8189630292613
5756.669432719878,11308.596886229145,18887.872265323676,2665.66904373992
5286.90281950269,11306.965208883908,17662.527282539282,1975.357767982217
5303.264296443975,11334.703723752944,17296.80803976155,1884.587333749215
5797.997808217741,11339.95638369994,18346.177738449303,2552.815085985075
6031.841758709164,11314.833022932176,19274.736258356126,2954.922968736049
5753.42842977386,11293.08477557716,18893.10257352621,2666.160782117937
5271.636578039716,11280.880723104565,17666.908224452523,1962.1255352646751
5281.09136594431,11310.362674041116,17278.94899594176,1858.1899235474973
5781.971607443286,11331.283906851282,18317.880429968885,2529.4798647737343
6036.446218066957,11320.689179979468,19276.88202582384,2952.956015223982
5780.831668476066,11313.938953153964,18932.59810597874,2692.1782126639146
5314.57427913836,11316.308238066224,17722.720530357426,2005.9796578859875
5306.259430200986,11349.165302415528,17295.824563005517,1873.456165010472
5802.222287919794,11369.795962547776,18307.509220541622,2533.592585753511
6058.619148566622,11345.253747135848,19276.636156634828,2960.10857344968
5801.2164594193055,11325.070121892706,18956.581527779286,2700.671875556932
5327.895918833723,11328.445235305457,17752.783626649813,2019.5471667703591
5288.042758469911,11346.10311342515,17277.294966852067,1854.613644434648
5762.726755467267,11350.841683249677,18248.79118785753,2489.1573177763603
6030.657116253033,11327.48411029388,19246.70717080917,2935.611061526664
5792.074595937085,11322.007932902328,18964.359934849734,2705.477500614822
5319.983401296545,11327.327648082692,17763.959498877466,2027.8843674521888
5272.374185606741,11354.932052484995,17268.26486209212,1860.55920845976
5747.751086682211,11371.96408175994,18228.898135292307,2499.014437081151
6032.154683131538,11359.380049631602,19243.26500216305,2957.672233304052
5790.174697658384,11340.805749989242,18977.256891400444,2723.2471374567917
5312.160290737187,11336.469511564912,17791.653310257592,2043.7988095043672
5261.131258145721,11373.77457306082,17274.389240072876,1852.6690426670368
5741.291432534627,11399.54613441779,18213.542486851515,2479.5684194050336
6035.440389566468,11385.889218555596,19243.644981818798,2953.3583466241776
5813.86754678101,11371.517046870837,19020.172240754637,2749.9127685919725
5338.289480005441,11364.140971200582,17844.649296361124,2073.928961030121
5260.684223256615,11394.986378548909,17274.679812750794,1850.098592054676
5735.32351676506,11420.243849783405,18182.585320780912,2463.0281285081064
6036.155645389038,11395.098137271185,19227.216449644144,2940.3496313511887
5823.747017830256,11372.768744560331,19029.895249592693,2743.0731347886485
5346.805494642913,11361.30229965476,17849.63373537466,2063.7142138140457
5259.365470333752,11390.672491869032,17256.865472419915,1830.272594722819
5731.546071952113,11414.432396225024,18152.76809367753,2449.259453923637
6054.774648520309,11406.653989154576,19226.590600799394,2959.102744949191
5850.859683854543,11385.844515066688,19059.891290651714,2773.225638058858
5373.716994967102,11370.801791048263,17888.793991660357,2094.447862440093
5267.836781482313,11392.438279681002,17254.60794622993,1826.428094676506
5731.99310684122,11412.040759568306,18121.16272701773,2426.4159710903136
6063.558884091245,11394.315826215246,19214.073623904424,2946.116381420658
5875.111326588551,11372.00878524885,19082.332442084844,2784.1109376085924
5395.666408022215,11347.600680303656,17916.39839606266,2109.51293820297
5279.325578132341,11365.72794505691,17251.881033406382,1821.6671731075253
5752.310842551094,11387.409137178558,18099.34742442935,2416.1118168964167
6100.327503720225,11367.96311950244,19210.07266164692,2949.111515177669
5919.099559676595,11347.086590181185,19108.238113908545,2793.6551324910083
5448.50593191456,11341.543357556267,17961.951251262577,2125.2932697884166
5303.890145288724,11358.508331597845,17269.94124292627,1808.2784781787968
5755.864769919488,11390.985416291407,18097.156953472728,2389.7144066946994
6111.950410836985,11385.844515066688,19225.830641487915,2934.024087670337
5943.9099960219855,11370.310052670247,19161.815245367918,2800.0477314052264
5463.280434999519,11360.81056127674,18018.970551368064,2133.384601281238
5306.281781945441,11386.15743948906,17290.549551314063,1806.9150217670228
5751.036793117141,11420.914402117063,18071.45244734913,2376.593932699434
6112.464500959457,11415.460576469968,19203.99298715508,2931.4536370579767
5948.7826763132425,11403.927076331029,19166.12913204779,2811.022437932782
5470.432993225217,11403.480041441922,18034.14738585322,2156.675119003668
5302.034950498933,11433.520785989856,17278.74783024166,1809.239603190375
5736.910490621387,11465.46142881649,18036.67313297667,2359.3607377243925
6109.916402091551,11465.41672532758,19188.436173014183,2931.788913224806
5957.030470017251,11449.07760013075,19171.33708850588,2822.7794555162736
5466.946121090188,11427.26229754237,18035.1085108648,2156.47395330357
5287.081633458332,11461.259300858892,17251.322239794998,1795.6497425615482
5717.777397367644,11490.249513417426,17979.922053804643,2335.3326124349373
6095.164250751049,11476.03380394385,19127.97470426258,2905.4585582564546
5958.617443873578,11459.247643857914,19149.92411731769,2812.385894344556
5490.28134230153,11448.183530352537,18055.627412274767,2172.321340122383
5288.37803463674,11463.338013093236,17241.912155379316,1785.0326639452774
5705.528641406137,11487.835525016251,17936.55966956135,2309.3598853778703
6096.035968784806,11477.732536522451,19103.79011676194,2897.7025029304627
5980.030415061762,11470.758792252398,19172.253510028542,2834.4694178663995
5512.990714668121,11457.593614768222,18091.85959003682,2202.563250370413
5298.86100278628,11473.329242864758,17243.901460635836,1795.5379838392716
5714.581097910535,11503.66056009061,17910.810459948832,2310.7456935340992
6109.469367202445,11490.94241749554,19085.39463107522,2910.822976925728
5996.570705958689,11474.64799578762,19174.823960640904,2854.51893264281
5530.268613132073,11455.671364745063,18107.55051464445,2219.4388174341702
5304.270124944464,11476.436135344044,17246.628373459385,1798.555469340738
5708.277905974139,11511.841298561252,17888.570474215805,2291.7243590026333
6115.504338205378,11502.14064146765,19084.96994793057,2901.792872165784
6010.786415432265,11482.314644135791,19209.71503373564,2859.9504065454494
5550.519293608581,11471.004661441406,18168.190797351694,2244.986861346586
5308.539308135428,11491.32239715128,17278.70312675275,1805.1492339550537
5698.443138413803,11519.70911260952,17886.60352070374,2286.918733944742
6109.648181158088,11505.024016502382,19088.099192154317,2906.710255945952
6018.944802158452,11492.104708207216,19240.314571894956,2879.552886432753
5566.321976938484,11485.108612192704,18207.775736782045,2274.1335361163065
5310.349799436307,11499.838411788753,17286.41447858983,1812.3464956696623
5691.201173210285,11524.51473766741,17857.00981104491,2271.317216314938
6119.25943127387,11521.005513787928,19063.06523836437,2899.6694564425297
6038.681392512488,11506.074548491782,19246.885984764813,2889.14178480408
5588.204334760229,11500.620722844687,18230.820385315463,2294.78654799301
5316.34006695033,11514.456452662524,17283.41934483282,1814.9169462820228
5690.105937731974,11546.173578044603,17825.359740896194,2262.532980744002
6123.349800509192,11535.936479084074,19034.09737755029,2898.7530349198623
6051.108962429638,11509.717882837998,19253.09976972339,2903.759825677851
5594.351064485439,11487.366138382691,18249.34998146892,2307.6611527992677
5315.602459383304,11506.298065936337,17286.347423356467,1817.9791352724
5672.135135189908,11533.410731960625,17795.587217281725,2244.472771224114
6115.616096927655,11526.213470246012,19019.52404016543,2887.957142347949
6067.112811459639,11512.958885784015,19277.91020606878,2917.8190729402395
5616.099311840452,11494.295179163835,18297.272121581093,2331.17518796625
5314.127244249255,11508.37677817068,17297.09861243947,1812.8605857921343
5664.468486841737,11542.418484976111,17772.073182114742,2225.384381459282
6107.234192756915,11529.677990636586,19001.597941112275,2879.3293689882007
6060.094363700672,11508.019150259392,19284.258101494088,2916.2320990839125
5614.132358328386,11488.975463983472,18321.233191637184,2342.1945979827165
5300.33621792033,11500.955999011518,17300.831353763504,1812.949992769956
5637.691096984279,11532.85193834924,17744.826405623724,2204.0608172489187
6089.44220417049,11527.08518827977,18981.414315869133,2866.6782816264968
6045.275157126804,11494.5634000973,19288.5049329406,2913.0134478823484
5608.946753614754,11475.586769054744,18349.776369306608,2351.8058480984987
5285.85228751329,11482.582865069257,17316.656388837862,1807.8984985230568
5614.177061817296,11522.011342288415,17720.172431489522,2181.6420175602457
6075.114735974638,11519.105615509226,18945.22684159599,2853.982490775882
6048.113828672627,11488.930760494562,19288.840209107424,2922.401180553577
5626.40346603435,11481.107649935204,18380.8899975884,2379.0973280784283
5299.509203375484,11492.328225651769,17330.402711677874,1828.573862144216
5602.218878533707,11518.770339342396,17689.03645146328,2175.964674468598
6071.381994650602,11524.581792900775,18915.633131937164,2847.925168028494
6063.692994557977,11508.153260726129,19299.122011556865,2935.2087301264683
5637.758152217645,11492.350577396224,18408.6955676908,2395.458805019713
5294.278895172942,11499.279618177368,17343.634944395417,1831.4348854344948
5594.753395885635,11539.400999474645,17675.44659083445,2160.899598705721
6073.483058629401,11542.418484976111,18907.474745210977,2840.4373336359663
6056.741602032376,11499.681949577564,19292.79646787601,2925.9998114108816
5643.122570886919,11488.863705261196,18432.79074821362,2412.4684825502018
5298.90570627519,11508.957923526516,17356.129569545934,1841.64963265057
5579.241285233651,11539.490406452467,17650.792616700248,2150.1707613671733
6053.925282231007,11536.785845373375,18888.36400370169,2839.029173735282
6057.2556921548485,11509.85199330473,19314.902343142312,2945.959919209471
5651.16919889083,11505.873382791684,18467.63711781944,2438.6200235629112
5295.351778906796,11519.105615509226,17371.28405228663,1851.5514554442711
5572.200485730229,11554.354316515246,17628.77614841177,2138.0784676168523
6053.210026408437,11548.229938534492,18853.271764906855,2823.94174622795
6080.367395921636,11522.61483938871,19327.01698863709,2963.3495763957
5668.447097354781,11502.27475193438,18491.799353575632,2453.3498231589583
