 EXG Channel 0, EXG Channel 1, EXG Channel 2, EXG Channel 3
-1712.657715398993,18763.03777254078,-25171.34996311068,-43799.15968169686
-1925.4016191246055,18720.547106331243,-24849.931877843366,-44011.03186738872
-1587.8455743605584,18751.5266241463,-23792.89553080744,-44213.02458203132
-1328.8112078680049,18799.404060769568,-23796.80708608712,-44087.07250202567
-1365.3786617968872,18818.827726701227,-24311.41129868165,-43903.65408702542
-1714.2893927442306,18771.754952878357,-25195.266329677863,-43794.778739783615
-1909.0848456722315,18729.19723143545,-24816.35955767149,-44016.53039652472
-1566.4326031723742,18762.255461484845,-23778.00926900021,-44209.20243372946
-1321.7927601090385,18812.546886509288,-23804.071403035094,-44077.48360365434
-1379.6390747593732,18832.3952355856,-24336.512307704965,-43896.83680496655
-1745.8053524262134,18784.80837164025,-25210.84549556321,-43795.069312461535
-1922.495892345416,18741.17776646349,-24773.66772576186,-44025.627556518026
-1569.8300683295809,18773.54309243477,-23765.51464384969,-44206.34141043919
-1329.8840916018596,18827.1425756386,-23820.388176487468,-44067.51472562728
-1395.7993860005602,18845.471006091957,-24375.851377946303,-43886.97968566176
-1766.011329413811,18794.86665664514,-25238.13697554314,-43797.99739098518
-1913.935174219033,18759.50619691684,-24731.02059734113,-44040.78203925872
-1543.7455825502375,18804.94729339448,-23741.017131926677,-44206.78844532829
-1315.9813065506587,18861.38544814413,-23827.160755057423,-44064.921923270456
-1394.4359295887864,18882.79841933232,-24397.979604957058,-43888.63371475145
-1765.9889776693558,18838.63137228863,-25239.52278369937,-43807.00514400067
-1900.099444401198,18803.3379677937,-24683.612547351426,-44056.0482807217
-1532.5250068336734,18844.44282584701,-23730.62357075496,-44212.10816050866
-1320.317544974988,18897.863495095196,-23840.05771160814,-44063.08908022512
-1408.4281216178083,18912.90621911361,-24437.721006598596,-43883.87279318247
-1788.3183703802074,18864.53704411233,-25260.53342348736,-43810.022629502135
-1896.8584414551783,18840.263049633868,-24640.764253230605,-44061.45740287989
-1524.076047429567,18890.93445431405,-23723.940399162817,-44200.30643943625
-1323.35738222091,18947.97610616399,-23864.97990667581,-44051.37676613054
-1424.6331363479062,18964.18112089409,-24478.311774529437,-43878.41896753538
-1804.2551641768412,18913.465012725,-25267.797740435333,-43817.30929819457
-1890.9128774300668,18889.63805313564,-24586.695383393217,-44080.56814438917
-1512.900175201914,18939.951829904538,-23708.718861188758,-44211.30349770826
-1325.3466874774322,18995.04887998687,-23872.132464901504,-44054.86363826557
-1445.7555348581714,19005.10716499176,-24508.71014698865,-43882.08465362604
-1827.813902832735,18956.715638246016,-25277.18547310656,-43831.01091754567
-1880.698130213992,18943.148129361645,-24549.457377130675,-44100.01416206529
-1495.9352011603355,19000.390946911688,-23695.821904638044,-44212.95752679796
-1317.9929635516362,19057.79022667292,-23874.166473646936,-44053.880161509536
-1443.900340068381,19069.949575656603,-24523.462298329152,-43878.73189195775
-1835.1005715251647,19019.747557609982,-25263.305039799816,-43833.380202457935
-1875.8925051561005,19002.76023182395,-24491.05226886896,-44103.858662111605
-1488.939105145825,19062.90877615318,-23686.14359928889,-44206.27435520582
-1317.9259083182703,19125.694826328137,-23886.45993309736,-44046.43703060592
-1458.093697797501,19136.915402044702,-24559.20273771319,-43873.099252355016
-1855.105382812665,19078.554997271895,-25270.92698465908,-43845.98658633073
-1873.0091301213656,19063.42286627565,-24449.858003837828,-44129.65257521303
-1489.4084917793862,19125.89599202824,-23684.958956832765,-44217.22670998892
-1335.807303882516,19188.03384161399,-23907.26940718525,-44051.28735915272
-1479.283151541132,19201.154315609256,-24595.457267219692,-43873.76980468867
-1871.4221562650391,19145.856099826826,-25270.792874192342,-43855.3519672575
-1865.856571895668,19137.98828577856,-24409.446049862632,-44140.53787476276
-1476.8468113955037,19212.10667039236,-23679.6392416524,-44211.75053259737
-1335.293213760044,19274.44568567821,-23923.67558761544,-44040.446763091895
-1493.767081948171,19286.11329628388,-24637.97028517369,-43863.55505747259
-1885.302589571785,19228.87047873384,-25276.179644606076,-43859.7552609152
-1853.205484533964,19226.814118243947,-24360.4510260166,-44149.54562777825
-1461.5582181880736,19304.553485459503,-23673.403104949368,-44206.60963137265
-1328.2747660010775,19366.847797256447,-23930.135241763022,-44035.43997233391
-1499.220907595266,19370.84875951395,-24658.48918658366,-43863.68916793933
-1885.682569227525,19313.717700686186,-25246.541231458337,-43871.08759535404
-1837.9615948154444,19318.232753066157,-24301.777696821417,-44162.15201165104
-1456.9537588302803,19399.54839939456,-23669.513901414142,-44203.94977378247
-1334.5332544485634,19464.301403081587,-23944.59682042561,-44032.31072811016
-1511.670829256872,19471.67747875184,-24691.99445152217,-43858.72708067025
-1897.3501798331956,19421.69897814977,-25239.94746684402,-43877.97193264627
-1823.656478364048,19442.910783637857,-24256.247193365954,-44170.98095071089
-1448.795372104093,19536.899869072426,-23666.831692079508,-44199.97116326942
-1339.9423766067478,19606.816125728623,-23958.052570587704,-44022.07362914964
-1526.758256764204,19611.957026953343,-24726.237324027697,-43848.89231310992
-1908.5260520608488,19550.780302379168,-25228.54807717181,-43879.02246463567
-1815.1181119821208,19557.083494315564,-24219.5679807148,-44170.60097105515
-1437.8206655765375,19637.259201676752,-23671.659668881854,-44187.185965440985
-1337.260167272111,19696.98306286133,-23976.626870230062,-44010.38366679951
-1541.376297637975,19686.254225522785,-24764.92819367984,-43841.60564441748
-1919.4113516105836,19610.54886705266,-25216.299321210307,-43887.62788625096
-1802.0199897313107,19617.366149111527,-24175.378581926656,-44180.18986942648
-1428.7235055832275,19700.0005483628,-23673.11253227145,-44188.14709045256
-1335.1143998044015,19755.835206012154,-23996.206998372912,-44013.55761451216
-1544.9749284952795,19743.273525628272,-24799.41693537437,-43848.73585089873
-1913.3987323521055,19670.451542192885,-25196.98741400092,-43913.48885458576
-1770.0569951602215,19680.710992897868,-24130.272761615845,-44203.27922144881
-1402.482557592697,19756.662220557,-23673.894843327387,-44195.0314277448
-1321.3457252199323,19803.958511824432,-24009.416879346,-44018.89968143698
-1547.567730852095,19781.9196917915,-24828.83183107756,-43855.1508015574
-1915.991534708921,19702.347481530607,-25174.45685558997,-43930.61029083852
-1758.5234950212832,19717.121984615565,-24090.21843555193,-44214.455093676464
-1396.1793656563004,19802.9750350684,-23674.67715438332,-44189.42113988652
-1331.0910858024463,19850.7854164583,-24027.41003363252,-44011.07657087762
-1578.1449172669552,19821.616389944124,-24858.24672678074,-43849.607568932486
-1933.872930273167,19745.911031474,-25138.82817492821,-43934.23127344028
-1751.9744338958783,19763.8147787827,-24040.1728797165,-44218.54546291178
-1397.900449979359,19843.76696869933,-23668.12809325792,-44186.02367472931
-1343.384545252865,19891.21972217795,-24034.94257151396,-44004.52750975222
-1598.1944320433656,19859.54730028478,-24889.896796929457,-43842.92439734035
-1933.6047093397035,19787.977014538887,-25116.185857794982,-43940.60152061004
-1733.2883755312414,19814.95557009644,-24006.37704210008,-44222.45701819146
-1382.5895050274737,19904.474306639942,-23676.95703231776,-44180.03340721529
-1332.901577103326,19954.273993286373,-24064.71509512843,-43996.70439919286
-1600.2954960221646,19921.126356259152,-24932.722739305824,-43842.43265896233
-1934.7670000513797,19845.175128600014,-25096.4716191854,-43955.867762073016
-1721.017267825278,19874.03123069182,-23971.776541683263,-44228.78256187232
-1385.3611213399315,19958.833749155256,-23686.948262089285,-44172.9255524785
-1351.9229116347924,19999.648034530645,-24089.838455896195,-43993.77632066922
-1628.0340108912003,19959.839577655745,-24960.394198941496,-43840.13042928343
-1940.712564076491,19888.045774465296,-25067.749627560333,-43965.88134358899
-1704.8122530951805,19925.59670515021,-23947.726064649352,-44231.6882886515
-1376.1522026243451,20010.980368969485,-23704.06969834205,-44168.16463090952
-1347.2961005325435,20053.49338692348,-24112.77134570734,-43988.94834386687
-1633.4431330493849,20014.44488936006,-24991.35136501209,-43841.695051395305
-1937.6503750861136,19945.735626904443,-25036.94892370092,-43985.46147173184
-1690.1718604769542,19983.71124073401,-23913.885523544017,-44249.12264932664
-1369.4243275432975,20070.10073305377,-23706.28252104313,-44172.88084898959
-1355.0745076029907,20109.10452712829,-24133.87139247315,-43992.6810851909
-1653.3138338701528,20065.004535317963,-25021.928551426958,-43849.22758927674
-1947.351032179717,19997.52461880739,-25010.886789666038,-44002.49350100679
-1683.689854584915,20038.897697794164,-23893.88071225652,-44255.67171045205
-1378.4767840476973,20116.92763768764,-23721.325245061547,-44170.48921233288
-1376.7780514690935,20151.12580670426,-24156.87133751766,-43987.89781187747
-1686.0814912416329,20100.610864235263,-25045.599048805125,-43846.5006764532
-1958.7951253408344,20032.505098879945,-24965.445693188394,-44008.99785864328
-1670.7481945452923,20086.93159662862,-23849.84777567956,-44246.30632952527
-1380.9131241933255,20167.733152834557,-23724.387434051925,-44153.703052246936
-1387.6633510188285,20202.356004995825,-24180.6088901292,-43980.16410829593
-1699.4254826814513,20151.774007293465,-25073.024639251787,-43847.46180146478
-1952.67074736008,20087.93742512911,-24935.80728004065,-44022.29714659419
-1652.889150725502,20141.961591477582,-23831.787566159677,-44252.4977627394
-1368.485554276175,20222.494926750056,-23735.630361512944,-44152.63016851308
-1389.2056213862445,20253.04976142046,-24205.68754740805,-43974.35265473755
-1718.4244654684624,20189.03436530046,-25099.19853200895,-43848.35587124299
-1962.5725701537813,20121.17446913415,-24890.008555651733,-44036.468152578855
-1647.8600082230578,20180.00426054052,-23802.57383615659,-44259.31504479826
-1367.2785600755883,20259.665877779236,-23745.50983256219,-44152.31724409071
-1395.3076476225433,20285.951529258677,-24234.297780310844,-43972.40805296994
-1730.5838144521492,20224.5736389844,-25124.00896835434,-43848.08765030952
-1948.6697851025804,20167.80020806792,-24851.183575532865,-44043.799524760194
-1618.534519497695,20233.804909444443,-23776.66816433289,-44253.30242553978
-1351.4311732567755,20314.24883773909,-23750.78484425364,-44136.291043316254
-1389.1162144084233,20336.712340916674,-24255.822510221304,-43960.829849342095
-1731.276718530264,20270.4841220956,-25135.251895815363,-43848.557036943086
-1937.7621338083904,20212.34723476735,-24806.61419708898,-44062.95496975839
-1600.340199511075,20282.263491423542,-23761.334867636542,-44261.52786749934
-1342.1999027967338,20365.322573819467,-23756.17161466737,-44135.06169737121
-1398.4592435907416,20384.098039161927,-24280.342373888776,-43957.4770876738
-1753.0026141408223,20312.30423597148,-25160.487015305403,-43851.261598022174
-1939.483218131449,20256.33546785539,-24765.263469846665,-44069.81695530617
-1596.8756791205026,20324.50828844408,-23741.88884996043,-44257.1469255861
-1349.2407023001556,20403.47700160468,-23770.94611775233,-44123.282328043264
-1407.5340518395965,20419.99494075715,-24306.158638734654,-43945.69771834585
-1766.6148265141044,20340.02039909606,-25174.7921317568,-43848.48998170972
-1937.985651252944,20284.275148424524,-24722.97396933722,-44081.61867637857
-1584.7163301368157,20361.254556328604,-23716.676082214843,-44254.643530207104
-1342.6916411747509,20447.956973070737,-23774.79061779864,-44109.82657788117
-1410.5738890855182,20463.223214533715,-24334.09831930379,-43932.59959609504
-1778.2153818864087,20377.77249548108,-25191.533588353825,-43847.88648460943
-1926.4745028584605,20329.559782690976,-24674.8730152694,-44093.37569396207
-1564.5997601270392,20408.506144107123,-23698.63822443941,-44260.16441108757
-1346.4020307543317,20480.702278697765,-23790.23567321726,-44120.82363615318
-1430.3328311840096,20488.19011309029,-24364.34022955182,-43945.585959623575
-1803.003466487344,20405.242789416647,-25198.775553557345,-43864.87381039546
-1929.1120087041863,20359.153492349804,-24633.566991516,-44118.45435124092
-1558.341271679553,20435.104720008934,-23691.21744528025,-44268.88159142513
-1343.093972574946,20506.67500575483,-23809.39111821546,-44115.2133482949
-1436.9936510316911,20509.58073253402,-24407.59085507284,-43935.32650891859
-1820.3931236735727,20418.676187834288,-25216.65694912159,-43863.62211270596
-1920.417180111072,20373.92799543476,-24592.14920904031,-44120.84598789764
-1542.5832918385615,20454.975420829705,-23689.898692357387,-44258.04099536431
-1342.8257516414824,20531.55249733359,-23821.95279859934,-44102.383446977554
-1436.412505675853,20541.40961663838,-24429.87554429478,-43922.7648285347
-1817.330934683196,20453.164929528823,-25221.820202090767,-43861.85632489399
-1900.2782583568403,20416.955103511227,-24542.416577627253,-44127.283290300766
-1519.2704223716764,20502.96461617525,-23675.68298288381,-44251.82721040573
-1325.838425855449,20577.105352533505,-23828.18893530237,-44089.68765612694
-1434.4008486748755,20578.73702987874,-24459.11162604232,-43914.13705517496
-1820.683696351492,20484.2338543217,-25222.8036788468,-43869.590028475526
-1878.1276796016311,20454.371923729414,-24484.97259437711,-44138.36975555059
-1498.2597825836876,20541.364913149468,-23655.119377984927,-44249.27911153783
-1322.7538851206166,20611.012948872205,-23843.633990720988,-44091.47579568336
-1446.448438936286,20600.6640911894,-24497.623681738816,-43917.51216858771
-1829.624394133615,20502.83050570852,-25226.491716681925,-43873.83685992204
-1864.1578393170644,20479.91996764183,-24443.8677363238,-44147.44456379945
-1486.8827446559364,20564.74483784972,-23652.92890702831,-44245.45696323597
-1318.708219374206,20630.526021781687,-23859.235508350797,-44079.69642635542
-1450.9858430607133,20619.55131525413,-24538.549725836485,-43906.47040682679
-1839.1909407604865,20521.98595070672,-25240.528612199854,-43878.57542974656
-1851.1938275329865,20509.04429066709,-24406.92030273918,-44157.905180204536
-1464.1733722893443,20606.31908253659,-23655.20878496275,-44241.74657365639
-1312.1815099932564,20664.65713556494,-23879.6873545274,-44079.58466763314
-1453.6904041398054,20646.731036511785,-24567.495234906102,-43911.20897665131
-1834.765295358336,20542.19192769431,-25234.314827241284,-43899.45195906782
-1833.200673246464,20521.762433262164,-24367.335363308837,-44184.86138401763
-1456.774944874638,20613.13636459546,-23649.151462215363,-44253.43653600652
-1312.9861727936477,20677.71055432684,-23889.49977034328,-44084.14442350202
-1464.8439246230037,20664.6794873094,-24595.09963930841,-43908.392656849945
-1848.3551559871623,20558.37459067996,-25222.64721663561,-43905.68809577085
-1818.761446328336,20542.102520716493,-24312.215961482045,-44195.41140740054
-1434.8702353084368,20635.778681728683,-23638.802604532557,-44250.50845748287
-1304.4925099006307,20691.97096728933,-23904.58719785061,-44076.85775480959
-1476.153907317389,20669.686278067384,-24632.33764557095,-43905.106950415015
-1866.75064167388,20566.041239028127,-25221.619036390668,-43915.388752864455
-1817.1521207275537,20563.11316050448,-24276.296708142367,-44205.40263717206
-1433.640889363395,20664.210100675835,-23646.312790669537,-44244.13821031311
-1311.9803442931586,20720.648255425484,-23923.92145680445,-44068.85583029459
-1493.4541575257967,20693.51323765674,-24668.59217507746,-43899.094331156535
-1873.5679237327488,20589.89055036194,-25205.07874549374,-43921.244909911744
-1806.7362078113804,20581.665108402387,-24227.45814650752,-44214.20922448745
-1431.6515841068726,20675.497731625765,-23639.56256384404,-44240.49487596689
-1322.6421263983402,20727.510240973264,-23931.56575340817,-44063.938446514425
-1510.016800167179,20698.497676670275,-24690.83216081049,-43889.77365371867
-1886.9789704059328,20594.65147193092,-25180.067143448254,-43922.429552367874
-1789.4583093474282,20599.54650396663,-24166.21436669998,-44210.36472444114
-1412.9431739977806,20690.316938199638,-23631.694749795766,-44225.74272462639
-1313.7014286162173,20738.10496784508,-23945.915573348477,-44050.9967864748
-1514.06246591359,20702.81156335015,-24727.69018741729,-43883.04577863762
-1885.8613831831676,20594.562064953097,-25173.60748930067,-43934.56654960711
-1771.2863411052635,20603.32394877958,-24143.92967747804,-44225.65331764857
-1405.3882843718868,20697.536551658697,-23651.386636660893,-44229.94485258399
-1318.4399984407423,20749.951392406398,-23977.74445745283,-44055.06480396567
-1534.760181279204,20711.707557643364,-24775.455865318283,-43892.0088281642
-1903.3404473472176,20603.525114479675,-25159.704704249467,-43956.09127951757
-1762.9938439123446,20618.232562331268,-24097.21453156645,-44243.86998937965
-1402.0802261925014,20707.66189189695,-23653.331238428505,-44238.23734977691
-1328.990021823647,20752.32067731865,-23994.016527416294,-44058.23875167832
-1558.475382146285,20708.131278530516,-24809.989310501733,-43890.08657814105
-1922.741761534424,20604.530942980164,-25151.143986123087,-43964.85316334405
-1753.784925196758,20630.078986892586,-24074.66162141104,-44245.41225974706
-1397.453415090253,20720.268275769744,-23673.49251192719,-44224.245157747886
-1326.64308865584,20765.39644782501,-24015.42949860448,-44044.47007709385
-1562.2081234703212,20715.61911292304,-24840.8123661056,-43882.19641234832
-1908.548403805304,20608.777774426675,-25118.86806712962,-43970.15052677996
-1727.0522388282109,20632.29180959365,-24027.499440610343,-44250.75432667188
-1377.4262520582977,20726.459708983864,-23656.549889630067,-44216.04206753279
-1327.3359927339543,20765.351744336094,-24023.94551324195,-44038.59156830211
-1579.6871876343714,20711.305226243167,-24866.807444907125,-43880.81060419209
-1914.0469329413097,20611.907018650418,-25083.10527600113,-43981.102881563056
-1712.4118462099848,20649.3238388686,-23975.46457951839,-44258.37627153114
-1368.2396850871664,20745.413988281965,-23651.47604363871,-44214.79036984329
-1327.157178778312,20779.232177642843,-24033.422652891,-44035.08234442263
-1588.247905760754,20722.65991242646,-24889.807389951635,-43876.67553146786
-1912.3482003627064,20624.491050778757,-25059.92651700098,-43988.83658514459
-1689.9036395434905,20667.80873153314,-23953.64927693001,-44256.45402150798
-1350.4700482451974,20765.86583445857,-23672.50903517116,-44196.03725624529
-1318.1494257628235,20799.39345114153,-24073.07464755472,-44017.89385293649
-1588.6949406498602,20739.71429344586,-24941.663437087947,-43868.18186857485
-1907.6319822826365,20645.43463533338,-25049.555307573715,-44000.50419575026
-1675.7326335588257,20688.260577709745,-23937.69013138892,-44268.45690828048
-1349.911254633815,20780.170950909967,-23700.87339888494,-44203.65920110455
-1326.2631090000998,20810.50226813582,-24118.87337194364,-44028.10860015257
-1614.0418188621784,20741.703598702385,-24998.503923237797,-43879.67066522488
-1921.802988267301,20644.78643474417,-25038.804118490712,-44023.750009983785
-1670.502325356284,20691.25571146676,-23915.718366589357,-44277.53171652934
-1354.3369000359655,20780.81915149917,-23717.346634548503,-44197.5795266127
-1336.8131323830048,20811.843372803138,-24141.761558265876,-44016.2398238468
-1638.986365674301,20737.747339933798,-25025.63894100653,-43875.62499947846
-1930.4307616270496,20649.5250045687,-25000.89555989451,-44029.22618737533
-1659.7287845288258,20706.67841514092,-23884.045944696183,-44273.731919971935
-1352.3252430349878,20798.72289880787,-23721.92874216184,-44184.50375610635
-1349.1736470667895,20825.20971598741,-24163.26393643188,-44004.48280626331
-1661.047537451689,20749.25848832828,-25056.8643280106,-43870.03706336464
-1929.1567121930973,20668.00989723324,-24961.757655353267,-44039.17271365794
-1637.824074962625,20733.43345325392,-23855.905098426952,-44275.94474267301
-1339.6294521843736,20824.36034969811,-23728.678968987344,-44172.05383444474
-1352.191132568256,20847.38264648708,-24185.16864599808,-43993.70926543585
-1673.3186451576526,20772.05726767269,-25069.805988050222,-43864.15855457289
-1934.297613417818,20688.081763754104,-24914.059032685644,-44046.9958242173
-1635.208920861354,20749.77257845075,-23813.503839195237,-44276.99527466241
-1347.2961005325435,20838.97839057188,-23721.03467238363,-44170.19863965496
-1361.9588448952252,20863.252385050346,-24190.913044323093,-43993.86572764704
-1693.7481395898033,20779.612157298587,-25081.384191678077,-43874.39565353342
-1931.101313960709,20703.035080794703,-24868.506177485728,-44066.732414571336
-1617.7745601862146,20769.799741482704,-23784.603033614523,-44283.76785323237
-1345.6197196983958,20853.97641110139,-23733.037559156128,-44166.35413960864
-1374.2299526011889,20868.572100230707,-24226.765242429406,-43987.58488745509
-1699.2243169813537,20783.30019513371,-25101.947796576955,-43867.89129589692
-1918.0478951988096,20706.656063396465,-24827.356615943507,-44070.39810066201
-1599.7367024107818,20775.611195041085,-23775.4611701323,-44279.78924271932
-1336.45550447172,20863.051219350247,-23759.77024552468,-44160.83325872818
-1373.8499729454486,20884.66535623853,-24255.934268943583,-43981.54991645216
-1715.8763666005573,20801.3604046536,-25141.286866818296,-43873.0545488661
-1922.9876307234329,20734.52868873223,-24813.81145880359,-44085.61963863608
-1590.0136935727232,20807.55183786772,-23769.403847384918,-44283.700797999
-1334.354440492921,20886.498199283866,-23773.695382320333,-44157.03346217078
-1381.091938148968,20898.92576920101,-24279.448304110563,-43977.99598908377
-1732.1931400529315,20808.669425090484,-25159.995276927388,-43875.669702967374
-1915.6786102865472,20742.731778947327,-24776.28287986313,-44101.131749288055
-1570.411213685419,20820.605256629617,-23745.152204650905,-44286.27124861137
-1328.3418212344434,20900.177466890516,-23779.976222512272,-44153.278369102285
-1389.4291388307977,20910.302807128766,-24322.56481916485,-43971.98336982529
-1748.040526871744,20818.861820562102,-25180.98356497092,-43876.83199367905
-1917.8914329876225,20760.143787878013,-24726.8855246169,-44112.48643547135
-1566.83493457257,20846.868556364603,-23730.780032966144,-44284.03607416583
-1331.292251502544,20932.967476006448,-23797.5670453986,-44141.87897943008
-1399.80034825806,20946.73615059092,-24346.10120607629,-43963.46735518782
-1762.1444776230428,20859.72080942641,-25190.192483686507,-43878.62013323548
-1902.3793223356397,20814.4138234155,-24671.36379138992,-44118.34259251864
-1543.7455825502375,20902.01030993585,-23716.586675237024,-44277.53171652934
-1324.07263804348,20984.89057837613,-23800.7186413668,-44130.412534524505
-1407.2658309061326,20994.2559593029,-24374.86790119027,-43956.04657602866
-1774.0356056732662,20903.32906285871,-25201.7483355699,-43878.53072625765
-1899.2500781118963,20850.35542849963,-24631.890610681847,-44130.54664499124
-1539.1634749368995,20930.419377138543,-23708.182419321827,-44284.52781254385
-1331.0910858024463,21008.40461354311,-23814.599074673544,-44134.167627593
-1419.1122554674455,21016.898276436124,-24398.40428810171,-43951.665634115416
-1794.1521756830423,20923.311522401757,-25208.74443158441,-43881.92819141486
-1895.2491158543965,20886.81112370624,-24575.698325121204,-44141.40959279652
-1524.8583584855032,20978.699145162005,-23682.5896719205,-44274.31306532778
-1321.0104490531028,21055.25386992143,-23821.505763710236,-44115.63803143955
-1423.9402322697915,21056.438512377565,-24429.92024778369,-43937.0699449861
-1813.6428968480704,20954.894537317105,-25223.451879436005,-43881.99524664823
-1897.685456000025,20916.002501964867,-24537.543897336,-44152.60781676863
-1522.1314456619557,21006.54941875332,-23671.99494504869,-44274.71539672797
-1332.7674666365942,21086.03222203639,-23830.781737659185,-44110.363019748096
-1444.9061685688698,21085.138152258176,-24464.85602436734,-43933.82894204008
-1822.9188707970227,20984.689412676027,-25209.906722296088,-43887.40436880641
-1874.4396417665052,20949.686580859016,-24476.70244892865,-44160.67679651699
-1494.705855215294,21039.1159104247,-23651.16311921634,-44268.61337049167
-1323.9608793212033,21109.50155371446,-23842.963438387327,-44109.69246741444
-1454.0033285621798,21102.907789100147,-24500.328242817908,-43938.25458744224
-1837.0004698038665,21006.035328630845,-25224.770632358868,-43903.43056958087
-1871.6456737095923,20983.169494053065,-24434.45765190812,-44179.429910115
-1491.3307418025424,21078.544387643866,-23653.35359017296,-44273.30723682728
-1323.335030476455,21148.79592046689,-23855.279249582203,-44109.78187439226
-1457.378441974931,21136.547164505384,-24522.411766339752,-43937.09229673056
-1845.427077463517,21034.48909932245,-25220.881428823643,-43910.80664525111
-1864.291949783796,21009.276331576864,-24407.613206817296,-44197.17719521251
-1486.77098593366,21103.265417011437,-23641.529517356103,-44278.31402758527
-1336.0531730715245,21168.308993376373,-23867.12567414352,-44105.08800805664
-1482.3006370425985,21153.154510635675,-24557.615763856866,-43927.5704535926
-1869.0975748416872,21045.79908201684,-25227.542248671325,-43916.26047089821
-1853.9877955899,21033.349160355232,-24359.914584149672,-44200.10527373615
-1465.380366489931,21138.84939418428,-23647.34097091448,-44260.79025993231
-1325.0561147995134,21206.418717672677,-23888.762162776253,-44091.07346428317
-1486.927448144847,21184.51400810647,-24604.733241168648,-43920.14967443344
-1871.489211498405,21074.476370153,-25233.68897839653,-43923.32362214609
-1840.7108593834475,21060.21595719051,-24313.020624282435,-44209.24713721838
-1460.6641484098611,21154.003876924977,-23641.708331311744,-44259.85148666519
-1331.225196269178,21213.32540670936,-23898.462819869856,-44088.30184797071
-1495.9352011603355,21190.86190353178,-24621.45234602122,-43918.29447964364
-1882.240400581408,21080.80191383385,-25203.022385003853,-43933.560721106616
-1829.8702633226235,21070.9224427846,-24252.223879364003,-44224.245157747886
-1448.482447681719,21168.063124187367,-23638.60143883245,-44264.433594278526
-1329.749981135128,21223.406043458708,-23915.293683444703,-44088.99475204882
-1513.5260240466623,21189.29728141991,-24660.947878473748,-43919.09914244404
-1896.389054821617,21073.53759688587,-25199.17788495754,-43944.401317167445
-1815.6322021045928,21070.520111384405,-24216.014053346404,-44229.81074211726
-1435.898415553381,21169.247766643497,-23650.090235482483,-44248.787373159816
-1326.8219026114823,21228.0105028165,-23933.66681738697,-44065.43601339293
-1514.0401141691343,21194.773458811454,-24700.21989348172,-43893.93107818736
-1891.13639487462,21082.61240513473,-25197.61326284567,-43935.86295078552
-1793.5039750938388,21086.30044296985,-24190.64482338963,-44227.48616069391
-1421.8391682909928,21183.865807517268,-23650.04553199357,-44238.86319862166
-1324.8325973549602,21237.82291863238,-23955.839747886628,-44062.93261801393
-1532.8379312560478,21201.0542990034,-24743.291705047097,-43902.111816658
-1903.3851508361283,21091.59780640576,-25176.46851259095,-43955.28661671717
-1786.0384924457662,21097.83394310879,-24141.023950698847,-44242.52888471233
-1420.9227467683252,21187.710307563582,-23666.183491490305,-44243.19943704599
-1334.354440492921,21235.610095931304,-23983.3100418222,-44063.98315000333
-1549.668794830894,21195.24284544502,-24770.404371071385,-43895.89803169943
-1918.0255434543544,21084.93698655808,-25166.96902119744,-43960.06989003061
-1776.2484283743418,21096.26932099692,-24107.496334015887,-44245.635777191615
-1416.251232177166,21190.07959247584,-23664.44005542279,-44230.36953572864
-1345.2173882982,21236.906497109718,-24000.453829819424,-44052.539056842215
-1569.919475307402,21192.605339599293,-24817.76771757218,-43893.50639504271
-1926.2509854139075,21086.613367392227,-25145.868974431636,-43971.737500636285
-1762.2562363453194,21107.668710669128,-24063.016362549828,-44250.664919694056
-1405.3659326274317,21194.326423922357,-23665.93762230129,-44225.496855437385
-1338.7577341506164,21217.92986606716,-24016.971768971893,-44047.95694922888
-1575.4850596767735,21141.397493052184,-24847.58494467556,-43887.44907229532
-1921.33360163374,20993.63011045815,-25133.91079114804,-43980.85701237405
-1734.7635906652918,20921.769252034337,-24027.119460954604,-44263.53952450032
-1379.8178887150157,20843.672256907492,-23660.01441002064,-44226.90501533807
-1316.4953966731307,20642.95359169884,-24024.817231275705,-44046.19116141691
-1559.6823763468717,20274.10510469736,-24845.34977023003,-43885.660932738894
-1888.9906274069103,19839.855413419657,-25060.641772823543,-43988.72482642232
-1680.2253341943426,19581.93863414987,-23953.71633216337,-44257.21398081946
-1337.2378155276556,19426.437547974296,-23635.56160158653,-44203.07805574871
-1291.0591114829913,19251.0434092335,-24019.54221958425,-44018.60910875906
-1559.9505972803352,18997.440516643583,-24877.20100607884,-43869.97000813127
-1888.9906274069103,18725.12921394458,-25040.078167924665,-43994.64803870297
-1669.7870695337142,18623.384073184025,-23934.650294143,-44264.36653904517
-1339.003603339625,18596.025537970727,-23664.574165889524,-44205.648506361074
-1311.35449544841,18521.61658067901,-24063.86572883913,-44027.03571641872
-1588.5161266942175,18352.54798561907,-24937.327198663617,-43881.72702571476
-1901.932287446533,18155.49500650108,-25043.63209529306,-44013.64702148998
-1669.0271102222337,18122.660293896235,-23916.053642756186,-44272.01083564888
-1343.0269173415802,18156.053800112462,-23664.97649728972,-44199.45707314695
-1322.709181631706,18125.498965442057,-24081.702420914466,-44020.12902738202
-1611.3149060386309,17992.23786499952,-24952.16875698194,-43878.06133962409
-1915.4103893530837,17832.467595632985,-24987.95389985489,-44024.42056231744
-1663.0368427082117,17831.417063643585,-23871.97600269032,-44276.92821942904
-1344.7256499201835,17883.586035202272,-23673.04547703809,-44193.22093644392
-1328.386524723354,17871.29257575185,-24100.20966532346,-44012.30591682267
-1624.9047666674576,17749.207347536965,-24981.583652685127,-43874.79798493362
-1911.9011654736005,17605.82090685617,-24945.060902245157,-44029.829684475626
-1642.048554664678,17619.746043651827,-23838.96247612983,-44268.03222513583
-1336.6790219162729,17675.781867001282,-23680.80153236408,-44171.13741292208
-1337.126056805379,17662.884910450568,-24132.66439827256,-43994.20100381387
-1642.6073482760607,17545.80647299367,-25020.922722926465,-43866.32667378506
-1916.4162178535723,17418.82621274307,-24927.9841694813,-44039.70915552487
-1627.8104934466471,17456.17597772789,-23825.707891667837,-44277.66582699607
-1330.1523125353233,17525.75695821726,-23697.140657560907,-44176.50183159135
-1344.323318519988,17517.12918485751,-24166.750808566907,-44000.61595447254
-1664.243836908798,17402.39768056842,-25050.20350816292,-43875.82616517856
-1923.2782034013517,17275.75269648465,-24906.817067482123,-44064.58664710363
-1630.6044615035607,17309.2356096787,-23815.604903174037,-44293.647324281614
-1349.3077575335217,17372.73691567623,-23722.107556117484,-44183.92261075051
-1370.8548391884374,17364.265604527667,-24193.639957146643,-44003.07464636262
-1692.183517477932,17247.343629281953,-25077.450284653936,-43881.03412163664
-1927.7038488035023,17135.47314828314,-24858.98433434777,-44072.58857161863
-1617.1934148303767,17187.396250652822,-23778.858635289507,-44284.08077765474
-1346.1785133097785,17259.122998609902,-23724.34273056301,-44164.70011051895
-1378.6555980033395,17250.338763038966,-24214.807059145816,-43987.316666521634
-1709.4837676863394,17131.24866858109,-25082.814703323213,-43874.99915063372
-1931.6154040831807,17015.734853236063,-24812.8056303031,-44085.55258340271
-1606.218708302821,17060.997135758058,-23754.22701289976,-44294.988428948935
-1334.488550959653,17125.146642344793,-23720.274713072147,-44168.29874137625
-1366.8538769309375,17113.121403827834,-24226.47466975149,-43988.72482642232
-1707.3603519630851,16992.779611680464,-25109.413279225028,-43881.01176989219
-1911.9458689625108,16885.044203405883,-24774.76296124017,-44098.96363007589
-1574.5909898985612,16935.045055752405,-23729.48363178773,-44291.56861204728
-1321.6362978978514,16995.104193103816,-23740.659504015388,-44164.11896516312
-1374.31935957901,16979.726192918562,-24266.28312662639,-43986.80257639916
-1725.3758579940627,16854.08703733528,-25123.897209632065,-43884.56569726059
-1910.5153573173711,16750.30788782929,-24739.491908489694,-44114.45338898342
-1565.1585537384217,16811.059929258816,-23719.42534678285,-44297.089492927735
-1325.7713706220832,16870.13558985419,-23756.37278036747,-44161.83908722867
-1392.424272587809,16848.879080877196,-24298.38023166421,-43985.148547309465
-1753.6508147300262,16725.63156195063,-25140.43750052899,-43894.333409587554
-1918.114950432176,16639.554994053244,-24689.1781317208,-44131.8653979141
-1568.6230741289944,16701.73754712791,-23704.337919275516,-44304.06323719779
-1334.8461788709378,16768.41280083809,-23763.68180080436,-44161.01207268382
-1400.8732319919147,16759.69562050052,-24312.14890624868,-43978.59948618406
-1763.530285779272,16642.348962110158,-25160.17409088303,-43894.91455494339
-1904.0780549142428,16574.690231643945,-24636.003331661625,-44137.38627879456
-1540.5939865820394,16658.509273351345,-23675.571224161533,-44288.52877480135
-1325.3690392218875,16727.531460229333,-23774.611803843,-44138.660328228514
-1412.987877486691,16711.125279799136,-24351.756197423485,-43967.35655872304
-1785.59145755666,16592.884551630563,-25174.5909660567,-43895.49570029923
-1903.2510403693964,16533.786539290733,-24594.563197441483,-44148.808020211225
-1538.157646436411,16614.453985029933,-23676.509997428657,-44295.16724290458
-1328.2524142566222,16686.292491709293,-23800.495123922246,-44139.04030788426
-1416.5865083439958,16681.39745967358,-24382.847473960814,-43960.09224177507
-1790.7323587813803,16562.642641382532,-25179.106018436672,-43892.6123252645
-1892.9021826865887,16491.92172192594,-24550.75377830908,-44153.79245922476
-1525.148931163422,16568.00706005181,-23657.801587319565,-44288.19349863452
-1328.45357995672,16635.48697656238,-23801.925635567382,-44134.70406945993
-1429.3717061724317,16624.08758689017,-24408.909607995705,-43959.30993071913
-1810.379542157596,16500.705957496877,-25195.914530267062,-43907.610345794
-1890.197621607497,16439.573936411613,-24509.67127200023,-44175.875982746606
-1513.213099624288,16517.805042005188,-23641.976552245207,-44291.03217018034
-1328.9453183347366,16576.8136473672,-23804.65254839093,-44131.30660430272
-1444.2803197241212,16551.13149298805,-24438.704483354628,-43961.723919120304
-1829.5349871557935,16429.69446536237,-25203.35766117068,-43924.620023324496
-1886.2190110944523,16378.777191493178,-24454.015428306517,-44198.183023713
-1502.216041352277,16462.573881456123,-23623.983397958684,-44300.35284761821
-1332.5886526809518,16520.26373389527,-23816.76719388571,-44139.73321196237
-1454.8750465959367,16499.878942952033,-24466.86768136832,-43965.2778464887
-1838.4086297045503,16382.554636306124,-25195.48984712241,-43933.40425889543
-1879.6028947356813,16342.09797884202,-24407.74731728403,-44211.169387241534
-1504.3618088199864,16422.43014841439,-23628.4760985942,-44297.71534177248
-1341.1717225517896,16429.44859617336,-23828.323045769102,-44124.15404607702
-1472.1752968043445,16175.48807567216,-24485.956071133147,-43950.70450910384
-1839.79443786078,15707.844878178226,-25161.582250783715,-43924.8211890246
-1843.616586162637,15367.941900246373,-24341.04971182939,-44198.92063128002
-1457.5349041861182,15199.320340075534,-23584.130237594876,-44265.081794867736
-1306.4147599237872,15025.379064724337,-23801.635062889465,-44089.91117357149
-1456.5067239411742,14804.633236483722,-24491.678117713705,-43910.58312780656
-1841.9178535840335,14538.222794320918,-25159.39177982709,-43895.22747936576
-1833.8712255801236,14403.03944385522,-24287.338469903287,-44172.70203503395
-1456.5514274300847,14401.810097910178,-23592.065106876507,-44231.19655027349
-1319.0211437965804,14377.714917387357,-23836.682598195388,-44054.215437676365
-1481.965360875769,14272.661718447414,-24541.589563082405,-43879.06716812458
-1869.298740541785,14088.371585413408,-25164.242108373892,-43884.006903649206
-1837.2239872484192,14015.907229889302,-24257.364780588723,-44167.24820938685
-1458.3619187309646,14064.343460123951,-23598.10007787944,-44210.63294537461
-1328.0736003009797,14078.715631808716,-23851.121825113514,-44031.796637987696
-1496.4939947717185,14001.53505820454,-24583.81200835848,-43861.85632489399
-1880.161688347064,13835.998038768535,-25165.9408409525,-43881.19058384784
-1823.0529812637544,13786.421869566664,-24222.764280171905,-44170.332750121685
-1442.8721598234367,13857.522768678997,-23599.642348246856,-44199.09944523567
-1324.1843967657562,13886.98236787109,-23884.20240690737,-44023.258271605766
-1505.0994163870116,13832.2652974445,-24632.292942082044,-43854.48024922374
-1892.008112908377,13695.89730452267,-25171.01468694385,-43884.342179816034
-1824.9305277980004,13676.585397313283,-24203.1618002846,-44175.652465302046
-1452.9527965727802,13761.611433221273,-23635.71806379772,-44200.59701211417
-1346.7820104100715,13804.593837808829,-23917.73002359033,-44026.72279199634
-1545.2207976842878,13753.76597091746,-24680.50565487214,-43865.16438307338
-1928.1955871815192,13621.801271653329,-25173.85335848968,-43907.8115114941
-1827.165702243531,13614.089919816248,-24171.60113711371,-44193.22093644392
-1446.6496046363836,13708.749557584471,-23629.504278839147,-44199.144148724576
-1345.485609231664,13747.418075492154,-23937.64542790001,-44022.18538787191
-1545.6454808289386,13690.018795730924,-24714.256788999654,-43859.84466789301
-1915.6339067976364,13560.937471501527,-25151.16633786754,-43918.56270057711
-1801.7964722867573,13554.991907476417,-24112.72664221843,-44204.95560228296
-1439.2735289661323,13636.441664271551,-23626.844421248963,-44200.10527373615
-1355.3650802809098,13674.640795545674,-23947.97193383836,-44018.60910875906
-1574.6803968763825,13614.536954705352,-24745.70569344827,-43851.552170700095
-1937.1586367080968,13488.964854355438,-25128.21109631194,-43918.00390696572
-1795.6050390726375,13490.14949681157,-24076.852092367662,-44205.87202380563
-1435.09375275299,13575.64491935312,-23643.831747035,-44191.32103816522
-1359.1201733494013,13624.416425754598,-23974.86108241809,-44007.76851269824
-1590.3489697395528,13576.360175175689,-24781.55789155458,-43847.68531890933
-1950.748497336924,13457.85122607365,-25108.429802468992,-43926.87754951448
-1791.3135041372186,13468.557711667743,-24031.165126701013,-44206.47552090592
-1432.9479852852803,13563.038535480326,-23618.66368277832,-44174.177250168
-1367.2338565866778,13604.076338300269,-23970.92717539396,-43991.719960179325
-1601.7707111562147,13548.35343937319,-24794.231330660743,-43835.95065307029
-1948.938006036044,13431.923202505495,-25070.83416829517,-43930.69969781634
-1766.6595300030149,13440.685086331974,-23980.896053421027,-44209.20243372946
-1413.4572641202528,13513.976456400927,-23619.60245604545,-44169.34927336565
-1358.5390279935632,13525.19703211749,-23995.312928594703,-43991.67525669042
-1606.822205403114,13443.881385789084,-24824.897924053425,-43832.50848442417
-1947.52984613536,13308.273352178736,-25045.0626069382,-43935.81824729661
-1749.7169077058925,13312.766052814251,-23951.92819260695,-44209.71652385194
-1407.5340518395965,13386.03507113875,-23635.6286568199,-44156.25115111484
-1362.160010595323,13406.4645655709,-24018.55874282822,-43974.79968962666
-1630.5821097591056,13330.558041400676,-24868.1709013189,-43825.266519220655
-1956.2693782173849,13207.534039918666,-25026.84593520712,-43945.585959623575
-1738.6751459449704,13210.752691120231,-23915.67366310044,-44208.17425348452
-1405.678857049806,13269.783648226698,-23645.10579646895,-44141.20842709642
-1373.2241241007,13263.01106965674,-24045.80551931924,-43960.74044236427
-1646.8541797225691,13157.667298038878,-24902.21260812433,-43817.62222261694
-1962.460811431505,13020.29347661656,-25004.449487262904,-43956.06892777312
-1728.8403783846354,13031.089369188472,-23889.52212208773,-44211.70582910846
-1413.770188542627,13089.047442561085,-23646.133976713896,-44139.24147358436
-1389.8538219754485,13087.035785560109,-24058.32249621421,-43966.06015754464
-1670.7928980342028,12990.520953002091,-24926.352492136062,-43827.792266344106
-1974.8660296042003,12865.574701496924,-24960.729475108325,-43977.21367802783
-1723.274794015264,12885.467754062149,-23857.380313561003,-44230.99538457339
-1401.543784325574,12950.690144382734,-23666.29525021258,-44144.963520164914
-1388.4009585858537,12952.143007772327,-24088.49735122888,-43963.73557612128
-1678.884229527024,12851.895433890277,-24965.55745191067,-43826.317051210055
-1976.9223900940883,12727.530327740948,-24951.140576737,-43987.718997921824
-1716.4575119563954,12753.257185609003,-23847.99258088977,-44228.447285705486
-1413.1666914423338,12822.569945164912,-23696.87243662744,-44132.98298513687
-1408.5175285956298,12842.39594249677,-24136.7994709968,-43951.01743352621
-1711.7636456207808,12761.795551990934,-25017.055871135697,-43820.3938389294
-1981.7727186408904,12662.240882186996,-24921.479811844805,-43996.0338468592
-1692.988180278323,12706.31852225286,-23818.48827820877,-44228.71550663895
-1393.1842318992892,12783.81202027941,-23695.151352304383,-44122.61177570961
-1405.164766927334,12792.52920061698,-24151.372808381657,-43946.48002940178
-1712.858881099091,12688.258312732973,-25023.33671132764,-43821.39966742989
-1966.7746981113792,12564.563758917304,-24868.90850888592,-44004.63926847449
-1666.143735187499,12584.233294037977,-23775.0141352432,-44223.954585069965
-1378.1862113697782,12633.295373117371,-23681.27091899764,-44109.55835694771
-1399.7556447691495,12615.011646152932,-24154.25618341639,-43933.11368621751
-1729.5109307182945,12497.486173806928,-25053.66802855349,-43818.78451332862
-1965.3441864662395,12386.666224797516,-24838.688950382348,-44011.41184704445
-1644.7754674882256,12418.964495535434,-23750.18134715335,-44217.740800111394
-1366.384490297376,12473.390993284109,-23709.03178561113,-44097.66722889748
-1394.547688311063,12460.85166464468,-24187.135599510148,-43917.31100288761
-1730.270890029775,12343.63911672105,-25066.52028161529,-43809.55324286858
-1951.9778432819655,12233.914403189949,-24801.40624063089,-44019.92786168193
-1623.8095311891475,12270.90654026348,-23746.87328897396,-44222.05468679126
-1360.1483535943453,12331.636229948548,-23724.588599752024,-44095.54381317423
-1401.2308599032,12323.947229855925,-24217.31045452481,-43917.51216858771
-1742.0055558688111,12214.401330280463,-25090.21313073792,-43811.363734169456
-1945.6522996011136,12119.294657623132,-24755.13812960841,-44031.90839670997
-1604.8999553799576,12171.284815226176,-23717.726614204243,-44220.266547234845
-1352.1017255904349,12235.076693901625,-23738.46903305877,-44085.73139735835
-1402.840185503982,12230.718103732836,-24253.60968752023,-43911.65601154042
-1752.5332275072608,12128.0118379607,-25123.293712531773,-43817.97985052822
-1928.1508836926084,12050.697153889794,-24722.59398968148,-44047.75578352878
-1584.0457778031562,12109.169317384878,-23715.84906767,-44224.98276531491
-1346.1561615653231,12169.608434392028,-23754.674047788867,-44084.32323745766
-1408.5398803400851,12164.847512823048,-24284.723315802017,-43904.6599155259
-1766.9948061698444,12059.77196213865,-25134.179012081506,-43814.82825456003
-1931.168369194075,11975.572940775508,-24676.616451336915,-44047.86754225106
-1588.8514028610473,12022.511604131652,-23691.932701102814,-44210.65529711906
-1361.9811966396803,12079.329738537042,-23758.093864690527,-44064.74310931482
-1437.328927198521,12066.611595941971,-24312.215961482045,-43889.37132231848
-1795.9850187283778,11955.70223995474,-25143.94672440848,-43807.49688237869
-1938.499741375416,11875.705346549195,-24634.2151921052,-44051.063841708165
-1578.077862033589,11935.563318200508,-23684.489570199203,-44203.65920110455
-1355.610949469918,11998.70699628675,-23769.739123551743,-44050.63915856352
-1438.804142332571,11987.329958359,-24340.356807751275,-43874.59681923352
-1808.2561264343412,11876.577064582953,-25166.767855497343,-43806.66986783384
-1926.0721714582648,11810.013569595048,-24592.97622358516,-44062.37382440255
-1555.21202745581,11882.276759419055,-23658.29332569758,-44197.7806923128
-1343.8539318864266,11952.394181775357,-23773.78478929815,-44036.35639385658
-1434.0879242525011,11944.526367727083,-24363.2002905846,-43854.48024922374
-1816.570975371716,11837.43916004171,-25171.68523927751,-43795.65045781738
-1917.5338050763376,11785.09137452738,-24549.747949808592,-44055.75770804378
-1540.929262748869,11859.075648674449,-23653.688866339788,-44179.49696534837
-1344.8597603869152,11920.587649415453,-23793.5660831411,-44023.593547772594
-1450.9858430607133,11908.87533532087,-24399.32070962437,-43849.76403114367
-1829.6467458780703,11798.90475260076,-25168.757160753867,-43800.836062531
-1903.4522060694944,11743.003039718038,-24486.917196144725,-44069.39227216152
-1524.478378829763,11816.3391132759,-23633.415834118827,-44178.3793781256
-1342.3340132634655,11881.15917219629,-23800.785696600164,-44013.91524242345
-1462.9440263443023,11863.613052798872,-24438.033931020967,-43845.09251655251
-1852.4678769669388,11751.831978777884,-25198.261463434872,-43812.90600453687
-1911.9905724514213,11709.430719546166,-24460.229213265087,-44081.35045544511
-1529.6416317989388,11788.891171084782,-23644.59170634648,-44174.28900889028
-1351.02884185658,11849.57615728094,-23836.90611563994,-44002.96288764034
-1478.7243579297494,11830.06308437146,-24489.219425823623,-43828.5969291445
-1864.8507433951788,11715.51039403801,-25198.50733262388,-43800.97017299774
-1896.1431856326087,11673.891445862228,-24419.057299978413,-44080.29992345571
-1521.4608933282964,11748.859196765328,-23631.38182537339,-44165.86240123063
-1365.736289708172,11802.793956135984,-23838.51544124072,-44000.32538179462
-1496.158718604889,11787.058328039448,-24497.55662650545,-43829.2451297337
-1876.6971679564915,11679.41232674269,-25174.61331780116,-43815.09647549349
-1885.816679694257,11640.408532668178,-24356.96415388157,-44098.91892658698
-1500.2043843512995,11715.063359148904,-23614.72977575419,-44168.54461056526
-1347.385507510365,11763.23136845009,-23845.176261088403,-43997.75493118226
-1498.8409279395255,11727.692094766153,-24532.22418215563,-43829.84862683399
-1881.0557581252765,11606.21036365156,-25178.167245169552,-43826.87584482144
-1877.6359412236145,11563.47382825301,-24311.321891703832,-44115.54862446173
-1495.4658145267742,11636.519329132954,-23605.65496750533,-44167.69524427596
-1354.64982445834,11678.764126153485,-23854.116958870527,-43991.07175959012
-1512.8554717130032,11640.073256501348,-24566.310592449976,-43822.472551163744
-1899.6077060231812,11516.490461407957,-25184.31397489476,-43834.63190014743
-1866.258903295863,11486.852048260218,-24269.39001910568,-44123.48349374336
-1486.122785344456,11559.562272973331,-23610.86292396342,-44164.7224622634
-1358.471972760197,11601.471793827031,-23871.752485245765,-43985.86380313204
-1531.4074196109082,11566.223092821014,-24601.71575566718,-43816.81755981655
-1918.0925986877205,11449.79285595332,-25170.23237588792,-43841.40447871738
-1860.201580548475,11429.519823732357,-24220.193829559543,-44128.57969147917
-1484.088776599023,11504.37581591318,-23610.684110007776,-44157.03346217078
-1365.2669030746106,11544.541900699363,-23889.25390115427,-43981.03582632969
-1543.857341272514,11503.392339157146,-24640.98777067516,-43813.68831559281
-1921.8253400117565,11385.419831922036,-25169.31595436525,-43846.165400286365
-1840.5767489167156,11365.951462501462,-24183.93930005304,-44133.45237177043
-1463.5698751890511,11439.30988780378,-23618.037833933573,-44151.15495337903
-1361.489458261664,11479.207751656504,-23902.53083736072,-43974.19619252637
-1555.6814140893716,11433.811358667775,-24670.670887311804,-43811.47549289173
-1933.358840150695,11318.76692995631,-25148.372369810622,-43854.770821901664
-1833.60300464666,11308.887458907064,-24126.2941511028,-44139.24147358436
-1461.66997691035,11387.96793078994,-23602.3692610704,-44141.45429628543
-1363.456411773731,11428.02225685385,-23905.995357751293,-43961.54510516466
-1568.0642805176117,11386.291549955791,-24693.84964631196,-43794.778739783615
-1948.6027298692145,11271.269472988784,-25129.75336667936,-43851.261598022174
-1828.0150685328329,11269.101353776618,-24082.462380225945,-44135.84400842715
-1454.2268460067328,11353.590947817678,-23597.42952554578,-44123.17056932099
-1365.6245309858955,11395.992207049396,-23923.20620098188,-43940.37800316549
-1583.799908614148,11354.552072829256,-24725.186792038297,-43780.04894018757
-1954.7047561055133,11249.94590877842,-25104.2276745114,-43855.620188190966
-1813.9781730149,11255.824417570164,-24052.846318822663,-44141.87897943008
-1447.2307499922215,11342.035095934283,-23610.661758263323,-44118.92373787448
-1371.2124670997223,11381.910608042552,-23938.360683722574,-43938.29929093114
-1599.4461297328628,11329.652229506044,-24753.86408017446,-43782.30646637756
-1959.1751049965744,11218.184079907429,-25079.68545909947,-43869.41121451989
-1801.818824031213,11223.012056709777,-24000.453829819424,-44151.49022954586
-1441.7098691117608,11306.205249572427,-23602.39161281486,-44115.34745876163
-1376.5321822800854,11346.01370644733,-23957.292611276225,-43930.65499432743
-1622.982516644301,11299.387967513558,-24789.135132924934,-43776.31619886353
-1970.10510803522,11201.196754121394,-25050.739950029845,-43873.54628724412
-1787.9383907244674,11214.02665543874,-23963.774617168263,-44153.1219068911
-1438.021831276635,11292.034243587765,-23613.835705975976,-44110.96651684839
-1381.2484003601553,11326.880613193583,-23981.90188192152,-43930.275014671686
-1628.793970202681,11277.237388758347,-24812.62681634746,-43777.36673085293
-1968.2052097565188,11179.02382362173,-25034.84785972212,-43890.93594443035
-1767.7994689702357,11202.984893677818,-23921.73098584783,-44162.59904654015
-1424.0519909920683,11288.27915051927,-23601.54224652556,-44101.08704579915
-1381.1366416378787,11325.695970737455,-23984.852312189618,-43918.92032848839
-1644.1049151545662,11268.453153187413,-24826.417842676383,-43773.18695463979
-1963.8466195877336,11172.318300285138,-24989.80909464468,-43901.44126432434
-1745.8053524262134,11193.999492406783,-23882.25780513976,-44167.27056113131
-1409.8809850074035,11273.526999178768,-23600.067031391507,-44097.19784226392
-1375.2804845905882,11303.7689094268,-24001.683175764465,-43916.52869183168
-1646.138923899999,11242.435722641436,-24858.783168647667,-43774.63981802938
-1967.4452504450385,11145.54091042768,-24966.11624552205,-43914.69584878634
-1733.1319133200543,11178.01799512124,-23864.778740975707,-44172.67968328949
-1407.735217539694,11261.904092062008,-23613.545133298056,-44092.325161972665
-1375.2581328461329,11292.57068545469,-24020.5703998292,-43911.253680140224
-1657.985348461312,11229.538766090724,-24890.09796262956,-43772.00231218366
-1962.8631428317003,11134.432093433392,-24934.7343963068,-43924.8211890246
-1710.0202095532668,11168.987890361295,-23816.409565974423,-44171.51739257781
-1395.933496467292,11250.75057157881,-23614.95329319874,-44081.32810370065
-1381.4719178047085,11283.00413882782,-24036.484841881374,-43898.02144742268
-1684.114537729566,11216.351236862092,-24921.010425211243,-43764.11214639094
-1971.647378402636,11125.223174717805,-24894.814180709625,-43926.25170066973
-1702.9123548164791,11159.801323390166,-23788.62634761648,-44167.85170648715
-1394.8606127334372,11235.12670220455,-23627.827898005,-44072.901496041006
-1382.9471329387586,11260.31711820568,-24065.877385840107,-43895.07101715458
-1680.6500173389934,11195.83233545212,-24941.439919643395,-43762.83809695698
-1952.000195026421,11109.688712321367,-24856.547994202137,-43938.47810488679
-1674.793860291703,11145.652669149957,-23766.18519618335,-44177.820584514215
-1380.5331445375857,11223.79436776571,-23648.30209592606,-44074.1531937305
-1384.8246794730044,11248.783618066744,-24083.15528430406,-43891.31592408609
-1688.3837209205296,11181.527219000724,-24962.539966409204,-43764.20155336876
-1942.2548344439072,11100.502145350236,-24815.778412315656,-43953.67729111639
-1650.8774937245244,11147.910195339942,-23726.846125942007,-44178.71465429242
-1365.8927519193594,11224.286106143729,-23637.95323824325,-44059.66926332346
-1384.1764788838004,11242.391019152525,-24101.41665952405,-43877.860173924
-1713.887061344035,11162.550587958169,-24989.8985016225,-43761.67580624531
-1950.6367386146476,11082.129011407971,-24784.95535671179,-43957.81236384063
-1641.9367959424014,11125.24552646226,-23713.859762413475,-44173.909029234535
-1367.0773943754905,11195.698224985388,-23665.5352909011,-44054.59541733211
-1394.4806330776971,11212.149108904494,-24133.67022677305,-43873.83685992204
-1727.8792533730573,11135.795549845168,-25008.69631870941,-43763.35218707946
-1952.0225467708765,11061.386592553448,-24739.84953640098,-43976.74429139427
-1631.923214426424,11114.181412956885,-23683.662555654355,-44178.64759905906
-1368.2396850871664,11186.31049231416,-23655.477005896213,-44052.31553939766
-1407.7128657952387,11203.498983800291,-24147.125976935145,-43872.02636862116
-1744.5089512478055,11126.25135496275,-25015.91593216848,-43768.984826682194
-1946.9934042684324,11053.786999438644,-24682.427904895296,-43989.99887585627
-1611.471368249818,11108.72758730979,-23642.982380745696,-44180.05575895975
-1358.516676249108,11181.571922489637,-23651.87837503891,-44045.76647827226
-1408.8304530180042,11195.11707962955,-24170.99764001341,-43867.69013019683
-1754.3884222970514,11116.885974035977,-25030.802193975716,-43767.71077724824
-1937.940947764033,11043.102865589008,-24647.82740447848,-43999.02898061621
-1588.7843476276814,11104.212534929817,-23632.85704050744,-44176.52418333581
-1346.9384726212588,11178.97912013282,-23663.03189552211,-44031.12608565403
-1409.9256884963145,11188.858591182065,-24203.765297384896,-43854.45789747929
-1765.3184253356965,11106.894744264451,-25050.80700526321,-43763.64275975737
-1929.648450571114,11044.80159816761,-24597.781848643048,-43996.6373439595
-1579.4189667009075,11104.346645396548,-23617.032005433084,-44157.480497059885
-1348.994833111147,11172.564169474146,-23683.662555654355,-44003.58873648509
-1424.8790055369143,11175.335785786605,-24244.91485892712,-43826.76408609916
-1787.848983746646,11090.086232434063,-25085.474560913397,-43751.01402414013
-1920.484235344438,11036.576156208055,-24570.892700063312,-43994.29041079169
-1553.7591640662151,11102.692616306857,-23607.890141950866,-44141.20842709642
-1332.096914302935,11172.363003774048,-23693.27380577014,-43986.93668686589
-1407.2434791616774,11176.87805615402,-24266.99838244896,-43812.90600453687
-1773.700329506437,11089.460383589314,-25095.73401161838,-43747.16952409381
-1895.6290955101367,11037.246708541716,-24540.85195551538,-44005.82391093062
-1529.7757422656707,11108.01233148722,-23594.25557783313,-44143.711822475416
-1315.1095885169016,11178.509733499255,-23706.52839023213,-43982.51104146374
-1404.7847872715936,11182.667157967944,-24307.90207480217,-43806.33459166701
-1777.6118847861153,11092.7684417687,-25123.07019508722,-43749.695271217264
-1877.6582929680696,11043.304031289104,-24509.71597548914,-44011.88123367802
-1504.4288640533523,11114.58374435708,-23618.50722056713,-44139.19677009544
-1307.5323471465526,11186.534009758712,-23757.468015845778,-43977.41484372793
-1407.7799210286048,11190.60202724958,-24374.48792153453,-43797.88563226291
-1785.814975001213,11102.737319795766,-25138.492898761386,-43748.3765182944
-1861.9226648715337,11061.073668131074,-24462.486739455075,-44015.43516104641
-1485.094605099512,11132.666305621422,-23601.54224652556,-44121.44948499793
-1293.9871900066364,11194.379472062526,-23762.184233925847,-43952.53735214917
-1401.901412236859,11192.12194587254,-24385.999069929014,-43775.82446048551
-1781.724605765892,11099.071633705096,-25138.64936097257,-43733.53495997608
-1845.941167585989,11057.09505761803,-24419.59374184534,-44007.96967839834
-1471.3706340039532,11129.782930586687,-23584.53256899507,-44107.50199645782
-1297.675227841762,11189.730309215822,-23770.454379374318,-43940.6685758434
-1412.89847050887,11185.058794624663,-24413.02232897548,-43766.079099903
-1798.980152485389,11086.979339954774,-25133.329645792204,-43739.65933795683
-1835.234681991897,11050.210720325797,-24358.796996926903,-44020.28548959321
-1450.4046977048754,11127.34659044106,-23575.48011249067,-44105.17741503447
-1284.6665125687734,11188.210390592862,-23779.484484134256,-43935.371212407495
-1417.1453019553785,11178.241512565794,-24440.40321593323,-43762.636931256886
-1792.0511117042438,11084.185371897862,-25128.30050328976,-43745.001404881645
-1803.204632187442,11054.815179683588,-24311.21013298156,-44027.70626875237
-1419.6263455899175,11134.029762033197,-23564.28188851856,-44097.80133936422
-1270.0484716950027,11193.08307088412,-23794.19193198585,-43927.12341870349
-1415.80419728806,11179.02382362173,-24473.26028028253,-43758.770079466114
-1795.4485768614504,11085.749994009731,-25125.283017788293,-43751.03637588458
-1784.362111611618,11062.459476287304,-24266.75251325995,-44034.18827464441
-1402.5049093371522,11139.237718491284,-23560.459740216706,-44091.29698172772
-1252.9270354422374,11196.100556385583,-23808.49704843725,-43917.78038952117
-1410.8868135078924,11174.77699217522,-24513.873399957825,-43752.01985264062
-1799.4495391189505,11072.629520014469,-25123.6289886986,-43761.51934403412
-1763.9102654350122,11048.869615658476,-24223.010149360915,-44048.38163237353
-1379.3037985925434,11128.01714277472,-23556.034094814557,-44086.87133632557
-1246.4673812946537,11186.042271380697,-23808.653510648437,-43904.6599155259
-1416.698267066272,11168.585558961102,-24531.397167610787,-43734.36197452092
-1798.7789867852912,11075.490543304748,-25118.041052584776,-43752.623349740905
-1745.5371314927495,11059.196121596828,-24165.454407388497,-44037.38457410152
-1364.7304612076832,11137.6283928905,-23548.635667399845,-44063.37965290304
-1253.396422075799,11185.818753936142,-23819.89643810945,-43885.86209843899
-1436.256043464666,11161.477704224311,-24546.931630007224,-43723.208454037725
-1816.682734093992,11064.739354221743,-25089.92255806,-43758.70302423275
-1742.9890326248446,11053.8093511831,-24121.689691745007,-44050.52739984124
-1367.546781009052,11132.39808468796,-23542.064254529985,-44070.12987972854
-1259.3196343564553,11183.985910890808,-23831.18406905938,-43891.58414501955
-1450.7846773606154,11154.928643098909,-24590.361069483886,-43729.019907596106
-1825.846949320668,11059.218473341283,-25084.066401012708,-43774.863335473936
-1734.4506662429174,11053.51877850518,-24092.43125825301,-44063.13378371403
-1361.9811966396803,11132.95687829934,-23546.93693482124,-44065.45836513738
-1258.0455849225027,11187.673948725933,-23845.7797581887,-43878.79894719111
-1464.8215728785483,11158.63903267849,-24619.083061108955,-43713.17252077729
-1836.6428418925811,11058.369107051982,-25061.647601324035,-43774.97509419621
-1719.3855904800405,11058.212644840794,-24037.37891165959,-44065.7489378153
-1352.1240773348902,11140.355305714049,-23545.260553987093,-44059.22222843435
-1264.6840530257289,11185.68464346941,-23857.7826449612,-43879.3577408025
-1476.667997439861,11152.805227375657,-24639.9148869413,-43720.72741040318
-1844.041269307288,11054.457551772304,-25036.50188881181,-43791.493033348685
-1706.1310060180433,11058.23499658525,-23977.342126052637,-44072.45446115189
-1332.8792253588708,11143.77512261571,-23527.75913807859,-44045.36414687207
-1254.3128435984663,11187.517486514746,-23862.74473223028,-43860.91755162687
-1476.8691631399588,11153.408724475948,-24657.25984063862,-43702.68955262775
-1835.6146616476367,11062.23595884275,-24992.357193512584,-43788.90023099187
-1680.985293505823,11068.360336823504,-23921.663930614464,-44071.985074518336
-1323.9161758322923,11144.311564482638,-23515.93506526173,-44044.15715267148
-1258.5373233005196,11184.947035902384,-23855.927450171406,-43865.09732784001
-1497.0974918720117,11147.15023602846,-24670.78264603408,-43708.724523630684
-1844.17537977402,11056.692726217834,-24944.41270165595,-43803.33945791
-1660.0193572067449,11076.47402006078,-23868.511482299746,-44077.19303097642
-1305.8783180568598,11160.293061768183,-23507.12847794634,-44032.400135087984
-1258.0455849225027,11201.420271565948,-23861.29186884068,-43854.23438003474
-1516.3199921035755,11156.247396021772,-24703.080916772,-43706.64581139634
-1859.7098421704584,11063.934691421353,-24919.021119954723,-43814.67179234884
-1662.1651246744543,11078.731546250769,-23828.993598102763,-44085.48552816934
-1317.5012251736196,11158.34846000057,-23504.55802733398,-44031.3943065875
-1269.8920094838154,11197.039329652707,-23885.945842974885,-43850.61339743297
-1531.183902166355,11146.099704039065,-24737.43554799981,-43705.03648579556
-1859.2851590258076,11057.296223318128,-24890.433238796384,-43830.13919951191
-1646.630662278016,11082.129011407971,-23790.950929039827,-44097.5107666863
-1310.5051291591085,11165.322204270626,-23510.637701825824,-44027.25923386327
-1273.580047318941,11203.655446011478,-23906.39768915149,-43840.24218800571
-1539.990489481746,11156.15798904395,-24762.80477795658,-43694.4641106682
-1851.9984903333773,11067.37686006747,-24865.73456117327,-43831.48030417923
-1619.98738288729,11094.53422958067,-23754.51758557768,-44087.81010959269
-1296.3117714299883,11176.185152075906,-23519.17606820775,-44010.49542552178
-1275.9940357201142,11215.16659440596,-23912.96910202135,-43823.85835931997
-1563.504524648729,11162.148256557974,-24775.679382762835,-43684.45052915222
-1864.0684323392431,11077.77042123919,-24831.9610753013,-43835.88359783693
-1608.185661814888,11116.39423565796,-23728.43309979833,-44086.06667352518
-1289.069806226469,11200.21327736536,-23526.529792133548,-44000.727713194814
-1273.3788816188433,11235.93136500494,-23942.98749482483,-43819.81269357356
-1567.9301700508795,11180.320224800138,-24811.933912269345,-43680.04723549452
-1865.3871852621064,11094.24365690275,-24797.271167906663,-43842.20914151778
-1598.5297082101952,11133.761541099731,-23697.92296861684,-44085.37376944706
-1291.7296638166504,11209.243382125303,-23534.62112362637,-43991.11646307904
-1286.1193759583684,11238.658277828488,-23959.192509554927,-43810.35790566896
-1590.2595627617316,11180.253169566771,-24838.35367421552,-43682.03654075105
-1867.0635660962544,11095.383595869973,-24769.867929204454,-43859.7552609152
-1585.7892138706702,11135.035590533686,-23668.418665935835,-44094.02389455127
-1289.7180068156729,11210.539783303711,-23544.388835953338,-43988.8812886335
-1296.647047596818,11238.74768480631,-23991.781352970764,-43808.43565564581
-1610.8455194050694,11172.139486329495,-24872.12716008749,-43686.55159313102
-1864.8507433951788,11096.076499948083,-24726.594951938983,-43873.2557145662
-1568.891295062458,11139.572994658112,-23643.67528482381,-44093.7556736178
-1284.0183119795695,11216.239478139816,-23551.831966856957,-43975.11261404903
-1298.7257598311617,11242.055742985696,-24011.205018902427,-43789.99546647018
-1623.3848480444967,11175.581654975613,-24895.06004989863,-43673.6099330914
-1859.4863247259048,11108.124090209496,-24685.735963074683,-43871.3558162875
-1551.3004721761313,11159.06371582314,-23615.646197276856,-44086.60311539211
-1274.2729513970555,11237.473635372358,-23540.767853351572,-43968.56355292363
-1294.9930185071253,11260.004193783308,-24020.32453064019,-43792.00712347116
-1620.590879987583,11194.044195895696,-24901.83262846859,-43681.58950586194
-1849.472743209928,11121.781006071687,-24644.005256176624,-43893.59580202053
-1535.6318993129612,11164.025803092218,-23591.305147565028,-44098.42718820896
-1269.713195528173,11234.32203940416,-23560.77266463908,-43970.03876805768
-1304.716027345184,11255.980879781351,-24051.63932462208,-43790.50955659265
-1648.307043112164,11183.605931235068,-24932.521573605725,-43690.4631484107
-1858.4134409920505,11114.58374435708,-24610.29882553802,-43910.270203384185
-1528.8816724874584,11172.519465985237,-23581.24686256014,-44101.98111557736
-1271.0095967065809,11248.828321555651,-23577.447066002736,-43967.20009651186
-1314.9531263057145,11271.113010777595,-24088.89968262907,-43792.23064091571
-1663.126249686033,11200.369739576548,-24951.431149414915,-43697.95098280322
-1850.1209437991315,11137.941317312876,-24567.94226979521,-43926.855197770026
-1505.0770646425565,11195.7429284743,-23557.017571570585,-44111.10062731512
-1262.9629687026702,11270.733031121854,-23589.941691153253,-43973.83856461508
-1327.35834447841,11285.060499317706,-24119.05218589928,-43796.70098980677
-1684.0474824962,11211.322094359648,-24970.854815346574,-43707.74104687465
-1854.792458390291,11151.240605263783,-24532.447699600187,-43945.85418055704
-1507.4239978103635,11211.322094359648,-23551.116711034385,-44112.24056628234
-1272.4624600961758,11287.027452829774,-23600.71523198071,-43963.355596465546
-1343.384545252865,11300.863182647608,-24147.461253101977,-43788.27438214712
-1705.0357705397334,11222.587373565124,-24995.3523272696,-43711.38438122087
-1847.4163827200396,11167.713840927345,-24492.61689098083,-43956.35950045103
-1491.6436662249168,11231.013981224774,-23532.296542203017,-44108.28430751376
-1273.580047318941,11299.633836702567,-23619.91538046782,-43953.342014949565
-1346.2679202875995,11308.842755418153,-24183.46991341948,-43776.91969596383
-1709.886099086535,11228.667048056966,-25006.259978563783,-43712.77018937709
-1844.3541937296625,11173.502942741268,-24455.84827135185,-43973.83856461508
-1485.9216196443583,11237.853615028098,-23525.255742699595,-44118.34259251864
-1272.6412740518183,11305.937028638964,-23631.80650851804,-43963.13207902099
-1355.9238738922922,11307.7698716843,-24213.93534111206,-43786.955629224256
-1726.5828521946494,11216.261829884272,-25013.81486818968,-43730.65158494134
-1830.8090365897465,11164.763410659243,-24404.86394224929,-43996.972620126326
-1462.5193431996518,11231.885699258532,-23514.638664083323,-44124.37756352157
-1262.9853204471256,11301.75725242582,-23639.674322566312,-43961.656863886936
-1365.333958307977,11305.691159449954,-24242.23264959248,-43788.006161213656
-1740.9997273683225,11223.190870665416,-25022.39793806052,-43736.3736315219
-1825.2211004759197,11179.940245144397,-24357.053560859396,-44002.62761147352
-1451.6116919054618,11249.32005993367,-23490.61053879387,-44114.25222328332
-1262.9629687026702,11317.42582528899,-23650.984305260696,-43944.80364856764
-1378.5885427699736,11316.71056946642,-24279.26949015492,-43766.41437606984
-1765.0278526577774,11225.850728255598,-25045.129662171563,-43726.09182907246
-1830.585519145193,11187.629245237023,-24327.213982011555,-44002.64996321797
-1452.505761683674,11264.22867348536,-23507.262588413072,-44105.3115255012
-1276.9328089872372,11335.016648175317,-23691.195093535796,-43934.90182577394
-1398.8839267353926,11337.05065692075,-24318.89913307418,-43757.92071317681
-1780.4729080763948,11246.682554087944,-25046.29195288324,-43729.93632911877
-1822.0024492743555,11208.572829791645,-24285.885606513693,-44014.47403603483
-1435.1608079863558,11282.46769696089,-23496.958434219174,-44107.81492088019
-1268.8638292388714,11347.712439025932,-23697.431230238824,-43940.825038054594
-1399.2415546466775,11343.286793623782,-24364.496691763008,-43768.76130923764
-1781.143460410054,11254.013926269285,-25059.25596466732,-43750.52228576211
-1793.8392512606683,11229.449359112905,-24239.93041991358,-44031.84134147661
-1408.6516390623617,11304.841793160653,-23491.83988473891,-44108.93250810296
-1254.1787331317346,11363.693936311476,-23712.78687867962,-43938.70162233134
-1394.9500197112584,11357.703668797454,-24387.58604378534,-43765.69912024726
-1779.4223760869952,11265.23450198585,-25052.550441330724,-43759.15005912186
-1777.6118847861153,11237.652449328,-24203.5641316848,-44048.0463562067
-1396.9169732233254,11315.771796199298,-23498.657166797777,-44111.10062731512
-1252.1223726418464,11377.35085217367,-23731.83056495554,-43933.78423855117
-1409.836281518493,11364.967985745428,-24423.527648869476,-43758.32304457701
-1796.566164084216,11272.163542766992,-25044.0120749488,-43762.12284113441
-1770.30286434923,11256.204397225903,-24145.15902342308,-44049.85684750758
-1389.8538219754485,11339.15172089955,-23472.349163573883,-44092.43692069494
-1255.6315965213296,11395.947503560485,-23729.103652131995,-43915.25464239772
-1416.8547292774597,11376.210913206449,-24447.4216636922,-43750.16465785082
-1797.7284547958918,11281.975958582874,-25028.72348174137,-43768.40368132635
-1751.5050472623168,11268.073173531671,-24099.896740901084,-44055.57889408814
-1375.973388668703,11349.858206493642,-23478.20532062117,-44087.78775784824
-1251.4071168192766,11415.5946869367,-23744.280486617143,-43908.16913940539
-1431.1374939844006,11399.88141058462,-24482.849178653854,-43744.50966650363
-1813.106454981143,11301.913714637009,-25023.359063072094,-43777.36673085293
-1744.7995239257243,11291.073118576183,-24060.043580537276,-44068.11822272757
-1369.6254932433956,11372.098192226673,-23473.10912288536,-44091.22992649436
-1261.2195326351564,11424.758902163376,-23768.88975726244,-43915.63462205346
-1450.091773282501,11405.715215887454,-24514.633359269304,-43751.99750089616
-1822.0695045077207,11314.47539502089,-25006.1035163526,-43798.17620494082
-1728.5498057067164,11313.96130489842,-24012.501420080836,-44090.42526369397
-1352.1687808238007,11396.908628572062,-23471.142169373292,-44095.119130029576
-1249.9319016852262,11450.441056542524,-23775.260004432203,-43912.997116207735
-1456.7525931301825,11420.065035827762,-24548.9432870082,-43750.99167239567
-1829.9596703004445,11323.751368969844,-24993.27361503525,-43807.83215854552
-1712.6130119100824,11324.086645136673,-23978.59382374213,-44100.237679509846
-1347.0502313435354,11403.837669353208,-23484.575567790936,-44098.69540914243
-1258.8949512118045,11453.16796936607,-23803.19968500134,-43915.50051158673
-1480.2889800416208,11418.858041627174,-24598.094773065422,-43754.4785445307
-1851.5961589331816,11322.34320906916,-24995.84406564761,-43823.47837966423
-1715.764607878281,11329.205194616938,-23948.776596638752,-44108.70899065841
-1349.1959988112449,11411.034931067818,-23498.925387731244,-44089.57589740466
-1276.2399049091227,11454.687887989032,-23836.392025517467,-43908.37030510548
-1503.0654076415788,11419.819166638752,-24642.64179976485,-43747.79537293856
-1854.4124787345504,11328.445235305457,-24992.80422840169,-43830.34036521201
-1697.7938053362138,11337.318877854212,-23933.77857610924,-44116.6662116845
-1338.4448097282425,11422.344913762205,-23516.627969339846,-44084.74792060231
-1272.909494985282,11467.338975350736,-23856.709761227343,-43900.05545616811
-1507.2004803658106,11427.172890564549,-24673.19663443525,-43743.57089323651
-1855.4406589794944,11332.759121985331,-24968.59728915659,-43844.22079851876
-1688.9872180208229,11344.918470969018,-23892.42784886692,-44130.770162435794
-1336.1872835382562,11432.447902256,-23516.315044917472,-44089.3076764712
-1280.06205321098,11474.290367876336,-23881.25197663927,-43909.89022372845
-1532.1450271779331,11429.36336152117,-24720.962312336247,-43759.3288730775
-1878.9323424020224,11336.24599412036,-24960.77417859724,-43867.57837147455
-1686.595581364105,11356.407267619046,-23863.325877586118,-44137.02865088328
-1344.323318519988,11439.242832570417,-23533.481184659147,-44085.55258340271
-1301.2515069546112,11481.666443546586,-23902.86611352755,-43907.09625567153
-1561.4258124143855,11438.773445936851,-24744.43164401432,-43759.01594865513
-1893.5056797868824,11351.132255927594,-24923.84909675707,-43880.60943849199
-1684.561572618672,11377.730831829407,-23824.366787000512,-44150.32793883418
-1347.7207836771947,11462.510998548389,-23533.9058678038,-44086.938391558935
-1317.4565216847088,11497.402071643124,-23922.51329690377,-43905.59868879303
-1586.3256557375976,11447.714143718977,-24780.172083398356,-43761.25112310066
-1908.2801828718405,11358.06129670874,-24906.906474459945,-43903.45292132532
-1675.754985303281,11388.34791044568,-23796.42710643138,-44169.14810766556
-1345.9326441207702,11471.675213775065,-23545.79699585402,-44091.40874045
-1317.7247426181725,11509.22614445998,-23950.296515261714,-43908.75028476123
-1602.2624495342316,11456.990117667929,-24822.014549018688,-43766.548486536565
-1915.4103893530837,11369.036003236297,-24879.369125291007,-43911.65601154042
-1670.4799736118289,11403.100061786185,-23771.54961485262,-44167.29291287577
-1351.6323389568734,11487.075565704772,-23560.05740881651,-44082.13276650105
-1333.3933154813428,11525.453510934534,-23978.75028595332,-43896.434473566354
-1625.955298656857,11471.764620752889,-24847.40613071992,-43757.76425096563
-1918.226709154452,11389.219628479435,-24850.20009877683,-43915.92519473138
-1660.4216886069405,11422.657838184576,-23749.13081516395,-44165.61653204162
-1355.02980411408,11502.18534495656,-23571.76972291109,-44071.985074518336
-1344.0103940976137,11531.063798792817,-24004.924178710484,-43892.72408398677
-1643.9708046878343,11471.630510286155,-24877.692744456857,-43766.50378304765
-1926.9885929809325,11390.136050002106,-24819.06411875059,-43943.39548866695
-1648.3293948566193,11431.754998177888,-23724.45448928529,-44182.425043872005
-1349.285405789066,11513.13769973966,-23583.079705605476,-44081.1045862561
-1351.1853040677672,11544.519548954911,-24034.51788836931,-43903.87760446997
-1660.5557990736722,11485.13096393716,-24910.25923612824,-43778.707835520254
-1923.5687760792705,11406.676340899032,-24787.682269535337,-43964.8755150885
-1635.186569116899,11453.391486810624,-23697.96767210575,-44191.54455560977
-1340.5011702181305,11541.166787286616,-23593.406211543825,-44075.09196699762
-1350.0230133560913,11570.067592867326,-24058.70247586995,-43892.14293863093
-1669.8988282559906,11501.581847856263,-24932.231000927808,-43775.10920466295
-1920.685401044536,11424.714198674465,-24744.252830058675,-43970.44109945787
-1618.9144991534351,11468.74713525142,-23669.9385845588,-44186.917744507526
-1338.2436440281444,11544.921880355108,-23606.794906472554,-44066.91122852698
-1360.2154088277114,11568.659432966642,-24084.161112804548,-43887.02438915067
-1692.4293866669402,11498.765528054895,-24961.780007097725,-43774.30454186256
-1921.4453603560164,11427.731684175931,-24719.598855924472,-43981.77343389671
-1603.536498968184,11479.475972589968,-23662.00371527716,-44189.9799334979
-1331.7616381361054,11555.985993860484,-23617.657854277837,-44061.3009406687
-1364.6634059743174,11572.638043479688,-24114.02304339684,-43879.87183092497
-1705.3486949621076,11497.89381002114,-24986.50103646529,-43775.80210874106
-1919.768979521868,11424.423625996546,-24675.029477480588,-43998.60429747156
-1591.8688883625136,11472.099896919715,-23632.119432940417,-44198.33948592419
-1336.8578358719153,11544.005458832438,-23632.49941259616,-44063.55846685868
-1383.5282782945965,11562.803275919352,-24141.426282099044,-43885.03508389415
-1733.0201545977775,11488.573132583277,-25002.907216895488,-43789.28021064761
-1927.4132761255837,11425.340047519214,-24633.65639849381,-44019.123198881534
-1588.31496099412,11482.672272047075,-23613.276912364592,-44202.49691039288
-1337.6401469278512,11557.081229338792,-23636.455671364747,-44061.07742322415
-1389.384435341887,11573.777982446907,-24160.715837563974,-43882.44228153733
-1734.4506662429174,11496.351539653724,-25017.10057462461,-43790.2860391481
-1907.296706115807,11436.225347068948,-24593.22209277417,-44026.45457106287
-1567.6172456285055,11493.110536707703,-23599.552941269038,-44203.41333191554
-1336.5449114495411,11564.703174198054,-23655.231136707203,-44063.26789418077
-1404.3377523824877,11580.461154039043,-24200.23372176096,-43887.73964497324
-1765.3184253356965,11503.526449623878,-25045.08495868265,-43808.3909521569
-1916.1479969201089,11444.74136170642,-24558.77805456854,-44056.87529526655
-1560.509390891718,11506.879211292173,-23595.23905458916,-44213.65043087607
-1335.449675971231,11577.778944704409,-23678.476950940723,-44060.83155403514
-1413.7925402870824,11586.429069808612,-24240.51156526942,-43886.91263042839
-1777.9024574640343,11504.04053974635,-25068.509586871816,-43815.92349003834
-1910.2694881283628,11452.184492610037,-24522.99291169559,-44073.01325476328
-1549.3335186640645,11519.664409120607,-23585.67250796229,-44219.8865675791
-1337.9754230946808,11590.027700665916,-23693.720840659244,-44062.597341847104
-1424.7448950701828,11595.168601890637,-24270.105274928246,-43884.99038040524
-1791.7381872818694,11513.56238288431,-25073.806950307724,-43820.57265288504
-1899.9876856789213,11464.813228227284,-24476.36717276182,-44082.7586153458
-1530.6921637883383,11531.667295893109,-23574.071952589984,-44215.34916345467
-1328.6323939123624,11601.762366504952,-23706.3942797654,-44053.50018185379
-1427.2482904491771,11605.5398113179,-24303.163504977645,-43875.17796458936
-1806.1550624555423,11516.043426518849,-25094.169389506507,-43822.42784767483
-1899.5406507898156,11467.6071962842,-24444.225364235088,-44094.6050399071
-1530.8039225106147,11533.5224906829,-23565.75710365261,-44216.489102421896
-1346.7596586656164,11596.844982724784,-23716.07258511455,-44050.013309718765
-1449.1753517598331,11601.963532205047,-24327.057519800368,-43871.98166513225
-1828.953841799956,11516.155185241128,-25087.19564523645,-43828.261652977664
-1897.6407525111144,11476.682004533051,-24387.429581574157,-44103.83631036715
-1524.0983991740227,11548.274642023402,-23554.89415584733,-44208.75539884036
-1350.7606209231164,11610.814823009352,-23734.468070801267,-44042.90545498198
-1468.5543142025847,11611.82065150984,-24366.664810975173,-43869.29945579761
-1846.3434989861848,11525.85584233473,-25094.549369162247,-43837.783496115626
-1891.8740024416447,11491.165934940092,-24339.23922052851,-44117.292060529246
-1508.9439164333246,11569.665261467131,-23539.359693450893,-44208.53188139581
-1345.3738505093877,11632.339552919811,-23741.21829762677,-44041.497295081295
-1476.2433142952102,11628.226831940035,-24392.50342756551,-43870.43939476483
-1858.100516569676,11537.210528518026,-25102.59599716616,-43851.61922593346
-1884.3191128157516,11505.247533946937,-24310.51722890344,-44136.84983692764
-1501.7466547187155,11579.09769762727,-23548.94859182222,-44213.06928552024
-1344.3009667755327,11639.805035567884,-23766.92280375037,-44040.35735611407
-1488.0003318787017,11628.271535428948,-24440.090291510856,-43869.12064184197
-1869.65636845307,11537.881080851685,-25107.423973968504,-43859.97877835975
-1865.3871852621064,11515.484632907466,-24265.545519059364,-44145.74583122085
-1485.385177777431,11593.983959434505,-23544.455891186703,-44206.81079707275
-1346.6255481988846,11648.857492072284,-23775.90820502141,-44033.40596358848
-1497.499823272207,11633.16656746466,-24467.98526859108,-43865.54436272912
-1877.7924034348016,11538.976316329994,-25100.60669190964,-43867.846592408016
-1853.361946745151,11515.015246273906,-24221.289065037858,-44156.60877902613
-1471.728261915238,11588.843058209784,-23542.153661507808,-44208.151901740064
-1337.1484085498344,11645.325916448346,-23789.98980402825,-44032.37778334353
-1500.897288429414,11627.06454122836,-24496.55079800496,-43863.77857491715
-1879.8711156691447,11533.768359871909,-25090.52605516029,-43878.106043113
-1843.1919030179863,11519.150318998138,-24172.78577956984,-44167.00234019785
-1469.2025147917886,11600.86829672674,-23535.62695212685,-44202.60866911515
-1344.2339115421669,11657.977003810049,-23806.46303969181,-44026.07459140714
-1519.896271216425,11637.391047166711,-24540.42727237073,-43862.79509816112
-1897.394883322106,11545.368915244211,-25094.236444739872,-43891.53944153064
-1836.7322488704024,11535.355333728236,-24146.120148434657,-44179.89929674856
-1463.6145786779618,11617.00625622347,-23550.155586022807,-44198.92063128002
-1349.2183505557002,11673.332652250843,-23828.94889461385,-44014.138759868
-1533.8437597565369,11646.82348332685,-24577.799389100004,-43849.00407183219
-1906.737912504424,11552.297956025355,-25084.848712068644,-43890.48890954124
-1819.7449230843688,11545.14539779966,-24101.930749646515,-44182.96148573893
-1446.314328469554,11625.008180738472,-23550.110882533896,-44195.679628334
-1345.2844435315662,11678.250036031011,-23849.33368555709,-44015.25634709076
-1542.3374226495532,11650.35505895079,-24613.11514533939,-43852.87092362296
-1908.1460724051087,11553.90728162614,-25073.650488096537,-43906.224537637776
-1792.8334227601797,11548.274642023402,-24057.987220047384,-44194.22676494441
-1416.5865083439958,11629.92556451864,-23546.534603421045,-44189.80111954226
-1326.8889578448484,11680.149934309717,-23858.74376997277,-44008.86374817655
-1534.536663834651,11653.774875852452,-24638.35026482943,-43848.57938868754
-1898.42306356705,11559.852845651252,-25059.34537164514,-43913.578261563576
-1772.1804108834758,11563.540883486376,-24027.18651618797,-44200.261735947344
-1409.7468745406718,11645.907061804184,-23559.409208227305,-44184.816680528726
-1331.2028445247229,11692.89042864924,-23889.633880810008,-44001.57707948412
-1555.435544900363,11656.25591948699,-24687.300585186556,-43842.43265896233
-1914.136339919131,11561.19395031857,-25045.73315927186,-43919.70263954432
-1768.402966070529,11567.251273065958,-23986.260472090304,-44201.06639874773
-1410.4174268743309,11647.87401531625,-23564.483054218657,-44170.80213675525
-1342.2669580300997,11691.63873095974,-23913.438488654912,-43990.7811869122
-1575.172135254399,11654.959518308582,-24722.43752747029,-43837.224702504245
-1930.1178372046757,11562.490351496976,-25027.00239741831,-43930.00679373823
-1756.981224653867,11581.690499984086,-23951.88348911804,-44209.20243372946
-1398.1463191683674,11667.11886729227,-23567.947574609232,-44170.93624722198
-1336.0308213270691,11710.928286424672,-23925.62018938305,-43988.8812886335
-1582.279989991187,11669.197579526612,-24752.97001039625,-43835.83889434802
-1928.486159859438,11575.208494092049,-25005.120039596564,-43940.2215409543
-1738.563387222694,11592.15111638917,-23917.93118929043,-44214.5892041432
-1391.8654789764262,11674.114963306782,-23574.42958050127,-44163.51546806282
-1342.423420241287,11713.856364948317,-23943.21101226938,-43982.019303085726
-1601.4130832449298,11669.599910926809,-24782.206092143788,-43833.53666466912
-1933.4258953840608,11576.884874926196,-24979.23671951732,-43955.30896846164
-1717.083360801144,11597.96256994755,-23878.77093300473,-44226.23446300441
-1382.0977666494568,11677.959463353094,-23581.693897449244,-44165.19184889697
-1351.1182488344014,11715.80096671593,-23967.7085241924,-43982.622800186015
-1622.5131300107396,11665.800114369407,-24819.57820887306,-43836.48709493722
-1948.781543824857,11572.86156092424,-24960.058922774664,-43971.22341051381
-1726.1581690499986,11596.397947835678,-23857.44736879437,-44235.353974742175
-1397.3416563679764,11677.087745319335,-23594.166170855307,-44161.816735484215
-1362.7188042067055,11716.829146960872,-23989.65793724751,-43975.09026230458
-1626.759961457248,11669.01876557097,-24852.949363344836,-43832.57553965754
-1931.168369194075,11583.121011629226,-24937.058977730157,-43976.833698372095
-1690.6635988549708,11610.501898586976,-23828.837135891576,-44232.962338085454
-1366.898580419848,11692.488097249045,-23596.602511000936,-44152.31724409071
-1347.7207836771947,11722.08180690787,-24001.616120531096,-43972.631570414494
-1638.606386018561,11662.648518401207,-24868.93086063038,-43836.73296412623
-1934.364668651184,11582.29399708438,-24883.571253248603,-43994.871556147526
-1675.531467858728,11618.213250424058,-23779.842112045542,-44242.46182947896
-1363.836391429471,11695.4608792616,-23600.75993546962,-44153.03249991328
-1350.1794755672784,11726.4180453322,-24031.835679034677,-43974.37500648201
-1650.1622379019543,11668.348213237312,-24902.27966335769,-43843.57259792955
-1933.00121223941,11583.165715118135,-24854.446930223337,-44011.72477146683
-1655.593711804594,11619.509651602466,-23753.95879196629,-44249.3461667712
-1354.0239756135911,11697.137260095747,-23604.224455860192,-44150.97613942339
-1358.874304160393,11729.614344789308,-24044.59852511865,-43971.379872725
-1669.049461966689,11672.706803406098,-24923.625579312516,-43843.68435665183
-1936.5327878633489,11593.58162803431,-24818.795897817123,-44024.71113499536
-1653.9620344593568,11621.744826047996,-23738.759605736686,-44259.31504479826
-1368.12792636489,11692.353986782313,-23628.00671196064,-44152.89838944655
-1377.4933072916638,11717.32088533889,-24080.92010985853,-43972.74332913677
-1690.9988750218006,11653.618413641265,-24957.17554773993,-43847.93118809834
-1939.617328598181,11580.81878195033,-24788.732801524737,-44037.04929793469
-1639.8357319636027,11626.930430761628,-23707.713032688265,-44256.386966274615
-1366.4068420418314,11701.831126431362,-23632.074729451502,-44140.15789510702
-1391.2172783872222,11721.858289463316,-24107.63044448262,-43963.48970693228
-1714.177634021954,11655.16068400868,-24983.394143986006,-43849.51816195466
-1946.47931414596,11587.077270397816,-24751.98653364021,-44052.56140858668
-1629.0398393916894,11635.714666332564,-23687.50705570067,-44259.73972794291
-1355.454487258731,11707.106138122814,-23642.088310967483,-44134.43584852646
-1380.1531648818452,11729.279068622478,-24120.52740103333,-43957.20886674033
-1708.4779391858506,11661.843855600817,-24989.742039411314,-43850.23341777724
-1924.7757702798567,11591.301750099869,-24704.3326144615,-44066.1512692155
-1601.9718768563123,11641.369657679756,-23658.941526286784,-44269.88741992562
-1341.2611295296108,11716.136242882758,-23643.04943597906,-44141.25313058533
-1381.270752104611,11735.85048149234,-24149.629372314143,-43962.7744511097
-1724.6158986825824,11663.386125968234,-25019.939246170437,-43862.52687722765
-1918.941964977022,11599.683654270608,-24668.636878566373,-44084.77027234677
-1587.9349813383797,11653.774875852452,-23642.133014456394,-44269.06040538078
-1348.7489639221387,11720.114853395802,-23660.573203632022,-44129.36200253511
-1404.449511104764,11733.123568668792,-24175.08800924873,-43950.72686084829
-1756.6683002314926,11657.798189854408,-25025.705996239903,-43858.97294985926
-1941.8972065326225,11594.855677468262,-24621.228828576663,-44093.42039745097
-1595.2887052641756,11649.617451383763,-23621.077671179497,-44267.45107978
-1356.7285366926833,11712.045873647436,-23669.06686652504,-44123.32703153218
-1417.9499647557695,11724.27227786449,-24202.60300667322,-43947.39645092445
-1772.649797517037,11653.126675263247,-25048.99651396233,-43863.97974061725
-1934.1858546955411,11596.397947835678,-24582.359144968887,-44108.329011002665
-1580.603609157039,11658.31227997688,-23608.113659395414,-44269.21686759197
-1354.6945279472504,11729.74845525604,-23676.35353521747,-44119.19195880794
-1427.4271044048196,11744.65706880773,-24226.80994591832,-43941.62970085498
-1788.87716399159,11669.26463475998,-25059.747703045334,-43863.42094700586
-1926.8991860031117,11615.285171900412,-24544.38353113932,-44113.224043038375
-1563.169248481899,11676.774820896962,-23588.28766206356,-44259.11387909816
-1350.134772078368,11741.617231561808,-23685.16012253286,-44102.383446977554
-1439.541749899596,11742.51130134002,-24259.08586491178,-43930.43147688288
-1812.3464956696623,11658.558149165889,-25074.27633694128,-43866.34902552951
-1931.8836250166448,11606.903267729673,-24497.71308871664,-44125.91983388899
-1564.6444636159497,11669.868131860272,-23575.077781090476,-44263.13719310012
-1357.6002547264404,11734.934059969672,-23697.36417500546,-44103.076351055664
-1447.163694758856,11739.024429204992,-24289.394830393176,-43926.36345939201
-1818.9179085395228,11653.93133806364,-25082.434723667477,-43874.26154306669
-1919.947793477511,11606.411529351655,-24456.541175429964,-44142.527180019286
-1547.4336203853632,11672.84091387283,-23566.539414708543,-44263.47246926695
-1349.911254633815,11736.69984778164,-23704.51673323116,-44101.33291498816
-1452.3940029613975,11738.823263504895,-24317.62508364023,-43929.20213093783
-1830.7643331008355,11658.133466021236,-25094.43761043997,-43880.989418147736
-1908.1907758940192,11621.25308766998,-24414.74341329854,-44148.40568881103
-1530.8709777439808,11686.49782973502,-23561.46556871719,-44257.3480912862
-1348.883074388871,11746.84753976435,-23732.74698647821,-44092.593382906125
-1469.0013490916908,11746.355801386331,-24369.905813921192,-43922.54131109015
-1856.6700049245364,11660.234530000036,-25121.282055530795,-43888.14197637344
-1911.5658893067707,11627.4445208841,-24387.54134029643,-44159.0227674273
-1530.178073665866,11694.343292038831,-23572.596737455933,-44254.8446959072
-1357.3320337929767,11753.061324722925,-23762.94419323733,-44084.39029269103
-1485.6981021998051,11747.316926397913,-24407.568503328384,-43911.41014235141
-1872.584446976715,11657.21704449857,-25120.49974447486,-43887.8067002066
-1908.2801828718405,11622.124805703736,-24348.023456099447,-44170.757433266335
-1529.8427974990366,11691.21404781509,-23575.368353768397,-44256.27520755234
-1367.189153097767,11748.3227548984,-23780.93734752385,-44083.16094674599
-1503.6242012529617,11738.197414660146,-24458.374018475297,-43913.37709586348
-1885.8613831831676,11649.751561850497,-25137.26355281634,-43903.22940388077
-1894.109176887176,11620.291962658404,-24310.71839460354,-44187.45418637445
-1513.436617068841,11690.02940535896,-23573.66962118979,-44256.90105639709
-1371.2124670997223,11743.718295540608,-23804.80901060212,-44088.45831018189
-1526.959422464302,11731.84951923484,-24484.816132165925,-43922.07192445659
-1912.951697463,11641.771989079953,-25133.329645792204,-43923.10010470154
-1901.32879034624,11616.11218644526,-24273.86036799674,-44213.76218959835
-1514.0177624246792,11691.102289092814,-23573.647269445333,-44269.46273678097
-1373.0229584006022,11749.507397354531,-23810.79927811614,-44091.09581602762
-1532.480303344763,11736.02929544798,-24518.544914548984,-43919.38971512196
-1915.231575397441,11647.35992519378,-25126.959398622443,-43932.152561205934
-1883.0674151262544,11624.82936678283,-24224.463012750508,-44225.02746880382
-1506.9322594323469,11695.818507172884,-23575.413057257305,-44267.942818158015
-1378.8567637034373,11749.328583398888,-23839.34245578557,-44088.97240030437
-1545.153742450922,11733.637658791264,-24558.71099933517,-43917.17689242088
-1923.233499912441,11647.270518215955,-25122.06436658673,-43934.745363562746
-1865.4989439843828,11637.502805888987,-24177.457294161,-44223.06051529176
-1489.319084801565,11710.771824213483,-23566.09237981944,-44252.073079594746
-1373.7829177120827,11759.208054448136,-23841.68938895337,-44071.71685358487
-1559.905893791425,11739.069132693903,-24576.771208855054,-43903.83290098106
-1940.0867152317423,11651.383239195731,-25102.88656984408,-43937.76284906422
-1864.940150373,11640.609698368276,-24138.475851830943,-44229.274300250334
-1486.033378366635,11710.168327113191,-23572.28381303356,-44245.94870161399
-1373.671158989806,11758.783371303483,-23856.642705993974,-44066.330083171146
-1568.3325014510754,11734.643487291753,-24617.317273296987,-43902.73766550275
-1947.9545292800103,11646.085875759823,-25103.981805322383,-43953.81140158312
-1849.204522276464,11643.716590847564,-24103.71888920294,-44246.03810859181
-1475.0810235835345,11716.851498705328,-23581.448028260234,-44247.938006870514
-1378.3426735809653,11763.678403339196,-23884.604738307567,-44067.67118783846
-1584.0010743142457,11739.739685027562,-24654.95761095972,-43906.62686903797
-1959.488029418949,11647.918718805162,-25089.520226659803,-43970.44109945787
-1840.8673215946344,11646.465855415569,-24065.13977827308,-44256.23050406343
-1471.0800613260344,11725.41221683171,-23577.312955536003,-44243.0429748348
-1386.4787085626972,11777.245912223569,-23898.17224719194,-44056.115335955066
-1603.4247402459075,11748.792141531962,-24686.60768110844,-43894.62398226548
-1964.9195033215883,11659.251053244,-25062.273450168785,-43969.97171282432
-1825.332859198196,11658.669907888165,-24022.447946363445,-44255.60465521868
-1465.4250699788415,11731.13426341227,-23586.633632973862,-44230.50364619537
-1390.32320860901,11773.624929621808,-23915.60660786708,-44046.48173409483
-1621.2837840656978,11739.426760605187,-24722.906914103856,-43886.91263042839
-1974.0166633148983,11653.774875852452,-25053.93624948696,-43975.29142800468
-1809.2843066792852,11662.849684101306,-23988.98738491385,-44257.75042268639
-1457.6466629083948,11734.643487291753,-23596.40134530084,-44224.84865484818
-1392.938362710281,11775.323662200411,-23948.86600361657,-44048.78396377373
-1634.9630516723455,11735.93988847016,-24772.52778679464,-43898.960220689805
-1990.6910646785575,11643.761294336477,-25045.73315927186,-44001.66648646194
-1810.848928791157,11658.35698346579,-23960.108931077597,-44277.37525431816
-1453.8915698399032,11736.789254759462,-23597.787153457062,-44225.22863450392
-1400.2026796582556,11779.123458757813,-23960.153634566504,-44042.45842009287
-1648.4188018344405,11742.958336229129,-24790.118609680965,-43892.34410433103
-1987.7629861549124,11654.73600086403,-25015.08891762363,-44007.85791967606
-1787.625466302093,11668.035288814935,-23923.60853238208,-44280.12451888616
-1447.2978052255876,11739.739685027562,-23609.410060573824,-44222.68053563601
-1399.1968511577668,11778.89994131326,-23991.60253901512,-44041.58670205912
-1661.271054896242,11735.872833236794,-24834.710339869303,-43897.909688700405
-1990.9592856120212,11647.136407749224,-24997.676908692945,-44024.82289371764
-1773.0297771727774,11665.464838202575,-23897.568750091643,-44285.980675933446
-1439.8770260664255,11742.377190873289,-23623.134031669382,-44214.34333495419
-1406.3047058945544,11781.649205881264,-24016.591789316157,-44028.82385597513
-1679.5547818606833,11737.70567628213,-24870.11550308651,-43885.951505416815
-1995.9437246255548,11658.02170729896,-24966.540928666705,-44026.63338501852
-1757.271797331786,11686.184905312646,-23859.235508350797,-44288.5064230569
-1425.6836683373058,11765.153618473249,-23616.652025777345,-44210.27531746332
-1396.9169732233254,11802.883363113806,-24021.28565565177,-44032.0425071767
-1677.3196074151526,11755.251795679544,-24881.201968336343,-43892.34410433103
-1982.2868087633624,11674.629053429251,-24926.57600958061,-44042.5925305596
-1735.143570321032,11698.634826974252,-23831.74286267077,-44295.50251907141
-1423.1132177249451,11768.685194097185,-23635.56160158653,-44208.48717790689
-1405.8800227499037,11802.168107291236,-24061.6305543936,-44026.07459140714
-1701.2136222378758,11748.99330723206,-24935.762576551748,-43894.758092732205
-1988.902925122133,11673.64557667322,-24922.440936856383,-44058.32815865614
-1719.3185352466746,11706.234420089057,-23825.7749469012,-44298.4082458506
-1410.596240829973,11781.582150647895,-23659.835596065,-44196.77486381232
-1409.7468745406718,11811.086453328902,-24091.29131928579,-44014.69755347938
-1721.5090062032946,11751.89903401125,-24969.826635101635,-43887.62788625096
-1998.8941548936552,11674.271425517967,-24893.920110931413,-44065.257199437285
-1717.9327270904455,11705.675626477674,-23804.89841757994,-44302.58802206374
-1415.5359763545962,11778.765830846529,-23672.374924704425,-44195.47846263391
-1417.5252816111183,11808.985389350104,-24121.332063833725,-44011.52360576673
-1727.6110324395936,11749.932080499182,-24994.592367958117,-43886.21972635028
-1981.0574628183203,11679.50173372051,-24858.403188991928,-44075.71781584237
-1683.466337140362,11718.438472561656,-23772.15311195292,-44298.140024917135
-1396.157013911845,11790.81342110794,-23678.63341315191,-44183.34146539468
-1415.1336449544008,11811.309970773456,-24147.3494943797,-44009.17667259892
-1737.8034279112137,11747.94277524266,-25025.258961350795,-43896.54623228863
-1974.351939481728,11678.36179475329,-24826.77547058767,-44097.37665621957
-1666.1884386764098,11724.495795309043,-23757.08803619004,-44310.12055994518
-1392.4913278211748,11799.307084000957,-23699.197018050792,-44186.85068927416
-1420.1404357123895,11821.748235434085,-24182.12880875216,-44010.07074237713
-1754.9248641639788,11757.039935235973,-25052.997476219836,-43905.4645783263
-1978.397605228139,11687.883637891253,-24792.71141203778,-44114.43103723897
-1656.1972089048877,11730.486062823064,-23740.32422784856,-44316.60256583722
-1388.6468277748618,11799.441194467689,-23717.25722757068,-44187.253020674354
-1427.292993938088,11820.183613322211,-24211.40959398861,-44010.85305343307
-1768.9617596819116,11755.005926490538,-25087.843845825657,-43913.4665028413
-1972.228523758474,11696.846687417828,-24759.60847849947,-44136.17928459398
-1643.0990866540774,11745.349972885844,-23714.105631602484,-44325.18563570805
-1389.093862663968,11812.762834163052,-23717.36898629296,-44186.09072996268
-1439.7652673441492,11826.755026192071,-24233.58252448828,-44008.014381887246
-1790.173565169998,11757.889301525272,-25093.00709879483,-43915.34404937554
-1978.8669918617,11702.2111060871,-24714.636768655397,-44143.75652596432
-1634.0019266607676,11757.33050791389,-23705.142582075907,-44321.43054263956
-1384.2211823727112,11825.615087224853,-23735.60800976849,-44176.36772112462
-1437.0160027761465,11840.031962398523,-24261.41044633513,-43996.77145442623
-1789.8159372587131,11769.154580730748,-25107.58043617969,-43909.13026441697
-1959.555084652315,11710.213030602104,-24668.59217507746,-44149.366813822606
-1605.7716734137148,11766.80764756294,-23682.679078898323,-44318.68127807156
-1372.285350833577,11833.885232673316,-23748.95200120831,-44174.78074726829
-1438.2006452322776,11847.944479935704,-24294.24515893998,-44000.32538179462
-1800.9918094863665,11775.435420922688,-25135.028378370807,-43929.02331698219
-1946.2557967014072,11722.193565630148,-24635.221020605688,-44181.24040141588
-1586.057434804134,11779.95047330266,-23674.945375316787,-44337.45674341402
-1370.7207287217057,11843.831758955928,-23765.067608960584,-44187.56594509673
-1456.417316963353,11851.543110793007,-24337.316970505355,-44015.65867849096
-1824.9752312869111,11776.150676745256,-25162.364561839648,-43946.68119510188
-1953.967148538488,11724.875774964785,-24617.317273296987,-44206.184948228
-1589.3878447279749,11781.76096460354,-23693.16204704786,-44348.744374363945
-1380.8013654710492,11842.267136844055,-23807.49121993676,-44191.05281723176
-1471.0353578371237,11846.938651435215,-24382.1545698827,-44016.4409895469
-1849.5397984432932,11764.70658358414,-25187.93495749652,-43959.08641327458
-1956.4705439174825,11716.69503649414,-24582.29208973552,-44227.93319558301
-1585.185716770377,11777.76000234604,-23683.662555654355,-44359.24969425794
-1384.13177539489,11842.334192077422,-23811.11220253852,-44193.17623295501
-1484.3346457880314,11846.804540968484,-24407.523799839477,-44016.4409895469
-1859.911007870556,11766.51707488502,-25190.728925553434,-43968.27298024571
-1938.09740997522,11723.55702204192,-24533.744100778596,-44237.83501837671
-1566.3208444500976,11782.923255315216,-23669.916232814343,-44352.74533662145
-1381.382510826887,11846.871596201849,-23823.20449628884,-44185.35312239565
-1488.2014975787995,11850.559634036976,-24432.22247746259,-44007.36618129804
-1868.2258568079303,11773.066136010426,-25188.672565063545,-43968.04946280116
-1934.6552413291029,11735.537557069963,-24488.25830081204,-44247.33450977022
-1557.3354431790642,11798.547124689476,-23657.55571813056,-44349.75020286444
-1375.548705524052,11860.707326019685,-23826.55725795713,-44178.49113684787
-1500.7184744737715,11860.126180663849,-24464.140768544767,-44006.963849897846
-1885.5708105052488,11777.46942966812,-25199.781382057838,-43980.72290190731
-1927.5473865923152,11740.23142340558,-24441.051416522438,-44261.97490238844
-1544.7067075618158,11804.738557903596,-23642.982380745696,-44348.65496738612
-1376.8898101913703,11864.77534351055,-23836.503784239743,-44175.83127925769
-1515.4259223253634,11858.87448297435,-24493.443905525677,-44004.88513766351
-1905.843842726212,11775.234255222593,-25197.054469234285,-43984.50034672026
-1932.1071424611976,11747.495740353554,-24398.06901193488,-44264.36653904517
-1547.277158174176,11815.422691753232,-23642.60240108996,-44336.652080613625
-1385.964618440225,11874.4536488597,-23859.660191495444,-44163.58252329618
-1528.3675823649862,11873.53722733703,-24535.822813012936,-43994.42452125842
-1916.170348664564,11796.267246755036,-25201.27894893634,-43991.451739245866
-1918.9866684659328,11773.624929621808,-24356.15949108118,-44282.136175887135
-1536.0342307131566,11840.702514732184,-23640.97072374472,-44343.84934232824
-1392.3348656099874,11890.524553123065,-23874.635860280498,-44173.17142166751
-1543.5220651056843,11880.175695440255,-24558.53218537953,-44004.68397196341
-1931.4142383830836,11798.390662478289,-25186.52679759584,-44009.556652254665
-1908.5260520608488,11778.609368635342,-24302.537656132896,-44301.85041449672
-1520.0080299387014,11849.57615728094,-23626.50914508213,-44348.476153430485
-1388.5350690525854,11905.343759696932,-23882.213101650847,-44167.91876172051
-1555.4578966448184,11893.340872924431,-24599.9052643663,-44002.15822483996
-1937.6950785750248,11808.940685861193,-25190.572463342247,-44023.258271605766
-1897.6407525111144,11786.544237916976,-24273.413333107637,-44320.24590018343
-1520.566823550084,11850.693744503707,-23635.516898097623,-44356.90276109013
-1395.9111447228368,11902.54979164002,-23894.93124424592,-44174.02078795681
-1575.5074114212289,11885.562465853984,-24622.30171231052,-44003.78990218519
-1953.9224450495772,11804.38092999231,-25171.32761136623,-44032.15426589898
-1879.0441011242988,11797.451889211165,-24210.78374514386,-44320.961156006
-1497.0974918720117,11870.072706946456,-23618.66368277832,-44338.12729574768
-1390.5243743091078,11918.106605780911,-23905.23539843981,-44155.06650865871
-1582.7270248802931,11893.273817691066,-24656.25401213813,-43992.636381702
-1960.6056166417145,11809.521831217033,-25159.280021104816,-44036.19993164539
-1874.6631592110589,11803.084528813904,-24167.913099278583,-44328.51604563189
-1500.1596808623888,11875.571236082464,-23618.66368277832,-44336.00388002442
-1396.3358278674875,11920.967629071192,-23919.74168059131,-44152.853685957634
-1595.3781122419969,11895.397233414322,-24681.109151972432,-43987.13785256599
-1967.266436489396,11808.448947483175,-25136.97298013842,-44037.67514677944
-1864.0684323392431,11804.202116036668,-24127.29997960329,-44328.13606597616
-1492.448329025308,11877.672300061262,-23625.57037181501,-44325.56561536379
-1404.4718628492192,11923.739245383653,-23938.47244244485,-44148.0704126442
-1620.1438450984772,11898.615884615883,-24720.157649535853,-43988.70247467786
-1986.8689163767,11815.512098731053,-25125.037148599287,-44060.47392612385
-1854.814810134746,11816.674389442727,-24088.00561285086,-44350.53251392037
-1488.6038289789951,11890.144573467323,-23625.19039215927,-44330.505350888416
-1403.4436826042752,11937.194995545746,-23955.012733341784,-44143.577712008686
-1620.3226590541196,11911.825765588972,-24750.62307722844,-43983.69568391988
-1979.515192450904,11827.4926337591,-25111.044956570266,-44070.509859384285
-1833.334783713196,11827.559688992464,-24052.064007766727,-44356.90276109013
-1476.6903491843163,11898.59353287143,-23628.6772642943,-44323.30808917381
-1399.7556447691495,11945.08516133847,-23968.580242226155,-44137.83331368367
-1631.3644208150413,11916.743149369138,-24776.84167347451,-43979.53825945118
-1983.7173204085016,11830.688933216206,-25082.50177890084,-44072.43210940744
-1815.3416294266735,11836.075703629936,-24009.819210746195,-44349.90666507562
-1463.279302511132,11907.69069286474,-23629.9289619838,-44306.0078389654
-1402.5719645705185,11945.912175883315,-23986.57339651268,-44123.25997629881
-1638.5169790407394,11914.396216201332,-24811.263359935685,-43971.98336982529
-1981.7950703853453,11834.332267562422,-25067.25788918232,-44082.84802232361
-1794.5098035943274,11848.033886913525,-23974.41404752899,-44357.08157504578
-1448.9518343152804,11922.64400990534,-23633.63935156338,-44301.42573135207
-1402.6613715483395,11959.099705111948,-24002.4654868204,-44115.63803143955
-1652.9338542144126,11922.867527349894,-24837.30314222612,-43963.71322437683
-1982.4432709745493,11847.117465390858,-25034.19965913292,-44081.48456591184
-1773.432108572973,11867.68107028974,-23937.108986033083,-44349.727851119984
-1434.512607397152,11941.195957803246,-23637.573258587512,-44286.13713814463
-1401.6331913033953,11974.03067040809,-24022.649112063544,-44110.09479881464
-1669.049461966689,11929.751864642129,-24868.997915863743,-43968.74236687927
-1987.651227432636,11854.62765152784,-25007.310510553183,-44103.47868245586
-1761.2504078448303,11878.387555883832,-23903.335500161116,-44365.79875538335
-1428.1870637163,11950.382524774375,-23646.44690113627,-44291.2556876249
-1395.1288336669008,11986.480592069698,-24046.61018211963,-44108.30665925821
-1670.9493602453902,11942.894690381849,-24905.185390136885,-43966.57424766711
-1986.8242128877896,11867.479904589642,-24985.875187620542,-44113.984002349855
-1751.0580123732109,11892.133878723846,-23886.25876739726,-44371.58785719727
-1440.5475784000848,11960.574920245996,-23662.741322844187,-44289.91458295758
-1421.548595613074,11992.426156094809,-24073.409923721545,-44108.30665925821
-1710.6684101424707,11941.08419908097,-24935.516707362734,-43975.157317537945
-2008.4607015205268,11867.05522144499,-24950.045341258687,-44132.75946769232
-1752.913207163001,11894.413756658289,-23853.33464781459,-44379.9250578791
-1439.7205638552384,11959.770257445603,-23671.92788981532,-44286.07008291127
-1427.4047526603642,11989.118097915423,-24094.509970487357,-44105.333877245655
-1724.9735265938673,11941.777103159084,-24963.478739676328,-43973.056253559145
-2009.846509676756,11868.686898790227,-24921.83743975609,-44143.55536026423
-1735.5235499767723,11903.108585251402,-23822.176316043893,-44378.8745258897
-1430.221072461733,11974.790629719571,-23673.201939249277,-44273.95543741649
-1428.4329329053085,12003.602028322464,-24116.079403886724,-44093.59921140662
-1733.6460034425263,11953.690582953765,-24995.821713903155,-43971.55868668064
-2004.1021113517415,11883.439050130732,-24896.35645107704,-44153.635997013575
-1715.496386944817,11917.4137017028,-23807.826496103586,-44379.41096775663
-1423.224976447222,11983.08312691249,-23692.58090169202,-44268.635722236126
-1433.6185376189396,12006.105423701458,-24156.469006117462,-44092.86160383959
-1747.1464570935318,11952.572995730996,-25035.6078190336,-43974.08443380409
-1993.909715880122,11887.909399021792,-24868.34971527454,-44162.442584328965
-1697.235011724831,11923.001637816626,-23789.20749297232,-44381.35556952424
-1415.6924385657835,11987.665234525828,-23711.53518099012,-44263.6959867115
-1437.194816731789,12009.011150480646,-24183.805189586303,-44085.32906595816
-1767.3300823366742,11951.634222463874,-25057.132548944064,-43972.47510820331
-2005.1526433411411,11891.262160690088,-24836.00674104771,-44178.938171736976
-1698.821985581158,11929.03660881956,-23777.785751555653,-44394.47604351951
-1426.018944504135,11996.538877074585,-23735.071567901563,-44272.34611181571
-1449.577683160029,12022.913935531848,-24216.46108823551,-44094.3591707181
-1785.814975001213,11961.737210957672,-25084.0216975238,-43989.30597177815
-2005.06323636332,11898.459422404698,-24795.035993461133,-44205.022657516325
-1681.9911220063118,11941.620640947896,-23743.67698951685,-44402.992058156975
-1413.6584298203504,12008.631170824909,-23719.17947759384,-44267.62989373564
-1453.8245146065374,12029.552403635074,-24213.354195756223,-44086.49135666983
-1802.3552658981405,11965.380545303888,-25079.886624799565,-43987.383721755
-2002.8504136622448,11904.896724807826,-24739.67072244534,-44214.79036984329
-1669.0718137111444,11949.153178829334,-23721.52641076165,-44401.44978778956
-1418.352296155965,12011.738063304194,-23734.37866382345,-44255.31408254076
-1467.7720031466488,12027.585450123008,-24257.85651896674,-44074.33200768614
-1815.2522224488523,11964.911158670326,-25118.68925317398,-43983.91920136443
-1994.7367304249683,11911.088158021948,-24716.737832634197,-44217.740800111394
-1650.7657350022478,11962.608928991427,-23712.78687867962,-44390.36332253973
-1409.679819307306,12030.737046091206,-23757.13273967895,-44242.350070756685
-1466.4979537126965,12046.606784654474,-24293.529903117407,-44062.53028661374
-1824.103513253154,11981.27263561161,-25130.110994590643,-43978.62183792852
-1985.6619221761132,11930.087140808955,-24671.006163478636,-44224.75924787036
-1636.304156339664,11977.718708243216,-23693.899654614885,-44392.3302760518
-1408.092845450979,12036.90612756087,-23763.52533859317,-44245.211094046965
-1477.4279567513415,12045.891528831904,-24315.322853961334,-44070.152231473
-1841.783743117302,11975.41647856432,-25147.29948607677,-43996.74910268177
-1972.7873173698567,11931.74116989865,-24629.409567047307,-44245.30050102479
-1602.374208256508,11992.09087992798,-23680.64507015289,-44389.13397659468
-1388.5350690525854,12051.546520179096,-23776.578757355062,-44231.55417818477
-1477.3609015179757,12057.693249904303,-24347.710531677072,-44056.115335955066
-1844.17537977402,11990.258036882644,-25156.530756536813,-43990.15533806745
-1960.8514858307224,11947.722667184196,-24590.71869739517,-44249.837905149216
-1599.244964032765,12000.830412010004,-23679.68394514131,-44385.64710445966
-1394.2794673775993,12058.85554061598,-23793.74489709674,-44226.59209091569
-1483.5299829876403,12066.902168619892,-24383.4062675722,-44048.06870795116
-1854.4348304790055,11994.638978795883,-25174.188634656508,-43991.67525669042
-1952.715450848991,11951.634222463874,-24549.05504573048,-44262.95837914448
-1582.3246934800975,12006.530106846109,-23668.97745954722,-44388.9775143835
-1384.6011620284512,12065.806933141585,-23812.18508627237,-44225.09452403719
-1485.251067310699,12071.596034955506,-24417.760898800007,-44048.69455679591
-1863.5543422167711,11997.254132897157,-25180.670640548546,-44007.522643509226
-1941.450171643516,11959.814960934516,-24490.962861891137,-44285.757158488894
-1563.5939316265503,12018.287124429598,-23635.472194608712,-44392.30792430734
-1383.4388713167752,12073.697098934306,-23799.601054144037,-44221.83116934671
-1499.4891285287297,12073.0488983451,-24438.30215195443,-44052.06967020866
-1881.2792755698292,12000.651598054365,-25189.41017263057,-44021.42542856043
-1934.454075629005,11972.242530851669,-24466.822977879405,-44300.08462668474
-1557.2907396901535,12032.703999603273,-23657.24279370818,-44397.64999123216
-1385.9422666957698,12086.124668851457,-23845.66799946642,-44228.357878727664
-1514.7553699917044,12083.174238583357,-24484.883187399293,-44053.36607138706
-1900.3676653346615,12006.32894114601,-25203.75999257088,-44027.03571641872
-1936.6445465856248,11974.723574486206,-24437.229268220577,-44312.28867915734
-1556.508428634218,12034.38038043742,-23660.34968618747,-44395.794796442366
-1399.42036860232,12086.862276418482,-23863.661153752942,-44224.69219263699
-1536.8388935135476,12084.269474061666,-24525.116327418844,-44056.42826037744
-1917.3773428651505,12006.105423701458,-25206.241036205414,-44047.10758293958
-1923.3452586347173,11982.61374027893,-24389.865921719786,-44334.57336837928
-1544.058506972612,12042.918746819349,-23658.405084419857,-44404.26610759093
-1399.576830813507,12092.919599165867,-23879.150912660472,-44231.82239911824
-1541.286890660154,12087.555180496596,-24556.162900467265,-44058.52932435624
-1920.037200455332,12007.1336039464,-25213.61711187567,-44057.16586794447
-1911.14120616212,11984.267769368622,-24355.690104447614,-44344.92222606209
-1531.966213222291,12041.510586918665,-23656.97457277472,-44399.81811044432
-1394.9500197112584,12088.940988652825,-23898.6416338255,-44223.84282634769
-1555.3237861780867,12078.703889692297,-24594.38438348584,-44054.48365860983
-1939.0585349867983,11997.56705731953,-25205.99516701641,-44067.80529830519
-1909.5989357947035,11980.758545489138,-24311.925388804128,-44362.89302860416
-1532.8155795115924,12045.936232320812,-23657.19809021927,-44401.02510464491
-1400.7167697807276,12093.657206732894,-23912.27619794324,-44218.09842802268
-1565.8738095609915,12076.714584435773,-24623.64281697784,-44048.35928062908
-1944.0876774892424,11995.935379974291,-25196.495675622904,-44071.24746695131
-1896.1431856326087,11976.89169369837,-24270.79817900636,-44369.08446181828
-1519.53864330514,12037.196700238788,-23665.401180434368,-44404.17670061311
-1403.376627370909,12082.458982760783,-23939.54532617871,-44228.67080315004
-1578.8154696006145,12067.52801746464,-24669.866224511414,-44061.01036799078
-1955.19649448353,11990.99564444967,-25194.484018621926,-44093.018066050776
-1887.3142465727624,11975.684699497784,-24235.21420183351,-44387.39054052717
-1513.4813205577518,12038.448397928289,-23664.931793800806,-44402.00858140094
-1408.8528047624595,12084.872971161958,-23956.91263162049,-44221.74176236889
-1610.152615326955,12065.136380807922,-24713.586236665997,-44060.585684846126
-1984.6337419311692,11986.145315902868,-25193.50054186589,-44111.25708952631
-1885.168479105053,11980.624435022406,-24199.719631638483,-44398.07467437681
-1511.0673321565787,12046.539729421109,-23667.569299646533,-44396.30888656484
-1414.7313135542051,12092.450212532309,-23967.79793117022,-44213.538672153794
-1621.216728832332,12070.813723899571,-24732.56286770855,-44052.2484841643
-1987.3383030102616,11990.816830494026,-25168.377181098127,-44111.30179301522
-1867.84587715219,11986.65940602534,-24152.11041594868,-44398.96874415502
-1498.2597825836876,12049.66897364485,-23667.189319990797,-44392.5761452408
-1408.226955917711,12096.942913167824,-23977.65505047501,-44212.66695412004
-1620.210900331843,12076.96045362478,-24760.92723142233,-44051.33206264163
-1978.710529650513,12005.99366497918,-25145.19842209797,-44122.27649954278
-1830.4067051895504,12015.828432539516,-24099.181485078512,-44401.78506395639
-1469.046052580601,12080.693194948815,-23657.511014641645,-44378.91922937861
-1400.4038453583537,12117.484166322252,-23987.04278314624,-44199.81470105823
-1626.692906223882,12087.666939218872,-24788.24106314672,-44043.15132417099
-1979.1575645396192,12010.776938292616,-25118.376328751605,-44129.1161333461
-1820.303716695752,12020.119967474937,-24061.250574737856,-44410.16696812713
-1466.542657201607,12087.555180496596,-23667.614003135444,-44373.89008687617
-1402.1025779369568,12126.469567593284,-24013.84252474815,-44191.2316311874
-1641.6462232644826,12097.948741668311,-24828.362444444,-44036.98224270132
-1990.221678044996,12026.221993711231,-25099.26558724232,-44136.69337471645
-1815.9898300158775,12038.00136303918,-24024.839583020163,-44415.39727632967
-1470.4318607368305,12101.547372525618,-23667.748113602174,-44369.799717640846
-1420.453360134764,12138.40539913242,-24033.579115102188,-44185.1296049511
-1672.6704445684488,12105.39187257193,-24863.722904172293,-44035.66348977846
-2002.358675284228,12032.078150758523,-25086.41333418052,-44151.13260163458
-1805.2162891884195,12045.2433282427,-24006.42174558899,-44427.467218335536
-1461.0664798100568,12114.846660476524,-23681.36032597546,-44370.15734555213
-1413.904299009359,12150.74356207175,-24047.81717632022,-44189.66700907553
-1672.4916306128064,12113.863183720492,-24887.01342189472,-44042.3466613706
-1997.3071810373283,12038.560156650565,-25051.38815061905,-44168.812831498726
-1778.528306308783,12057.939119093317,-23954.49864321931,-44435.80441901737
-1443.498008668185,12122.78152975816,-23677.02408755113,-44367.67630191759
-1411.870290263926,12156.59971911904,-24061.74231311588,-44186.20248868496
-1680.2700376832531,12123.697951280828,-24912.226189640307,-44041.96668171486
-1988.9923320999544,12060.174293538845,-25024.454298550405,-44182.31328514973
-1755.9306926644676,12082.05665136059,-23931.02931154124,-44441.593520831295
-1433.6632411078504,12144.887405024458,-23686.612985922457,-44363.31771174881
-1413.0102292311465,12176.448068195352,-24090.665470441043,-44181.24040141588
-1702.2865059717303,12131.07402695108,-24953.21928897134,-44043.643062549
-2013.0428091338647,12057.939119093317,-25005.25415006329,-44196.9313260235
-1766.6595300030149,12081.788430427128,-23905.68243332892,-44447.91906451214
-1448.482447681719,12147.971945759293,-23701.9462826188,-44357.52860993488
-1434.2443864636882,12181.208989764333,-24120.862677200163,-44177.37354962511
-1729.7120964183923,12135.231451419766,-24981.36013524057,-44044.82770500514
-2015.009762645932,12069.182046554331,-24972.531196180727,-44208.91186105154
-1745.9618146374005,12096.562933512085,-23874.76997074723,-44452.25530293647
-1439.7205638552384,12156.666774352405,-23704.717898931256,-44354.51112443342
-1437.932424298814,12185.567579933117,-24130.96566569396,-44170.48921233288
-1740.776209923769,12139.29946891063,-24998.23570230433,-44039.28447238022
-2014.2498033344516,12075.887569890923,-24922.21741941183,-44214.76801809884
-1731.0532010857107,12109.2587243627,-23828.45715623584,-44445.48272436651
-1429.1705404723336,12170.45780068133,-23701.745116918697,-44339.73662134846
-1434.423200419331,12197.302245772153,-24144.15319492259,-44159.96154069442
-1753.5390560077497,12146.854358536526,-25011.24441757732,-44039.28447238022
-2016.037942890876,12084.001253128205,-24881.559596247625,-44228.9390240835
-1724.1241603045655,12118.087663422546,-23804.026699546182,-44453.59640760379
-1435.5854911310066,12182.013652564725,-23713.725651946745,-44335.82506606878
-1454.5174186846518,12206.80173716566,-24171.17645396906,-44152.20548536843
-1776.6284080300818,12156.130332485478,-25037.61947603458,-44033.13774265501
-2019.8600911927333,12099.468660291275,-24847.115558042,-44231.151846784574
-1713.5741369216607,12136.818425276091,-23780.84794054603,-44447.27086392294
-1437.217168476244,12197.302245772153,-23715.491439758716,-44323.41984789608
-1463.3687094889533,12216.837670426092,-24193.058811790805,-44144.00239515334
-1788.6759982914923,12161.986489532768,-25071.527072373283,-44034.70236476688
-2020.6200505042136,12099.580419013551,-24819.220580961774,-44244.9428731135
-1705.9074885734904,12133.957401985814,-23770.05204797412,-44449.52839011293
-1437.1501132428782,12195.871734127011,-23734.848050457007,-44319.0612577273
-1473.9187328718583,12218.42464428242,-24224.35125402823,-44138.392107295054
-1812.257088691841,12165.74158260126,-25087.35210744764,-44035.26115837826
-2021.44706504906,12113.550259298116,-24769.97968792673,-44255.76111742987
-1691.1553372329877,12154.87863479598,-23740.212469126283,-44445.41566913315
-1437.5300928986185,12215.720083203329,-23741.285352860137,-44308.46653085548
-1481.8088986645816,12235.434321812909,-24251.441568308062,-44130.92662464698
-1827.299812710263,12172.760030360228,-25105.12174428961,-44037.85396073508
-2012.5957742447583,12121.529832068663,-24734.64157994289,-44267.09345186871
-1669.1388689445105,12169.049640780646,-23727.583733509036,-44445.86270402226
-1429.5058166391632,12225.13016761901,-23751.544803565124,-44302.409208108096
-1489.6767127128498,12239.815263726148,-24275.827321508805,-44127.90913914552
-1845.337670485696,12177.65506239594,-25123.517229976325,-44044.58183581613
-2013.2216230895071,12128.123596682975,-24697.35887019144,-44284.930143944046
-1665.8978659984907,12176.291605984165,-23709.098840844494,-44451.450640136085
-1434.512607397152,12235.56843227964,-23759.77024552468,-44298.29648712832
-1505.479396042752,12245.939641706902,-24298.44728689757,-44119.81780765269
-1864.269598039341,12183.242998509766,-25127.406433511547,-44040.13383866952
-2015.948535913055,12135.343210142042,-24646.10632015542,-44286.38300733364
-1662.2545316522755,12182.639501409472,-23688.24466326769,-44441.3923551312
-1440.4581714222636,12238.004772425267,-23772.17546369737,-44289.132271901646
-1516.2752886146652,12248.890071975002,-24330.142060535203,-44115.414513995
-1882.9556564039776,12184.785268877182,-25152.060407645757,-44047.33110038413
-2012.68518122258,12139.54533809964,-24606.63313944735,-44304.89025174263
-1641.601519775572,12194.1282980595,-23672.196110748784,-44445.281558666415
-1437.2395202206994,12251.1923016539,-23782.27845219117,-44289.19932713501
