 EXG Channel 0, EXG Channel 1, EXG Channel 2, EXG Channel 3
-27841.80228016404,-20533.78767177912,-67966.33517340841,-21016.25007584692
-28050.187593720868,-20515.05690992557,-67929.6336090128,-20974.92170034906
-27999.96322392979,-20477.260110051648,-67970.17967345472,-20974.29585150431
-27683.127246275813,-20434.635333375376,-68072.28244212657,-21017.43471830305
-27518.81957278485,-20457.59057493097,-68089.64974756834,-21054.046875720844
-27845.825594165995,-20517.31443611556,-67961.73071405062,-21010.572732755278
-28049.53939313166,-20508.418441822345,-67925.6326467553,-20969.11024679068
-28001.460790808294,-20470.55458671505,-67962.78124604002,-20968.015011312367
-27688.938699834194,-20440.603249144944,-68072.6177182934,-21018.88758169265
-27518.841924529308,-20468.74409541417,-68092.91310225881,-21054.940945499056
-27846.853774410934,-20528.37854962093,-67967.87744377583,-21015.557171768807
-28057.09428275756,-20517.850877982484,-67928.76189097905,-20978.38622073963
-28015.25181713722,-20486.5360840006,-67968.41388564276,-20978.67679341755
-27701.120400562337,-20454.28251675159,-68078.63033755188,-21024.475517806477
-27529.056671745384,-20479.584691475,-68098.9257215173,-21063.300497925346
-27855.101568114947,-20540.381436393436,-67981.06497300447,-21031.695131265536
-28067.376085207,-20538.190965436814,-67952.74531277959,-21005.364776297185
-28025.98065447577,-20507.546723788582,-67990.7432783536,-21004.67187221907
-27710.597540211387,-20459.870452865416,-68085.78289577758,-21038.78063425787
-27535.8516020598,-20481.283424053603,-68100.55739886254,-21066.273279937897
-27865.56218452003,-20544.87413702895,-67981.71317359367,-21027.98474168596
-28074.729809132798,-20535.64286656891,-67937.72494050562,-20982.67775567505
-28034.45196562433,-20501.377642318923,-67969.66558333226,-20975.949880594
-27723.740365951107,-20448.694580637763,-68067.18624439076,-21012.830258945258
-27558.06923604837,-20462.28444126659,-68084.73236378818,-21044.435625605063
-27887.690411530784,-20517.448546582287,-67961.06016171696,-21005.58829374174
-28106.75985893725,-20505.378604576425,-67918.83771644089,-20965.42220895555
-28069.097169530058,-20461.122150554915,-67944.02813244202,-20956.36975245115
-27768.10857869489,-20425.38171117088,-68041.48173826716,-21000.425040772563
-27598.816466190397,-20453.120226039915,-68065.35340134542,-21038.534765068864
-27920.43571715781,-20502.78580221961,-67936.09326316038,-20994.032441858344
-28145.47308033384,-20504.462183053754,-67905.33726278988,-20965.176339766545
-28109.464420016346,-20479.3835257749,-67950.33132437842,-20974.206444526488
-27801.92676805577,-20442.25727823464,-68054.82572970698,-21020.899238693622
-27620.14003040076,-20463.49143546718,-68081.24549165314,-21053.80100653184
-27938.9429615668,-20520.39897685039,-67952.16416742375,-21006.39295654213
-28151.619810059048,-20509.04429066709,-67903.54912323346,-20959.76721760836
-28114.605321241062,-20486.513732256142,-67950.33132437842,-20966.6515549006
-27808.27466348108,-20457.85879586444,-68060.52542454308,-21017.188849114045
-27622.151687401736,-20467.537101213587,-68072.84123573796,-21044.45797734952
-27947.77190062665,-20531.619552566957,-67954.06406570245,-21005.834162930747
-28165.075560221143,-20512.62056977994,-67913.00391113805,-20961.376543209142
-28126.92113243593,-20469.973441359216,-67947.26913538804,-20955.453330928485
-27820.724585142685,-20423.638275103363,-68039.17950858826,-20996.647595959617
-27645.129280701796,-20457.41176097533,-68073.62354679388,-21041.35108487023
-27964.088674079023,-20511.502982557176,-67946.46447258764,-20997.92164539357
-28180.498263895308,-20493.353366059466,-67897.84942839736,-20945.3950459236
-28144.28843787771,-20451.24267950567,-67931.8911352028,-20937.773101064337
-27846.786719177573,-20414.094080220948,-68035.17854633076,-20982.85656963069
-27660.730798331595,-20433.6742083638,-68064.97342168969,-21020.18398287105
-27973.878738150448,-20484.949110144276,-67942.84348998588,-20975.92752884955
-28194.3563454576,-20473.57207221652,-67892.7308789171,-20932.676903328527
-28162.594516586607,-20447.085255036985,-67931.44410031367,-20936.18612720801
-27858.767254205617,-20409.51197260761,-68027.5118979826,-20973.8488166152
-27662.585993121385,-20435.3729409424,-68061.53125304356,-21014.372529312677
-27976.80681667409,-20505.646825509888,-67949.32549587793,-20985.359965009688
-28201.68771763894,-20505.13273538741,-67910.6793297147,-20949.887746559118
-28163.175661942445,-20468.47587448071,-67942.97760045262,-20942.466967399952
-27860.823614695502,-20433.607153130437,-68044.18629934624,-20977.60390968369
-27660.127301231303,-20450.594478916464,-68071.3660206039,-21010.773898455373
-27969.453092748296,-20505.06568015405,-67949.66077204475,-20970.428999713546
-28192.411743689987,-20492.951034659272,-67905.67253895671,-20926.016083480845
-28158.928830495934,-20458.127016797906,-67941.74825450758,-20922.730377045915
-27858.40962629433,-20423.41475765881,-68047.20378484772,-20968.52910143484
-27661.66957159872,-20455.511862696632,-68086.18522717778,-21016.697110736022
-27979.980764386743,-20533.050064212093,-67969.10678972087,-20989.159761567087
-28204.682851395948,-20516.934456459818,-67914.50147801655,-20938.868336542648
-28172.4516358914,-20470.5322349706,-67945.41394059824,-20928.318313159743
-27874.771103235616,-20430.29909495105,-68047.13672961434,-20968.9984880684
-27671.169062992223,-20445.967667814217,-68085.6711370553,-21011.01976764438
-27974.750456184203,-20509.848953467485,-67961.61895532835,-20973.357078237183
-28201.397144961014,-20490.559398002555,-67905.06904185642,-20928.139499204102
-28173.926851025448,-20454.461330707232,-67943.24582138608,-20930.48643237191
-27872.200652623254,-20419.123222723392,-68041.32527605597,-20970.38429622463
-27659.747321575564,-20439.642124133366,-68078.25035789613,-21016.18302061356
-27960.668857177363,-20498.650729495374,-67954.041713958,-20980.174360296056
-28191.182397744946,-20492.325185814523,-67902.8785708998,-20932.833365539715
-28161.14165319701,-20457.70233365325,-67939.37896959532,-20930.75465330537
-27860.913021673325,-20417.245676189148,-68035.84909866442,-20971.0995520472
-27646.93977200267,-20432.37780718539,-68067.5215205576,-21009.16457285459
-27945.804947114582,-20497.86841843944,-67949.39255111129,-20974.00527882639
-28177.927813282942,-20500.28240684061,-67902.40918426623,-20934.66620858505
-28152.82680425964,-20474.64495595037,-67939.51308006204,-20933.034531239813
-27855.436844281776,-20430.47790890669,-68036.65376146481,-20972.775932881348
-27641.41889112221,-20445.967667814217,-68071.85775898192,-21016.54064852484
-27940.552287167586,-20506.116212143446,-67952.81236801295,-20983.54947370881
-28171.11053122408,-20503.29989234208,-67904.53259998948,-20939.024798753835
-28150.52457458074,-20479.271767052625,-67942.53056556352,-20942.37756042213
-27860.13071061739,-20445.56533641402,-68036.29613355352,-20979.928491107046
-27643.6764173122,-20449.543946927064,-68067.18624439076,-21010.908008922102
-27939.43469994482,-20506.18326737681,-67951.65007730128,-20972.10538054769
-28173.3010021807,-20500.841200452,-67900.68809994317,-20926.57487709223
-28150.368112369557,-20464.18433954529,-67933.29929510347,-20923.22211542393
-27859.124882116903,-20420.4196239018,-68033.79273817452,-20962.67294438755
-27637.484984098075,-20437.85398457694,-68082.25132015363,-21008.717537965484
-27930.38224344042,-20488.6371479794,-67960.43431287221,-20971.837159614224
-28170.283516679232,-20487.251339823168,-67907.66184421323,-20928.988865493404
-28153.98909497131,-20468.74409541417,-67947.80557725497,-20934.86737428515
-27861.628277495896,-20423.258295447624,-68039.82770917747,-20973.73705789293
-27631.13708867277,-20425.6722838488,-68073.26591888261,-21011.466802533487
-27922.223856714238,-20486.446677022777,-67950.62189705634,-20973.58059568174
-28163.28742066472,-20484.47972351071,-67897.31298653042,-20926.53017360332
-28144.28843787771,-20453.50020569565,-67932.85226021436,-20922.596266579185
-27856.040341382068,-20418.02798724508,-68029.79177591704,-20957.643801885108
-27629.393652605257,-20433.42833917479,-68066.49334031265,-20993.02661335785
-27922.78265032561,-20494.11332537095,-67943.51404231954,-20956.48151117343
-28166.126092210543,-20499.47774404022,-67899.4811057426,-20921.65749331206
-28147.596496057096,-20478.131828085403,-67944.87749873132,-20928.65358932657
-27862.23177459619,-20442.45844393473,-68044.32040981298,-20972.887691603624
-27633.036986951472,-20453.54490918457,-68081.29019514206,-21012.986721156445
-27922.71559509225,-20515.92862795933,-67961.4401413727,-20980.10730506269
-28163.04155147571,-20511.72650000173,-67909.27116981402,-20935.2920574298
-28145.629542545023,-20479.629394963908,-67948.23026039962,-20935.649685341083
-27856.50972801563,-20432.66837986331,-68041.41468303378,-20971.412476469573
-27622.956350202126,-20442.078464278995,-68082.58659632047,-21010.505677521905
-27914.46780138824,-20514.25224712518,-67970.62670834383,-20983.05773533079
-28157.96770548436,-20515.146316903392,-67916.89311467328,-20938.443653398
-28143.37201635504,-20488.77125844613,-67952.00770521256,-20938.28719118681
-27862.432940296287,-20446.23588874768,-68042.62167723438,-20972.28419450333
-27629.75128051654,-20454.28251675159,-68085.62643356639,-21013.858439190204
-27907.62816758492,-20506.25032261018,-67957.99797272659,-20973.78176138184
-28155.754882783283,-20506.093860398996,-67905.76194593453,-20926.2396009254
-28144.06492043316,-20466.888900624384,-67942.97760045262,-20921.03164446731
-27859.23664083918,-20422.274818691592,-68032.58574397395,-20955.542737906308
-27621.21291413461,-20434.18829848627,-68079.77027651909,-20996.73700293744
-27908.365775151942,-20502.182305119317,-67960.12138844984,-20962.069447287256
-28153.832632760124,-20501.71291848575,-67901.67157669921,-20918.41649036604
-28138.253466874776,-20454.394275473867,-67925.99027466659,-20910.74984201787
-27865.60688800894,-20419.972589012694,-68022.28158978005,-20950.781816337327
-27635.272161397,-20438.01044678813,-68072.57301480448,-21001.11794485068
-27923.676720103827,-20509.04429066709,-67969.48676937661,-20982.208369041487
-28171.22228994636,-20502.897560941885,-67911.95337914865,-20935.62733359663
-28156.00075197229,-20465.368982001422,-67939.13310040631,-20928.832403282217
-27876.603946280957,-20420.643141346354,-68023.77915665855,-20962.360019965177
-27642.715292300614,-20438.90451656634,-68069.82375023648,-21011.153878111112
-27923.252036959177,-20504.19396212029,-67947.71617027714,-20974.117037548665
-28176.117321982067,-20508.82077322254,-67892.26149228352,-20932.60984809516
-28167.53425211123,-20480.255243808657,-67925.00679791055,-20932.43103413952
-27893.121885433426,-20440.40208344485,-68020.6499124348,-20971.88186310313
-27646.917420258214,-20446.28059223659,-68065.88984321235,-21012.517334522883
-27921.77682182513,-20509.04429066709,-67951.89594649029,-20977.179226539043
-28175.916156281968,-20510.09482265649,-67899.95049237616,-20932.3416271617
-28168.27185967825,-20480.255243808657,-67938.55195505047,-20938.39894990909
-27886.841045241483,-20442.65960963483,-68036.96668588718,-20982.0519068303
-27631.85234449534,-20440.603249144944,-68083.99475622115,-21020.27338984888
-27905.124772205923,-20492.03461313661,-67966.98337399762,-20983.68358417554
-28160.09112120761,-20490.402935791368,-67909.22646632511,-20935.537926618807
-28150.94925772539,-20448.51576668212,-67936.92027770523,-20925.30082765828
-27874.59228927997,-20407.56737084,-68026.43901424874,-20957.68850537401
-27628.65604503823,-20427.348664682944,-68084.17357017679,-21011.377395555664
-27905.84002802849,-20487.94424390128,-67966.02224898605,-20985.024688842856
-28161.409874130477,-20478.7353251857,-67905.8290011679,-20938.35424642017
-28154.972571727347,-20435.50705140913,-67936.42853932721,-20932.27457192833
-27887.80217025306,-20396.52560907908,-68027.5566014715,-20964.103456032688
-27641.463594611123,-20408.282626662567,-68079.85968349692,-21004.29189256333
-27917.19471421179,-20477.975365874216,-67974.76178106807,-20982.320127763764
-28179.090103994626,-20485.79847643357,-67923.41982405423,-20943.159871478067
-28177.078446993644,-20460.272784265613,-67957.86386225985,-20935.537926618807
-27913.8866560324,-20426.23107746018,-68053.99871516213,-20970.317240991262
-27658.80854830844,-20431.930772296284,-68107.03940475457,-21007.82346818727
-27924.324920693038,-20485.686717711294,-67989.62569113084,-20970.071371802256
-28190.042458777723,-20490.29117706909,-67935.42271082672,-20929.61471433815
-28186.44382792042,-20460.04926682106,-67970.44789438818,-20928.988865493404
-27912.970234509736,-20421.492507635656,-68067.5662240465,-20965.91394733357
-27659.52380413101,-20430.81318507352,-68124.96550380773,-21012.07029963378
-27931.7456998522,-20515.369834347945,-68025.14261307033,-20997.854590160205
-28190.064810522177,-20523.68468328532,-67965.7987315415,-20957.80026409629
-28181.660554606984,-20472.52154022712,-67989.62569113084,-20942.779891822327
-27914.57956011052,-20426.499298393643,-68083.25714865413,-20975.79341838281
-27650.873679026805,-20439.91034506683,-68141.10346330446,-21022.59797127223
-27911.67383333133,-20499.455392295768,-68032.49633699612,-20993.02661335785
-28174.53034812574,-20502.852857452974,-67963.20592918467,-20944.769197078847
-28167.02016198876,-20460.71981915472,-67982.18256022723,-20933.638028340105
-27899.782705281104,-20424.018254759107,-68073.78000900507,-20971.77010438086
-27632.612303806814,-20429.51678389511,-68127.08891953099,-21016.27242759137
-27891.04317319908,-20486.357270044955,-68009.13876404033,-20987.05869758829
-28153.698522293394,-20487.854836923463,-67947.60441155487,-20942.176394722035
-28149.89872573599,-20452.159101028337,-67975.11940897936,-20932.051054483774
-27888.98681270919,-20414.786984299066,-68065.30869785651,-20964.72930487744
-27626.75614675953,-20426.74516758265,-68121.8809630729,-21014.126660123668
-27889.769123765127,-20499.05306089557,-68017.11833681088,-20995.753526181405
-28154.1455571825,-20497.06375563905,-67943.40228359727,-20940.61177261016
-28155.28549614972,-20463.066752322527,-67977.73456308062,-20931.4922608724
-27891.75842902165,-20429.56148738402,-68078.65268929633,-20973.111209048177
-27621.011748434517,-20436.93756305427,-68130.329922477,-21020.22868635997
-27876.067504414023,-20503.43400280881,-68019.93465661224,-20995.1053255922
-28143.01438844376,-20505.66917725434,-67957.52858609303,-20946.46792965745
-28146.031873945223,-20471.89569138237,-67987.52462715204,-20939.181260965022
-27886.416362096832,-20437.29519096556,-68076.64103229536,-20979.123828306656
-27616.94373094365,-20450.25920274964,-68136.20843126875,-21029.72817775347
-27867.35032407645,-20524.28818038561,-68027.62365670486,-21002.593159984728
-28134.92305695093,-20530.144337432903,-67969.55382460997,-20957.06265652927
-28129.42452781493,-20463.938470356283,-67991.793810343,-20940.790586565803
-27866.41155080933,-20418.631484345377,-68080.95491897523,-20971.43482821403
-27588.24409106304,-20427.79569957205,-68148.81481514154,-21019.379320070664
-27832.41454749281,-20486.62549097842,-68038.10662485441,-20989.271520289367
-28109.0844403606,-20502.227008608224,-67980.17090322624,-20951.87705181564
-28115.09705961908,-20472.94622337177,-68011.66451116378,-20950.37948493713
-27852.754634947138,-20432.66837986331,-68102.50200063015,-20982.00720334139
-27568.28398326445,-20431.46138566272,-68156.4367600008,-21024.63198001766
-27808.095849525434,-20493.398069548377,-68037.74899694312,-20996.021747114868
-28079.20015802385,-20500.93060742982,-67961.52954835052,-20947.40670292457
-28082.105884803044,-20473.77323791662,-67988.798676586,-20938.823633053737
-27826.536038701062,-20435.95408629824,-68083.01127946512,-20979.99554634041
-27540.277247461945,-20436.155251998334,-68145.73027440671,-21030.77870974287
-27787.77811381556,-20506.026805165628,-68036.67611320927,-21004.91774140808
-28063.397474693957,-20510.497154056688,-67965.53051060802,-20953.441673927508
-28070.55003291965,-20478.265938552137,-67992.48671442112,-20944.925659290035
-27811.62742514937,-20441.49731892316,-68082.83246550948,-20981.44840973001
-27521.993520497505,-20444.98419105818,-68150.06651283104,-21028.565887041797
-27767.54978508351,-20511.950017446285,-68049.84129069344,-21003.06254661829
-28046.3207419301,-20522.745910018195,-67989.55863589748,-20954.67101987255
-28052.623933866496,-20490.42528753582,-68024.31559852549,-20948.278420958333
-27795.02007901908,-20450.862699849928,-68116.29302695907,-20981.11313356318
-27504.24623539999,-20448.89574633786,-68183.48237079172,-21027.045968418835
-27736.436156801723,-20504.6409970094,-68077.06571544001,-20999.01688087188
-28014.380099103462,-20522.567096062558,-68017.76653740008,-20960.81774959776
-28020.504477084218,-20500.215351607247,-68048.79075870404,-20961.33183972023
-27765.13579668233,-20461.926813355305,-68134.6885126458,-20995.64176745913
-27469.15399660516,-20453.6790196513,-68188.33269933853,-21037.84186099075
-27698.259377272057,-20507.367909832945,-68075.21052065022,-21009.11986936568
-27972.180005571845,-20504.01514816465,-68002.38853721482,-20958.649630385597
-27981.210110331787,-20480.121133341927,-68036.13967134235,-20959.40958969708
-27729.261246831567,-20453.99194407367,-68124.31730321853,-20999.35215703871
-27434.5758479328,-20447.778159115096,-68180.77780971263,-21041.4181401036
-27656.931001774195,-20492.34753755898,-68061.8665292104,-21004.00131988541
-27940.552287167586,-20509.33486334501,-67997.49350517911,-20964.170511266057
-27952.555173940083,-20488.033650879104,-68025.32142702596,-20960.81774959776
-27696.650051671277,-20451.868528350416,-68114.68370135828,-20994.01009011389
-27404.222178962493,-20455.91419409683,-68185.02464115914,-21050.96233498601
-27631.427661350688,-20519.549610561087,-68070.65076478133,-21026.48717480745
-27911.78559205361,-20531.30662814458,-67995.61595864486,-20978.58738643973
-27922.87205730344,-20502.003491163672,-68025.09790958141,-20970.67486890255
-27671.705504859157,-20464.407856989845,-68113.38730017988,-21004.761279196893
-27372.90738498061,-20466.866548879927,-68179.05672538957,-21054.091579209755
-27599.4646667796,-20533.899430501395,-68076.95395671773,-21037.77480575738
-27886.19284465228,-20553.41250341088,-68013.31854025347,-21001.38616578414
-27903.44839137177,-20543.48832887272,-68049.68482848225,-21002.034366373347
-27658.205051208148,-20516.196848892792,-68147.25019302967,-21036.388997601152
-27360.077483663263,-20483.742115943685,-68218.88753400893,-21081.80774233434
-27576.487073479544,-20527.43977635381,-68104.67011984231,-21050.045913463346
-27854.721588459208,-20533.675913056843,-68031.57991547346,-21001.050889617312
-27862.36588506292,-20493.688642226298,-68056.8150349635,-20983.90710162009
-27611.13227738527,-20448.113435281924,-68136.34254173547,-21008.82929668776
-27302.141762035106,-20438.36807469941,-68197.36280409846,-21051.69994255304
-27524.183991454127,-20514.96750294775,-68109.0287100111,-21042.245154648444
-27803.580797145463,-20522.29887512909,-68027.44484274922,-20989.87501738966
-27816.053070551527,-20495.320319571536,-68041.92877315627,-20983.77299115336
-27572.530814710957,-20460.161025543337,-68120.85278282795,-21023.693206750537
-27267.809482551755,-20465.86072037944,-68187.28216734913,-21073.13526548568
-27476.2842030864,-20523.86349724096,-68072.88593922686,-21039.384131358165
-27762.475939092157,-20531.93247698933,-67995.1465720113,-20984.756467909392
-27781.765494557083,-20504.57394177603,-68023.33212176945,-20982.00720334139
-27541.64070387372,-20477.125999584918,-68112.51558214612,-21017.72529098097
-27237.20994439244,-20483.608005476955,-68186.49985629319,-21069.223710206
-27447.159880061132,-20551.803177810096,-68090.99085223566,-21050.582355330276
-27733.61983700035,-20560.36389593648,-68015.50901121009,-21001.609683228697
-27751.836508731427,-20523.48351758522,-68031.31169454,-20990.322052278763
-27508.98480522452,-20467.402990746858,-68104.06662274202,-21010.39391879963
-27204.91167365452,-20470.219310548226,-68180.66605099036,-21064.619250848205
-27413.22993197798,-20535.01701772416,-68073.98117470517,-21039.987628458457
-27698.929929605714,-20533.81002352357,-67986.51879865155,-20986.276386532358
-27716.990139125603,-20493.219255592736,-67997.58291215694,-20973.29002300382
-27485.806046224363,-20452.784949873087,-68077.62450905138,-20999.709784949995
-27180.861196620608,-20453.54490918457,-68155.36387626694,-21053.912765254117
-27381.356344384712,-20517.53795356011,-68050.48949128264,-21028.856459719715
-27675.795874094478,-20535.531107846637,-67975.27587119053,-20984.19767429801
-27694.928967348216,-20493.19690384828,-67998.11935402386,-20973.133560792638
-27463.186080835592,-20458.931679598296,-68086.47579985569,-21006.616473986684
-27155.17904224146,-20459.870452865416,-68165.80214092757,-21062.31702116931
-27354.713064993983,-20522.075357684535,-68068.23677638016,-21044.882660494168
-27649.71138831513,-20539.10738695948,-67994.34190921091,-20997.34050003773
-27672.599574637363,-20507.7925929776,-68016.06780482148,-20982.29777601931
-27433.547667687853,-20462.84323487797,-68096.46702962721,-21005.409479786096
-27119.729175535344,-20464.072580823016,-68173.93817590931,-21059.34423915675
-27316.75980290888,-20518.63318903842,-68072.03657293756,-21036.813680745803
-27611.646367507743,-20530.569020577557,-67990.07272601995,-20987.01399409938
-27643.542306845466,-20510.58656103451,-68019.97936010115,-20987.371622010665
-27409.5195423984,-20475.24845305067,-68096.80230579404,-21013.858439190204
-27093.30941358917,-20467.648859935864,-68163.1422833374,-21055.387980388165
-27304.041660313807,-20543.108349216986,-68074.22704389418,-21050.247079163444
-27603.778553459477,-20548.696285330807,-67981.28849044902,-20995.597063970217
-27628.477231082587,-20503.59046502,-67997.49350517911,-20977.69331666152
-27404.468048151502,-20466.28540352409,-68086.45344811124,-21014.52899152386
-27101.914835204465,-20457.925851097807,-68163.09757984849,-21071.1236084847
-27310.233093527928,-20530.658427555376,-68071.3660206039,-21064.66395433712
-27617.636635021765,-20545.41057889588,-67986.38468818483,-21007.59995074272
-27647.498565614056,-20500.48357254071,-67999.7063278802,-20982.141313808123
-27424.182286761083,-20449.70040913825,-68087.79455277855,-21012.27146533388
-27109.49207657481,-20445.118301524915,-68162.69524844829,-21063.1216839697
-27301.02417481234,-20511.30181685708,-68067.85679672442,-21044.21210816051
-27596.7154022116,-20524.22112515225,-67981.80258057149,-20986.790476654827
-27628.119603171304,-20496.01322364965,-67997.78407785702,-20976.240453271923
-27401.987004516963,-20445.61003990293,-68076.03753519506,-21004.58246524125
-27080.16658784945,-20436.356417698436,-68152.74872216568,-21053.26456466491
-27269.23999419689,-20507.569075533043,-68065.0181251786,-21039.562945313806
-27568.105169308805,-20518.499078571687,-67980.77440032654,-20988.600967955703
-27593.58615798785,-20485.06086886655,-67994.47601967765,-20970.898386347104
-27373.42147510308,-20455.53421444109,-68080.84316025295,-21004.761279196893
-27055.222041037327,-20456.875319108407,-68160.4377222583,-21057.69021006706
-27240.16037466054,-20525.897505986395,-68064.77225598959,-21039.51824182489
-27546.2004597426,-20540.49319511571,-67983.09898174989,-20988.891540633624
-27576.55412871291,-20500.05888939606,-68004.84722910491,-20973.44648521501
-27354.5566027828,-20458.14936854236,-68096.31056741602,-21005.185962341544
-27031.35037795906,-20448.694580637763,-68178.18500735582,-21057.51139611142
-27216.71339472692,-20511.592389535,-68090.58852083546,-21050.336486141263
-27520.92063676365,-20529.04910195459,-68002.63440640383,-21000.38033728365
-27552.63776214573,-20500.14829637388,-68023.555639214,-20986.298738276808
-27332.40602402759,-20466.218348290724,-68104.08897448647,-21012.29381707833
-27001.086115966573,-20455.24364176317,-68178.56498701156,-21057.77961704488
-27177.597841930132,-20517.04621518209,-68084.57590157699,-21039.987628458457
-27483.4367613121,-20540.068511971054,-67999.23694124662,-20989.405630756097
-27515.53386634992,-20504.01514816465,-68018.86177287839,-20974.407610226583
-27295.235072998414,-20465.279575023604,-68104.73717507567,-21003.420174529576
-26964.49631029324,-20455.89184235237,-68184.04116440311,-21052.057570464323
-27139.354007167105,-20523.17059316285,-68095.01416623761,-21040.83699474776
-27439.51558345742,-20536.939267747315,-68015.62076993237,-20990.880845890148
-27473.57964200731,-20507.21144762176,-68038.97834288816,-20979.70497366249
-27252.94557248897,-20464.51961571212,-68115.93539904778,-21008.896351921125
-26922.407975483893,-20454.126054540404,-68192.15484764038,-21055.544442599352
-27091.07423914364,-20512.82173548004,-68095.19298019326,-21034.131471411165
-27400.53414112737,-20545.25411668469,-68021.74514791313,-20989.830313900748
-27436.341635744768,-20519.77312800564,-68040.54296500003,-20977.045116072317
-27223.62008376361,-20484.792647933085,-68117.79059383758,-21004.31424430779
-26900.97265255125,-20474.28732803909,-68199.48621982172,-21062.9205182696
-27067.38139002101,-20522.835316996017,-68104.35719541993,-21048.54834658484
-27378.584728072256,-20538.705055559287,-68019.50997346759,-20998.212218071487
-27420.09191752576,-20508.35138658898,-68044.92390691327,-20993.317186035776
-27208.219731833902,-20464.161987800835,-68117.83529732648,-21018.44054680354
-26880.23023369673,-20459.535176698588,-68198.9944814437,-21072.12943698519
-27050.34936074607,-20522.902372229382,-68109.81102106703,-21060.48417812397
-27365.665419777088,-20536.2463636692,-68023.01919734708,-21009.58925599924
-27409.363080187213,-20504.39512782039,-68045.75092145812,-20998.27927330485
-27199.18962707396,-20467.023011091114,-68126.7759951086,-21020.78747997135
-26863.80170152208,-20450.482720194188,-68204.98474895772,-21066.519149126907
-27028.310540713137,-20514.989854692205,-68124.4737654297,-21060.998268246447
-27344.028931144352,-20542.57190735005,-68046.44382553623,-21014.752508968417
-27385.558472342316,-20514.319302358545,-68055.67509599628,-20996.58054072625
-27178.067228563694,-20476.00841236215,-68123.13266076239,-21017.658235747604
-26854.07869268402,-20471.47100823772,-68200.71556576676,-21064.30632642583
-27017.402889418947,-20518.58848554951,-68100.89267502936,-21041.172270914587
-27329.05326235929,-20515.593351792497,-68000.66745289176,-20979.660270173583
-27376.61777456019,-20485.73142120021,-68022.01336884659,-20967.657383401085
-27174.55800468421,-20448.04638004856,-68095.72942206019,-20994.367718025176
-26848.98249494821,-20436.490528165166,-68174.36285905396,-21043.74272152695
-27010.429145148893,-20503.366947575447,-68090.00737547963,-21033.997360944435
-27331.288436804825,-20527.41742460936,-68003.28260699303,-20987.706898177494
-27380.261108906405,-20489.77708694662,-68012.96091234218,-20963.74582812141
-27180.861196620608,-20444.20188000225,-68086.22993066668,-20987.729249921947
-26852.75993976116,-20430.455557162237,-68170.9877456412,-21044.815605260803
-27007.657528836437,-20490.358232302457,-68081.20078816423,-21032.298628365832
-27324.69467219051,-20509.267808111646,-67988.77632484154,-20977.91683410607
-27370.761617512897,-20480.59051997549,-68008.13293553983,-20966.025706055847
-27164.790292357244,-20441.318504967512,-68084.95588123273,-20992.668985446573
-26826.16136385934,-20423.057129747525,-68168.28318456211,-21039.428834847076
-26979.89666222294,-20491.05113638057,-68081.20078816423,-21030.46578532049
-27297.850227099687,-20506.87617145493,-67987.5469788965,-20975.3016800048
-27346.10764337869,-20474.28732803909,-68002.43324070373,-20956.63797338462
-27139.97985601185,-20437.58576364348,-68079.25618639663,-20981.359002752182
-26808.10115433945,-20440.67030437831,-68173.02175438665,-21039.60764880272
-26956.02499914468,-20501.176476618824,-68090.40970687983,-21030.130509153667
-27271.877500042618,-20511.1900581348,-68004.55665642698,-20980.420229485066
-27325.052300101797,-20486.312566556047,-68032.87631665186,-20972.597118925707
-27129.630998329045,-20446.99584805916,-68107.73230883268,-20993.63011045815
-26800.30039552455,-20436.781100843087,-68197.65337677639,-21047.3190006398
-26948.00072288522,-20504.261017353656,-68112.85085831296,-21038.937096469057
-27269.195290707983,-20534.59233457951,-68020.62756069035,-20988.355098766697
-27324.091175090216,-20507.09968889948,-68036.09496785342,-20973.379429981644
-27131.59795184111,-20465.4807407237,-68113.67787285779,-20999.709784949995
-26790.8232558755,-20441.542022412064,-68191.9983854292,-21040.792291258847
-26932.7568331667,-20491.81109569205,-68107.44173615477,-21023.760261983905
-27256.94653474648,-20511.43592732381,-68013.2514850201,-20967.14329327861
-27311.52949470633,-20487.43015377881,-68030.86465965089,-20953.32991520523
-27125.0041872268,-20453.455502206743,-68103.15020121935,-20979.5038079624
-26795.807694889038,-20439.083330521986,-68187.32687083803,-21029.52701205337
-26949.16301359689,-20499.3883370624,-68101.60793085193,-21018.37349157017
-27279.76766583534,-20523.617628051958,-68011.08336580794,-20965.981002566936
-27339.42447178656,-20489.128886357412,-68026.23784854864,-20944.992714523403
-27151.915687550987,-20446.504109681144,-68104.51365763112,-20969.557281679783
-26815.656043965348,-20432.489565907665,-68193.18302788533,-21025.63780851815
-26950.638228730943,-20491.69933696977,-68109.8780763004,-21018.88758169265
-27277.82306406773,-20523.28235188512,-68019.46526997868,-20972.82063637026
-27333.568314739263,-20494.314491071047,-68035.37971203086,-20957.30852571828
-27145.12075723657,-20453.50020569565,-68111.66621585682,-20981.8507411302
-26807.385898516884,-20438.63629563288,-68201.07319367805,-21038.19948890203
-26941.071682104077,-20501.936435930307,-68116.51654440362,-21034.220878388987
-27261.34982840417,-20517.694415771297,-68016.8054123885,-20981.42605798555
-27321.45366924449,-20485.19497933328,-68034.84327016392,-20970.518406691364
-27140.42689090096,-20444.13482476888,-68106.41355590982,-20997.273444804367
-26808.30232003955,-20435.32823745349,-68185.35991732597,-21043.58625931576
-26950.8617461755,-20502.003491163672,-68102.45729714124,-21033.32680861077
-27287.702535116976,-20530.12198568845,-68002.88027559285,-20980.24141552942
-27349.974495169463,-20492.369889303434,-68016.64895017732,-20961.980040309438
-27166.75724586931,-20453.76842662912,-68093.00250923664,-20985.62818594315
-26834.520916285623,-20439.217440988712,-68185.02464115914,-21039.898221480635
-26964.697475993333,-20477.260110051648,-68102.43494539677,-21029.482308564464
-27292.41875319705,-20492.593406747987,-68004.78017387155,-20969.937261335526
-27360.636277274643,-20467.73826691369,-68021.58868570194,-20955.63214488413
-27185.62211818959,-20431.573144385,-68093.06956447,-20977.60390968369
-26848.446053081283,-20416.28455117757,-68182.63300450242,-21027.761224241403
-26980.120179667498,-20487.407802034355,-68109.63220711138,-21027.40359633012
-27313.45174472949,-20511.88296221292,-68012.98326408664,-20977.805075383792
-27379.791722272843,-20474.354383272457,-68025.96962761518,-20956.168586751057
-27204.53169399878,-20435.462347920224,-68101.8761517854,-20977.87213061716
-26868.22734692423,-20419.860830290418,-68198.23452213223,-21033.59502954424
-26990.33492688357,-20475.96370887324,-68124.07143402952,-21025.146070140134
-27322.325387278248,-20506.026805165628,-68023.39917700281,-20967.92560433455
-27389.782952044363,-20476.4330955068,-68034.32918004146,-20948.94897329199
-27213.472391780902,-20437.25048747665,-68109.49809664466,-20975.234624771438
-26871.870681270444,-20418.631484345377,-68200.8943797224,-21025.88367770716
-26991.944252484354,-20472.230967549203,-68128.98881780969,-21021.994474171934
-27324.31469253477,-20494.09097362649,-68026.86369739339,-20968.797322368304
-27390.98994624495,-20470.73340067069,-68037.72664519867,-20950.71476110396
-27220.513191284324,-20437.80928108803,-68104.53600937557,-20972.79828462581
-26880.36434416346,-20419.860830290418,-68184.77877197013,-21020.139279382143
-27003.76832530121,-20488.92772065732,-68117.65648337084,-21021.54743928283
-27346.77819571235,-20517.38149134892,-68026.304903782,-20973.468836959462
-27421.74594661545,-20479.3835257749,-68030.35056952841,-20947.45140641349
-27255.650133568062,-20436.80345258754,-68096.13175346039,-20964.72930487744
-26923.480859217747,-20422.744205325154,-68185.11404813697,-21016.719462480483
-27048.15888978945,-20479.53998798609,-68107.30762568803,-21012.025596144867
-27402.70226033953,-20507.591427277497,-68002.52264768156,-20959.92367981955
-27483.92849969012,-20480.456409508755,-68018.72766241165,-20945.95383953498
-27323.89000939012,-20444.58185965799,-68094.1200964594,-20974.0499823153
-26994.2241304188,-20430.120280995405,-68186.61161501547,-21025.995436429435
-27109.290910874715,-20489.307700313057,-68117.18709673728,-21021.79330847184
-27451.652580696653,-20513.648750024888,-68021.02989209055,-20967.187996767523
-27533.348206680803,-20487.00547063416,-68038.19603183222,-20947.853737813683
-27367.36415235569,-20445.252411991645,-68106.05592799853,-20964.63989789962
-27026.00831103424,-20424.33117918148,-68202.23548438972,-21016.473593291477
-27134.213105942385,-20479.51763624163,-68134.42029171232,-21016.3618345692
-27475.90422343066,-20502.227008608224,-68027.46719449369,-20961.845929842704
-27555.16350926918,-20478.3329937855,-68032.47398525166,-20947.0937785022
-27399.48360913797,-20444.60421140244,-68096.66819532731,-20970.18313052453
-27068.007238865765,-20429.874411806395,-68189.02560341664,-21023.06735790579
-27170.132359282063,-20468.699391925264,-68103.21725645271,-21008.896351921125
-27512.6951948041,-20488.88301716841,-67995.5489034115,-20949.463063414463
-27602.66096623671,-20473.057982094047,-68013.27383676457,-20938.2424876979
-27446.98106610549,-20436.93756305427,-68079.47970384118,-20961.28713623132
-27117.806925512188,-20408.4167371293,-68181.35895506847,-21021.458032305007
-27226.3246448427,-20459.13284529839,-68108.73813733317,-21018.17232587008
-27577.26938453548,-20491.520523014133,-68005.54013318302,-20964.90811883308
-27663.10008324386,-20461.747999399664,-68019.28645602304,-20947.473758157943
-27508.98480522452,-20424.04060650356,-68091.01320398011,-20974.988755582424
-27172.211071516405,-20407.723833051183,-68179.72727772323,-21027.180078885565
-27269.10588373016,-20459.222252276213,-68109.49809664466,-21019.13345088165
-27616.496696054543,-20481.88692115389,-68005.0036913161,-20965.310450233275
-27707.043612842997,-20459.3787144874,-68017.11833681088,-20949.82069132575
-27547.429805687643,-20424.86762104841,-68085.84995101094,-20970.00431656889
-27201.76007768632,-20407.835591773463,-68183.50472253618,-21021.30157009382
-27299.034869555817,-20469.01231634764,-68124.60787589644,-21024.65433176212
-27643.43054812319,-20504.57394177603,-68025.9025723818,-20975.614604427174
-27725.461450274164,-20468.989964603184,-68036.76552018708,-20951.54177564881
-27565.601773929808,-20426.56635362701,-68103.19490470826,-20964.72930487744
-27225.184705875483,-20406.405080128323,-68202.9954437012,-21016.697110736022
-27312.803544140286,-20463.379676744906,-68137.25896325815,-21013.076128134267
-27654.651123839754,-20494.62741549342,-68027.78011891605,-20959.0966652747
-27739.319531836456,-20471.225139048714,-68030.14940382831,-20937.773101064337
-27586.25478580651,-20432.89189730786,-68089.5156371016,-20949.887746559118
-27250.039845709784,-20414.3175976655,-68186.61161501547,-21003.86720941868
-27338.910381664085,-20469.548758214565,-68122.86443982893,-21006.97410189797
-27687.50818818905,-20502.271712097136,-68016.87246762187,-20955.654496628584
-27777.11633171038,-20471.94039487128,-68019.57702870095,-20933.459214384464
-27632.612303806814,-20435.08236826448,-68088.53216034558,-20956.52621466234
-27299.72777363393,-20412.03771973106,-68183.16944636934,-21009.18692459905
-27387.99481248794,-20470.55458671505,-68120.29398921657,-21009.946883910525
-27739.43129055873,-20503.56811327554,-68018.21357228918,-20963.00822055438
-27835.275570783087,-20473.281499538603,-68019.17469730075,-20941.57289762174
-27687.351725977867,-20428.287437950068,-68079.70322128573,-20953.039342527318
-27348.02989340185,-20411.680091819777,-68176.75449571067,-21010.550381010817
-27433.34650198776,-20458.81992087602,-68103.15020121935,-21005.431831530557
-27788.44866614922,-20479.69645019728,-67990.45270567569,-20944.85860405667
-27887.3327836195,-20457.85879586444,-67999.86279009137,-20930.75465330537
-27748.05906391848,-20422.118356480405,-68063.1182268999,-20947.630220369127
-27416.2697692239,-20410.56250459701,-68166.62915547242,-21002.88373266265
-27507.66605230165,-20472.432133249305,-68106.50296288765,-21009.16457285459
-27865.629239753394,-20505.512715043154,-68005.31661573847,-20962.00239205389
-27960.75826415518,-20471.58276696,-68004.19902851571,-20932.43103413952
-27813.37086121689,-20432.981304285684,-68065.35340134542,-20945.66326685706
-27475.077208885818,-20409.131992951872,-68167.32205955054,-21002.88373266265
-27550.715512122573,-20460.876281365905,-68114.14725949136,-21007.19761934252
-27897.18990292429,-20488.212464834745,-68006.03187156103,-20949.105435503177
-27994.68821223834,-20462.44090347778,-68010.41281347428,-20925.74786254738
-27852.88874541387,-20428.53330713908,-68074.98700320566,-20940.76823482135
-27512.225808170537,-20406.673301061783,-68171.7924084416,-20992.37841276865
-27586.34419278433,-20457.56822318652,-68122.23859098418,-21003.710747207493
-27936.417214443358,-20489.93354915781,-68019.28645602304,-20959.47664493044
-28031.233314422767,-20465.257223279143,-68021.43222349074,-20940.052978998778
-27882.70597251725,-20431.640199618363,-68087.01224172262,-20956.5485664068
-27530.84481130181,-20407.634426073364,-68188.37740282743,-21010.12569786617
-27589.719306197087,-20469.2805372811,-68137.70599814726,-21021.10040439372
-27938.07124353305,-20499.43304055131,-68027.08721483794,-20968.81967411276
-28034.429613879875,-20462.753827900156,-68028.808299161,-20941.37173192164
-27890.84200749898,-20422.967722769707,-68094.99181449316,-20957.42028444055
-27543.138270752224,-20402.44882135973,-68193.78652498563,-21013.411404301096
-27606.326652327378,-20462.03857207758,-68135.02378881261,-21020.005168915413
-27959.48421472123,-20498.42721205082,-68025.2543717926,-20968.797322368304
-28054.657942611928,-20467.917080869327,-68027.89187763834,-20943.159871478067
-27915.09365023299,-20437.49635666565,-68091.50494235814,-20957.397932696094
-27571.793207143928,-20409.914304007805,-68181.11308587946,-21003.73309895195
-27626.71144327062,-20455.95889758574,-68124.69728287426,-21006.68352922005
-27975.5551189846,-20494.470953282234,-68027.19897356021,-20959.700162374997
-28072.762855620727,-20472.76740941613,-68032.07165385147,-20939.628295854127
-27924.660196859862,-20430.61201937342,-68094.45537262624,-20954.51455766136
-27570.13917805424,-20408.506144107123,-68197.56396979856,-21012.562038011794
-27617.81544897741,-20471.96274661574,-68146.66904767383,-21025.704863751514
-27958.25486877619,-20506.20561912127,-68030.5070317396,-20970.786627624828
-28055.440253667864,-20477.461275751743,-68034.55269748601,-20951.139444248613
-27913.0372897431,-20435.21647873121,-68092.4213638808,-20968.037363056825
-27559.678561649154,-20409.131992951872,-68192.57953078503,-21018.552305525816
-27601.342213313845,-20466.084237823998,-68139.9858760817,-21024.050834661823
-27947.973066326747,-20506.362081332456,-68030.21645906169,-20974.586424182227
-28045.94076227436,-20476.991889118184,-68030.03764510604,-20953.262859971863
-27904.074240216523,-20442.50314742365,-68099.81979129551,-20972.9994503259
-27549.575573155355,-20411.70244356423,-68198.56979829905,-21024.050834661823
-27581.024477603973,-20456.495339452667,-68148.77011165263,-21031.806889987816
-27925.889542804904,-20494.985043404704,-68040.25239232212,-20984.10826732019
-28021.95734047381,-20473.77323791662,-68036.564354487,-20961.801226353797
-27880.917832960826,-20442.413740445823,-68098.74690756165,-20977.53685445033
-27525.01100599897,-20417.51389712261,-68204.42595534635,-21032.768014999398
-27552.414244701176,-20467.69356342477,-68155.43093150032,-21039.78646275836
-27886.081085930004,-20498.29310158409,-68041.10175861142,-20979.97319459596
-27979.354915542,-20471.94039487128,-68043.04636037903,-20951.87705181564
-27835.387329505367,-20434.009484530627,-68101.78674480757,-20967.76914212336
-27481.31334558885,-20415.837516288462,-68207.57755131455,-21030.73400625396
-27516.807915783877,-20475.114342583936,-68159.23072805771,-21040.38995985865
-27861.628277495896,-20506.764412732653,-68041.48173826716,-20982.2530725304
-27964.31219152357,-20485.753772944663,-68042.17464234527,-20958.113188518662
-27826.468983467697,-20442.637257890376,-68097.20463719424,-20969.669040402063
-27468.52814776041,-20409.04258597405,-68198.1451151544,-21017.43471830305
-27492.73508700551,-20455.04247606307,-68145.79732964007,-21021.79330847184
-27846.45144301074,-20503.456354553266,-68038.41954927678,-20980.82256088526
-27949.761205883173,-20482.95980488775,-68033.99390387462,-20957.57674665174
-27820.07638455348,-20447.71110388173,-68094.67889007079,-20973.87116835966
-27473.646697240674,-20416.35160641093,-68183.30355683608,-21014.14901186812
-27498.367726608245,-20463.11145581144,-68134.17442252331,-21014.77486071287
-27844.775062176595,-20509.267808111646,-68029.52355498356,-20969.445522957507
-27957.830185631537,-20487.29604331208,-68028.11539508289,-20947.116130246657
-27828.011253835117,-20446.5264614256,-68085.33586088847,-20959.0966652747
-27477.021810653427,-20417.11156572241,-68185.24815860369,-21009.2092763435
-27501.25110164298,-20465.95012735726,-68143.94213485028,-21023.06735790579
-27850.251239568144,-20500.4388690518,-68033.14453758532,-20974.74288639341
-27957.0478745756,-20476.2319298067,-68035.42441551977,-20952.212327982463
-27828.07830906848,-20438.34572295496,-68093.58365459248,-20967.635031656628
-27476.015982152938,-20409.08728946296,-68186.41044931537,-21013.52316302337
-27490.92459570463,-20454.506034196143,-68144.81385288404,-21019.42402355957
-27841.623466208395,-20501.53410453011,-68034.59740097492,-20973.8488166152
-27953.896278607404,-20470.934566370797,-68033.0551306075,-20952.90523206058
-27826.87131486789,-20432.198993229747,-68096.10940171593,-20971.85951135868
-27464.549537247367,-20392.8152194995,-68190.97020518425,-21016.473593291477
-27479.27933684341,-20453.90253709585,-68153.66514368834,-21034.220878388987
-27827.94419860175,-20498.42721205082,-68045.61681099139,-20989.04800284481
-27938.96531331126,-20479.651746708365,-68046.48852902514,-20968.55145317929
-27800.965643044197,-20432.33310369648,-68097.38345114989,-20969.736095635428
-27451.71963593002,-20410.42839413028,-68206.32585362505,-21024.67668350657
-27459.587449978288,-20457.32235399751,-68161.71177169225,-21033.37151209969
-27801.52443665557,-20489.95590090226,-68049.4613110377,-20978.877959117646
-27919.876923546428,-20473.77323791662,-68054.5128052846,-20959.76721760836
-27789.49919813862,-20436.021141531604,-68106.45825939873,-20974.2511480154
-27433.458260710035,-20407.500315606638,-68201.96726345626,-21022.59797127223
-27436.453394467044,-20454.394275473867,-68156.72733267873,-21027.202430630023
-27778.43508463324,-20489.10653461296,-68038.75482544361,-20971.77010438086
-27891.80313251056,-20469.77227565912,-68041.57114524498,-20953.10639776068
-27769.516738595576,-20436.26701072061,-68101.4738203852,-20971.904214847596
-27415.576865145787,-20409.355510396425,-68209.0527664486,-21024.944904440035
-27413.498152911445,-20458.81992087602,-68168.12672235092,-21033.460919077508
-27761.58186931394,-20508.798421478084,-68054.33399132895,-20982.29777601931
-27871.99948692316,-20485.53025550011,-68050.19891860473,-20957.68850537401
-27746.472090062158,-20454.684848151785,-68118.08116651549,-20981.157837052087
-27387.52542585438,-20418.072690733992,-68217.34526364152,-21033.349160355232
-27380.52932983987,-20456.785912130585,-68174.76519045416,-21046.2684686504
-27723.58390373992,-20495.14150561589,-68058.80434022001,-20993.96538662498
-27831.07344282549,-20464.4302087343,-68044.99096214664,-20962.896461832104
-27703.44498198569,-20427.19220247176,-68095.7741255491,-20977.469799216964
-27340.989093898428,-20398.89489399134,-68192.51247555167,-21022.866192205693
-27341.23496308744,-20457.81409237553,-68166.83032117251,-21045.77673027238
-27687.77640912252,-20492.459296281257,-68045.21447959119,-20992.11019183519
-27799.60218663242,-20471.202787304257,-68041.81701443398,-20961.376543209142
-27676.66759212823,-20437.4740049212,-68101.8761517854,-20977.805075383792
-27319.240846543416,-20400.973606225685,-68205.38708035792,-21029.281142864365
-27302.78996262431,-20445.38652245838,-68167.74674269519,-21039.25002089143
-27645.84453652436,-20489.665328224342,-68052.36703781689,-20988.600967955703
-27758.899659979303,-20469.124075069914,-68049.64012499334,-20964.57284266625
-27631.204143906136,-20431.39433042936,-68108.49226814417,-20976.687488161027
-27271.27400294233,-20403.90168474933,-68211.75732752768,-21026.48717480745
-27250.710398043444,-20453.00846731764,-68173.75936195366,-21039.384131358165
-27591.306280053414,-20500.505924285168,-68058.40200881983,-20991.52904647935
-27708.250607043577,-20479.987022875197,-68052.56820351699,-20965.24339499991
-27587.55118698492,-20446.973496314706,-68110.10159374496,-20979.414400984573
-27228.20219137695,-20420.620789601897,-68214.97597872926,-21035.36081735621
-27204.844618421157,-20465.63720293489,-68179.7943329566,-21049.375361129685
-27549.24029698853,-20522.790613507103,-68074.83054099447,-21008.270503076372
-27669.76090309154,-20508.35138658898,-68074.7187822722,-20988.556264466795
-27547.49686092101,-20457.232947019693,-68111.88973330137,-20994.121848836166
-27188.10316182413,-20422.498336136145,-68204.58241755753,-21040.27820113637
-27158.732969609853,-20473.370906516426,-68169.95956539626,-21050.582355330276
-27499.217092897547,-20514.96750294775,-68050.64595349383,-20997.809886671293
-27619.290664111457,-20487.09487761198,-68040.18533708875,-20966.62920315614
-27504.223883655537,-20445.878260836394,-68094.74594530415,-20981.29194751882
-27149.568754383177,-20417.37978665588,-68199.57562679955,-21032.45509057702
-27124.110117448585,-20478.57886297451,-68173.42408578683,-21053.68924780956
-27462.627287224208,-20513.02290118014,-68051.92000292779,-20996.1558575816
-27587.08180035136,-20483.80917117705,-68050.64595349383,-20971.23366251393
-27466.963525648534,-20440.08915902247,-68104.2230849532,-20978.63208992864
-27108.441544585414,-20414.80933604352,-68209.56685657107,-21034.37734060017
-27074.6904104579,-20463.53613895609,-68174.20639684277,-21055.052704221333
-27416.739155857464,-20501.802325463574,-68047.87433718138,-21003.28606406284
-27543.764119596974,-20477.81890366303,-68041.70525571171,-20975.90517710509
-27430.41842346411,-20443.978362557693,-68100.75856456262,-20988.48920923343
-27075.38331453601,-20414.36230115441,-68203.28601637912,-21038.35595111322
-27039.329950729603,-20457.009429575137,-68171.30067006357,-21054.985648987968
-27383.56916708579,-20505.17743887633,-68053.61873550639,-21003.375471040665
-27517.65728207317,-20492.392241047888,-68057.03855240805,-20980.599043440707
-27407.016147019407,-20463.782008145092,-68119.22110548272,-20993.11602033568
-27051.48929971329,-20440.580897400487,-68221.59209508802,-21045.374398872187
-27009.512723626223,-20475.7848949176,-68189.09265865,-21056.12558795519
-27355.495376049923,-20514.20754363627,-68074.11528517191,-21005.34242455273
-27485.24725261298,-20497.37668006142,-68063.87818621137,-20973.80411312629
-27374.717876281487,-20463.066752322527,-68117.52237290412,-20979.77202889586
-27025.65068312296,-20424.2194204592,-68223.67080732237,-21030.44343357604
-26986.95981347082,-20463.156159300343,-68195.77583024214,-21045.083826194263
-27335.714082206978,-20504.84216270949,-68071.50013107063,-20991.841970901725
-27464.638944225186,-20483.71976419923,-68063.29704085554,-20961.48830193142
-27359.831614474253,-20463.49143546718,-68126.86540208643,-20982.588348697227
-27008.10456372554,-20437.76457759912,-68236.4113016619,-21040.233497647467
-26959.020132901685,-20463.67024942282,-68209.11982168196,-21055.991477488456
-27306.053317314785,-20509.670139511843,-68090.14148594635,-21006.750584453417
-27439.09090031277,-20487.810133434552,-68073.78000900507,-20973.80411312629
-27329.07561410375,-20447.174662014804,-68127.826527098,-20979.70497366249
-26978.53320581117,-20425.89580129335,-68244.2120604768,-21035.74079701195
-26927.57122845307,-20472.700354182765,-68215.53477234063,-21054.091579209755
-27273.240956454392,-20520.48838382821,-68090.02972722409,-21004.18013384105
-27410.19009473206,-20501.06471789655,-68075.74696251714,-20976.016935827367
-27308.73552664942,-20465.90542386835,-68124.8760968299,-20986.76812491037
-26957.187289856352,-20433.42833917479,-68223.67080732237,-21033.37151209969
-26905.398297953405,-20470.979269859705,-68202.90603672339,-21052.41519837561
-27254.30902890075,-20512.687625013303,-68080.4184771083,-21001.497924506417
-27394.45446663552,-20497.309624828056,-68066.78391299056,-20972.23949101442
-27291.390572952103,-20453.58961267348,-68114.23666646918,-20980.26376727388
-26947.531336251657,-20416.91040002232,-68221.81561253258,-21032.790366743848
-26894.37888793694,-20464.18433954529,-68204.35890011297,-21052.325791397787
-27242.127328172606,-20511.12300290144,-68085.6711370553,-21005.32007280828
-27386.743114798443,-20485.709069455752,-68068.30383161352,-20975.92752884955
-27289.02128803984,-20447.39817945936,-68113.07437575751,-20979.079124817745
-26943.776243183165,-20413.155306953824,-68212.42787986135,-21025.25782886241
-26896.211730982275,-20457.34470574197,-68190.09848715049,-21043.943887227048
-27253.459662611447,-20509.848953467485,-68072.34949735993,-20996.222912814967
-27403.93160628457,-20485.30673805556,-68052.27763083907,-20957.174415251546
-27315.26223603037,-20441.877298578896,-68102.99373900816,-20967.92560433455
-26974.845167976044,-20401.95708298172,-68202.72722276775,-21019.82635495977
-26918.02703357065,-20448.80633936004,-68182.70005973578,-21039.384131358165
-27270.0893604862,-20507.658482510866,-68066.18041589027,-20991.573749968265
-27422.41649894911,-20483.898578154876,-68056.70327624123,-20963.410551954574
-27333.81418392828,-20445.29711548056,-68110.90625654534,-20973.468836959462
-26999.968528743808,-20418.340911667456,-68219.66984506487,-21027.045968418835
-26938.23301055825,-20457.031781319594,-68195.41820233085,-21045.82143376129
-27290.96588980745,-20504.21631386475,-68077.91508172931,-20997.98870062693
-27439.694397413063,-20477.930662385304,-68056.52446228558,-20959.968383308456
-27353.237849859936,-20445.341818969468,-68107.41938441031,-20970.74192413592
-27012.485505638782,-20417.71506282271,-68214.86422000697,-21020.653369504616
-26948.872440918974,-20456.54004294158,-68202.5037053232,-21044.189756416054
-27299.951291078483,-20504.05985165356,-68075.70225902823,-20992.691337191027
-27457.86636565523,-20491.609929991955,-68059.20667162021,-20962.13650252062
-27373.644992547637,-20458.64110692037,-68106.57001812101,-20970.83133111373
-27035.373691961016,-20429.13680423937,-68215.15479268489,-21021.078052649267
-26960.920031180387,-20452.4273219618,-68195.21703663075,-21037.618343546197
-27309.473134216445,-20496.01322364965,-68078.07154394049,-20989.517389478373
-27465.689476214586,-20477.371868773924,-68067.65563102432,-20956.48151117343
-27377.914175738595,-20434.836499075474,-68111.93443679028,-20956.347400706694
-27046.661322910943,-20404.169905682797,-68222.19559218832,-21010.63978798864
-26982.40005760194,-20444.85008059145,-68204.11303092397,-21034.600858044727
-27334.64119847312,-20486.29021481159,-68076.46221833972,-20983.05773533079
-27491.90807246066,-20460.67511566581,-68052.27763083907,-20943.964534278457
-27411.598254632743,-20426.16402222681,-68098.03165173909,-20950.066560514755
-27078.020820381746,-20403.409946371317,-68208.62808330395,-21003.755450696404
-27001.46609562232,-20440.37973170039,-68194.03239417463,-21025.749567240426
-27354.444844060523,-20491.43111603631,-68070.49430257015,-20979.05677307329
-27511.62231107024,-20475.159046072848,-68048.79075870404,-20940.56706912125
-27430.373719975203,-20435.842327575963,-68094.3212621595,-20944.72449358994
-27095.321070590147,-20402.60528357092,-68198.39098434341,-20994.07714534725
-27021.180334231896,-20447.59934515945,-68193.87593196344,-21024.520221295385
-27368.12411166717,-20497.24256959469,-68070.09197116995,-20979.950842851504
-27529.72722407904,-20474.510845483645,-68049.2601453376,-20948.01020002487
-27452.88192664169,-20448.26989749311,-68107.3746809214,-20966.87507234515
-27120.578541824645,-20426.186373971268,-68208.94100772632,-21021.189811371543
-27039.218192007327,-20462.262089522137,-68189.71850749475,-21045.217936661
-27383.211539174503,-20492.548703259075,-68061.4641978102,-20995.507656992395
-27546.289866720424,-20462.03857207758,-68039.91711615528,-20962.069447287256
-27468.617554738237,-20431.148461240347,-68085.22410216619,-20967.61267991217
-27136.113004221083,-20411.70244356423,-68194.88176046393,-21020.854535204715
-27058.15011956097,-20468.74409541417,-68185.47167604824,-21047.475462850984
-27407.574940630788,-20496.75083121668,-68062.44767456624,-20999.419212272074
-27568.306335008903,-20448.29224923757,-68041.63820047834,-20963.63406939913
-27492.35510734977,-20409.04258597405,-68091.66140456933,-20970.38429622463
-27158.196527742926,-20376.63255651385,-68198.88272272144,-21015.15484036861
-27075.42801802493,-20429.069749006005,-68202.57076055655,-21047.20724191752
-27419.019033791905,-20483.20567407676,-68079.74792477464,-20999.59802622772
-27586.567710228886,-20467.648859935864,-68055.1610058738,-20962.561185665272
-27511.957587237077,-20434.50122290864,-68108.78284082208,-20965.086932788723
-27182.694039665945,-20397.55378932402,-68218.12757469744,-21016.697110736022
-27096.997451424297,-20429.717949595208,-68209.23158040423,-21040.45701509202
-27446.86930738322,-20478.400049018863,-68092.06373596951,-20988.53391272234
-27619.625940278285,-20464.47491222321,-68072.72947701567,-20952.257031471378
-27546.245163231517,-20429.04739726155,-68114.43783216928,-20955.878014073136
-27212.891246425064,-20392.882274732863,-68222.70968231079,-21004.381299541157
-27121.718480791867,-20430.05322576204,-68222.41910963287,-21033.25975337741
-27469.399865794167,-20482.490418254187,-68098.322224417,-20987.461028988484
-27639.608399821333,-20469.459351236743,-68072.64007003786,-20947.741979091406
-27563.4560064621,-20450.370961471912,-68118.25998047114,-20953.218156482955
-27232.06904316772,-20422.721853580697,-68223.15671719989,-21003.084898362744
-27131.12856520755,-20454.170758029315,-68215.11008919598,-21025.950732940524
-27475.39013330819,-20496.460258538755,-68089.13565744588,-20977.738020150427
-27648.884373770285,-20475.20374956176,-68068.95203220272,-20944.67979010103
-27573.223718789068,-20438.14455725486,-68115.44366066977,-20951.273554715342
-27232.38196759009,-20403.879333004872,-68213.83603976203,-20997.809886671293
-27126.52410584976,-20434.74709209765,-68217.34526364152,-21028.096500408235
-27475.01015365245,-20485.01616537764,-68092.08608771398,-20982.610700441684
-27650.6278098378,-20471.985098360197,-68066.9627269462,-20950.80416808178
-27582.58909971584,-20441.09498752296,-68114.86251531393,-20963.611717654672
-27250.688046298987,-20393.75399276662,-68212.38317637243,-21006.996453642423
-27141.343312423625,-20417.692711078253,-68200.8496762335,-21027.381244585664
-27484.040258412395,-20473.97440361672,-68073.40002934933,-20983.080087075246
-27664.57529837791,-20466.508920968645,-68046.24265983613,-20952.65936287157
-27600.64930923573,-20430.969647284703,-68091.25907316913,-20958.85079608569
-27276.37020067813,-20399.18546666926,-68194.90411220839,-21006.08003211976
-27175.58618492916,-20433.56244964152,-68194.099449408,-21036.21018364551
-27527.15677346668,-20489.352403801968,-68072.48360782667,-20991.88667439064
-27709.3905460108,-20476.366040273435,-68048.63429649285,-20956.74973210689
-27644.23521092358,-20437.49635666565,-68091.75081154714,-20957.710857118476
-27312.244750528906,-20400.79479227004,-68197.92159770985,-21001.743793695427
-27198.876702651585,-20433.22717347469,-68201.83315298954,-21033.997360944435
-27546.111052764783,-20490.44763928028,-68080.59729106394,-20999.32980529425
-27726.422575285746,-20472.789761160584,-68056.97149717469,-20965.69042988901
-27662.876565799303,-20441.20674624524,-68107.35232917695,-20972.328897992244
-27335.714082206978,-20417.04451048905,-68216.58530433003,-21023.33557883925
-27213.874723181096,-20450.125092282902,-68223.38023464444,-21054.38215188768
-27549.910849322183,-20486.983118889704,-68085.35821263293,-20995.26178780339
-27733.597485255897,-20466.598327946464,-68056.34564832994,-20955.162758250568
-27671.2808217145,-20433.920077552804,-68100.04330874006,-20958.80609259678
-27347.82872770175,-20402.47117310419,-68206.83994374752,-21014.059604890303
-27234.974769946908,-20433.741263597163,-68207.17521991435,-21044.77090177189
-27584.377239272268,-20475.33786002849,-68077.80332300703,-20992.91485463558
-27770.58962232943,-20454.99777257416,-68047.02497089207,-20950.021857025848
-27708.831752399416,-20416.86569653341,-68087.14635218935,-20945.439749412508
-27383.077428707773,-20380.4100013268,-68189.2938243501,-20988.53391272234
-27262.48976737139,-20416.91040002232,-68197.58632154301,-21024.20729687301
-27606.2148936051,-20475.7848949176,-68081.53606433107,-20987.326918521758
-27791.98024177316,-20460.98804008818,-68052.814072706,-20950.759464592877
-27731.54112476601,-20426.23107746018,-68093.76246854811,-20950.37948493713
-27406.68087085257,-20392.010556699104,-68202.12372566745,-20997.519313993373
-27278.426561168024,-20426.16402222681,-68211.53381008313,-21031.181041143067
-27610.662890751708,-20472.990926860683,-68074.45056133873,-20976.64278467212
-27799.937462799247,-20463.267918022622,-68053.59638376193,-20943.986886022914
-27739.90067719229,-20425.940504782266,-68091.68375631378,-20945.99854302389
-27412.93935930006,-20387.741373508143,-68190.07613540604,-20989.71855517847
-27282.91926180354,-20422.16305996932,-68200.62615878895,-21026.19660212953
-27621.056451923425,-20481.01520312014,-68067.14154090185,-20978.073296317256
-27809.235788492657,-20460.943336599277,-68028.92005788327,-20936.744920819398
-27758.474976834656,-20437.94339155476,-68083.01127946512,-20952.122921004644
-27438.643865423663,-20404.214609171704,-68193.58535928553,-21003.21900882948
-27306.45564871498,-20415.43518488827,-68202.3025396231,-21034.01971268889
-27641.888277755774,-20454.506034196143,-68072.4165525933,-20981.04607832981
-27831.36401550341,-20431.34962694045,-68035.84909866442,-20935.58263010772
-27776.08815146544,-20395.51978057859,-68075.61285205041,-20936.409644652565
-27459.900374400662,-20359.89109991683,-68179.70492597877,-20985.89640687661
-27325.476983246444,-20394.5139520781,-68194.92646395284,-21021.97212242748
-27662.228365210103,-20453.76842662912,-68066.22511937919,-20972.57476718125
-27851.502937257643,-20435.21647873121,-68026.9531043712,-20927.915981759543
-27798.618709876384,-20408.19321968475,-68074.02587819408,-20932.72160681744
-27474.093732129782,-20371.871634944877,-68167.9926118842,-20972.842988114717
-27326.12518383565,-20400.951254481228,-68181.02367890163,-21007.801116442814
-27659.38969366428,-20460.54100519908,-68063.94524144474,-20969.1996537685
-27853.84987042545,-20450.43801670528,-68037.63723822085,-20932.38633065061
-27799.80335233252,-20425.56052512652,-68088.15218068984,-20944.836252312216
-27479.234633354503,-20397.06205094601,-68197.65337677639,-20997.765183182382
-27331.869582160663,-20428.30978969453,-68209.32098738206,-21032.58920104375
-27663.636525110785,-20488.234816579203,-68092.93545400328,-20993.87597964716
-27855.660361726328,-20470.66634543733,-68063.98994493365,-20956.7944355958
-27800.20568373271,-20445.65474339184,-68113.85668681344,-20963.38820021012
-27477.737066476,-20413.33412090947,-68219.28986540913,-21009.276331576864
-27319.665529688067,-20430.81318507352,-68229.21403994728,-21034.0644161778
-27646.13510920228,-20485.351441544462,-68103.91016053082,-20986.902235377103
-27846.09381509946,-20491.118191613936,-68083.03363120958,-20963.96934556596
-27789.052163249515,-20453.43315046229,-68121.21041073924,-20969.15495027959
-27461.95673489055,-20398.5149143356,-68214.10426069549,-21006.638825731137
-27298.029041055328,-20405.533362094568,-68224.98956024523,-21035.78550050086
-27618.195428633146,-20456.227118519204,-68095.1706284488,-20991.618453457173
-27818.2658932526,-20450.63918240537,-68068.88497696936,-20962.69529613201
-27764.3534856264,-20417.40213840033,-68113.61081762443,-20969.378467724146
-27447.27163878341,-20383.67335601728,-68215.37831012944,-21018.149974125623
-27287.54607290579,-20413.669397076297,-68229.07992948055,-21050.67176230809
-27615.066184409403,-20475.606080961952,-68108.71578558872,-21009.231628087957
-27815.382518217863,-20468.90055762536,-68080.28436664157,-20974.117037548665
-27758.385569856837,-20432.936600796773,-68116.38243393689,-20969.60198516869
-27439.13560380168,-20395.720946278685,-68214.52894384014,-21006.72823270896
-27279.946479790982,-20423.3700541699,-68227.26943817968,-21035.986666200955
-27606.684280238664,-20476.81307516254,-68092.33195690298,-20992.177247068557
-27810.018099548597,-20466.64303143537,-68053.97636341768,-20956.63797338462
-27763.45941584819,-20429.829708317484,-68093.06956447,-20955.63214488413
-27450.3785312627,-20388.52368456408,-68192.62423427394,-20998.569845982773
-27290.429447940525,-20414.65287383233,-68211.77967927213,-21034.086767922257
-27613.546265786445,-20473.97440361672,-68083.95005273224,-20989.91972087857
-27813.99671006164,-20458.46229296473,-68041.77231094507,-20948.636048869612
-27771.5060438521,-20428.354493183437,-68088.39804987884,-20954.29104021681
-27459.38628427819,-20394.22337940018,-68198.1004116655,-20999.419212272074
-27290.518854918344,-20421.961894269218,-68221.45798462129,-21029.34819809773
-27614.328576842378,-20488.88301716841,-68103.9772157642,-20991.461991245986
-27824.814954378005,-20480.411706019844,-68071.7683520041,-20961.130674020133
-27770.947250240715,-20435.28353396458,-68106.14533497636,-20959.67781063054
-27449.75268241795,-20402.001786470628,-68207.93517922582,-21008.02463388737
-27279.700610601976,-20430.589667628967,-68235.94191502832,-21052.191680931053
-27596.44718127813,-20474.667307694832,-68106.2794454431,-21006.14708735312
-27803.64785237883,-20460.45159822125,-68067.92385195779,-20964.68460138853
-27755.41278784428,-20420.643141346354,-68099.70803257324,-20957.48733967392
-27446.846955638764,-20386.154399651816,-68199.62033028845,-21004.85068617472
-27277.15251173407,-20412.015367986605,-68218.57460958656,-21038.333599368765
-27597.721230712086,-20473.77323791662,-68087.79455277855,-20990.500866234408
-27806.97826230267,-20459.110493553937,-68045.03566563554,-20947.898441302597
-27764.26407864858,-20421.35839716892,-68085.20175042174,-20946.020894768342
-27450.534993473888,-20380.52176004908,-68182.20832135777,-20981.202540541
-27271.072837242227,-20403.432298115767,-68208.29280713711,-21018.529953781363
-27586.724172440077,-20467.648859935864,-68091.59434933595,-20987.706898177494
-27803.379631445365,-20469.705220425752,-68057.8655669529,-20960.43776994202
-27756.150395411303,-20436.915211309817,-68090.87909351339,-20961.175377509044
-27438.755624145942,-20401.6665103038,-68191.61840577345,-21006.43766003104
-27250.978618976907,-20429.025045517094,-68213.47841185074,-21043.3180383823
-27560.79614887192,-20485.30673805556,-68083.39125912086,-20997.519313993373
-27771.841320018928,-20479.76350543064,-68041.21351733369,-20957.844967585203
-27728.85891543137,-20447.84521434846,-68080.82080850849,-20958.269650729853
-27415.77803084589,-20409.71313830771,-68188.86914120545,-21004.470706518976
-27225.251761108848,-20430.880240306884,-68212.47258335026,-21043.72036978249
-27538.35499743879,-20495.87911318292,-68094.41066913733,-21009.34338681023
-27750.07072091946,-20488.301871812568,-68056.23388960765,-20969.95961307998
-27707.64710994329,-20450.974458572204,-68096.53408486058,-20973.44648521501
-27392.75573405692,-20403.834629515964,-68192.11014415148,-21014.059604890303
-27204.19641783195,-20426.029911760084,-68224.22960093374,-21056.50556761093
-27517.053784972883,-20490.090011368997,-68102.97138726371,-21017.05473864731
-27728.43423228672,-20477.125999584918,-68056.56916577449,-20973.02180207036
-27685.116551532337,-20443.218403246214,-68089.04625046805,-20970.607813669183
-27373.823806503275,-20403.96873998269,-68184.08586789202,-21015.15484036861
-27186.62794669008,-20430.47790890669,-68215.53477234063,-21056.68438156657
-27499.15003766418,-20485.23968282219,-68082.89952074284,-21009.0081106434
-27713.68208094622,-20473.415610005333,-68035.80439517551,-20967.366810723164
-27671.99607753707,-20432.310751952024,-68064.68284901176,-20961.15302576459
-27370.33693436825,-20402.04648995954,-68166.42798977232,-21008.38226179865
-27171.585222671656,-20425.873449548897,-68196.75930699818,-21048.950677985034
-27480.463979299544,-20482.66923220983,-68069.98021244767,-21006.48236351995
-27696.538292949,-20472.320374527026,-68028.62948520535,-20963.231737998933
-27654.829937795395,-20445.14065326937,-68074.02587819408,-20965.66807814456
-27344.31950382227,-20411.50127786413,-68176.79919919958,-21009.477497276963
-27137.297646677216,-20431.573144385,-68207.01875770316,-21044.659143049616
-27442.01897883641,-20490.80526719156,-68097.36109940542,-21007.53289550935
-27659.635562853287,-20478.64591820788,-68057.57499427498,-20967.88090084564
-27620.56471354541,-20437.742225854665,-68094.63418658188,-20963.321144976755
-27317.542113964813,-20395.98916721215,-68197.87689422094,-21005.655348975102
-27108.12862016304,-20393.999861955628,-68223.98373174474,-21038.110081924213
-27408.312548197813,-20447.64404864837,-68102.7255180747,-20997.54166573783
-27624.342158358355,-20434.7247403532,-68053.39521806184,-20951.988810537918
-27590.948652142128,-20410.741318552653,-68099.21629419521,-20958.023781540847
-27284.238014726405,-20379.337117592942,-68191.48429530673,-21000.737965194938
-27075.31625930265,-20403.20878067121,-68217.00998747468,-21043.29568663784
-27375.097855937227,-20466.82184539102,-68091.32612840249,-21010.148049610623
-27599.688184224156,-20463.513787211632,-68041.95112490072,-20972.5524154368
-27564.01480007348,-20429.13680423937,-68074.49526482765,-20971.166607280567
-27260.05342722576,-20390.33417586496,-68169.13255085141,-21010.63978798864
-27050.796395635178,-20406.80741152852,-68196.91576920936,-21048.25777390692
-27350.577992269755,-20474.488493739187,-68075.52344507258,-21009.16457285459
-27575.16832055668,-20476.075467595518,-68035.02208411957,-20966.808017111784
-27545.485203920038,-20432.80249033004,-68073.69060202726,-20963.298793232298
-27244.92129622952,-20389.93184446476,-68172.30649856407,-20997.87694190466
-27028.332892457594,-20407.634426073364,-68208.67278679286,-21033.393863844143
-27325.78990766882,-20467.42534249131,-68097.15993370533,-21002.39199428463
-27550.35788421129,-20460.47394996571,-68048.65664823732,-20962.851758343197
-27516.226770428035,-20439.262144477623,-68091.79551503605,-20967.411514212075
-27215.081717381683,-20410.09311796345,-68194.23355987473,-21013.813735701293
-26997.420429875903,-20430.16498448432,-68239.76406333019,-21061.177082202088
-27288.954232806474,-20474.063810594536,-68110.81684956752,-21020.318093337788
-27514.97507273854,-20455.780083630096,-68064.6157937784,-20976.91100560558
-27486.7895229804,-20423.70533033673,-68107.15116347685,-20978.900310862104
-27183.029315832773,-20370.262309344093,-68198.21217038776,-21013.72432872347
-26964.49631029324,-20387.67431827477,-68247.25189772272,-21061.422951391098
-27255.96305799044,-20449.99098181617,-68129.90523933235,-21022.01682591639
-27483.570871778837,-20456.405932474845,-68086.29698590004,-20983.370659753164
-27456.413502265637,-20429.31561819501,-68126.0830910305,-20990.322052278763
-27157.0118852868,-20391.295300876536,-68217.79229853062,-21027.15772714111
-26932.332150022048,-20405.55571383902,-68251.47637742477,-21060.908861268625
-27222.949531429957,-20471.51571172663,-68134.24147775669,-21023.82731721727
-27459.36393253373,-20477.2824617961,-68089.24741616815,-20983.34830800871
-27436.56515318932,-20445.274763736103,-68118.57290489352,-20981.67192717456
-27139.532821122742,-20398.13493467986,-68208.22575190375,-21012.763203711893
-26911.07564104505,-20409.19904818524,-68248.90592681241,-21049.66593380761
-27201.827132919687,-20475.85195015096,-68135.29200974607,-21017.769994469883
-27434.218220021517,-20474.354383272457,-68087.79455277855,-20977.425095728053
-27403.6186818622,-20444.38069395789,-68124.831393341,-20971.479531702946
-27106.899274218,-20412.641216831355,-68227.04592073512,-21011.355043811207
-26872.876509770933,-20428.19803097225,-68268.866034611,-21052.817529775803
-27152.38507418455,-20488.72655495722,-68150.26767853113,-21017.2112008585
-27377.46714084949,-20484.949110144276,-68098.18811395027,-20973.69235440401
-27348.36516956868,-20453.120226039915,-68135.15789927935,-20976.82159862776
-27050.550526446168,-20408.573199340488,-68230.42103414786,-21022.01682591639
-26817.444183521773,-20428.75682458363,-68265.7144386428,-21070.85538755124
-27097.332727591125,-20491.87815092542,-68146.75845465166,-21034.757320255914
-27325.87931464664,-20483.920929899326,-68098.14341046136,-20991.05965984579
-27297.8949305886,-20451.108569038937,-68131.22399225521,-20990.880845890148
-27002.807200289637,-20408.79671678504,-68220.47450786525,-21024.83314571776
-26758.502633393127,-20408.4167371293,-68253.75625535921,-21055.27622166589
-27042.83917460909,-20465.97247910172,-68132.56509692254,-21020.22868635997
-27281.108770502666,-20466.263051779635,-68075.85872123942,-20978.72149690646
-27260.992200492885,-20443.39721720185,-68109.58750362248,-20980.1520085516
-26968.43021731737,-20401.577103325977,-68200.53675181112,-21012.629093245163
-26722.985711453643,-20410.04841447454,-68243.65326686541,-21053.71159955401
-27000.147342699453,-20474.130865827905,-68127.31243697554,-21023.760261983905
-27242.08262468369,-20478.690621696787,-68071.43307583727,-20980.308470762782
-27218.166258116515,-20446.973496314706,-68107.35232917695,-20976.799246883304
-26929.47112673177,-20416.195144199748,-68206.99640595871,-21015.087785135245
-26693.704926217197,-20429.628542617385,-68253.24216523673,-21055.63384957717
-26969.77132198469,-20485.86553166694,-68128.13945152039,-21016.808869458306
-27206.54335099976,-20487.072525867527,-68074.40585784982,-20972.10538054769
-27188.013754846303,-20457.925851097807,-68115.80128858105,-20974.452313715497
-26899.60919613948,-20411.814202286507,-68210.12565018245,-21014.037253145845
-26650.27548674053,-20423.3700541699,-68256.61727864949,-21059.143073456657
-26920.53042894965,-20493.465124781746,-68143.49509996118,-21030.86811672069
-27160.699923121923,-20499.410688806856,-68089.73915454616,-20987.751601666405
-27133.207277441896,-20456.69650515276,-68117.16474499283,-20980.420229485066
-26841.584067533506,-20420.620789601897,-68216.38413862993,-21022.910895694604
-26595.37960235829,-20431.930772296284,-68269.98362183376,-21070.609518362227
-26865.16515793385,-20486.06669736704,-68147.40665524086,-21032.56684929929
-27103.7476782498,-20489.330052057518,-68095.34944240445,-20991.90902613509
-27083.206425095374,-20457.94820284226,-68125.56900090803,-20990.366755767674
-26797.618186189917,-20409.95900749672,-68219.69219680932,-21025.50369805142
-26539.92492436468,-20408.46144061821,-68265.17799677586,-21063.07698048079
-26808.9281688843,-20473.61677570543,-68148.99362909718,-21027.560058541305
-27055.132634059508,-20478.355345529955,-68093.62835808139,-20986.43284874354
-27039.508764685248,-20453.76842662912,-68131.93924807779,-20988.93624412253
-26754.23345020216,-20407.85794351792,-68220.67567356535,-21022.15093638312
-26499.803543067403,-20411.814202286507,-68269.9612700893,-21066.049762493345
-26767.264517219606,-20472.230967549203,-68150.51354772014,-21031.51631730989
-27013.223113205804,-20472.6332989494,-68085.69348879975,-20981.33665100773
-26998.180389187382,-20440.558545656037,-68113.78963158008,-20977.022764327856
-26718.314196862484,-20407.500315606638,-68211.46675484977,-21019.42402355957
-26465.583022306328,-20415.770461055097,-68259.8135781066,-21065.35685841523
-26735.43563311525,-20478.46710425223,-68145.37264649542,-21035.763148756403
-26984.970508214297,-20476.142522828883,-68098.1210587169,-20992.84779940221
-26973.14643539744,-20437.719874110207,-68127.91593407583,-20983.638880686627
-26690.843902926918,-20392.72581252168,-68212.98667347273,-21008.82929668776
-26440.593772005293,-20412.12712670888,-68268.35194448852,-21057.377285644685
-26706.08779264543,-20476.701316440263,-68152.48050123222,-21028.3647213417
-26954.549784010625,-20482.088086853997,-68091.6167010804,-20984.018860342367
-26947.28546706265,-20446.459406192236,-68124.18319275179,-20981.515464963373
-26668.358048004877,-20405.71217605021,-68212.42787986135,-21015.244247346436
-26416.833867649304,-20416.32925466648,-68262.09345604104,-21061.35589615773
-26681.65733595578,-20471.94039487128,-68148.70305641927,-21034.466747578
-26936.9589611243,-20473.929700127806,-68083.79359052105,-20989.562092967284
-26929.649940687414,-20441.184394500782,-68111.80032632356,-20981.24724402991
-26658.009190322067,-20392.18937065475,-68197.20634188729,-21009.656311232604
-26398.997175573968,-20392.591702054942,-68243.07212150957,-21045.128529683177
-26669.96737360565,-20465.97247910172,-68138.98004758121,-21025.146070140134
-26931.23691454374,-20463.938470356283,-68073.82471249398,-20978.63208992864
-26920.642187671925,-20419.123222723392,-68100.825619796,-20967.2997554898
-26648.91203032876,-20367.66950698728,-68195.17233314185,-20999.642729716623
-26394.43741970509,-20378.688917003743,-68250.58230764656,-21040.524070325384
-26663.99945783609,-20454.66249640733,-68144.85855637296,-21018.77582297037
-26924.889019118436,-20454.148406284858,-68077.69156428476,-20971.88186310313
-26917.691757403823,-20411.434222630767,-68105.98887276517,-20961.220080997955
-26651.862460596854,-20379.068896659483,-68205.16356291337,-21004.18013384105
-26386.03316378989,-20387.160228152305,-68268.32959274406,-21052.59401233125
-26643.391149448296,-20447.576993415,-68156.41440825634,-21022.888543950143
-26905.152428764395,-20458.46229296473,-68095.9752912492,-20981.202540541
-26902.693736874317,-20432.33310369648,-68126.66423638634,-20980.844912629716
-26627.07437599592,-20386.243806629634,-68221.34622589902,-21014.57369501277
-26356.88648902017,-20390.08830667595,-68276.2644620257,-21056.66202982212
-26613.01512873353,-20457.121188297413,-68166.96443163925,-21026.889506207648
-26872.65299232638,-20460.295136010067,-68098.9257215173,-20978.095648061717
-26870.73074230322,-20433.45069091925,-68130.01699805463,-20972.351249736697
-26602.30864313944,-20394.871579989383,-68216.56295258558,-21004.761279196893
-26333.46186083101,-20385.573254295978,-68263.63572640845,-21044.59208781625
-26591.244529634063,-20443.933659068785,-68155.43093150032,-21018.619360759185
-26858.16906191934,-20452.784949873087,-68091.14731444685,-20973.222967770456
-26858.616096808448,-20410.45074587473,-68117.09768975947,-20963.611717654672
-26602.88978849528,-20382.019326927584,-68211.31029263858,-21003.97896814096
-26328.142145650643,-20382.46636181669,-68259.12067402848,-21049.442416363054
-26579.97925042859,-20441.49731892316,-68145.35029475097,-21023.62615151717
-26847.619038536435,-20433.495394408157,-68074.89759622783,-20975.27932826034
-26849.04955018157,-20395.586835811955,-68098.45633488374,-20963.58936591022
-26589.18816914417,-20357.76768419357,-68190.1431906394,-20999.843895416725
-26312.74179372094,-20366.574271508965,-68243.2062319763,-21044.79325351635
-26556.196994328144,-20431.528440896087,-68132.47568994471,-21018.552305525816
-26828.374186560417,-20443.888955579878,-68070.18137814777,-20976.173398038554
-26841.69582625578,-20420.71019657972,-68103.26195994162,-20976.77689513885
-26583.242605119063,-20379.18065538176,-68187.03629816012,-21008.1587443541
-26304.806924439305,-20377.48192280316,-68235.24901095021,-21043.250983148933
-26560.287363563464,-20448.64987714885,-68132.58744866699,-21022.77678522787
-26833.53743952959,-20460.76452264363,-68069.17554964728,-20977.76037189488
-26836.286704097594,-20430.36615018441,-68093.44954412575,-20968.015011312367
-26576.984116671578,-20380.03002167106,-68172.08298111951,-20995.19473257002
-26311.467744286987,-20391.965853210197,-68237.68535109585,-21051.5211285974
-26564.198918843143,-20458.39523773137,-68136.4319487133,-21031.78453824336
-26840.444128566283,-20455.556566185543,-68069.30966011401,-20982.78951439733
-26845.629733279915,-20415.032853488072,-68091.01320398011,-20970.67486890255
-26594.17260815771,-20373.145684378826,-68178.14030386691,-21002.16847684008
-26320.09551764673,-20371.7598762226,-68235.58428711705,-21044.92736398308
-26562.9695728981,-20437.071673521004,-68126.66423638634,-21016.38418631365
-26840.578239033013,-20450.169795771813,-68065.24164262315,-20970.607813669183
-26849.943619959788,-20419.637312845865,-68093.9189307593,-20961.53300542033
-26599.55937857144,-20377.906605947806,-68184.6446615034,-20997.49696224892
-26322.59891302573,-20369.144722121328,-68242.60273487601,-21042.803948259825
-26562.20961358662,-20424.4205861593,-68127.15597476435,-21006.907046664604
-26842.61224777845,-20434.300057208548,-68062.7605989886,-20958.71668561896
-26853.296381628083,-20407.12033595089,-68090.43205862428,-20951.832348326727
-26604.61087281834,-20361.72394296217,-68168.8419781735,-20976.73219164994
-26330.712596263005,-20366.909547675798,-68227.11297596848,-21022.195639872032
-26577.229985860587,-20431.483737407176,-68115.53306764759,-20994.971215125468
-26869.009657980165,-20445.453577691744,-68057.12795938588,-20955.34157220621
-26893.820094325554,-20415.61399884391,-68079.97144221919,-20946.37852267963
-26655.215222265157,-20377.92895769226,-68166.69621070579,-20980.66609867407
-26379.50645440894,-20379.515931548587,-68233.14794697141,-21031.91864871009
-26614.915027012237,-20441.363208456423,-68124.92080031883,-21008.315206565287
-26900.235044984227,-20453.58961267348,-68059.05020940903,-20965.06458104427
-26918.83169637105,-20422.699501836243,-68088.80038127904,-20960.214252497462
-26671.35318176189,-20379.40417282631,-68171.94887065278,-20988.600967955703
-26388.11187602423,-20385.729716507165,-68246.67075236687,-21045.57556457229
-26624.772146317024,-20444.268935235614,-68141.0364080711,-21024.00613117291
-26911.321510234065,-20450.415664960823,-68068.95203220272,-20976.1510462941
-26936.28840879064,-20423.03477800307,-68100.53504711807,-20974.139389293123
-26696.409487296285,-20391.09413517644,-68187.28216734913,-21005.92356990857
-26405.43447797709,-20385.573254295978,-68250.44819717982,-21049.040084962857
-26637.982027290112,-20443.66543813532,-68145.14912905087,-21021.189811371543
-26923.771431895668,-20449.543946927064,-68072.12597991538,-20971.21131076948
-26942.88217340496,-20411.166001697304,-68092.68958481426,-20964.05875254378
-26702.220940854662,-20366.88719593134,-68178.18500735582,-20993.451296502502
-26417.16914381613,-20366.06018138649,-68243.18388023185,-21042.513375581908
-26649.98491406261,-20432.80249033004,-68137.10250104696,-21019.625189259677
-26940.825812915067,-20444.157176513338,-68063.54291004455,-20972.39595322561
-26960.249478846727,-20401.755917281615,-68071.16485490381,-20953.10639776068
-26726.025548699567,-20367.490693031632,-68159.92363213583,-20985.605834198694
-26444.930010429624,-20372.02809715606,-68232.09741498201,-21035.15965165611
-26677.9469463762,-20435.50705140913,-68124.94315206328,-21007.21997108697
-26970.017191173694,-20444.33599046898,-68050.89182268284,-20953.77695009434
-26996.52636009769,-20413.11060346492,-68081.80428526453,-20949.03838026981
-26764.22467997369,-20372.36337332289,-68166.04801011659,-20980.26376727388
-26481.8997957587,-20380.03002167106,-68237.39477841792,-21029.34819809773
-26708.926464191256,-20445.945316069763,-68131.06753004403,-21001.721441950973
-27004.796505546157,-20458.70816215374,-68055.6080407629,-20950.938278548518
-27028.087023268585,-20419.30203667904,-68079.21148290772,-20939.58359236522
-26793.460761721228,-20367.89302443183,-68160.6835914473,-20966.226871755945
-26506.218493726075,-20383.159265894803,-68230.08575798104,-21017.099442136223
-26739.0119122281,-20460.71981915472,-68132.98978006719,-21004.135430352144
-27034.054939038157,-20455.265993507623,-68052.6576104948,-20953.57578439424
-27059.89355562849,-20415.546943610545,-68075.97047996169,-20941.52819413283
-26836.46551805324,-20368.295355832022,-68159.47659724673,-20973.133560792638
-26545.468156989595,-20343.93195437574,-68212.31612113907,-21010.17040135508
-26771.936031810765,-20401.934731237263,-68102.56905586351,-20981.940148108024
-27081.01595413875,-20424.398234414846,-68031.02112186207,-20937.48252838642
-27117.248131900804,-20394.201027655727,-68054.04341865104,-20930.10645271617
-26895.63058562644,-20351.59860272391,-68135.04614055707,-20959.029610041336
-26607.65071006426,-20354.99606788112,-68213.59017057302,-21011.28798857784
-26824.84261093648,-20416.44101338876,-68111.06271875653,-20989.383279011643
-27123.7524895373,-20430.29909495105,-68034.28447655255,-20940.924697032537
-27154.59789688562,-20410.316635408,-68062.58178503296,-20932.45338588397
-26927.750042408712,-20374.352678579413,-68143.74096915018,-20962.427075198542
-26633.690492354694,-20373.92799543476,-68217.76994678617,-21016.67475899157
-26848.580163548013,-20439.820938089008,-68120.65161712785,-21000.08976460573
-27147.937077037943,-20450.43801670528,-68042.30875281201,-20950.42418842604
-27182.314060010205,-20418.22915294518,-68063.1629303888,-20939.38242666512
-26960.42829280237,-20379.515931548587,-68142.77984413861,-20969.87020610216
-26664.33473400292,-20379.203007126216,-68217.63583631943,-21019.73694798195
-26875.73753306121,-20442.793720101563,-68126.46307068624,-21004.62716873016
-27178.80483613072,-20465.234871534693,-68056.79268321904,-20958.09083677421
-27207.19155158896,-20445.00654280264,-68078.02684045158,-20947.920793047047
-26974.91222320941,-20372.85511170091,-68152.6369634434,-20972.82063637026
-26677.18698706472,-20358.88527141634,-68223.91667651138,-21021.54743928283
-26893.820094325554,-20432.24369671866,-68127.9829893092,-21002.68256696255
-27198.7202404404,-20449.655705649344,-68049.19309010424,-20948.50193840289
-27227.5763425322,-20402.761745782107,-68059.87722395388,-20928.67594107103
-27013.40192716145,-20348.26819280007,-68137.0354458136,-20954.022819283346
-26715.72139450567,-20343.30610553099,-68213.74663278421,-21003.800154185315
-26922.206809783795,-20407.9697022402,-68116.29302695907,-20984.89057837613
-27227.68810125448,-20418.13974596736,-68036.69846495372,-20932.5427928618
-27265.462549383945,-20394.7151177782,-68066.89567171285,-20928.027740481823
-27049.87997411251,-20359.62287898337,-68146.08790231799,-20962.114150776168
-26750.47835713367,-20363.3556203074,-68221.45798462129,-21015.13248862416
-26951.889926420445,-20429.24856296165,-68124.36200670744,-21002.0567181178
-27260.321648159224,-20441.76553985662,-68042.28640106755,-20956.39210419561
-27297.939634077506,-20410.763670297107,-68055.89861344083,-20942.33285693322
-27081.59709949459,-20375.626728013365,-68138.86828885892,-20968.77497062385
-26775.40055220134,-20380.4100013268,-68219.35692064249,-21023.514392794896
-26970.777150485177,-20445.945316069763,-68120.04812002757,-21001.497924506417
-27276.25844195586,-20458.663458664832,-68039.3583225439,-20951.944107049003
-27315.55280870829,-20434.5235746531,-68066.35922984591,-20948.77015933635
-27100.08199215913,-20391.31765262099,-68146.13260580691,-20981.157837052087
-26796.679412922796,-20391.67528053228,-68231.13628997044,-21041.0158087034
-26999.38738338797,-20466.24070003518,-68142.75749239416,-21031.292799865343
-27306.07566905924,-20480.94814788677,-68057.88791869735,-20973.58059568174
-27346.755843967898,-20440.580897400487,-68070.02491593658,-20950.53594714832
-27136.716501321374,-20394.938635222752,-68143.33863774998,-20975.34638349371
-26834.096233140976,-20383.338079850448,-68224.31900791157,-21030.108157409213
-27030.61277039204,-20417.51389712261,-68130.88871608839,-21008.471668776478
-27342.196088099012,-20414.60817034342,-68044.36511330189,-20950.312429703765
-27385.759638042407,-20390.35652760941,-68062.80530247751,-20937.34841791969
-27178.76013264181,-20351.553899235,-68138.46595745873,-20963.85758684368
-26868.51791960215,-20342.188518308227,-68210.72914728273,-21011.757375211404
-27059.915907372942,-20406.270969661597,-68117.63413162639,-20994.233607558443
-27372.303887880316,-20425.29230419306,-68035.80439517551,-20943.919830789546
-27414.325167456293,-20396.65971954581,-68050.35538081592,-20929.793528293794
-27206.923330655496,-20358.348829549413,-68125.77016660813,-20955.654496628584
-26898.245739727707,-20356.78420743754,-68210.28211239363,-21014.10430837921
-27086.53683501921,-20417.96093201172,-68126.48542243069,-21002.548456495817
-27402.14346672815,-20434.791795586563,-68050.73536047165,-20953.016990782857
-27443.58360094829,-20409.757841796614,-68073.35532586042,-20943.942182534003
-27239.15454616005,-20378.5101030481,-68156.07913208952,-20978.117999806167
-26923.503210962204,-20371.312841333493,-68236.74657782872,-21025.995436429435
-27106.02755618424,-20439.977400300195,-68153.2851640326,-21012.897314178623
-27420.315434970315,-20455.310696996534,-68072.28244212657,-20963.924642077047
-27461.3308860458,-20418.407966900824,-68096.64584358285,-20952.994639038403
-27251.939743988485,-20379.47122805968,-68181.06838239056,-20987.036345843837
-26935.595504712524,-20380.946443193727,-68266.65321190991,-21045.59791631674
-27114.32005337716,-20463.580842445,-68178.67674573383,-21039.428834847076
-27423.601141405245,-20473.77323791662,-68089.9179685018,-20986.522255721364
-27462.09084535728,-20423.481812892176,-68103.08314598598,-20965.62337465565
-27254.84547076768,-20373.235091356648,-68180.21901610125,-20992.445468002017
-26933.74030992273,-20365.099056374915,-68256.43846469384,-21040.27820113637
-27102.294814860204,-20426.186373971268,-68166.56210023905,-21026.978913185467
-27412.33586219977,-20427.460423405224,-68067.3650583464,-20965.51161593337
-27455.76530167643,-20404.32636789398,-68083.61477656542,-20950.066560514755
-27250.82215676572,-20369.70351573271,-68158.3366582795,-20977.87213061716
-26924.62079818497,-20357.4547597712,-68237.55124062911,-21023.246171861432
-27087.63207049752,-20415.79281279955,-68154.42510299983,-21006.191790842036
-27402.52344638389,-20434.43416767528,-68068.03561068006,-20953.016990782857
-27448.590391706275,-20407.85794351792,-68083.5700730765,-20941.5952493662
-27242.17203166152,-20364.85318718591,-68152.12287332093,-20965.265746744364
-26919.748117893712,-20356.292469059525,-68233.9079062829,-21017.59118051424
-27081.97707915033,-20417.692711078253,-68142.06458831603,-21007.01880538688
-27402.434039406067,-20449.320429482512,-68059.78781697605,-20967.411514212075
-27450.892621385174,-20423.3700541699,-68081.71487828672,-20959.58840365272
-27244.18368866249,-20387.875483974876,-68164.0363531156,-20986.00816559889
-26919.502248704703,-20380.208835626705,-68247.92245005637,-21030.82341323178
-27078.378448293028,-20432.936600796773,-68152.68166693232,-21011.39974730012
-27390.81113228931,-20450.75094112765,-68067.5215205576,-20963.52231067685
-27436.52044970041,-20420.687844835265,-68091.72845980269,-20956.347400706694
-27232.67254026801,-20381.147608893825,-68173.20056834228,-20983.12479056416
-26895.65293737089,-20370.642288999832,-68262.31697348559,-21035.271410378387
-27049.16471828994,-20436.356417698436,-68183.86235044747,-21028.521183552886
-27371.14159716864,-20461.01039183264,-68103.95486401975,-20984.28708127583
-27416.739155857464,-20434.27770546409,-68124.45141368525,-20973.24531951491
-27211.416031291013,-20398.403155613323,-68202.28018787864,-21002.77197394037
-26878.062114484565,-20380.36529783789,-68283.99816560723,-21054.56096584332
-27034.92665707191,-20436.222307231703,-68194.23355987473,-21042.49102383745
-27355.18245162755,-20439.88799332237,-68099.08218372849,-20985.091744076224
-27402.255225450423,-20398.80548701352,-68105.81005880953,-20960.05779028628
-27205.895150410557,-20360.472245272667,-68181.44836204629,-20986.902235377103
-26882.755980820177,-20367.62480349837,-68275.32568875857,-21044.5697360718
-27030.50101166976,-20439.28449622208,-68184.91288243687,-21031.181041143067
-27343.89482067762,-20450.482720194188,-68090.83439002448,-20976.32986024974
-27394.99090850245,-20414.85403953243,-68104.06662274202,-20958.269650729853
-27198.18379857347,-20372.98922216764,-68174.92165266535,-20980.844912629716
-26866.819187023542,-20363.690896474232,-68262.98752581925,-21035.807852245314
-27008.30572942564,-20425.068786748503,-68171.3900770414,-21020.027520659867
-27327.488640247426,-20447.174662014804,-68077.19982590673,-20965.533967677828
-27380.12699843967,-20424.6217518594,-68100.40093665135,-20953.016990782857
-27182.291708265748,-20386.80260024102,-68177.51445502216,-20978.65444167309
-26850.927096715823,-20369.36823956588,-68263.88159559746,-21035.383169100664
-26995.29701415265,-20429.56148738402,-68186.11987663744,-21031.49396556544
-27324.20293381249,-20455.221290018715,-68095.21533193771,-20984.465895231475
-27381.33399264026,-20430.14263273986,-68108.31345418852,-20966.56214792277
-27190.38303975857,-20390.08830667595,-68182.34243182451,-20986.030517343344
-26853.765768261645,-20369.055315143505,-68265.42386596488,-21032.45509057702
-26988.14445592695,-20421.693673335754,-68179.99549865669,-21021.569791027283
-27309.87546561664,-20453.030819062093,-68093.20367493674,-20978.58738643973
-27365.26308837689,-20439.150385755347,-68120.4280996833,-20974.83229337124
-27167.025466802774,-20399.453687602723,-68189.80791447258,-20993.4065930136
-26826.54134351508,-20380.141780393336,-68282.03121209517,-21046.044951205844
-26956.85201368952,-20432.80249033004,-68198.5474465546,-21035.651390034127
-27274.962040777453,-20448.33695272648,-68096.60114009395,-20979.548511451307
-27336.250524073905,-20422.833612302973,-68120.53985840558,-20967.567976423263
-27147.579449126657,-20382.242844372136,-68200.98378670024,-20996.11115409269
-26804.860151393437,-20362.193329595724,-68283.19350280685,-21044.48032909397
-26928.9570366093,-20418.676187834288,-68195.9993476867,-21027.71652075249
-27249.19047942048,-20437.697522365757,-68101.20559945174,-20975.949880594
-27305.8968551036,-20413.624693587382,-68128.94411432078,-20971.166607280567
-27111.79430625371,-20371.84928320042,-68194.72529825274,-20988.600967955703
-26765.9681160412,-20354.92901264775,-68273.80577013562,-21033.0138841884
-26894.6471088704,-20415.9716267552,-68198.43568783232,-21028.45412831952
-27224.33533958618,-20447.129958525893,-68110.12394548941,-20981.73898240793
-27279.275927457325,-20418.16209771181,-68124.6302276409,-20963.43290369903
-27092.08006764413,-20381.594643782933,-68196.60284478699,-20987.23751154393
-26755.798072314035,-20374.86676870189,-68292.69299420035,-21048.436587862565
-26881.1466552194,-20430.120280995405,-68210.81855426056,-21043.094520937742
-27208.152676600537,-20447.509938181636,-68105.51948613161,-20981.157837052087
-27271.072837242227,-20411.88125751987,-68117.00828278164,-20960.504825175387
-27093.667041500456,-20372.78805646754,-68190.65728076188,-20985.62818594315
-26756.46862464769,-20358.773512694064,-68286.72507843078,-21044.92736398308
-26875.44696038329,-20422.475984391687,-68215.78064152964,-21044.681494794077
-27199.927234640985,-20449.20867076024,-68113.02967226859,-20990.590273212227
-27262.35565690466,-20432.2213449742,-68130.17346026581,-20981.895444619116
-27076.32208780314,-20383.427486828263,-68204.06832743506,-21007.510543764896
-26727.567819066982,-20351.553899235,-68290.90485464393,-21057.042009477856
-26838.32071284303,-20413.825859287484,-68219.4016241314,-21050.247079163444
-27162.197490000428,-20446.81703410352,-68127.91593407583,-20997.273444804367
-27218.05449939424,-20409.89195226335,-68138.9353440923,-20975.547549193805
-27033.92082857142,-20371.58106226696,-68205.4541355913,-20993.808924413792
-26685.23361506863,-20358.304126060502,-68297.25275006924,-21048.950677985034
-26797.14879955635,-20419.30203667904,-68228.2529149357,-21047.58722157326
-27125.205352926896,-20444.17952825779,-68128.05004454256,-20993.02661335785
-27192.394696759548,-20426.85692630493,-68152.32403902103,-20985.806999898792
-27009.088040481573,-20393.19519915524,-68220.11687995397,-21012.07029963378
-26658.9926670781,-20372.65394600081,-68306.19344785136,-21067.72614332749
-26761.63187761687,-20431.41668217381,-68228.07410098005,-21060.41712289061
-27086.53683501921,-20444.6265631469,-68124.89844857436,-21008.38226179865
-27147.646504360026,-20414.116431965405,-68138.60006792546,-20993.69716569152
-26967.0667609056,-20389.01542294209,-68206.9517024698,-21016.96533166949
-26615.250303179066,-20366.17194010877,-68288.24499705374,-21062.339372913764
-26710.24521711412,-20414.74228081015,-68204.0012722017,-21048.794215773847
-27042.97328507582,-20446.5264614256,-68109.49809664466,-20998.659252960595
-27110.45320158639,-20424.577048370487,-68123.1773642513,-20982.521293463866
-26931.19221105483,-20391.11648692089,-68191.841923218,-21000.715613450484
-26587.601195287847,-20374.732658235152,-68283.88640688497,-21053.68924780956
-26692.47558027215,-20438.47983342169,-68213.41135661738,-21056.84084377776
-27026.38829068998,-20472.253319293657,-68112.15795423483,-21005.96827339748
-27093.868207200558,-20429.963818784217,-68123.44558518477,-20984.57765395375
-26918.51877194867,-20382.04167867204,-68190.65728076188,-21001.788497184338
-26568.937488667667,-20362.640364484832,-68280.48894172776,-21050.850576263736
-26665.586431692416,-20416.016330244103,-68213.97015022876,-21045.55321282783
-26996.21343567532,-20442.50314742365,-68114.90721880284,-20990.009127856392
-27066.12969233152,-20413.75880405412,-68125.07726253,-20968.57380492375
-26891.13788499092,-20375.827893713464,-68196.66990002035,-20991.707860434995
-26545.87048838979,-20363.84735868542,-68295.79988667964,-21050.15767218562
-26635.16570748874,-20419.927885523783,-68223.8049177891,-21042.42396860409
-26963.959868426307,-20442.883127079385,-68119.75754734964,-20982.49894171941
-27034.54667741617,-20423.99590301465,-68134.26382950114,-20965.28809848882
-26861.70063754328,-20386.7131932632,-68205.47648733575,-20988.53391272234
-26515.874447330767,-20361.008687139594,-68296.33632854657,-21039.719407524997
-26608.008337975545,-20417.558600611523,-68221.18976368783,-21036.567811556797
-26943.9103536499,-20449.923926582807,-68121.25511422814,-20988.086877833237
-27019.615712120023,-20418.117394222903,-68128.00534105365,-20971.367772980662
-26854.07869268402,-20374.08445764595,-68190.9478534398,-20990.456162745497
-26504.65387161421,-20355.64426847032,-68287.52974123118,-21047.386055873165
-26589.83636973338,-20406.06980396149,-68214.23837116222,-21039.33942786925
-26932.354501766506,-20445.38652245838,-68119.26580897163,-20994.568883725275
-27013.58074111709,-20428.287437950068,-68134.62145741242,-20983.68358417554
-26844.82507047952,-20386.89200721884,-68192.71364125176,-20998.68160470505
-26493.902682531203,-20363.132102862848,-68285.38397376347,-21049.844747763247
-26573.005506158534,-20418.69853957874,-68218.82047877557,-21047.1178349397
-26906.605292153992,-20443.12899626839,-68112.11325074593,-20991.461991245986
-26982.22124364629,-20411.858905775414,-68118.37173919342,-20969.33376423523
-26815.70074745426,-20371.245786100124,-68185.80695221508,-20986.67871793255
-26469.80750200838,-20354.012591125083,-68282.74646791774,-21040.993456958942
-26549.04443610245,-20417.625655844888,-68223.91667651138,-21043.854480249225
-26885.147617476898,-20451.466196950223,-68122.7303293622,-20991.417287757075
-26964.786882971155,-20425.96285652672,-68131.76043412214,-20974.519368948862
-26798.64636643486,-20381.41582982729,-68185.58343477052,-20985.516427220875
-26442.13604237271,-20361.858053428896,-68286.54626447514,-21043.250983148933
-26512.49933391802,-20413.4682313762,-68218.28403690863,-21038.534765068864
-26854.07869268402,-20445.81120560303,-68118.66231187133,-20989.807962156294
-26934.544972723124,-20421.872487291395,-68124.09378577398,-20971.613642169672
-26773.67946787828,-20381.79580948303,-68185.27051034814,-20989.29387203382
-26418.599655461272,-20360.248727828115,-68283.68524118487,-21045.866137250203
-26494.036792997933,-20414.876391276885,-68227.0012172462,-21050.291782652355
-26832.55396277356,-20446.66057189233,-68122.08212877299,-20998.10045934921
-26914.450754457805,-20417.133917466872,-68123.89262007388,-20976.128694549643
-26761.40836017232,-20381.214664127197,-68190.5455220396,-20997.943997138023
-26415.1351350707,-20367.51304477609,-68291.8212761666,-21054.2703931654
-26480.75985679148,-20420.46432739071,-68226.44242363483,-21052.728122797984
-26818.874695166916,-20454.886013851883,-68128.05004454256,-21006.236494330944
-26903.34193746352,-20416.686882577764,-68135.40376846836,-20984.86822663167
-26745.650380331324,-20369.055315143505,-68195.86523721996,-20998.77101168287
-26391.39758245916,-20341.83089039694,-68289.65315695443,-21046.40257911713
-26463.169033905157,-20405.89099000585,-68234.5561068721,-21055.61149783272
-26801.01565134712,-20428.734472839176,-68116.20361998124,-20994.63593895864
-26883.51594013166,-20407.00857722861,-68121.18805899478,-20973.357078237183
-26723.63391204285,-20372.31866983398,-68177.93913816681,-20989.606796456195
-26371.281012449388,-20354.459626014188,-68266.34028748755,-21038.44535809104
-26444.147699373687,-20414.65287383233,-68215.31125489608,-21047.02842796188
-26794.06425882152,-20452.98611557318,-68119.06464327153,-21003.53193325185
-26885.885225043923,-20423.45946114772,-68124.58552415199,-20982.54364520832
-26733.736900536645,-20388.814257242,-68184.21997835874,-20996.357023281696
-26378.09829450825,-20366.17194010877,-68278.94667136033,-21049.93415474107
-26436.23518183651,-20421.85013554694,-68228.47643238025,-21062.56289035832
-26776.339325468463,-20448.89574633786,-68118.21527698223,-21003.01784312938
-26863.75699803317,-20411.14364995285,-68109.58750362248,-20966.53979617832
-26718.582417795948,-20376.833722213956,-68172.90999566436,-20982.76716265287
-26369.73874208197,-20356.873614415363,-68278.00789809322,-21044.256811649426
-26427.070966609837,-20408.6179028294,-68218.10522295299,-21048.414236118108
-26772.785398100063,-20434.43416767528,-68105.51948613161,-20992.87015114667
-26869.30023065808,-20411.00953948612,-68108.80519256653,-20970.406647969085
-26725.80203125501,-20370.575233766467,-68167.94790839529,-20985.29290977632
-26383.820341088813,-20355.197233581213,-68271.10120905652,-21043.027465704377
-26441.46549003905,-20411.52362960859,-68214.19366767332,-21047.542518084352
-26784.27419475009,-20437.00461828764,-68100.13271571789,-20989.316223778274
-26883.09125698701,-20420.352568668437,-68105.78770706507,-20969.981964824437
-26735.52504009307,-20389.820085742485,-68165.31040254956,-20987.528084221853
-26383.909748066635,-20362.55095750701,-68267.6590404104,-21042.222802903987
-26431.31779805634,-20415.144612210348,-68215.87004850747,-21046.87196575069
-26775.177034756787,-20439.932696811284,-68104.96069252022,-20990.187941812037
-26870.618983580945,-20404.773402783085,-68104.5807128645,-20964.461083943974
-26735.14506043733,-20374.75500997961,-68168.77492294012,-20983.504770219897
-26390.436457447584,-20359.93580340574,-68270.1177323005,-21038.847689491235
-26430.46843176704,-20408.59555108494,-68216.60765607448,-21040.21114590301
-26781.16730227081,-20443.643086390864,-68108.13464023288,-20990.813790656783
-26886.04168725511,-20422.25246694713,-68112.71674784622,-20967.210348511977
-26740.777700040067,-20369.301184332515,-68164.1928153268,-20972.664174159072
-26392.157541770644,-20342.903774130795,-68264.6639066534,-21021.39097707164
-26446.00289416348,-20402.04648995954,-68220.47450786525,-21033.50562256642
-26790.46562796421,-20432.08723450747,-68100.26682618461,-20975.569900938262
-26894.915329803865,-20410.584856341466,-68098.9257215173,-20953.64283962761
-26766.57161314149,-20386.04264092954,-68168.86432991795,-20977.11217130568
-26417.79499266088,-20364.763780208086,-68270.87769161197,-21033.773843499883
-26453.82600472284,-20405.71217605021,-68212.71845253927,-21034.287933622352
-26800.65802343584,-20435.12707175339,-68101.45146864075,-20982.186017297037
-26903.364289207973,-20411.03189123057,-68104.96069252022,-20961.264784486862
-26766.30339220803,-20373.145684378826,-68162.1364548369,-20972.172435781056
-26415.64922519317,-20351.352733534903,-68264.95447933131,-21028.230610874965
-26450.96498143256,-20409.556676096523,-68222.06148172158,-21044.323866882787
-26798.55695945704,-20451.533252183588,-68109.09576524446,-20995.93234013705
-26905.778277609144,-20427.616885616408,-68106.34650067646,-20972.5524154368
-26773.791226600555,-20391.85409448792,-68165.84684441649,-20986.2540347879
-26416.90092288267,-20356.113655103884,-68257.28783098314,-21025.749567240426
-26450.696760499093,-20412.30594066452,-68214.37248162896,-21036.1654801566
-26798.02051759011,-20451.265031250125,-68105.89946578736,-20990.277348789856
-26904.7500973642,-20423.03477800307,-68099.43981163976,-20964.39402871061
-26768.53856665356,-20376.81137046949,-68149.82064364203,-20970.96544158047
-26421.70654794056,-20350.816291667976,-68255.92437457138,-21023.15676488361
-26456.910545457667,-20412.12712670888,-68215.49006885172,-21031.941000454543
-26812.66091020833,-20444.157176513338,-68090.25324466864,-20971.77010438086
-26919.971635338265,-20408.46144061821,-68076.99866020663,-20938.15308072008
-26791.113828553414,-20370.17290236627,-68139.15886153685,-20953.374618694143
-26450.11561514325,-20349.989277123128,-68242.78154883166,-21009.544552510328
-26486.459551627584,-20403.27583590458,-68203.1519059124,-21024.54257303984
-26844.914477457343,-20438.5245369106,-68089.60504407944,-20973.49118870392
-26957.90254567892,-20411.74714705314,-68084.68766029927,-20942.779891822327
-26835.616151763938,-20381.348774593924,-68144.07624531702,-20958.87314783015
-26501.43522041264,-20368.854149443407,-68251.69989486932,-21025.72721549597
-26530.87246786028,-20416.70923432222,-68209.56685657107,-21040.83699474776
-26887.718068089256,-20455.355400485445,-68101.98791050767,-20992.95955812449
-26998.180389187382,-20427.30396119404,-68091.72845980269,-20961.376543209142
-26868.763788791155,-20377.03488791405,-68141.75166389366,-20971.18895902502
-26520.76947936648,-20338.992218851115,-68243.38504593195,-21020.87688694917
-26533.353511494817,-20383.3604315949,-68193.51830405215,-21019.13345088165
-26883.292422687107,-20431.41668217381,-68076.39516310635,-20962.94116532101
-26998.20274093184,-20412.03771973106,-68078.92091022979,-20944.389217423108
-26877.25745168417,-20371.335193077943,-68142.15399529386,-20960.70599087548
-26530.805412626916,-20343.44021599772,-68240.12169124147,-21009.723366465973
-26544.417625000195,-20392.479943332663,-68195.86523721996,-21021.92741893857
-26897.68694611632,-20431.66255136282,-68082.09485794244,-20971.99362182541
-27015.63710160698,-20402.7170422932,-68077.13277067337,-20942.28815344431
-26896.03291702663,-20365.546091264023,-68132.47568994471,-20955.319220461755
-26555.01235187201,-20339.238088040125,-68230.8010138036,-21010.30451182181
-26571.30677357993,-20385.327385106968,-68192.78069648513,-21023.40263407262
-26922.87736211745,-20421.31369368001,-68077.64686079584,-20968.55145317929
-27045.00729382125,-20403.924036493783,-68076.59632880644,-20947.071426757742
-26928.9570366093,-20369.41294305479,-68128.65354164285,-20958.82844434124
-26582.460294063127,-20341.696779930207,-68229.7504818142,-21004.24718907442
-26598.151218670755,-20392.70346077722,-68192.80304822959,-21019.334616581757
-26959.08718813505,-20443.844252090963,-68083.7712387766,-20973.200616026
-27080.144236105,-20414.451708132237,-68073.78000900507,-20938.51070863136
-26966.418560316397,-20374.75500997961,-68126.21720149723,-20945.842080812705
-26626.56028587345,-20350.21279456768,-68231.29275218163,-20998.0557558603
-26627.901390540766,-20392.6140537994,-68193.60771102998,-21008.806944943302
-26975.62747903198,-20423.39240591436,-68071.92481421528,-20954.447502428
-27092.70591648888,-20381.4605333162,-68061.59830827694,-20922.99859797938
-26980.41075234541,-20342.03205609704,-68122.39505319537,-20935.62733359663
-26640.84305058039,-20319.054462796983,-68224.92250501185,-20987.461028988484
-26641.87123082533,-20369.97173666617,-68187.66214700487,-21003.06254661829
-26992.704211795837,-20411.814202286507,-68068.50499731362,-20951.87705181564
-27113.046003943207,-20383.7627629951,-68056.90444194133,-20919.84700201118
-27000.750839799744,-20349.56459397848,-68107.5758466215,-20928.3406649042
-26660.981972334623,-20326.87757335634,-68214.05955720658,-20983.72828766445
-26662.434835724216,-20380.07472515997,-68183.46001904727,-21003.01784312938
-27016.397060918454,-20417.4691936337,-68061.64301176585,-20950.737112848416
-27147.13241423755,-20395.631539300863,-68060.63718326535,-20925.881973014115
-27038.324122229114,-20359.712285961188,-68121.00924503914,-20936.85667954167
-26699.024641397555,-20337.137024061325,-68233.97496151626,-20995.93234013705
-26691.067420371463,-20382.444010072235,-68190.83609471752,-21005.09655536372
-27037.94414257337,-20421.693673335754,-68072.39420084885,-20951.76529309336
-27164.410312701504,-20406.5168388506,-68076.59632880644,-20929.748824804883
-27060.608811451057,-20373.056277401003,-68135.87315510192,-20947.741979091406
-26720.52701956356,-20338.612239195376,-68243.92148779887,-21005.811811186293
-26710.267568858573,-20383.7627629951,-68221.52503985465,-21025.101366651223
-27060.944087617885,-20431.260219962624,-68103.28431168607,-20974.519368948862
-27188.125513568582,-20430.16498448432,-68094.83535228198,-20955.72155186195
-27076.098570358583,-20396.65971954581,-68146.80315814057,-20969.89255784661
-26725.06442368799,-20337.673465928256,-68241.86512730898,-21011.712671722493
-26709.66407175828,-20380.119428648883,-68207.48814433672,-21023.983779428458
-27064.45331149737,-20421.872487291395,-68093.29308191455,-20975.167569538065
-27189.44426649145,-20386.40026884082,-68086.47579985569,-20949.79833958129
-27075.718590702843,-20341.09328282992,-68126.88775383089,-20952.502900660384
-26723.56685680948,-20302.245950966597,-68217.16644968587,-20992.423116257563
-26706.870103701367,-20360.293431317023,-68200.6932140223,-21018.08291889225
-27063.5368899747,-20410.60720808592,-68081.42430560879,-20963.902290332597
-27200.307214296725,-20390.04360318704,-68069.0190874361,-20930.777005049826
-27101.244282870804,-20357.79003593803,-68128.31826547603,-20945.842080812705
-26762.92827879528,-20329.31391350197,-68234.7572725722,-20998.793363427325
-26749.807804800013,-20380.47705656017,-68203.33071986804,-21014.08195663476
-27108.7991724967,-20433.51774615261,-68087.1687039338,-20974.00527882639
-27241.993217705876,-20408.506144107123,-68067.18624439076,-20939.58359236522
-27146.350103181616,-20366.32840231996,-68110.92860828979,-20944.45627265648
-26816.63952072138,-20338.58988745092,-68213.25489440619,-20996.468782003973
-26803.60845370393,-20391.585873554453,-68189.83026621703,-21017.4123665586
-27162.309248722704,-20439.41860668881,-68078.80915150752,-20971.300717747297
-27298.029041055328,-20402.02413821508,-68063.5205583001,-20938.801281309283
-27197.356784028627,-20358.84056792743,-68110.7274425897,-20941.058807499267
-26868.339105646504,-20343.37316076436,-68225.79422304562,-20999.73213669445
-26844.19922163477,-20390.155361909317,-68206.72818502525,-21022.843840461235
-27199.65901370752,-20438.61394388842,-68095.70707031574,-20977.2015782835
-27335.870544418165,-20399.99012946965,-68085.69348879975,-20941.684656344016
-27237.612275792635,-20360.002858639105,-68144.47857671721,-20949.932450048025
-26897.172855993853,-20327.659884412275,-68242.60273487601,-20990.813790656783
-26863.93581198881,-20371.40224831131,-68222.19559218832,-21005.431831530557
-27215.305234826235,-20409.444917374243,-68109.52044838911,-20955.85566232868
-27352.74611148192,-20387.450800830225,-68097.4728581277,-20921.366920634144
-27255.516023101336,-20348.715227689176,-68134.88967834589,-20922.95389449047
-26917.71410914828,-20319.903829086285,-68238.64647610742,-20970.987793324923
-26893.48481815873,-20376.453742558213,-68222.1508886994,-20995.418250014576
-27247.98348521989,-20420.598437857443,-68101.18324770727,-20944.94801103449
-27390.7664288004,-20399.565446325,-68091.66140456933,-20919.31056014425
-27293.91632007555,-20361.83570168444,-68142.69043716078,-20927.938333504004
-26955.734426466755,-20329.35861699088,-68244.94966804382,-20977.96153759498
-26920.03869057163,-20375.783190224556,-68224.38606314494,-21005.700052464017
-27273.30801168776,-20422.43128090278,-68107.91112278833,-20960.258955986377
-27415.398051190143,-20404.147553938332,-68102.61375935242,-20934.040359740306
-27319.173791310048,-20374.55384427951,-68158.82839665753,-20950.692409359504
-26973.10173190853,-20337.4499484837,-68257.62310714998,-20996.62524421516
-26927.32535926406,-20375.87259720237,-68239.51819414117,-21017.948808425524
-27278.76183733485,-20431.528440896087,-68120.47280317222,-20971.926566592047
-27425.34457747276,-20417.11156572241,-68105.56418962052,-20945.23858371241
-27331.333140293737,-20378.17482688127,-68158.04608560159,-20961.041267042317
-26984.61288030301,-20335.751215905097,-68258.11484552799,-21010.796250199823
-26937.13777507994,-20379.158303637305,-68242.98271453175,-21037.372474357187
-27290.585910151716,-20432.109586251925,-68126.19484975278,-20989.897369134116
-27437.302760756345,-20407.81324002901,-68114.77310833611,-20963.410551954574
-27340.89968692061,-20365.92607091976,-68162.96346938175,-20968.48439794593
-26999.76736304371,-20330.43150072473,-68261.06527579609,-21008.78459319885
-26948.358350796505,-20371.78222796705,-68239.78641507465,-21024.54257303984
-27296.240901498903,-20419.45849889022,-68121.05394852805,-20974.519368948862
-27442.33190325879,-20402.02413821508,-68107.68760534377,-20944.500976145384
-27344.230096844447,-20359.73463770564,-68144.67974241731,-20941.37173192164
-27006.80816254713,-20331.660846669776,-68257.84662459453,-20996.401726770608
-26951.800519442622,-20373.92799543476,-68242.84860406502,-21018.708767737004
-27301.247692256893,-20426.834574560475,-68128.49707943166,-20972.10538054769
-27452.569002219323,-20414.98814999916,-68120.74102410568,-20944.165699978555
-27356.47885280596,-20372.922166934277,-68162.04704785909,-20943.2939819448
-27018.319310941617,-20340.53448921853,-68267.23435726576,-20991.685508690534
-26951.442891531336,-20380.968794938184,-68244.05559826561,-21012.91966592308
-27308.69082316051,-20439.79858634455,-68129.0335212986,-20972.261842758875
-27461.040313367885,-20425.85109780444,-68118.25998047114,-20944.009237767368
-27373.488530336446,-20394.7151177782,-68172.99940264218,-20961.53300542033
-27034.59138090508,-20361.50042551761,-68279.1701888049,-21014.97602641297
-26967.692609750346,-20394.491600333644,-68260.08179904005,-21034.17617490008
-27318.07855583174,-20439.99975204465,-68137.66129465835,-20984.130619064646
-27470.15982510565,-20425.38171117088,-68129.94994282126,-20954.223984983444
-27385.33495489776,-20401.912379492805,-68183.03533590262,-20968.66321190157
-27049.499994456768,-20381.527588549565,-68289.63080520998,-21025.4142910736
-26973.615822031003,-20407.835591773463,-68267.56963343259,-21038.40065460213
-27321.07368958875,-20444.514804424623,-68146.5349372071,-20991.618453457173
-27479.25698509896,-20429.56148738402,-68132.60980041145,-20966.204520011488
-27390.207635189014,-20382.3098996055,-68175.7933706991,-20971.166607280567
-27053.34449450308,-20339.17103280676,-68281.42771499488,-21023.693206750537
-26983.76351401371,-20375.22439661317,-68262.47343569678,-21042.714541282003
-27329.656759459587,-20420.03964424606,-68138.37655048091,-20988.891540633624
-27490.5893195378,-20406.9191702508,-68123.51264041814,-20953.799301838797
-27406.85968480822,-20367.825969198464,-68173.08880962,-20956.48151117343
-27072.14231159,-20339.52866071805,-68279.32665101608,-21004.805982685804
-26994.60411007453,-20378.241882114635,-68271.54824394564,-21029.884639964657
-27336.31757930727,-20425.22524895969,-68146.95962035176,-20981.67192717456
-27488.86823521474,-20406.270969661597,-68130.26286724364,-20947.630220369127
-27402.031708005878,-20373.63742275684,-68185.27051034814,-20959.990735052917
-27059.334762017104,-20342.41203575278,-68293.00591862273,-21009.902180421614
-26975.895699965444,-20378.957137937206,-68281.38301150597,-21034.73496851146
-27323.040643100816,-20431.66255136282,-68159.65541120236,-20991.19377031252
-27479.97224092153,-20423.32535068099,-68142.89160286088,-20967.67973514554
-27395.08031548027,-20398.17963816877,-68194.07709766354,-20981.202540541
-27059.714741672844,-20362.77447495156,-68292.33536628907,-21024.766090484394
-26976.40979008792,-20394.759821267107,-68274.05163932462,-21044.45797734952
-27314.7481459079,-20439.19508924426,-68150.42414074233,-20993.719517435973
-27473.02084839593,-20426.34283618245,-68137.2813150026,-20965.399857211098
-27393.783914301865,-20389.998899698126,-68188.28799584962,-20977.648613172605
-27050.97520959082,-20347.150605577302,-68277.56086320411,-21018.66406424809
-26961.836452703054,-20386.109696162905,-68270.38595323396,-21046.73785528396
-27299.951291078483,-20425.64993210434,-68155.45328324477,-21003.844857674227
-27455.407673765145,-20398.850190502428,-68127.35714046445,-20965.712781633472
-27371.74509426893,-20363.713248218686,-68174.45226603177,-20966.78566536733
-27038.771157118223,-20333.516041459567,-68280.71245917231,-21014.39488105713
-26954.683894477355,-20369.16707386578,-68270.40830497841,-21039.07120693579
-27295.436238698512,-20410.294283663545,-68148.77011165263,-20992.691337191027
-27466.47178727052,-20403.722870793685,-68133.4815184452,-20963.58936591022
-27391.392277645147,-20370.97756516666,-68185.58343477052,-20966.62920315614
-27057.8371951386,-20331.906715858782,-68290.27900579918,-21015.19954385752
-26963.311667837104,-20366.55191976451,-68282.38884000646,-21039.67470403608
-27302.11941029065,-20416.4186616443,-68160.86240540295,-20990.992604612424
-27460.81679592333,-20398.626673057875,-68136.72252139122,-20954.00046753889
-27375.79076001534,-20364.808483697,-68186.87983594893,-20962.561185665272
-27033.518497171222,-20334.4995182156,-68293.38589827847,-21013.701976979017
-26928.04061508663,-20373.81623671249,-68292.22360756679,-21043.452148849028
-27268.4353313965,-20442.860775334928,-68183.12474288043,-21008.82929668776
-27431.357196731235,-20427.08044374948,-68166.47269326124,-20982.029555085846
-27348.74514922442,-20382.958100194704,-68206.81759200306,-20986.20933129899
-27005.19883694635,-20351.64330621282,-68305.36643330651,-21028.051796919324
-26893.93185304783,-20382.80163798352,-68293.49765700074,-21045.106177938724
-27224.514153541822,-20421.98424601367,-68162.04704785909,-20989.606796456195
-27390.65467007812,-20401.2641789036,-68142.22105052722,-20957.77791235184
-27311.01540458386,-20359.73463770564,-68187.68449874932,-20963.05292404329
-26985.43989484786,-20325.26824775556,-68294.6152442235,-21016.38418631365
-26884.70058258779,-20355.3536957924,-68293.69882270084,-21041.50754708142
-27219.417955806013,-20404.639292316355,-68169.82545492952,-20993.96538662498
-27381.199882173525,-20390.580045053965,-68141.2822772601,-20960.46012168648
-27306.433296970525,-20361.12044586187,-68189.13736213892,-20972.91004334808
-26965.926821938378,-20326.34113148941,-68286.52391273068,-21022.35210208322
-26847.149651902877,-20360.67341097277,-68274.9680608473,-21045.15088142763
-27179.542443697745,-20416.195144199748,-68151.87700413192,-21001.564979739785
-27350.13095738065,-20410.674263319288,-68134.88967834589,-20974.96640383797
-27270.78226456431,-20377.21370186969,-68184.15292312538,-20979.21323528448
-26932.555667466604,-20346.010666610084,-68286.74743017524,-21027.78357598586
-26815.81250617653,-20379.85120771542,-68278.25376728222,-21051.23055591948
-27148.540574138235,-20434.99296128666,-68155.36387626694,-21005.29772106382
-27317.16213430907,-20420.620789601897,-68136.20843126875,-20974.117037548665
-27243.82606075121,-20389.529513064565,-68183.66118474737,-20979.459104473484
-26910.315681733573,-20360.89692841732,-68287.46268599782,-21029.39290158664
-26789.191578530263,-20393.03873694405,-68282.72411617328,-21054.046875720844
-27118.566884823667,-20440.066807278017,-68157.10731233445,-21002.72727045146
-27286.47318917193,-20426.007560015627,-68134.62145741242,-20970.227834013443
-27208.934987656477,-20386.064992673997,-68177.51445502216,-20972.351249736697
-26880.252585441183,-20352.13504459084,-68282.50059872873,-21017.792346214337
-26756.893307792343,-20375.470265802174,-68275.03511608066,-21035.092596422743
-27088.21321585336,-20430.544964140056,-68156.28029778962,-20990.657328445595
-27264.59083135019,-20420.95606576873,-68133.16859402282,-20963.58936591022
-27193.48993223786,-20367.98243140965,-68170.83128343002,-20960.72834261994
-26859.26429739765,-20323.5471634325,-68269.2683660112,-21003.1072501072
-26735.94972323772,-20364.07087612997,-68274.09634281354,-21035.271410378387
-27068.722494688333,-20421.09017623546,-68153.24046054369,-20991.79726741281
-27241.546182816768,-20407.27679816208,-68127.91593407583,-20960.035438541825
-27166.623135402577,-20371.089323888937,-68169.0431438736,-20963.298793232298
-26825.267294081128,-20325.424709966745,-68262.87576709698,-20998.97217738297
-26693.66022272828,-20362.59566099592,-68271.10120905652,-21027.560058541305
-27025.024834278207,-20421.98424601367,-68154.69332393329,-20990.009127856392
-27199.99428987435,-20409.288455163056,-68129.01116955414,-20957.30852571828
-27127.529934350245,-20382.13108564986,-68175.41339104336,-20965.80218861129
-26790.73384889768,-20353.587907980436,-68284.4675522408,-21016.83122120276
-26651.594239663395,-20386.489675818644,-68288.24499705374,-21046.02259946139
-26973.43700807536,-20437.80928108803,-68160.50477749166,-20999.35215703871
-27145.56779212568,-20422.878315791884,-68133.34740797846,-20965.24339499991
-27078.82548318213,-20384.656832773308,-68174.36285905396,-20969.043191557317
-26742.208211685207,-20339.416901995766,-68274.5657294471,-21013.97019791248
-26608.90240775376,-20388.344870608435,-68291.8659796555,-21053.733951298476
-26936.15429832391,-20446.54881317005,-68170.63011772992,-21010.751546710915
-27109.76029750828,-20412.4176993868,-68132.85566960045,-20968.596156668205
-27033.518497171222,-20366.03782964204,-68175.30163232108,-20971.300717747297
-26699.538731520028,-20327.950457090195,-68275.3703922475,-21012.852610689715
-26558.74509319605,-20354.37021903637,-68282.72411617328,-21037.618343546197
-26886.46637039976,-20410.09311796345,-68154.87213788893,-20989.04800284481
-27066.26380279825,-20399.11841143589,-68122.17153575082,-20951.87705181564
-26997.33102289808,-20363.57913775196,-68162.337620537,-20952.43584542702
-26671.97903060663,-20337.94168686172,-68268.97779333327,-21003.24136057393
-26529.35254923732,-20363.914413918785,-68266.34028748755,-21029.012921930906
-26856.22446015173,-20419.95023726824,-68144.07624531702,-20986.20933129899
-27037.11712802853,-20408.14851619584,-68114.48253565819,-20951.72058960445
-26971.201833629828,-20373.57036752348,-68159.67776294683,-20957.085008273723
