 EXG Channel 0, EXG Channel 1, EXG Channel 2, EXG Channel 3
28887.662754972316,-56195.235990910056,3885.917828788499,-1244.38866906031
28884.28764155956,-56187.70345302862,3883.3473781761386,-1239.5383405135085
28891.775475952087,-56170.22438886457,3893.5174219033033,-1231.8493404208828
28912.62965352889,-56142.1058943398,3906.324971476194,-1228.9212618972376
28910.126258149896,-56130.37122850076,3899.2171167394063,-1231.6034712318744
28879.32555429048,-56139.35662977179,3879.10054672963,-1236.297337567489
28869.110807074405,-56136.20503380359,3874.2502181828286,-1237.8396079349052
28878.7667606791,-56118.07776905034,3887.527154389281,-1231.4470090206871
28904.78419122508,-56087.5899896133,3907.420206954504,-1235.7608957005616
28909.880388960886,-56072.1896376836,3908.2248697548953,-1229.2341863196118
28891.171978851795,-56072.52491385042,3891.014026524309,-1223.3109740389557
28880.30903104652,-56070.28973940489,3882.967398520398,-1220.204081559668
28886.41105728281,-56055.984622953496,3888.220058467396,-1220.941689126693
28910.14860989435,-56026.14504410566,3903.48629993037,-1221.2769652935226
28911.333252350483,-56010.83409915377,3900.468814428904,-1221.165206571246
28889.137970106363,-56010.5211747314,3883.526192131781,-1220.0923228373913
28877.492711245148,-56008.46481424151,3875.680729827968,-1222.618069960841
28887.483941016668,-55992.88564835616,3884.822593310189,-1222.9533461276706
28915.468325074715,-55959.96152877349,3904.58153540868,-1223.109808338858
28918.82108674301,-55944.471769865966,3902.636933641069,-1224.4062095172656
28894.614147497912,-55946.9528135005,3883.6603025985128,-1223.3556775278662
28882.90183340333,-55942.92949949855,3875.188991449952,-1219.6005844593749
28893.04952538604,-55923.19290914451,3881.358072919616,-1223.8921193947936
28912.29437736206,-55896.81785068725,3893.271552714295,-1227.043715362992
28926.733604280187,-55870.01810908534,3894.5679538927034,-1225.2108723176566
28897.47517078819,-55876.81303939975,3872.730299559868,-1221.008744360059
28881.918356647297,-55876.14248706609,3863.2308081663614,-1220.807578659961
28890.277909073586,-55858.95399557996,3869.556351847214,-1220.494654237587
28908.89691220485,-55832.91421328953,3883.034453753764,-1218.52770072552
28915.24480763016,-55811.74711129035,3884.867296799099,-1223.4003810167767
28892.826007941487,-55811.34477989016,3868.215247179896,-1222.4169042607432
28872.642382698345,-55813.57995433569,3857.441706352437,-1228.2283578191232
28878.38678102336,-55799.36424486211,3866.672976812479,-1228.5636339859527
28897.54222602156,-55773.12329687159,3882.118032231097,-1228.5636339859527
28906.95231043724,-55750.07864833816,3885.828421810677,-1226.90960489626
28882.67831595878,-55755.24190130734,3870.405718136516,-1222.3722007718327
28870.38485650836,-55752.91731988399,3864.840133767144,-1221.2099100601567
28879.25849905712,-55734.16420628598,3874.429032138471,-1216.6278024468188
28896.089362631963,-55711.20896473038,3885.113165988108,-1221.7240001826287
28904.515970291613,-55691.56178135417,3890.365825935105,-1223.3780292723216
28877.269193800592,-55697.32853142364,3872.618540837591,-1218.0136106030477
28859.65601916981,-55700.07779599164,3864.2366366668502,-1216.7619129135503
28868.52966171857,-55679.22361841484,3871.165677447996,-1216.8960233802825
28878.923222890287,-55660.20228388337,3881.201610708429,-1213.0738750784249
28891.328441062986,-55635.92828940491,3886.3201601886944,-1216.4936919800869
28868.127330318373,-55639.10223711757,3868.036433224253,-1216.583098957908
28842.57928640596,-55647.17121686593,3855.4076976070046,-1216.694857680185
28843.04867303952,-55635.883585916,3863.2308081663614,-1217.9465553696818
28860.594792436936,-55611.18490829288,3884.979055521376,-1218.8853286368048
28872.57532746498,-55590.26367548272,3896.95959054942,-1214.3479245123774
28847.340207974936,-55596.63392265248,3877.871200784589,-1216.426636746721
28830.308178699997,-55597.50564068624,3867.701157057424,-1214.9290698682155
28836.700777614213,-55580.80888757812,3875.367805405594,-1215.5772704574192
28852.838737110946,-55559.48532336776,3889.203535223429,-1215.8007879019724
28865.17690005027,-55538.18411090185,3895.350264948638,-1218.103017580869
28846.71435913019,-55537.7594277572,3877.312407173205,-1216.426636746721
28827.17893447625,-55540.37458185847,3864.303691900217,-1212.760950656051
28833.839754323933,-55525.488320051234,3869.1540204470175,-1216.5383954689976
28859.29839125853,-55495.425223758844,3885.269628199295,-1214.616145445841
28874.85520539942,-55470.23480775772,3893.29390445875,-1214.973773357126
28856.19149877924,-55468.98311006822,3878.787622307256,-1219.8241019039276
28837.28192297005,-55472.17940952533,3866.136534945552,-1217.9465553696818
28842.08754802794,-55458.656604129865,3874.361976905105,-1215.2196425461343
28859.36544649189,-55435.96958350773,3889.1811834789737,-1218.7959216589836
28879.45966475721,-55407.068777927016,3901.921677818498,-1223.3333257834108
28857.219679024183,-55408.58869654998,3886.3648636776047,-1225.389686273299
28831.91750430077,-55415.76360652013,3873.199686193429,-1225.546148484486
28827.91654204328,-55408.43223433879,3872.90911351551,-1224.4062095172656
28840.634684638346,-55388.829754451486,3883.4814886428703,-1227.714267696651
28860.259516270104,-55360.24187329315,3894.031512025775,-1231.268195065045
28845.730882374155,-55354.788047646056,3881.402776408527,-1231.9610991431591
28821.81451580698,-55359.63837619286,3865.9353692454542,-1231.715229954151
28821.74746057361,-55348.10487605392,3866.650625068024,-1227.6919159521958
28835.31496945798,-55327.27305022157,3877.334758917661,-1226.7754944295282
28852.346998732926,-55301.367378397874,3889.739977090356,-1233.168093343746
28836.253742725105,-55300.02627373055,3878.877029285077,-1236.453799778676
28814.438440136724,-55302.39555864281,3868.1258402020735,-1235.4703230226426
28813.767887803067,-55288.80569801399,3872.6855960709568,-1231.067029364947
28827.245989709616,-55267.526837292535,3886.655436355524,-1234.3974392887878
28844.6579986403,-55242.224662569126,3900.491166173359,-1235.3362125559108
28831.358710689397,-55236.68142994421,3890.432881168471,-1237.9513666571816
28815.42191689276,-55236.77083692204,3881.715700830901,-1234.6880119667069
28812.292672669017,-55229.75238916307,3883.794413065245,-1238.1078288683689
28830.7552135891,-55205.098415028864,3894.9255818039874,-1239.6277474913295
28851.43057721026,-55177.49401062656,3907.3755034655937,-1237.9960701460925
28843.719225373177,-55168.08392621088,3898.479509172381,-1234.6656602222515
28826.50838214259,-55167.14515294376,3889.158831734518,-1232.72105845464
28828.452983910203,-55154.60582430432,3893.8303463256775,-1233.9504043996817
28841.975789305663,-55131.33765832635,3908.381331966082,-1232.1175613543464
28864.439292483246,-55099.39701549972,3922.865262373122,-1231.558767742964
28854.448062711726,-55092.4009194852,3907.286096487772,-1234.1515700997795
28829.74938508861,-55098.03355908794,3889.136479990063,-1230.9999741315812
28829.16823973277,-55086.63416941574,3893.1597939920175,-1222.9533461276706
28844.79210910703,-55062.22606447054,3906.168509265007,-1227.043715362992
28865.33336226146,-55031.380657122216,3920.4065704830377,-1229.2788898085223
28849.910658587298,-55025.36803786374,3907.911945332521,-1231.3128985539554
28826.843658309423,-55027.55850882036,3894.143270748052,-1231.558767742964
28822.86504779637,-55019.22130813853,3895.752596348834,-1233.7939421884946
28836.11963225837,-54997.607171250245,3909.275401744295,-1233.5704247439414
28865.489824472646,-54961.41969697711,3925.525119963303,-1236.4314480342207
28849.731844631657,-54959.83272312078,3909.498919188848,-1241.2147213476565
28823.26737919657,-54966.85117087975,3892.9139248030096,-1239.3818783023214
28821.635701851334,-54956.94934808605,3890.745805590845,-1240.3206515694442
28834.353844446403,-54934.73171409747,3900.647628384546,-1239.0242503910365
28856.07974005696,-54905.62974281666,3910.7282651338896,-1238.19723584619
28841.7075683722,-54902.6569608041,3897.898363816543,-1239.337174813411
28822.060384995984,-54903.72984453796,3881.29101768625,-1238.0184218905476
28815.064288981477,-54893.69391127753,3881.335721175161,-1236.7890759455056
28823.066213496477,-54873.95732092349,3888.823555567689,-1240.454762036176
28843.495707928625,-54844.52007347585,3901.0276080402864,-1244.00868940457
28841.215829994184,-54830.97491633594,3898.770081850301,-1243.2263783486342
28818.08177448294,-54833.29949775928,3888.153003234029,-1241.192369603201
28809.63281507884,-54826.07988430022,3888.957666034421,-1239.0466021354916
28821.255722195598,-54805.27041021233,3899.910020817521,-1235.2691573225447
28842.266361983584,-54776.771936031815,3914.639820413569,-1233.2127968326563
28830.86697231137,-54775.45318310895,3906.928468576488,-1233.0563346214694
28808.336413900422,-54779.00711047735,3894.255029470328,-1232.072857865436
28802.70377429769,-54771.07224119571,3891.684578857968,-1232.2740235655338
28813.14203895832,-54750.88861595257,3901.9663813074094,-1229.81533167545
28836.11963225837,-54719.32795278168,3919.11016930463,-1233.6374799773073
28837.728957859155,-54700.843060117135,3917.344381492661,-1234.9562329001706
28809.40929763428,-54708.28619102075,3898.166584750007,-1232.2740235655338
28799.686288796223,-54705.35811249711,3894.456195170426,-1235.5820817449192
28816.137172715327,-54682.1570017525,3904.469776686404,-1237.7949044459945
28838.42186193727,-54652.33977464912,3920.674791416501,-1238.3536980573772
28835.717300858178,-54639.73339077632,3917.456140214937,-1232.877520665827
28805.408335376786,-54651.13278044853,3899.574744650691,-1225.5014449955756
28794.12070442685,-54648.40586762498,3897.943067305454,-1227.9154333967488
28805.02835572104,-54627.41757958145,3910.3482854781496,-1227.8930816522934
28830.59875137791,-54595.23106756581,3930.129579321096,-1226.19434907369
28827.581265876444,-54584.70339592736,3925.279250774295,-1226.328459540422
28797.13818992832,-54595.007550121256,3901.519346418303,-1225.881424651316
28788.957451457674,-54591.431271008405,3896.19963123794,-1224.294450794989
28797.36170737287,-54575.20390453385,3901.1840702514737,-1228.585985730408
28821.85921929589,-54546.54896814215,3916.6514774145458,-1229.7035729531733
28826.41897516477,-54531.41683714591,3910.661209900524,-1230.1506078422794
28804.447210365204,-54535.48485463677,3888.778852078778,-1226.9990118740811
28790.79029450301,-54534.948412769845,3878.273532184784,-1231.558767742964
28796.51234108357,-54519.12337769549,3883.705006087424,-1235.649136978285
28818.238236694127,-54491.742490737735,3898.792433594756,-1235.425619533732
28820.8533907954,-54476.27508357466,3897.1607562495183,-1235.6938404671955
28794.813608504966,-54482.64533074443,3881.358072919616,-1233.3022038104775
28784.97884094463,-54477.772650453175,3878.7652705628007,-1229.681221208718
28789.56094855797,-54464.51806599118,3885.29197994375,-1228.4965787525869
28809.76692554557,-54435.97488832175,3902.7039888744334,-1227.9601368856595
28804.536617343023,-54427.011838795166,3897.741901605357,-1235.7608957005616
28783.660088021767,-54428.97879230724,3882.8556397981215,-1231.6258229763298
28780.70965775367,-54419.70281835828,3879.3464159186383,-1232.7881136880058
28783.950660699687,-54406.67175134084,3881.894514786544,-1241.9970324035924
28802.994346975607,-54381.16841091734,3896.803128338234,-1240.8347416919162
28805.54244584351,-54366.95270144376,3896.378445193583,-1239.873616680338
28785.381172344827,-54369.970186945226,3880.262837441306,-1238.8677881798492
28778.765055986056,-54362.16942813032,3877.893552529044,-1238.1525323572794
28785.045896177995,-54345.47267502221,3882.8556397981215,-1244.1427998713018
28808.89520751181,-54314.04612231805,3898.881840572577,-1247.2049888616789
28810.482181368137,-54299.562191911005,3895.2161544819055,-1247.5626167729638
28784.93413745572,-54304.14429952435,3874.406680394016,-1245.5956632608966
28772.17129137174,-54300.59037215595,3865.711851800901,-1245.6403667498073
28778.60859377487,-54282.17253472478,3876.507744372815,-1244.9474626716928
28801.563835330468,-54250.16483666478,3897.943067305454,-1240.7900382030057
28808.47052436716,-54230.18237712174,3903.262782485817,-1242.5781777594302
28789.51624506906,-54231.00939166658,3886.38721542206,-1240.365355058355
28773.2441751056,-54231.21055736668,3878.72056707389,-1231.4470090206871
28773.8923756948,-54218.09008337141,3884.599075865636,-1231.4470090206871
28792.310213125973,-54192.20676329217,3895.640837626557,-1234.1068666108688
28799.082791695928,-54173.85598109436,3895.014988781809,-1244.4110208047657
28773.043009405497,-54178.415736963245,3872.350319904128,-1248.2778725955336
28756.8379946754,-54177.72283288513,3865.845962267633,-1244.9251109272377
28764.59405000139,-54160.1320099988,3874.9654740053984,-1244.746296971595
28785.26941362255,-54133.91341375273,3890.298770701739,-1242.5111225260644
28793.27133813755,-54117.79780600045,3895.283209715272,-1242.5558260149749
28775.16642512875,-54119.13891066777,3884.934352032465,-1235.9844131451146
28757.866174920346,-54122.60343105834,3876.686558328457,-1234.866825922349
28761.956544155662,-54109.32649485189,3883.392081665049,-1232.0505061209806
28781.51432055406,-54084.00196838403,3899.708855117424,-1227.1107705963575
28790.03033519153,-54065.49472397503,3904.8274045976887,-1228.8318549194164
28768.952640170177,-54068.10987807631,3889.494107901348,-1227.0213636185365
28754.60282022987,-54066.14292456424,3883.883820043066,-1219.332363525911
28760.615439488345,-54047.546273177424,3889.069424756697,-1221.165206571246
28781.73783799861,-54019.74070307502,3903.3521894636383,-1222.2157385606456
28789.6950590247,-54001.613438321765,3908.336628477172,-1220.2711367930335
28765.778692457523,-54007.08961571332,3891.014026524309,-1219.3100117814556
28746.131509081308,-54012.56579310486,3880.687520585957,-1223.2886222945003
28750.803023672463,-53998.52889758693,3886.7224915888896,-1223.62389846133
28768.103273880875,-53970.991548418,3903.598058652647,-1218.0583140919584
28782.341335098903,-53947.857492906754,3911.845852356655,-1214.5714419569306
28759.587259243403,-53953.668946465135,3893.070387014197,-1211.710418666651
28731.5805234409,-53964.6883564816,3878.8323257961674,-1213.5879652008969
28734.08391881989,-53954.7865336879,3881.335721175161,-1217.521872225031
28749.46191900515,-53934.96053635604,3894.769119592801,-1213.0515233339695
28764.32582906793,-53913.63697214568,3905.699122631445,-1212.224508789123
28741.92938112371,-53919.60488791525,3890.00819802382,-1217.4324652472098
28721.745755880565,-53925.058713562335,3877.200648450929,-1214.9514216126706
28724.986758826588,-53912.76525411192,3884.19674446544,-1217.231299547112
28739.96242761164,-53890.52526837889,3898.121881261096,-1215.912546624249
28754.714578952146,-53869.15700067962,3908.001352310342,-1213.1856338007017
28736.564962454435,-53869.13464893516,3895.752596348834,-1210.8387006328942
28717.141296522776,-53872.30859664782,3884.263799698806,-1209.5199477100311
28718.281235489994,-53864.44078259954,3885.917828788499,-1210.7045901661625
28739.873020633822,-53838.84803519822,3900.6252766400903,-1210.0787413214136
28760.526032510526,-53811.86947964066,3910.415340711516,-1213.0962268228802
28738.9342473667,-53816.78686342083,3891.43870966896,-1214.973773357126
28716.180171511194,-53823.760607690885,3879.838154296656,-1213.297392522978
28710.122848763807,-53820.0502181113,3881.961570019909,-1212.4703779781316
28724.562075681937,-53802.57115394725,3895.1938027374513,-1207.1283110533132
28742.46582299064,-53780.845258336696,3912.6728669015015,-1201.2050987726568
28721.16461052473,-53789.4953834409,3899.2171167394063,-1197.7852818709948
28697.538816635468,-53798.57019168976,3888.063596256208,-1190.006874800548
28691.526197376992,-53794.99391257691,3892.399834680538,-1188.2857904774894
28704.467857416614,-53779.61591239166,3904.3803697085823,-1186.072967776414
28717.096593033864,-53762.20390346097,3912.292887245761,-1189.068101533425
28697.00237476854,-53769.06588900875,3896.713721360412,-1191.2585724900453
28668.928583732675,-53784.04155779381,3879.3464159186383,-1190.4539096896542
28664.637048797256,-53780.152354258586,3881.402776408527,-1186.0953195208692
28678.316316403907,-53763.27678719482,3893.383311436571,-1184.7318631090957
28695.19188346766,-53744.52367359682,3905.430901697982,-1180.4403281736766
28679.16568269321,-53749.932795755005,3892.355131191627,-1178.428671172699
28655.33872310385,-53762.22625520542,3877.334758917661,-1181.5355636519866
28651.941257946644,-53759.99108075989,3881.067500241697,-1183.3237032084112
28666.55929882041,-53743.69665905198,3897.518384160803,-1183.368406697322
28690.81094155442,-53720.383789585096,3914.930393091488,-1186.5200026655202
28684.53010136248,-53718.14861513956,3904.737997619867,-1194.0525405469589
28665.285249386463,-53726.26229837684,3888.041244511753,-1198.4781859491095
28665.173490664183,-53720.383789585096,3890.946971290943,-1197.852337104361
28687.659345586224,-53697.54030675177,3907.710779632423,-1194.1866510136904
28717.25305524505,-53667.298396503735,3924.295774018261,-1192.6890841351849
28718.527104679004,-53659.54234117775,3916.606773925636,-1190.1633370117352
28704.80313358345,-53662.02338481229,3903.598058652647,-1191.7056073791514
28703.70789810513,-53652.702707374425,3903.2180789969066,-1193.6278574023077
28722.30454949195,-53630.23920419684,3914.103378546641,-1192.5996771573637
28749.573677727425,-53600.51138407128,3928.989640353876,-1194.7230928806175
28752.25588706206,-53586.42978506444,3923.848739129154,-1197.6288196598075
28744.991570114085,-53579.41133730547,3915.86916635861,-1197.4500057041653
28757.665009220247,-53560.56881672965,3920.764198394322,-1201.42861621721
28788.599823546392,-53526.90708957995,3937.997393369364,-1204.200232529668
28834.487954913136,-53476.5709610666,3964.5065622933594,-1206.9271453532156
28849.910658587298,-53446.28434732966,3964.663024504546,-1206.4354069751987
28837.79601309252,-53438.72945770377,3948.413306285537,-1204.557860440953
28846.334379474447,-53418.59053594954,3949.061506874741,-1203.2167557736343
28876.151606577827,-53382.09013725402,3963.277216348317,-1204.2449360185783
28917.43527858678,-53335.866729720445,3984.131393925118,-1206.9047936087602
28925.7277757797,-53312.97854339821,3978.40934734456,-1211.7327704111065
28920.05043268805,-53300.014531614135,3964.283044848805,-1206.5471656974753
28933.95321773925,-53271.71722313371,3963.724251237423,-1204.691970907685
28959.948296540773,-53235.55210060503,3968.64163501759,-1208.3353052538998
28994.280576024124,-53190.803908205504,3980.823335745733,-1215.1749390572238
28998.7956284041,-53167.28987303852,3969.803925729266,-1222.752180427573
28986.81509337605,-53155.37639324384,3953.934187165998,-1224.9650031286485
28992.80536089008,-53131.90706156577,3952.5260272653136,-1219.265308292545
29014.665366967365,-53097.77594778252,3962.584312270202,-1215.5996222018746
29044.527297559656,-53056.93931066267,3974.45308857597,-1215.778436157517
29055.90433548741,-53023.38934223525,3971.748527496878,-1215.3090495239555
29050.919896473875,-53002.44575768063,3961.511428536348,-1213.1856338007017
29055.99374246523,-52978.350577157806,3959.410364557548,-1214.8843663793048
29079.463074143303,-52939.346783083296,3971.212085629951,-1214.4149797457433
29108.743859379752,-52893.79392788338,3987.864135249154,-1213.8338343899054
29125.217095043317,-52855.93007277609,3986.3442166261934,-1220.5393577264974
29120.411469985425,-52833.93595623207,3972.843762975188,-1220.6287647043189
29125.909999121428,-52806.711531485504,3975.190696142995,-1216.8066164024613
29155.548412269167,-52762.38802223063,3988.512335838358,-1216.71720942464
29192.78641853171,-52711.023713472336,4004.180908701529,-1213.4985582230756
29206.510389627267,-52676.1326403776,3999.2411731769057,-1210.2575552770563
29192.227624920324,-52663.14627684907,3977.5599810552576,-1209.0282093320145
29195.356869144067,-52636.771218391805,3976.062414176752,-1204.6472674187742
29211.584235618622,-52601.969552274895,3982.83499274671,-1207.485938964598
29242.96608483387,-52557.04254591973,3998.235344676417,-1212.872709378327
29254.767805906275,-52523.40317051449,3994.659065563568,-1216.4713402356315
29236.864058597574,-52508.91924010745,3974.944826953986,-1214.7279041681177
29232.48311668433,-52491.12725152102,3964.26069310435,-1213.9455931121818
29247.347026747117,-52456.97378599332,3969.870980962632,-1215.1972908016792
29274.303230560214,-52413.074959883095,3984.846649747688,-1216.5383954689976
29288.65305050052,-52377.625093176975,3985.293684636794,-1222.1710350717349
29281.8134166972,-52355.250996977215,3972.329672852716,-1223.109808338858
29284.339163820645,-52327.91481350837,3969.915684451543,-1221.6569449492629
29299.426591327978,-52292.0402636576,3973.3802048421153,-1221.4334275047097
29335.45760338993,-52238.26196649814,3990.635751561612,-1217.745389669584
29354.411882688037,-52197.22416367819,3993.764995785356,-1217.4771687361203
29342.09607149316,-52178.381643102366,3973.938998453498,-1219.712343181651
29338.81036505823,-52153.57120675698,3967.5687512837353,-1218.9970873590812
29357.965810056427,-52112.39929347031,3977.5376293108025,-1219.332363525911
29391.20285406147,-52060.18561842271,3996.871888264643,-1219.4217705037322
29401.439953022,-52024.13225461629,3995.329617897227,-1224.8085409174612
29384.98906910289,-52006.45202475214,3975.324806609727,-1227.6919159521958
29380.161092300543,-51981.373367473294,3970.608588529657,-1225.3673345288437
29394.04152560729,-51946.59405310083,3971.88263796361,-1228.3177647969444
29422.607055021177,-51899.789500211424,3982.0750334352297,-1231.0223258760366
29435.436956338523,-51862.86441837125,3983.7067107804673,-1233.4586660216648
29418.02494740784,-51849.81099960936,3963.567789026236,-1231.4023055317766
29405.99970889088,-51835.03649652439,3950.737887708889,-1233.5704247439414
29418.33787183021,-51799.608981562735,3955.387050555593,-1233.972756144137
29442.075424441748,-51756.04543161934,3971.681472263512,-1229.614165975352
29452.245468168912,-51722.76368412539,3972.061451919252,-1225.3673345288437
29434.96756970496,-51711.453701431004,3954.5376842662913,-1224.8979478952824
29424.52930504433,-51693.90758203359,3948.7932859412776,-1225.2779275510225
29435.995749949903,-51658.72593626093,3959.4997715353697,-1228.0271921190254
29467.176433465054,-51611.13907231559,3980.577466556724,-1225.1885205732012
29471.870299800677,-51582.10415626814,3983.505545080369,-1227.4460467631873
29449.49620360091,-51572.78347883028,3963.92541693752,-1225.032058362014
29435.03462493833,-51558.47836237888,3955.699974977968,-1221.5898897158968
29439.594380807208,-51531.65626903252,3960.460896546948,-1225.8590729068603
29457.72164556046,-51495.66996045947,3971.0779751632185,-1228.8989101527825
29468.092854987724,-51461.22592225384,3974.631902531613,-1230.8211601759388
29447.17162217756,-51453.358108205575,3956.59404475618,-1227.647212463285
29433.35824410418,-51442.89749180049,3946.379297540104,-1221.4110757602543
29437.94035171752,-51417.86353801055,3950.7825911978,-1221.3887240157992
29459.107453716693,-51377.96567415782,3966.5629227832464,-1219.1088460813578
29471.512671889388,-51342.18053128488,3975.5036205653696,-1218.237128047601
29449.49620360091,-51334.089199792055,3958.225722101417,-1218.1924245586902
29428.3961568351,-51327.80835960012,3946.44635277347,-1219.555880970464
29428.999653935392,-51305.72483607827,3952.034288887297,-1222.7968839164837
29447.663360555576,-51268.442126326816,3968.5075245508574,-1222.2827937940117
29456.71581705997,-51237.03792536711,3975.2130478874506,-1218.8182734034388
29439.16969766256,-51229.66184969686,3963.411326815048,-1219.2206048036344
29420.43893580901,-51226.778474662126,3952.458972031948,-1219.1088460813578
29421.891799198605,-51207.9359540863,3955.722326722423,-1219.8688053928383
29443.193011664516,-51172.26256993563,3973.223742630928,-1218.6618111922517
29456.604058337696,-51141.95360445423,3983.036158446808,-1220.069971092936
29445.048206454303,-51127.58143276948,3974.095460664685,-1214.616145445841
29428.77613649084,-51116.78554019756,3963.7913064707886,-1215.0184768460367
29425.646892267097,-51101.496946990126,3964.059527404252,-1215.331401268411
29434.2970173713,-51078.854629856905,3973.335501353205,-1216.71720942464
29445.741110532417,-51048.05392599749,3981.762109012856,-1216.069008835436
29425.132802144624,-51042.1977689502,3963.16545762604,-1213.9008896232713
29400.34471754369,-51043.4494666397,3945.440524272981,-1212.8950611227824
29398.57892973172,-51028.89848099929,3946.6028149846575,-1211.4198459887325
29412.325252571733,-51003.28338185351,3959.678585491012,-1210.682238421707
29424.171677133047,-50976.30482629596,3967.009957672353,-1213.0291715895144
29405.19504609049,-50970.15809657075,3948.882692919098,-1215.3537530128665
29381.92688011252,-50970.068689592925,3932.856492144644,-1216.3372297688998
29388.319479026733,-50947.761648626525,3936.20925381294,-1213.1856338007017
29395.986127374905,-50927.24274721656,3941.014878870831,-1216.1584158132573
29409.01719439235,-50899.43717711415,3948.614471985635,-1211.911584366749
29385.704324925464,-50897.559630579904,3934.0858380896857,-1207.3071250089556
29355.14949025506,-50905.58390683936,3919.9818873383865,-1204.557860440953
29346.074682006205,-50898.85603175832,3920.339515249672,-1209.318782009933
29353.33899895418,-50877.91244720369,3930.755428165845,-1210.6151831883412
29366.39241771608,-50852.0514788689,3939.3384980366823,-1211.6657151777406
29340.33028368119,-50858.17585684966,3919.423093727004,-1210.6151831883412
29317.844428759152,-50861.32745281785,3904.849756342144,-1202.5462034399752
29314.066983946203,-50853.951377147605,3909.834195355677,-1203.663790662741
29328.48385911988,-50832.15842630368,3926.39683799706,-1202.2109272731457
29349.561554141237,-50803.81641433435,3941.6854312044898,-1197.584116170897
29341.827850559697,-50797.53557414241,3931.850663644155,-1197.0253225595145
29322.672405561498,-50799.94956254358,3920.004239082842,-1197.360598726344
29322.381832883577,-50788.438414149095,3923.357000751138,-1194.454871947154
29344.778280827795,-50761.2810446359,3938.1091520916407,-1191.5938486568748
29371.980353829906,-50729.98860239847,3952.25780633185,-1189.269267233523
29365.90067933806,-50722.27725056139,3943.585329483191,-1188.5987148998636
29349.36038844113,-50724.31125930682,3931.470683988415,-1189.2916189779785
29346.700530850954,-50717.136349336666,3928.989640353876,-1192.4432149461766
29364.447815948468,-50692.70589264702,3940.076105603708,-1192.264400990534
29382.373915001623,-50669.61654062469,3950.983756897898,-1191.9514765681597
29376.651868421064,-50660.51938063138,3945.9546143954535,-1186.587057898886
29351.394397186566,-50670.37649993617,3931.135407821585,-1185.5365259094865
29344.979446527894,-50670.19768598052,3928.4755502314033,-1192.7337876240954
29363.95607757045,-50648.47179036997,3941.707782948946,-1192.7561393685507
29381.211624289943,-50625.762418003374,3956.9516726674647,-1190.722130623118
29370.169862529023,-50624.95775520298,3944.479399261403,-1193.1584707687464
29359.08339727919,-50624.71188601397,3930.509558976836,-1193.896078335771
29356.691760622474,-50617.87225221065,3930.934242121488,-1195.036017302992
29370.14751078457,-50599.20854559047,3940.701954448457,-1197.9640958266373
29387.581871459708,-50577.34853951318,3951.587253998191,-1198.969924327126
29373.00853407485,-50579.89663838109,3939.3384980366823,-1198.366427226833
29349.33803669668,-50588.189135574,3918.730189648889,-1195.460700447643
29343.124251738103,-50584.99283611689,3913.924564590999,-1192.622028901819
29358.748121112363,-50568.5866556867,3921.233585027884,-1197.315895237433
29387.336002270706,-50540.71403035093,3938.4667800029256,-1195.8630318478386
29385.346697014174,-50531.43805640198,3934.7787421678,-1192.845546346372
29365.274830493312,-50535.75194308185,3919.691314660468,-1190.2750957340118
29361.58679265819,-50532.645050602565,3919.288983260272,-1186.6317613877966
29375.40017073157,-50516.19416668346,3928.4308467424926,-1184.7318631090957
29406.75966820236,-50484.03000641227,3945.68639346199,-1184.4859939200871
29411.3417758157,-50470.30603531672,3943.317108549728,-1177.847525816861
29393.661545951552,-50472.00476789532,3925.905099619043,-1176.9534560386487
29378.99880158887,-50477.36918656459,3919.49014896037,-1178.9651130396264
29394.220339562937,-50461.07476485667,3927.603832197647,-1179.23333397309
29423.724642243946,-50431.81633136467,3942.4677422604254,-1178.7639473395286
29425.2445608669,-50420.931031814944,3935.7622189238336,-1181.557915396442
29411.431182793523,-50419.32170621416,3921.9041373615432,-1175.0982612488583
29396.61197621965,-50424.23908999433,3917.433788470482,-1172.4160519142213
29408.3913455476,-50410.15749098748,3925.838044385677,-1175.0982612488583
29442.67892154204,-50376.49576383779,3945.485227761892,-1173.1983629701572
29451.887840257627,-50362.32475785312,3944.479399261403,-1172.3713484253108
29441.53898257482,-50363.26353112025,3928.676715931501,-1174.9641507821264
29442.12012793066,-50356.40154557247,3926.866224630621,-1171.499630391554
29461.856718284696,-50332.082847605096,3938.712649191934,-1170.8290780578943
29491.986869810447,-50300.45512920083,3954.694146477479,-1170.225580957601
29505.77789613937,-50279.511544646215,3957.3987075565706,-1169.4656216461208
29491.361020965694,-50279.19862022384,3938.913814892032,-1172.6619211032298
29488.388238953143,-50273.38716666546,3933.974079367409,-1174.4053571707436
29502.98392808246,-50257.74094554674,3943.406515527549,-1176.4170141717211
29526.632073716173,-50232.55052954561,3958.650405246068,-1171.4772786470985
29529.20252432853,-50221.37465731796,3955.87878893361,-1169.197400712657
29518.585445712262,-50218.826558450055,3943.2724050608167,-1162.4471738871543
29513.08691657626,-50216.63608749343,3938.422076514015,-1162.4695256316097
29515.99264335545,-50209.03649437863,3941.908948649043,-1163.877685532294
29535.23749533147,-50186.75180515669,3955.454105788959,-1166.6045983558415
29539.93136166708,-50173.89955209489,3954.9847191553977,-1166.805764055939
29514.539779965853,-50183.55550569958,3934.4434660009706,-1166.6940053336627
29495.7643146234,-50192.0491685926,3924.452236229448,-1167.319854178411
29503.83329437176,-50183.510802210665,3932.230643299895,-1168.750365823551
29533.11407960821,-50156.06286001955,3954.895312177576,-1168.236275701079
29540.870134934205,-50142.80827555755,3957.2869488342944,-1167.319854178411
29515.12092532169,-50156.86752281994,3934.197596811962,-1175.1429647377688
29500.36877398119,-50162.20958974476,3925.905099619043,-1178.5180781505203
29508.236588029456,-50148.93265353831,3937.4162480135274,-1175.724110093607
29528.46491676151,-50125.7315427937,3954.470629032925,-1179.1886304841794
29536.109213365224,-50112.2310891427,3955.007070899853,-1184.553049153453
29507.543683951342,-50128.16788293933,3930.9789456103977,-1186.654113132252
29499.787628625352,-50127.89966200587,3926.240375785873,-1182.7872613414838
29502.514541448894,-50120.18831016879,3930.286041532283,-1185.9612090541375
29520.8206201578,-50099.31178084753,3943.49592250537,-1191.8844213347938
29530.99066388496,-50084.09024287346,3943.317108549728,-1193.650209146763
29510.3153002638,-50091.35455982144,3924.362829251627,-1193.0467120464698
29495.11611403419,-50098.998856425154,3914.39395122456,-1190.8338893453945
29502.089858304247,-50091.19809761025,3921.658268172535,-1187.0340927879922
29530.99066388496,-50065.314777531006,3938.4667800029256,-1186.788223598984
29544.021730902405,-50049.04270756754,3939.897291648065,-1192.040883545981
29518.13841082316,-50060.68796642876,3921.412398983527,-1191.9514765681597
29505.353212994723,-50066.47706824268,3914.908041347032,-1185.849450331861
29513.08691657626,-50058.1622193053,3920.451273971948,-1186.0953195208692
29537.383262799176,-50036.79395160604,3935.516349734825,-1189.6715986337183
29549.073225149303,-50022.22061422117,3938.489131747381,-1194.7230928806175
29531.95178889654,-50027.78619859055,3922.977021095398,-1192.8008428574617
29522.74287018095,-50028.18852999074,3918.618430926613,-1189.3363224668888
29525.067451604304,-50023.38290493285,3921.166529794518,-1192.979656813104
29543.060605890823,-50006.9543727582,3932.185939810985,-1195.684217892196
29561.724312511007,-49987.5977620599,3938.891463147576,-1196.0865492923915
29544.2228966025,-49994.79502377451,3922.641744928568,-1194.656037647252
29530.25305631793,-50000.71823605517,3915.019800069309,-1195.0136655585368
29538.1208703662,-49991.263448150574,3921.5241577058023,-1195.751273125562
29560.360856099232,-49968.57642752844,3935.449294501459,-1196.6229911593189
29575.56004232884,-49949.37627904133,3941.908948649043,-1195.6618661477407
29559.04210317637,-49954.96421515515,3926.0839135746855,-1193.8513748468608
29547.732120481985,-49958.47343903464,3919.847776871655,-1191.0797585344028
29552.023655417404,-49950.67268021974,3927.916756620021,-1191.7056073791514
29575.291821395374,-49929.460874731645,3941.461913759937,-1196.2430115035786
29591.832112292304,-49910.86422334483,3945.7310969509,-1201.272154006023
29575.001248717457,-49916.29569724747,3927.53677696428,-1201.652133661763
29564.071245678813,-49921.45895021665,3918.841948371166,-1198.9252208382156
29572.319039382823,-49913.43467395719,3927.7602944088335,-1196.8241568594167
29594.514321626943,-49893.85454581434,3944.9934893838754,-1198.5675929269307
29607.590092133298,-49879.124746218295,3949.955576652954,-1205.518985452531
29597.352993172764,-49879.08004272939,3940.746657937367,-1197.4053022152546
29586.80296978986,-49879.66118808522,3934.331707278694,-1184.9330288091933
29589.23930993549,-49874.00619673803,3937.326841035705,-1183.033130530492
29606.76307758845,-49856.52713257398,3951.989585398386,-1183.167240997224
29622.63281615172,-49840.679745755166,3961.153800625063,-1181.624970629808
29608.595920633787,-49845.55242604642,3946.044021373275,-1177.4228426722102
29590.58041460281,-49855.20837965112,3932.051829344253,-1178.786299083984
29586.08771396729,-49857.57766456338,3929.436675242981,-1179.4121479287326
29599.476408896026,-49845.23950162405,3940.7913614262775,-1182.9213718082158
29617.46956318254,-49827.78278920446,3949.866169675133,-1188.8222323444168
29611.836923579805,-49827.961603160096,3941.4395620154814,-1184.8883253202828
29601.555121130365,-49834.42125730768,3931.090704332674,-1182.876668319305
29601.130437985717,-49833.72835322957,3933.012954355831,-1181.7590810965396
29617.00017654898,-49822.46307402409,3945.552282995258,-1179.322740950911
29633.67457791264,-49807.554460472405,3952.548379009769,-1181.6696741187184
29617.536618415907,-49816.65162046572,3934.197596811962,-1184.2401247310788
29598.023545506425,-49829.05683863841,3920.004239082842,-1185.8270985874055
29599.655222851663,-49826.53109151496,3920.361866994127,-1187.9058108217491
29624.555066174875,-49807.57681221686,3932.051829344253,-1190.9456480676708
29641.855316383284,-49792.24351552052,3940.7913614262775,-1194.656037647252
29628.801897621383,-49798.41259699018,3927.53677696428,-1193.7172643801289
29613.468600925044,-49805.60985870479,3913.857509357633,-1193.7619678690396
29613.13332475821,-49803.93347787065,3913.991619824365,-1191.459738190143
29629.539505188408,-49787.97433232956,3924.58634669618,-1192.8902498352827
29654.64051421172,-49766.091974507806,3933.705858433945,-1196.421825459221
29647.82323215285,-49767.65659661968,3919.065465815719,-1196.041845803481
29634.121612801748,-49772.28340772193,3907.330799976683,-1195.393645214277
29640.380101249237,-49764.16972448465,3911.801148867744,-1195.3042382364558
29663.24593582701,-49746.08716322031,3923.915794362521,-1198.299371993467
29693.040811185936,-49719.06390417384,3937.371544524616,-1195.7289213811066
29691.386782096244,-49712.49249130398,3928.944936864965,-1193.1584707687464
29676.388761566734,-49718.8850902182,3912.538756434769,-1192.3985114572658
29682.334325591844,-49710.65964825865,3909.4095122110266,-1195.1924795141792
29697.26529088799,-49693.8287846838,3917.5455471927594,-1200.1098632943467
29731.843439560347,-49659.09417380025,3932.454160744448,-1200.780415628006
29723.34977666733,-49660.74820288995,3917.076160559197,-1197.315895237433
29697.377049610262,-49677.06497634232,3897.585439394169,-1194.5666306694309
29693.80077049741,-49674.80745015234,3897.6748463719914,-1192.2867527349892
29712.330366650865,-49654.936749331566,3911.845852356655,-1186.6094096433417
29738.75012859704,-49630.10396124172,3924.452236229448,-1187.168203254724
29730.524686637484,-49631.62387986468,3914.550413435747,-1188.911639322238
29709.670509060685,-49641.34688870274,3898.9935992948535,-1192.1079387793468
29701.98150896806,-49644.83376083777,3894.255029470328,-1191.1915172566794
29714.610244585307,-49632.137969987154,3904.20155575294,-1194.5219271805202
29740.31475070891,-49607.21577491949,3920.652439672046,-1194.745444625073
29736.626712873785,-49605.8076150188,3915.288021002773,-1191.5491451679643
29715.526666107973,-49617.27405992438,3900.91584931801,-1188.755177111051
29712.240959673043,-49618.034019235856,3901.63110514058,-1187.3246654659113
29729.474154648087,-49601.1584521721,3916.606773925636,-1184.6424561312742
29751.26710549201,-49578.11380363868,3932.6553264445456,-1186.944685810171
29754.664570649216,-49566.24502733291,3930.2189862989176,-1189.9174678227268
29735.30795995092,-49574.8504489482,3915.3327244916823,-1189.3139707224334
29735.822050073395,-49570.78243145734,3915.042151813764,-1193.0243603020144
29757.83851836187,-49548.14011432411,3931.046000843764,-1192.9349533241932
29777.865681393825,-49526.25775650237,3945.060544617241,-1191.3703312123218
29773.44003599168,-49521.85446284467,3937.997393369364,-1193.7172643801289
29756.74328288356,-49529.25289025938,3924.96632635192,-1192.6443806462742
29762.5770881864,-49520.423951199526,3928.1179223201184,-1189.3139707224334
29781.64312620677,-49501.42496841252,3938.355021280649,-1189.4704329336207
29812.04149866599,-49472.0771279427,3954.381222055104,-1191.5938486568748
29819.57403654743,-49457.21321787992,3953.777724954811,-1198.0982062933692
29802.877283439317,-49461.9741394489,3938.332669536194,-1197.9640958266373
29801.983213661104,-49456.185037634976,3939.182035825496,-1190.9009445787603
29818.545856302484,-49436.53785425877,3954.0906493771854,-1188.263438733034
29847.066682227454,-49406.05007482173,3971.390899585593,-1190.3197992229225
29851.849955540893,-49390.67207463647,3968.485172806403,-1188.4869561775872
29834.08031869892,-49393.53309792675,3951.520198764825,-1186.8552788323498
29832.26982739804,-49388.660417635496,3946.535759751292,-1193.493746935576
29848.11721421685,-49368.923827281455,3955.565864511236,-1194.164299269235
29873.01705754007,-49344.47101884736,3968.775745484322,-1196.0865492923915
29873.419388940263,-49334.01040244227,3964.998300671375,-1196.7347498815957
29849.05598748398,-49340.60416705658,3949.530893508303,-1192.778491113006
29840.942304246702,-49337.7431437663,3949.039155130286,-1190.7668341120284
29857.72846433264,-49314.43027429942,3960.863227947144,-1192.8231946019166
29878.269717487063,-49290.1339280765,3974.0507571757744,-1194.2537062470565
29883.34356347842,-49277.348730248064,3971.256789118861,-1193.784319613495
29864.925726047248,-49281.193230294375,3952.324861565216,-1192.0632352904363
29859.918935289257,-49275.96292209184,3948.97209989692,-1191.5491451679643
29867.27265921505,-49264.004738808246,3955.297643577772,-1188.397549199766
29886.361048979885,-49244.357555432034,3968.3063588507607,-1184.6648078757296
29883.38826696733,-49238.74726757375,3965.266521604839,-1187.3693689548218
29862.332923690432,-49245.00575602124,3951.631957487101,-1180.0156450290258
29850.464147384664,-49247.307985700136,3945.373469039616,-1181.0214735295149
29855.8956212873,-49237.9202530289,3952.7942481987775,-1184.843621831372
29878.87321458736,-49212.75218877223,3968.3063588507607,-1186.587057898886
29877.06272328648,-49205.10789216851,3962.293739592283,-1185.8047468429502
29851.06764448496,-49215.769674273695,3946.6922219624794,-1179.1215752508135
29830.258170397065,-49226.1185319565,3932.9458991224647,-1181.4461566741654
29832.2921791425,-49220.4188371204,3933.839968900677,-1179.8591828178387
29850.53120261803,-49201.75513050022,3948.279195818805,-1179.5462583954643
29852.63226659683,-49194.26729610769,3948.010974885342,-1179.2109822286347
29824.78199300552,-49208.88533698146,3928.5649572092248,-1175.9699792826152
29808.86755095333,-49213.04276145015,3924.385180996082,-1174.1147844928246
29809.158123631256,-49207.47717708078,3930.643669443568,-1176.551124638453
29829.319397129944,-49187.807641960106,3944.5688062392246,-1176.4617176606318
29828.38062386282,-49183.22553434677,3938.891463147576,-1182.3178747079223
29804.50896078455,-49193.86496470749,3921.010067583331,-1182.3849299412884
29787.90161465426,-49202.55979330061,3913.365770979616,-1180.9320665516934
29791.477893767107,-49194.35670308551,3920.093646060663,-1182.0273020300033
29814.88017021181,-49168.27221730616,3937.393896269071,-1180.865011318327
29823.038556938,-49154.61530144398,3939.897291648065,-1180.5967903848637
29792.059039122945,-49173.055490619605,3919.177224537996,-1182.0496537744586
29777.84332964937,-49179.895124422925,3914.148082035552,-1185.1565462537465
29781.26314655103,-49175.223609831766,3921.032419327786,-1187.592886399375
29798.071658381425,-49158.43744974584,3935.136370079085,-1187.2576102325452
29810.09689689838,-49141.65128965989,3942.177169582507,-1185.335360209389
29787.6333937208,-49152.73775490973,3924.6981054184566,-1190.2527439895564
29779.18443431669,-49154.86117063298,3920.741846649867,-1184.5083456645425
29786.873434409317,-49145.60754842849,3926.173320552507,-1184.307179964445
29805.1348096293,-49129.55899590957,3938.7797044253,-1182.8319648303946
29814.56724578944,-49119.210138226765,3940.523140492814,-1186.587057898886
29797.244643836577,-49129.26842323165,3922.217061783917,-1186.9223340657156
29784.61590821933,-49137.06918204656,3913.7681023798114,-1182.4072816857436
29788.929794899203,-49128.88844357592,3920.697143160956,-1180.6638456182295
29814.075507411424,-49102.26751592964,3936.119846835119,-1184.9553805536486
29817.987062691103,-49091.44927161327,3938.355021280649,-1190.5433166674754
29798.921024670726,-49096.076082715525,3927.4473699864593,-1188.9339910666934
29781.151387828755,-49102.96042000776,3920.652439672046,-1189.559839911442
29778.245661049565,-49101.86518452945,3922.150006550552,-1190.2974474784671
29792.640184478783,-49086.62129481093,3933.705858433945,-1193.5160986800313
29803.2349113506,-49074.61840803843,3937.68446894699,-1196.2430115035786
29787.923966398717,-49078.529963318106,3922.3735239951047,-1195.1924795141792
29763.158233542235,-49089.28115240111,3908.269573243806,-1195.7289213811066
29759.4254922182,-49085.28019014361,3912.896384346054,-1193.0467120464698
29773.730608669597,-49069.49985855816,3927.357963008638,-1187.5258311660089
29784.884129152797,-49057.04993689656,3936.9021578910542,-1186.14002300978
29761.303038752445,-49072.07030917052,3919.5348524492806,-1186.810575343439
29744.338064710864,-49080.96630346373,3906.8614133431215,-1180.3062177069448
29744.89685832225,-49079.021701696125,3908.828366855189,-1183.390758441777
29757.88322185078,-49066.23650386769,3921.792378639266,-1188.1963834996682
29768.589707444877,-49052.75840196114,3928.229681042395,-1193.896078335771
29742.929904810186,-49067.28703585709,3908.828366855189,-1194.5219271805202
29715.191389941145,-49083.06736744253,3893.092738758653,-1191.392682956777
29718.20887544261,-49077.99352145118,3898.971247550398,-1185.2906567204782
29737.23020997408,-49061.676747998805,3913.164605279518,-1186.810575343439
29747.020274045502,-49051.327890316,3920.58538443868,-1191.9961800570704
29728.02129125849,-49063.777811977605,3906.324971476194,-1190.722130623118
29707.50238984852,-49076.98769295069,3896.423148682493,-1189.6715986337183
29710.296357905438,-49070.72920450321,3905.654419142535,-1189.0457497889695
29728.51302963651,-49054.39007930638,3919.9595355939314,-1192.7337876240954
29747.914343823715,-49035.16757907481,3930.107227576641,-1195.5277556810088
29736.09027100686,-49034.58643371898,3919.177224537996,-1199.7969388719723
29711.726869550574,-49047.483390269685,3905.699122631445,-1201.5180231950312
29710.810448027903,-49045.51643675762,3909.387160466571,-1201.003933072559
29723.774459811983,-49033.4241430073,3918.350209993149,-1205.295468007978
29733.184544227668,-49022.29297426856,3924.58634669618,-1205.9660203416372
29715.92899750817,-49031.34543077296,3908.984829066376,-1203.3508662403665
29692.12438966327,-49043.70594545674,3895.417320182005,-1199.461662705143
29682.02140116947,-49048.51157051463,3893.2044974809287,-1202.233279017601
29689.44218032863,-49044.24238732367,3900.20059349544,-1203.9543633406597
29707.12241019278,-49031.479541239685,3907.5319656767806,-1206.5918691863858
29691.185616396146,-49042.096619855954,3893.651532370035,-1208.3800087428103
29664.4529300276,-49063.44253581078,3876.820668795189,-1204.9825435856037
29661.994238137515,-49065.253027111656,3876.217171694896,-1204.8260813744166
29670.95728766409,-49058.50280028615,3885.9848840218647,-1208.648229676274
29687.78815123894,-49045.58349199098,3896.825480082689,-1208.6929331651847
29668.319781818365,-49058.7263177307,3881.8051078087215,-1207.3071250089556
29634.27807501293,-49085.52605933262,3861.465020354393,-1203.395569729277
29635.753290146986,-49086.44248085529,3866.874142512577,-1201.5403749394864
29645.073967584845,-49082.97796046471,3878.072366484686,-1207.105959308858
29655.31106654538,-49077.85941098445,3889.963494534909,-1208.5364709539977
29639.843659382303,-49089.32585589002,3876.954779261921,-1210.3246105104222
29606.62896712172,-49115.25387945818,3858.6263488085688,-1211.3080872664557
29595.00606000496,-49128.10613251998,3859.878046498066,-1210.5034244660646
29602.315080441844,-49128.10613251998,3872.372671648583,-1211.6433634332852
29618.74361261649,-49117.26553645916,3889.6729218569903,-1208.648229676274
29602.158618230656,-49131.30243197709,3879.838154296656,-1204.9601918411483
29573.436626605588,-49155.285853777634,3866.7400320458455,-1201.2050987726568
29566.35112361325,-49163.51129573719,3869.019909980287,-1202.300334250967
29576.677629551607,-49161.030252102646,3882.252142697828,-1200.243973761079
29587.89820526817,-49157.4539729898,3893.5397736477594,-1201.5627266839415
29570.3297341263,-49174.083670864544,3881.5145351308033,-1203.8202528739278
29544.55817276933,-49196.94950544232,3867.05295646822,-1202.1885755286903
29539.394919800157,-49208.415950347895,3868.4834681133593,-1200.981581328104
29546.458071048037,-49208.23713639226,3879.949913018932,-1200.4004359722658
29554.102367651747,-49202.29157236715,3892.623352125091,-1201.3168574949334
29531.616512729703,-49211.03110444917,3881.1345554750633,-1203.1273487958133
29484.90136681812,-49236.55679661713,3861.755593032312,-1201.1603952837463
29461.521442117864,-49245.87747405499,3860.593302320636,-1199.707531894151
29458.25808742739,-49241.60829086403,3876.3512821616273,-1199.1263865383132
29458.39219789412,-49235.72978207228,3888.6670933565015,-1202.90383135126
29435.191087149517,-49243.06115425362,3885.359035177116,-1203.4402732181877
29397.10371459767,-49262.64128239647,3875.412508894504,-1200.0428080609809
29368.269964250325,-49279.60625643805,3872.5067821153134,-1204.0214185740256
29366.168900271525,-49278.08633781509,3885.24727645484,-1204.9601918411483
29377.18831028799,-49267.60336966555,3901.0276080402864,-1206.8824418643048
29359.26221123484,-49275.44883196936,3897.831308583178,-1210.0340378325031
29322.29242590576,-49295.61010546805,3888.980017778876,-1203.8426046183831
29299.98538493936,-49307.32241956263,3889.1811834789737,-1202.7026656511623
29303.695774518943,-49299.61106772555,3902.547526663247,-1201.070988305925
29322.918274750507,-49280.567381449626,3923.044076328764,-1199.5287179385089
29313.2176176569,-49281.349692505566,3918.998410582353,-1199.0816830494027
29282.12634111957,-49298.828756669616,3904.894459831055,-1193.6278574023077
29262.009771109795,-49310.40696029746,3900.804090595733,-1193.4490434466652
29264.624925211065,-49305.02018988373,3910.638858156068,-1195.23718300309
29283.556852764712,-49286.62470419702,3929.68254443199,-1193.2031742576569
29285.769675465785,-49280.142698304975,3930.755428165845,-1192.8231946019166
29257.24884954081,-49297.53235549121,3913.254012257339,-1194.3878167137882
29248.822241881164,-49301.063931115146,3909.878898844588,-1193.80667135795
29259.03698909724,-49289.64218969848,3920.697143160956,-1195.170127769724
29274.325582304667,-49274.73357614679,3937.125675335608,-1200.758063883551
29276.47134977238,-49266.57518942061,3939.8525881591545,-1201.5627266839415
29257.405311752,-49270.37498597801,3927.7379426643774,-1205.4742819636206
29245.44712846841,-49270.68791040038,3924.541643207269,-1203.663790662741
29244.88833485703,-49264.56353241963,3933.6611549450345,-1202.2779825065115
29260.04281759773,-49243.26231995372,3951.1178673646295,-1203.7979011294724
29244.39659647901,-49243.32937518709,3944.322937050216,-1208.8940988652826
29208.00795650577,-49257.4780294273,3925.1227885631074,-1210.101093065869
29189.61247081905,-49258.57326490561,3920.96536409442,-1206.8824418643048
29185.186825416906,-49248.80555257864,3925.547471707758,-1207.5082907090534
29196.697973811388,-49222.83282552157,3940.232567814895,-1209.1399680542909
29191.087685953105,-49210.76288351571,3940.321974792716,-1208.7599883985506
29153.02266514572,-49223.79395053315,3921.457102472437,-1204.7590261410508
29129.21805730081,-49225.53738660066,3917.0314570702863,-1202.4344447176989
29116.09758330555,-49218.89891849744,3920.741846649867,-1204.1108255518468
29110.554350680635,-49204.28087762366,3935.9857363683855,-1201.8309476174054
29094.70696386182,-49197.84357522054,3936.321012535216,-1205.4072267302545
29051.59044880753,-49211.433435849365,3917.8584716151327,-1205.4519302191652
29022.01909089316,-49216.50728184072,3909.1859947664734,-1204.7366743965954
29010.910273898877,-49210.9640492158,3913.522233190803,-1202.8367761178945
29019.35923330298,-49192.92619144037,3932.476512488903,-1195.61716265883
29009.12213434245,-49186.9582756708,3933.482340989392,-1194.231354502601
28967.614944888945,-49206.605459047016,3912.91873609051,-1194.5442789249753
28943.564467855034,-49213.19922366134,3909.856547100133,-1192.4208632017212
28931.38276712689,-49208.75122651473,3918.976058837898,-1194.3654649693328
28935.6295985734,-49194.088482152045,3933.325878778205,-1201.294505750478
28937.127165451908,-49180.185697100846,3940.903120148554,-1202.7026656511623
28908.51693254911,-49189.2605053497,3925.592175196669,-1204.5802121854083
28882.879481658874,-49197.12831939797,3916.4056082255374,-1206.3683517418328
28882.7677229366,-49187.1594413709,3928.497901975859,-1204.043770318481
28897.18459811027,-49166.72994693875,3945.082896361696,-1207.3741802423217
28896.8716736879,-49156.78342065614,3944.099419605663,-1210.592831443886
28870.80953965301,-49165.03121436015,3925.011029840831,-1207.485938964598
28847.22844925266,-49173.34606329752,3914.0586750577295,-1210.682238421707
28841.215829994184,-49169.43450801784,3916.495015203359,-1214.5937937013855
28858.963115091698,-49145.518141450666,3930.509558976836,-1213.3197442674332
28871.211871053205,-49123.94870805129,3936.611585213135,-1209.7658168990397
28836.05257702501,-49135.43750470132,3914.7962826247553,-1211.486901222098
28813.16439070277,-49139.79609487011,3903.687465630468,-1212.224508789123
28807.08471621093,-49133.71642037826,3909.8118436112222,-1208.0000290870703
28823.356786174398,-49110.35884742247,3930.464855487926,-1205.8542616193606
28831.47046941167,-49091.29280940209,3939.427905014504,-1200.5345464389975
28809.856332523388,-49093.6844460588,3923.4017042400487,-1194.8348516028943
28788.71158226867,-49097.417187382845,3915.7350558918783,-1190.632723645297
28783.88360546632,-49088.610600067455,3921.30064026125,-1190.6103719008413
28797.831094006437,-49065.253027111656,3936.4998264908586,-1193.3372847243888
28808.291710411515,-49043.9741663902,3941.1266375931073,-1199.7522353830618
28779.748532742087,-49051.86433218293,3918.685486159979,-1202.5014999510647
28759.16257609875,-49057.29580608557,3909.118939533108,-1204.4013982297658
28766.046913390983,-49041.98486113368,3919.356038493638,-1204.2225842741234
28783.145997899297,-49018.91786085581,3932.6329747000905,-1205.586040685897
28797.294652139502,-48996.94609605624,3938.623242214113,-1210.4810727216093
28779.390904830805,-48997.81781409,3921.144178050063,-1207.843566875883
28759.18492784321,-48999.62830539088,3909.878898844588,-1203.9320115962043
28766.87392793583,-48982.55157262702,3918.551375693247,-1197.9640958266373
28784.196529888693,-48959.328110137954,3927.983811853386,-1204.557860440953
28797.093486439408,-48938.02689767205,3937.4162480135274,-1203.7755493850173
28785.33646885592,-48933.71301099217,3924.988678096376,-1204.0214185740256
28762.22476508913,-48937.13282789384,3910.817672111711,-1206.658924419752
28761.420102288736,-48924.19116785422,3917.009105325831,-1205.898965108271
28780.68730600921,-48896.60911519636,3935.9633846239312,-1203.8426046183831
28794.36657361586,-48874.41383295225,3945.619338228624,-1204.781377885506
28772.26069834956,-48879.375920221326,3930.353096765649,-1204.8931366077825
28746.60089571487,-48886.26025751356,3917.232622770384,-1204.0214185740256
28748.50079399357,-48872.20101025117,3924.1393118070737,-1203.4402732181877
28763.096483122885,-48852.10679198585,3934.6669834455233,-1207.1283110533132
28779.234442619618,-48830.67146905321,3945.552282995258,-1209.587002943397
28768.952640170177,-48825.08353293938,3937.505654991348,-1206.1001308083692
28756.36860804184,-48822.49073058257,3929.34726826516,-1205.3401714968886
28762.98472440061,-48808.96792518711,3938.1091520916407,-1208.0670843204362
28787.772809001544,-48784.85039291983,3953.4200970435263,-1206.3683517418328
28811.04097497952,-48758.58709318484,3968.239303617395,-1203.61908717383
28806.056535965985,-48750.07107854737,3957.555169767758,-1199.975752827615
28793.36074511537,-48749.5569884249,3947.005146384853,-1195.1254242808134
28802.07792545294,-48732.86023531679,3952.8165999432326,-1194.0301888025033
28825.569608875467,-48703.98178148053,3968.708690250957,-1195.3042382364558
28854.828042367462,-48666.34144381779,3982.656178791068,-1195.61716265883
28843.33924571744,-48659.59121699229,3969.915684451543,-1193.80667135795
28826.57543737596,-48658.63009198071,3952.190751098484,-1195.974790570115
28821.881571040343,-48652.46101051105,3951.654309231557,-1190.6103719008413
28845.507364929603,-48622.62143166321,3964.484210548903,-1187.0787962769027
28869.602545452424,-48592.49128013746,3973.894294964588,-1188.4869561775872
28854.828042367462,-48589.07146323579,3960.907931436054,-1190.3197992229225
28830.97873103365,-48591.59721035924,3945.2840620617935,-1190.230392245101
28828.542390888026,-48581.270704420895,3947.273367318317,-1190.2750957340118
28842.57928640596,-48558.87425647667,3959.097440135174,-1193.2031742576569
28863.366408749396,-48531.31455556328,3971.525010052325,-1196.064197547936
28855.14096678984,-48521.59154672522,3963.299568092772,-1189.7610056115395
28829.972902533165,-48526.50893050539,3947.3404225516815,-1189.8280608449056
28824.206152463696,-48519.401075768605,3947.183960340496,-1196.6676946482296
28837.84071658143,-48494.9482673345,3962.316091336738,-1196.3100667369447
28866.7638739066,-48458.224351194425,3982.4326613465146,-1193.4490434466652
28856.415016223797,-48450.84827552418,3969.289835606794,-1196.3771219703106
28828.073004254464,-48461.10772622916,3946.111076606641,-1197.584116170897
28827.491858898626,-48448.858970267655,3947.6309952296015,-1192.3761597128105
28838.04188228153,-48427.9824409464,3956.348175567171,-1194.007837058048
28857.733769146656,-48397.829937676186,3970.0497949182745,-1196.7571016260508
28857.26438251309,-48382.7201584244,3963.813658215244,-1191.9291248237043
28829.592922877426,-48391.68320795098,3944.613509728135,-1192.3091044794446
28824.675539097258,-48383.54717296924,3943.87590216111,-1195.4830521920985
28833.549181646013,-48365.866943105095,3954.940015666487,-1193.8290231024057
28855.27507725657,-48339.13425673655,3967.4569925614583,-1197.7405783820843
28847.004931808107,-48332.22756769986,3959.186847112995,-1201.42861621721
28816.47244888216,-48343.33638469415,3940.25491955935,-1198.5452411824754
28811.68917556872,-48336.67556484647,3939.4055532700486,-1195.6395144032854
28826.910713542788,-48314.12265469106,3947.720402207423,-1198.2546685045563
28858.42667322477,-48280.48327928583,3963.16545762604,-1195.5054039365536
28856.839699368444,-48271.5425815037,3953.330690065705,-1201.5627266839415
28837.684254370244,-48277.68931122891,3932.6106229556353,-1209.2517267765677
28832.632760123342,-48274.31419781616,3924.0946083181634,-1222.3722007718327
28843.98744630664,-48258.80208716418,3933.750561922856,-1222.9309943832154
28868.4626064852,-48233.36580197404,3949.7320592084006,-1224.4732647506314
28870.250746041627,-48220.5806041456,3945.775800439811,-1226.5966804738855
28844.12155677337,-48232.87406359602,3924.1169600626185,-1229.6588694642628
28837.639550881333,-48232.762304873744,3917.344381492661,-1232.9445758991928
28852.79403362203,-48215.75262734326,3925.547471707758,-1239.9853754026146
28882.09717060294,-48187.880002007485,3937.952689880454,-1246.0874016389134
28887.416885783303,-48174.111327423016,3931.560090966236,-1249.2166458626564
28861.48886221515,-48183.29789439415,3907.554317421236,-1252.7705732310503
28858.85135636942,-48171.94320821085,3906.8614133431215,-1254.20108487619
28868.261440785103,-48156.81107721461,3912.628163412591,-1255.6092447768742
28895.6199759984,-48129.519597234685,3925.6592304300343,-1259.2749308675443
28898.10101963294,-48115.7062191613,3918.305506504239,-1265.0863844259245
28876.799807167037,-48119.9083471189,3900.737035362368,-1267.7238902716506
28870.47426348618,-48115.9073848614,3898.658323128024,-1269.8920094838154
28877.85033915643,-48100.84230909852,3906.436730198471,-1271.1213554288574
28894.301223075538,-48079.47404139925,3922.507634461837,-1271.3001693845
28894.837664942464,-48068.2981691716,3919.288983260272,-1274.4294136082428
28872.351810020427,-48071.98620700672,3903.396892952549,-1269.6684920392624
28861.66767617079,-48068.18641044932,3899.127709761585,-1265.1534396592904
28871.77066466459,-48049.85797999597,3908.671904644001,-1263.67822452524
28894.18946435326,-48022.54414827158,3923.647573429057,-1264.1476111588015
28892.803656197037,-48013.04465687808,3918.126692548596,-1268.685015283229
28870.9660018642,-48019.2360900922,3901.876974329588,-1268.0144629495696
28863.09818781593,-48014.34105805648,3898.613619639113,-1269.4002711057988
28870.317801274992,-47998.89600263787,3907.844890099155,-1265.7345850151282
28893.273042830595,-47973.30325523654,3922.865262373122,-1265.421660592754
28899.822103956,-47956.53944689506,3921.814730383722,-1267.455669338187
28877.44800775624,-47961.90386556433,3903.978038308386,-1265.4663640816646
28862.7629116491,-47962.1720864978,3897.607791138624,-1262.8512099803938
28863.634629682856,-47953.18668522676,3902.01108479632,-1263.2535413805892
28893.071877130496,-47921.15663542231,3922.351172250649,-1264.482887325631
28904.515970291613,-47902.55998403549,3927.4026664975486,-1262.8512099803938
28875.078722843973,-47914.29464987453,3908.1131110326182,-1263.4770588251424
28866.62976343987,-47911.16540565078,3901.63110514058,-1263.007672191581
28875.86103389991,-47896.14503337682,3910.169471522507,-1260.3031111124888
28898.43629579977,-47869.56880921946,3928.0955705756633,-1259.7890209900168
28907.265234859617,-47852.60383517789,3931.9177188775207,-1265.131087914835
28885.204063082227,-47857.45416372468,3915.0868553026735,-1266.069861181958
28872.731789676167,-47858.32588175844,3906.682599387479,-1267.9921112051145
28883.52768224808,-47841.60677690587,3909.387160466571,-1269.9590647171815
28910.70740350573,-47809.80024454597,3922.418227484015,-1265.48871582612
28924.96781646822,-47788.56608731343,3926.218024041417,-1263.2088378916787
28907.980490682185,-47789.63897104728,3908.783663366278,-1266.8298204934383
28891.55195850753,-47794.84692750537,3897.004294038331,-1270.5625618174747
28904.091287146963,-47776.83142147439,3909.387160466571,-1269.4002711057988
28932.18742992728,-47743.95200538063,3924.58634669618,-1269.4002711057988
28940.926962009307,-47724.05895281541,3924.653401929546,-1266.941579215715
28920.69863327725,-47727.3670109948,3906.8837650875766,-1268.3720908608543
28908.33811859347,-47727.21054878361,3892.690407358457,-1270.4731548396535
28913.38961284037,-47713.71009513261,3893.383311436571,-1271.9036664847931
28937.90947650784,-47684.09403372932,3907.844890099155,-1270.9201897287596
28949.890011535885,-47664.44685035311,3911.4658727009146,-1269.199105405701
28930.7792700266,-47668.71603354407,3892.086910258164,-1266.6957100267066
28912.29437736206,-47673.47695511305,3878.34058741815,-1266.360433859877
28912.115563406416,-47664.51390558647,3884.3085031877167,-1264.7958117480057
28929.996958970663,-47643.86089370977,3897.116052760608,-1267.6344832938294
28940.56933409802,-47627.1417888572,3906.39202670956,-1270.7413757731172
28925.81718275752,-47628.16996910214,3911.309410489728,-1266.874523982349
28914.641310529867,-47626.69475396809,3913.656343657535,-1266.9192274712595
28914.507200063133,-47619.5868992313,3922.01589608382,-1270.7413757731172
28937.14951719636,-47594.50824195245,3941.484265504392,-1273.3788816188433
28953.26512494864,-47572.80469808635,3949.374431297116,-1274.004730463592
28933.17090668332,-47576.179811499096,3935.091666590174,-1274.7870415195275
28918.038775687077,-47577.00682604394,3927.045038586264,-1269.6684920392624
28921.883275733388,-47565.78625032738,3931.11305607713,-1267.3439106159103
28939.02706373061,-47544.8203140283,3939.964346881431,-1269.5120298280751
28961.624677374923,-47515.60658402522,3944.792323683778,-1279.7267770441506
28948.81712780203,-47512.11971189019,3930.129579321096,-1275.748166531106
28930.15342118185,-47512.52204329039,3920.138349549574,-1274.6305793083409
28927.58297056949,-47506.66588624309,3922.485282717381,-1278.4974310991088
28948.906534779853,-47482.54835397582,3935.449294501459,-1280.6655503112734
28965.715046610243,-47458.98961531992,3943.49592250537,-1285.2476579246113
28951.45463364776,-47457.760269374885,3930.643669443568,-1280.799660778005
28931.740395038178,-47462.94587408852,3916.5620704367248,-1281.0902334559244
28935.897819506863,-47451.99351930541,3922.0829513171857,-1276.709291542684
28959.59066862949,-47425.41729514805,3936.5221782353137,-1276.0834426979354
28975.393351959392,-47404.04902744878,3941.5960242266688,-1285.270009669067
28963.904555309364,-47404.138434426604,3927.670887431013,-1287.2146114366783
28949.08534873549,-47409.77107402934,3915.578593680691,-1284.2641811685778
28952.795738315075,-47401.79150125879,3918.104340804141,-1285.3817683913433
28969.29132572309,-47379.90914343705,3932.722381677912,-1290.8579457828937
28983.97642183023,-47361.60306472815,3945.7310969509,-1290.6344283383405
28974.387523458903,-47361.46895426142,3936.924509635509,-1287.5051841145971
28957.579011628517,-47366.05106187476,3920.518329205314,-1290.2768004270556
28960.17181398533,-47355.72455593641,3921.367695494616,-1289.069806226469
28972.197052502284,-47340.23479702888,3929.0566955872414,-1289.7850620490387
28994.70525916877,-47316.36313395061,3942.0654108602303,-1289.069806226469
28985.63045091992,-47315.17849149448,3931.403628755048,-1286.5217073585638
28970.721837368237,-47318.12892176258,3920.741846649867,-1280.4643846111758
28975.79568335959,-47305.1649099785,3925.838044385677,-1282.364282889877
29002.08133483903,-47278.231057909856,3938.3773730251046,-1286.1864311917343
29023.94134091632,-47251.38661281904,3950.4696667754256,-1287.4604806256868
29012.31843379956,-47247.87738893955,3939.4502567589593,-1284.711216057684
28982.478854951725,-47262.62954028005,3920.741846649867,-1284.353588146399
28981.02599156213,-47256.66162451049,3923.133483306585,-1283.7277393016504
28996.15812255837,-47238.15438010149,3935.4939979903697,-1279.0562247104913
29020.633282736933,-47211.48874896631,3949.419134786026,-1277.938637487726
29016.431154779337,-47204.64911516299,3940.4784370039033,-1276.6645880537735
28997.47687548124,-47210.5946791881,3929.68254443199,-1270.137878672824
28997.052192336585,-47202.1904232729,3930.844835143666,-1270.8307827509384
29014.88888441192,-47179.86103056205,3940.25491955935,-1270.942541473215
29040.83925972453,-47152.39073662648,3949.620300486124,-1272.909494985282
29039.587562035034,-47142.64537604396,3942.534797493792,-1269.064994938969
29016.565265246067,-47151.47431510381,3926.866224630621,-1268.1038699273909
29021.147372859406,-47139.35966960903,3934.041134600775,-1263.454707080687
29040.32516960206,-47115.95739316432,3949.419134786026,-1260.6383872793183
29068.018980982182,-47084.933171860364,3962.6960709924783,-1268.7744222610502
29067.147262948427,-47072.70676764331,3956.057602889253,-1267.9474077162038
29048.52825981716,-47078.160593290406,3940.344326537172,-1265.7569367595836
29045.15314640441,-47074.65136941092,3938.332669536194,-1264.326425114444
29062.94513499083,-47054.60185463451,3950.8496464311656,-1262.9182652137597
29088.98491728126,-47028.89734851091,3965.1547628825615,-1263.1194309138575
29087.308536447115,-47019.64372630641,3955.141181366585,-1267.2098001491786
29061.29110590114,-47030.79724678961,3937.326841035705,-1267.880352482838
29057.17838492136,-47027.55624384359,3938.913814892032,-1269.9590647171815
29071.37174265048,-47007.596136045,3948.905044663554,-1268.3497391163992
29096.919786562896,-46979.29882756458,3963.7913064707886,-1265.8239919929497
29095.891606317957,-46970.26872280464,3957.108134878652,-1263.7899832475166
29074.43393164086,-46977.53303975261,3940.701954448457,-1259.4760965676423
29069.40478913841,-46975.029644373615,3938.8244079142105,-1254.759878487573
29083.441684656347,-46957.81880114303,3946.513408006836,-1256.7268319996397
29108.296824490648,-46930.70613511874,3961.332614580705,-1261.063070423969
29107.58156866808,-46922.99478328166,3953.911835421543,-1262.4265268357428
29091.197739982337,-46923.88885305987,3936.5221782353137,-1265.3322536149328
29086.19094922435,-46917.6750681013,3933.750561922856,-1265.712233270673
29100.451362186835,-46898.29610565855,3941.238396315384,-1263.4100035917763
29127.273455533203,-46869.14943088883,3955.051774388764,-1264.5275908145418
29124.792411898663,-46859.73934647314,3948.905044663554,-1266.3157303709663
29103.6700133884,-46866.84720120993,3930.8895386325767,-1261.5771605464413
29105.43580120037,-46858.219427850185,3929.906061876543,-1263.7676315030612
29115.09175480506,-46844.65191896581,3938.958518380942,-1265.131087914835
29139.879839406,-46818.18745353073,3957.6892802344896,-1260.9513117016927
29147.792356943177,-46803.50235742359,3956.437582544992,-1257.0174046775585
29119.98678684077,-46816.51107269658,3932.431808999993,-1257.4420878222095
29116.9245978504,-46813.58299417293,3926.665058930524,-1262.515933813564
29127.20640029984,-46801.55775565598,3932.387105511082,-1261.8900849688157
29152.28505757869,-46774.75801405407,3948.100381863163,-1259.9901866901143
29154.453176790856,-46764.63267381581,3946.736925451389,-1256.6374250218184
29134.15779282544,-46767.78426978401,3935.561053223736,-1251.071840652447
29124.457135731835,-46765.19146742719,3930.9789456103977,-1254.424602320743
29133.598999214057,-46750.23815038659,3936.321012535216,-1256.033927921525
29158.230621603805,-46722.276118073,3952.2131028429394,-1255.877465710338
29164.62322051802,-46708.596850466354,3950.737887708889,-1256.6597767662736
29140.43863301738,-46720.04094362747,3929.749599665356,-1258.2020471336898
29132.43670850238,-46720.19740583866,3921.501805961348,-1259.3419861009106
29138.29286554967,-46710.58615572288,3924.809864140733,-1262.7394512581172
29161.896307694475,-46686.08864379986,3941.081934104197,-1264.7958117480057
29167.81951997513,-46671.93998955965,3941.618375971124,-1266.718061771162
29145.803051686653,-46679.62898965228,3923.9604978514312,-1262.4488785801982
29139.58926672808,-46676.924428573184,3923.915794362521,-1259.4090413342765
29157.649476247967,-46655.77967831847,3936.835102657688,-1256.7715354885502
29181.34232537059,-46630.63396580624,3952.4366202874926,-1255.7433552436062
29190.01480221925,-46614.42895107615,3950.357908053149,-1261.2195326351564
29163.796205973176,-46625.09073318133,3930.286041532283,-1262.4265268357428
29150.072234877614,-46629.00228846101,3921.658268172535,-1262.650044280296
29160.890479193986,-46611.009134174485,3929.01199209833,-1266.6063030488854
29187.82433126263,-46580.38724427072,3944.613509728135,-1268.7297187721394
29196.07212496664,-46565.09865106329,3945.68639346199,-1265.5781228039411
29175.73203751231,-46571.80417439988,3928.229681042395,-1264.974625703648
29167.037208919195,-46570.4407179881,3925.972154852409,-1262.5606373024748
29176.044961934684,-46554.4368689581,3934.979907867898,-1261.7336227576284
29196.31799415565,-46532.77802858091,3947.005146384853,-1267.4780210826425
29209.99726176229,-46513.22025218252,3948.078030118708,-1271.9483699737036
29190.90887199746,-46514.85192952775,3931.090704332674,-1268.550904816497
29174.30152586717,-46519.6799063301,3922.440579228471,-1272.1718874182568
29180.15768291446,-46511.23094692599,3927.939108364476,-1277.2233816651562
29205.057526237677,-46487.47104257,3944.166474839029,-1279.4362043662316
29222.02250027925,-46467.93561791607,3946.7816289403,-1285.001788735603
29197.70380231188,-46479.20089712154,3923.267593773317,-1284.7335678021393
29183.73396202731,-46482.24073436746,3910.884727345077,-1283.481870112642
29185.544453328188,-46474.8199552083,3911.085893045175,-1286.9240387587597
29210.73486932932,-46452.714079942,3925.4133612410265,-1292.2437539391226
29229.510334671777,-46431.30110875382,3934.421114256515,-1292.802547550505
29217.88742755502,-46428.46243720799,3922.150006550552,-1288.5110126150862
29203.403497147978,-46433.5586349438,3907.755483121334,-1291.841422538927
29211.60658736308,-46422.1592452716,3910.01300931132,-1295.1494807183124
29233.913628329472,-46399.405169416095,3920.9877158388754,-1300.3350854319438
29249.001055836805,-46377.99219822791,3925.7039339189455,-1299.3963121648208
29230.78438410573,-46380.51794535136,3908.5377941772695,-1291.2379254386335
29215.272273453746,-46382.19432618551,3897.0266457827865,-1288.4886608706308
29218.15564848848,-46374.63943655961,3897.451328927437,-1290.0532829825024
29239.725081887853,-46351.728898492926,3913.3434192351606,-1290.3438556604217
29258.679361185958,-46328.21486332594,3922.753503650845,-1283.995960235114
29242.69786390041,-46330.606499982656,3910.325933733694,-1278.8997624993042
29222.871866568552,-46339.54719776478,3899.3959306950487,-1283.0795387124467
29225.710538114374,-46330.65120347157,3902.681637129979,-1283.6606840682846
29249.470442470367,-46306.95835434894,3915.913869847521,-1284.5100503575864
29261.89801238752,-46290.418063452016,3919.6019076826474,-1287.8181085369715
29249.157518047992,-46288.58522040668,3903.307485974728,-1291.0144079940806
29232.3490062176,-46291.78151986379,3889.24823871234,-1291.6402568388291
29231.745509117307,-46285.18775524948,3889.2705904567943,-1293.2048789507007
29253.78432915024,-46259.99733924834,3904.894459831055,-1291.6626085832845
29277.27601257277,-46232.08001042366,3915.3774279805934,-1292.9143062727817
29266.88245140105,-46229.77778074477,3902.882802830077,-1290.925001016259
29247.5034889583,-46235.56688255869,3889.874087557088,-1289.6285998378517
29253.73962566133,-46224.12278939757,3893.718587603401,-1288.77923354855
29276.44899802792,-46201.72634145336,3906.324971476194,-1291.9308295167482
29289.74828597883,-46184.56020171168,3910.862375600621,-1295.775329563061
29277.65599222851,-46183.88964937802,3897.093701016152,-1293.9871900066364
29261.205108309405,-46186.79537615721,3884.487317143359,-1292.7354923171392
29265.139015333534,-46174.39015798452,3890.790509079756,-1295.037721996036
29287.44605629993,-46148.61859662755,3908.649552899546,-1296.2894196855332
29310.93773972246,-46123.65169807097,3920.2724600163056,-1295.708274329695
29294.97859418137,-46126.37861089452,3899.798262095245,-1299.5974778649186
29279.13120736256,-46129.28433767371,3885.761366577312,-1300.9832860211477
29282.23809984185,-46120.29893640267,3888.220058467396,-1303.0172947665806
29305.23804488636,-46096.65079076896,3901.3405324626606,-1302.2349837106449
29331.81426904372,-46068.46524101082,3913.164605279518,-1300.6256581098626
29320.101954949136,-46066.18536307637,3900.6699801290015,-1300.290381943033
29296.252643615324,-46076.71303471483,3885.381386921571,-1301.810300565994
29301.661765773508,-46065.33599678707,3889.62821836808,-1306.2806494570557
29323.3206061507,-46039.60913891902,3903.598058652647,-1301.743245332628
29354.32247571021,-46007.35557167001,3916.338552992172,-1301.1844517212453
29347.34873144016,-46000.04655123312,3904.492128430859,-1301.1844517212453
29327.075699219196,-46004.29338267963,3890.1199567460967,-1299.4633673981866
29316.01158571381,-46003.17579545687,3886.655436355524,-1303.1514052333123
29330.629626587583,-45984.46738534777,3896.3113899602167,-1306.4371116682426
29355.462414677437,-45955.92420767835,3909.968305822409,-1308.6052308804074
29348.35455994065,-45948.19050409681,3900.0441312842527,-1305.8783180568598
29327.969768997405,-45952.392632054405,3885.0461107547417,-1302.8161290664827
29321.197190427447,-45949.1963325973,3884.91200028801,-1303.5760883779633
29338.8774202916,-45929.48209398772,3901.452291184937,-1302.0561697550024
29363.06200779224,-45903.263497741646,3916.427959969993,-1307.1076640019016
29352.46728092042,-45901.34124771848,3906.302619731739,-1312.3156204599882
29333.580056855688,-45906.81742511004,3893.1821457364736,-1313.9249460607705
29329.869667276107,-45901.74357911868,3891.729282346879,-1320.0493240415244
29344.130080238592,-45880.9788085197,3904.0897970306632,-1331.9181003472925
29365.140720026586,-45853.06147969503,3916.495015203359,-1342.1999027967338
29358.43519668999,-45845.6183487914,3905.2520877423394,-1344.770353409094
29343.99596977186,-45846.69123252526,3888.711796845412,-1345.2173882982
29340.3749871701,-45842.33264235647,3886.2531049553286,-1348.0784115884796
29360.46920543542,-45820.09265662345,3896.2443347268495,-1349.128943577879
29384.229109791413,-45795.88571737835,3908.291924988261,-1351.095897089946
29388.386534260106,-45782.13939453833,3901.6758086294894,-1351.4088215123204
29357.25055423386,-45794.63401968885,3877.312407173205,-1354.5380657360631
29349.695664607963,-45790.49894696462,3874.093755971641,-1352.7946296685493
29365.699513637963,-45768.97421705416,3886.208401466418,-1350.5594552230186
29381.837473134696,-45749.10351623339,3895.707892859923,-1357.287330304066
29376.070723065222,-45744.63316734233,3886.543677633247,-1356.639129714862
29351.930839053493,-45753.59621686891,3868.595226835636,-1354.4263070137868
29348.5780773852,-45747.225969699146,3864.9071890005102,-1352.8616849019152
29359.35161821265,-45732.13854219181,3872.238561181851,-1351.74409767915
29384.63144119161,-45705.15998663426,3887.080119500175,-1353.1522575798342
29383.46915047993,-45697.40393130826,3879.167601962996,-1352.302891290533
29363.84431884817,-45702.43307381071,3865.331872145161,-1350.291234289555
29362.346751969668,-45693.96176266215,3863.7672500332897,-1348.324280777488
29370.751007884865,-45677.7343961876,3869.1316687025633,-1348.1454668218455
29396.500217497374,-45648.29714873996,3884.57672412118,-1345.2173882982
29405.19504609049,-45628.426447919184,3883.526192131781,-1344.9715191091918
29376.96479284344,-45638.8200090909,3862.917883743988,-1345.485609231664
29370.751007884865,-45637.70242186814,3861.6661860544905,-1345.1503330648345
29379.110560311143,-45624.02315426149,3871.1880291924513,-1346.7820104100715
29402.512836755854,-45599.078607449366,3888.6894451009566,-1341.6634609298064
29404.14451410109,-45588.34977011082,3886.2531049553286,-1336.9248911052814
29380.65283067857,-45595.79290101444,3865.309520400706,-1342.6692894302953
29370.52749044031,-45597.13400568176,3860.056860453709,-1344.770353409094
29384.922013869527,-45576.10101414931,3874.2502181828286,-1343.4739522306863
29405.97735714643,-45550.08358360334,3890.3434741906494,-1347.7207836771947
29408.68191822552,-45538.93006312014,3888.041244511753,-1347.966652866203
29386.374877259124,-45544.2497783005,3869.757517547312,-1345.5973679539404
29379.55759520025,-45539.1982840536,3866.8517907681216,-1340.2553010291222
29386.464284236943,-45527.12834204773,3870.875104770077,-1341.641109185351
29410.62651999313,-45501.200318479576,3885.6719595994905,-1344.4797807311752
29423.322310843745,-45481.083748469806,3888.421224167493,-1337.3495742499322
29400.74704894389,-45488.90685902916,3869.712814058402,-1332.1192660473905
29392.879234895616,-45486.1352427167,3865.8236105231776,-1331.1581410358122
29406.53615075781,-45467.15861167415,3876.820668795189,-1329.3700014793876
29431.05601442528,-45437.38608805968,3895.8867068155655,-1326.486626444653
29437.11333717267,-45420.97990762948,3896.065520771208,-1327.157178778312
29421.10948814267,-45421.94103264106,3880.955741519421,-1328.6323939123624
29413.129915372127,-45418.87884365068,3876.083061228164,-1327.8947863453373
29419.72367998644,-45403.5678986988,3883.6603025985128,-1321.4351321977535
29445.27172389885,-45374.62238962918,3897.227811482884,-1322.1503880203234
29450.5020321014,-45359.53496212184,3893.8303463256775,-1320.8986903308262
29431.905380714583,-45358.5067818769,3880.307540930217,-1319.9599170637032
29417.01911890735,-45359.49025863293,3870.875104770077,-1321.3010217310216
29421.02008116485,-45348.15792419409,3873.758479804812,-1325.033763055058
29447.149270433103,-45319.1453598911,3893.003331780831,-1329.8617398574042
29459.01804673887,-45300.10167361518,3896.937238804965,-1331.0910858024463
29441.06959594126,-45305.242574839904,3882.3415496756497,-1327.9618415787031
29431.503049314382,-45303.0968073722,3877.491221128848,-1329.7946846240384
29442.96949421996,-45284.88013564112,3888.2424102118503,-1325.324335732977
29471.37856142265,-45253.721803870416,3905.006218553331,-1325.905481088815
29479.67105861557,-45237.11445774013,3904.2462592418506,-1327.6042136674182
29459.666247328078,-45241.13777174208,3888.488279400859,-1324.6537833993175
29441.695444786008,-45246.83746657818,3878.00531125132,-1324.8102456105048
29443.125956431148,-45239.05905950774,3884.621427610091,-1324.1396932768455
29464.69538983052,-45216.14852144105,3898.434805683471,-1325.5925566664407
29476.206538225,-45196.32252410919,3903.0616167857193,-1331.4934172026417
29462.05788398479,-45192.18745138496,3889.203535223429,-1331.7616381361054
29453.698331558506,-45187.22536411588,3884.6661310990016,-1326.2854607445552
29462.41551189608,-45172.33910230864,3894.2103259814176,-1325.994888066636
29480.766294093883,-45149.33915726413,3909.498919188848,-1329.481760201664
29495.20552101201,-45126.51802617527,3917.098512303652,-1331.873396858382
29481.816826083283,-45124.148741263,3906.7720063653,-1329.8617398574042
29465.27653518636,-45128.5520349207,3895.752596348834,-1332.0075073251137
29467.46700614297,-45119.25370922729,3896.8925353160544,-1337.394277738843
29487.82944534176,-45092.230450180825,3912.091721545664,-1336.1425800493455
29501.531064692863,-45068.76111850276,3918.327858248694,-1335.159103293312
29480.900404560616,-45072.49385982679,3898.747730105845,-1336.6790219162729
29464.807148552794,-45075.667807539445,3885.3143316882056,-1335.9861178381584
29474.932488791048,-45059.30633059816,3892.310427702717,-1336.0084695826138
29498.22300651348,-45033.15478958545,3906.146157520552,-1333.996812581636
29513.75746890992,-45012.74764689776,3910.884727345077,-1328.744152634639
29496.36781172369,-45012.18885328637,3895.350264948638,-1328.4088764678093
29480.341610949232,-45010.35601024104,3883.146212476041,-1327.783027623061
29485.057829029305,-44998.33077172408,3883.4814886428703,-1326.352515977921
29508.638919429653,-44971.39691965544,3894.72441610389,-1324.4302659547648
29521.737041680462,-44949.64867230042,3901.318180718205,-1323.4691409431864
29507.74484965144,-44945.80417225411,3888.778852078778,-1322.5974229094295
29483.3590964507,-44954.09666944703,3874.093755971641,-1326.0619433000022
29489.081143031257,-44940.663271029385,3876.8653722841,-1328.7888561235495
29507.5660356958,-44916.74690446221,3891.729282346879,-1330.420533468787
29519.635977701662,-44897.70321818629,3897.451328927437,-1333.773295137083
29503.65448041612,-44898.105549586486,3883.593247365147,-1330.0852573019574
29488.72351511997,-44896.80914840808,3873.870238527088,-1330.576995679974
29492.188035510542,-44882.95106684579,3877.62533159558,-1333.1250945478791
29510.60587294172,-44860.73343285721,3888.7341485898673,-1333.3933154813428
29528.93430339507,-44837.15234245686,3896.825480082689,-1331.068734057991
29513.04221308735,-44838.15817095735,3880.016968252298,-1330.9569753357143
29499.31824199179,-44837.264101179135,3867.567046590692,-1330.867568357893
29503.296852504835,-44824.8812347509,3868.327005902172,-1337.4613329722088
29522.98873936996,-44800.4284263168,3882.0509769977302,-1337.0142980831026
29543.597047757758,-44772.48874574766,3891.572820135692,-1331.35930673591
29528.867248161707,-44769.69477769075,3875.367805405594,-1329.906443346315
29511.41053574211,-44771.90760039182,3863.677843055468,-1328.677097401273
29521.08884109126,-44756.10491706192,3870.9868634923537,-1326.1737020222786
29537.807945943827,-44733.73082086216,3880.57576186368,-1327.1795305227674
29559.578545043296,-44702.907765258286,3890.8352125686665,-1325.033763055058
29546.435719303576,-44696.80573902199,3880.352244419127,-1326.2631090000998
29524.285140548367,-44700.98551523513,3866.292997156739,-1332.543949192041
29522.429945758577,-44690.90487848579,3867.879971013066,-1337.483684716664
29535.25984707592,-44669.20133461968,3884.487317143359,-1339.9647283512031
29554.61645777422,-44644.07797385192,3898.9935992948535,-1344.926815620281
29545.966332670014,-44636.09840108138,3888.980017778876,-1349.2407023001556
29522.27348354739,-44642.40159301777,3872.752651304323,-1351.453525001231
29524.866285904205,-44628.6329184333,3878.228828695873,-1350.5371034785633
29540.959541912027,-44605.454159433146,3889.874087557088,-1350.2465308006445
29565.65821953514,-44575.05578697393,3903.262782485817,-1355.3427285364544
29557.499832808957,-44567.992635726056,3892.8915730585545,-1354.001623869136
29533.11407960821,-44572.77590903949,3876.127764717074,-1351.1853040677672
29533.00232088594,-44561.60003681183,3875.85954378361,-1350.514751734108
29545.340483825268,-44543.60688252532,3885.761366577312,-1349.7324406781722
29570.396789359667,-44513.36497227728,3899.619448139602,-1357.287330304066
29560.4279113326,-44506.458283240594,3886.2531049553286,-1359.678966960784
29539.529030266887,-44509.25225129751,3869.377537891572,-1361.2659408171107
29534.65634997563,-44503.64196343922,3868.014081479798,-1360.5059815056302
29555.823451974804,-44477.110442770776,3882.252142697828,-1356.0579843590242
29583.47255986602,-44442.55464584287,3895.707892859923,-1356.0356326145688
29574.08482719479,-44433.94922422758,3887.549506133736,-1358.516676249108
29553.811794973823,-44436.25145390647,3871.523305359281,-1356.9744058816918
29546.56982977031,-44429.72474452553,3868.103488457619,-1351.5205802345968
29563.646562534163,-44404.24375584647,3876.9324275174654,-1351.967615123703
29579.65041156416,-44380.148575323656,3885.157869477018,-1354.2698448025997
29571.00028645996,-44370.8726013747,3875.278398427773,-1354.9180453918036
29549.140280382668,-44370.35851125223,3862.71671804389,-1351.6993941902392
29543.88762043567,-44360.25552275843,3864.594264578136,-1351.3641180234097
29557.03044617539,-44340.7648015934,3877.1782967064737,-1351.542931979052
29581.930289498603,-44307.9077372441,3894.4785469148815,-1347.1843418102674
29576.029428962403,-44296.35188536071,3886.655436355524,-1349.3077575335217
29549.319094338312,-44303.28092614185,3867.388232635049,-1346.7820104100715
29545.49694603645,-44294.89902197111,3865.108354700608,-1348.5701499664965
29556.695170008563,-44272.90490542709,3876.172468205985,-1349.911254633815
29576.923498740616,-44242.52888471233,3889.762328834812,-1348.0560598440245
29573.347219627765,-44228.290823494295,3880.776927563778,-1350.581806967474
29546.681588492585,-44232.783524129816,3861.2862063987504,-1347.966652866203
29547.732120481985,-44217.20435824447,3864.661319811502,-1342.0434405855467
29560.49496656597,-44194.49498587787,3870.6068838366136,-1343.965690608703
29582.3326208988,-44165.9741599529,3881.1345554750633,-1345.843237142949
29580.0303912199,-44154.03832841376,3878.877029285077,-1342.0434405855467
29558.550364798357,-44155.69235750346,3862.023813965776,-1342.579882452474
29550.257867605436,-44147.69043298846,3858.134610430552,-1346.3349755209656
29553.722387996007,-44132.40183978103,3862.537904088248,-1346.8937691323483
29578.5328243414,-44099.947106831925,3879.257008940817,-1349.7547924226276
29583.47255986602,-44080.56814438917,3878.4970496293367,-1350.067716845002
29557.365722342223,-44087.81010959269,3857.866389497088,-1350.3806412673762
29544.111137880223,-44086.98309504784,3851.138514416041,-1346.1561615653231
29551.308399594836,-44071.38157741804,3858.4475348529263,-1350.425344756287
29577.14701618517,-44040.20089390289,3872.52913385977,-1353.9569203802253
29576.789388273883,-44029.38264958652,3864.571912833681,-1352.4593535017198
29550.257867605436,-44039.15036191349,3842.130761400552,-1356.0132808701137
29544.960504169525,-44032.91422521046,3839.336793343639,-1359.3436907939542
29557.745701997963,-44012.6858964784,3848.322194614672,-1359.1425250938566
29584.277222666413,-43981.57226819661,3861.554427332214,-1356.1026878479347
29587.80879829035,-43966.75306162275,3855.4524010959153,-1356.639129714862
29565.05472243485,-43972.05042505866,3834.8664444525775,-1357.354385537432
29560.830242732794,-43964.49553543276,3830.776075217256,-1361.355347794932
29573.6824957946,-43944.80364856764,3839.716772999379,-1368.6196647429067
29600.079905996317,-43913.2653371412,3858.38047961956,-1372.4865165336748
29604.90788279866,-43896.45682531081,3859.43101160896,-1369.0890513764682
29576.476463851508,-43902.55885154711,3838.822703221167,-1375.772222968605
29563.937135212083,-43899.76488349019,3833.8606159520887,-1379.3708538259095
29570.977934715505,-43882.86696468198,3844.7682672462784,-1379.8625922039262
29599.05172575137,-43846.83595262003,3865.309520400706,-1379.773185226105
29597.66591759514,-43833.804885602585,3863.074345955175,-1380.935475937781
29574.308344639343,-43836.55415017059,3844.812970735189,-1375.2804845905882
29563.735969511985,-43832.88846407992,3838.66624100998,-1376.12985087989
29573.90601323915,-43814.82825456003,3845.8635027245887,-1375.481650290686
29600.169312974136,-43785.4357106013,3862.135572688052,-1373.805269456538
29606.740725844,-43767.44255631477,3865.220113422885,-1372.7323857226831
29583.249042421467,-43770.124765649416,3843.561273045692,-1370.8548391884374
29565.34529511277,-43773.2316581287,3830.753723472801,-1369.7596037101275
29571.447321349064,-43758.926541677305,3836.2299008643513,-1367.9267606647925
29596.90595828366,-43727.49998897314,3851.004403949309,-1367.256208331133
29602.963281031047,-43708.94804107524,3849.5291888152583,-1368.6643682318174
29574.95654522855,-43716.346468489945,3832.8547874516,-1370.4301560437866
29559.735007254483,-43716.19000627875,3832.0277729067534,-1369.4019757988426
29567.80398700285,-43699.73912235965,3842.890720712033,-1372.3077025780324
29590.066324480336,-43673.29700866903,3859.1180871865854,-1371.0560048885352
29597.86708329524,-43655.19209566023,3861.487372098848,-1365.5127722636191
29582.1314551987,-43653.38160435935,3846.042316680231,-1365.2669030746106
29571.112045182235,-43652.19696190321,3840.543787544225,-1363.836391429471
29577.638754563184,-43638.18241812973,3849.395078348527,-1360.058946616524
29600.57164437433,-43609.75099918259,3867.1423634460407,-1358.8296006714822
29607.43362992211,-43592.20487978517,3871.76917454829,-1362.0482518730464
29585.908900011647,-43595.37882749782,3857.866389497088,-1359.0754698604906
29578.264603407933,-43587.44395821619,3855.8100290072,-1353.867513402404
29583.56196684384,-43571.90949581975,3863.9684157333872,-1354.0910308469572
29607.76890608894,-43541.28760591598,3884.2190962098953,-1353.9792721246806
29622.23048475152,-43517.30418411543,3892.288075958261,-1355.722708192195
29607.746554344485,-43516.49952131505,3879.7710990632895,-1354.4933622471526
29600.68340309661,-43511.42567532369,3874.9654740053984,-1351.4311732567755
29614.452077681075,-43491.28675356946,3883.414433409505,-1349.352461022432
29635.797993635893,-43463.72705265606,3897.361921949616,-1350.425344756287
29648.67259844215,-43442.67170937917,3900.91584931801,-1357.6226064708958
29629.472449955043,-43442.44819193461,3885.202572965929,-1356.5497227370408
29615.904941070672,-43441.71058436759,3877.781793806767,-1353.4428302577533
29627.125516787237,-43424.83501730383,3884.643779354546,-1353.8898651468594
29653.522926988957,-43394.28018263343,3902.167547007507,-1354.2474930581443
29669.079741129848,-43369.62620849922,3911.510576189825,-1351.9229116347924
29654.573458978357,-43365.401728797166,3897.0489975272417,-1351.8558564014263
29638.457851226078,-43363.32301656283,3885.649607855035,-1345.6420714428511
29635.1944965356,-43354.04704261387,3886.208401466418,-1347.318452276999
29658.97675263605,-43323.246338754456,3901.5640499072138,-1348.257225544122
29674.82413945486,-43297.00539076393,3905.587363909169,-1350.4923999896528
29648.940819375614,-43302.25805071092,3883.325026431683,-1356.0356326145688
29631.797031378395,-43301.07340825479,3873.9819972493647,-1348.6819086887729
29635.86504886926,-43284.242544679946,3878.407642651516,-1343.4739522306863
29649.58901996482,-43262.29313162484,3886.834250311166,-1342.870455130393
29669.34796206331,-43234.465209777976,3897.764253349812,-1339.4059347398204
29650.08075834284,-43234.28639582234,3880.061671741208,-1340.5905771959517
29627.70666214307,-43237.61680574618,3865.041299467242,-1341.8646266299045
29629.092470299303,-43224.42927651755,3869.578703591669,-1342.535178963563
29648.896115886702,-43197.98716282692,3885.582552621669,-1339.8306178844712
29667.87274692926,-43172.4391189145,3895.596134137647,-1340.8811498738708
29650.95247637659,-43169.13106073512,3881.5145351308033,-1343.1833795527673
29627.52784818743,-43172.03678751431,3867.879971013066,-1340.4117632403093
29621.13524927321,-43165.13009847762,3866.3153489011934,-1343.3621935084095
29636.82617388084,-43142.26426389984,3878.34058741815,-1342.2446062856443
29654.66286595617,-43116.64916475405,3889.337645690161,-1341.0599638295132
29642.25764778348,-43112.96112691893,3877.111241473108,-1343.3621935084095
29623.57158941884,-43111.86589144062,3868.215247179896,-1342.1551993078233
29620.19647600609,-43099.66183896802,3873.087927471152,-1341.842274885449
29640.33539776032,-43068.8164316197,3890.00819802382,-1341.93168186327
29660.07198811436,-43040.407364417006,3902.972209807898,-1340.1435423068456
29649.92429613165,-43034.73002132536,3891.908096302521,-1335.963766093703
29626.76788887595,-43039.7591638278,3880.016968252298,-1334.8238271264825
29621.403470206675,-43033.90300678051,3879.681692085468,-1338.7577341506164
29642.883496628227,-43006.142140167016,3897.5407359052574,-1337.617795183396
29665.257592827988,-42977.80012819769,3911.44352095646,-1338.3777544948764
29653.2994095444,-42972.88274441752,3901.094663273652,-1339.36123125091
29634.211019779566,-42973.82151768464,3889.717625345901,-1337.8860161168595
29632.802859878884,-42961.72922393432,3893.4727184143926,-1337.908367861315
29645.02926409593,-42941.92557834692,3905.2520877423394,-1341.641109185351
29665.32464806136,-42913.65062161096,3917.5455471927594,-1345.1056295759238
29653.2994095444,-42906.6768773409,3905.1850325089736,-1345.2397400426555
29631.01472032246,-42911.147226231966,3887.974189278387,-1345.2173882982
29628.891304599205,-42902.65356333894,3889.896439301544,-1345.7314784206724
29645.20807805158,-42878.51367932722,3903.039265041264,-1351.1853040677672
29666.419883539664,-42849.27759757968,3913.29871574625,-1356.192094825756
29664.184709094134,-42836.04536486213,3908.5601459217246,-1348.1007633329348
29643.53169721743,-42839.59929223052,3894.813823081711,-1343.161027808312
29639.82130763785,-42832.51378923819,3894.411491681516,-1338.9812515951696
29651.690083943617,-42813.33599249554,3907.040227298764,-1337.0590015720131
29672.812482453883,-42787.8997073054,3919.691314660468,-1337.707202161217
29674.64532549922,-42772.0970239755,3909.9012505890432,-1340.4564667292198
29647.264438541468,-42780.9483147798,3890.4775846573816,-1339.36123125091
29641.67650242764,-42778.579029867535,3886.923657288988,-1339.7188591621948
29659.24497356951,-42756.60726506797,3898.434805683471,-1336.9919463386473
29686.64821227172,-42723.72784897421,3913.589288424169,-1336.768428894094
29680.74735173552,-42714.138950602886,3902.279305729784,-1338.2659957725998
29653.567630477864,-42722.587910006994,3882.72152933139,-1335.1143998044015
29648.49378448651,-42716.79880819307,3881.089851986153,-1333.4156672257982
29657.92622064665,-42700.2808690406,3887.3483404336384,-1337.6624986723066
29680.903813946705,-42672.40824370483,3902.5922301521578,-1343.9209871197925
29675.87467144426,-42664.38396744537,3897.004294038331,-1346.1785133097785
29647.957342619586,-42672.65411289383,3879.4805263853705,-1346.1338098208678
29638.61431343726,-42666.32856921299,3881.939218275454,-1346.1114580764126
29646.035092596423,-42646.43551664776,3891.751634091334,-1352.1240773348902
29664.40822653869,-42619.121684923375,3904.983866808876,-1357.1979233262448
29659.80376718089,-42608.16933014028,3899.7312068618794,-1361.511810006119
29634.72510990204,-42613.62315578737,3880.642817097046,-1359.9695396387028
29621.358766717767,-42613.86902497638,3875.077232727675,-1359.254283816133
29626.05263305338,-42597.88752769084,3885.62725611058,-1360.5730367389965
29648.694950186607,-42569.03142559903,3902.0557882852304,-1363.03172862908
29642.995255350503,-42560.537762706015,3895.350264948638,-1367.4350222867754
29615.10027827028,-42569.701977932695,3874.585494349658,-1367.0550426310351
29606.025470021425,-42567.13152732033,3869.8022210362224,-1366.9879873976693
29614.04974628088,-42549.11602128935,3877.223000195384,-1368.9549409097365
29636.93793260312,-42517.9353377742,3893.8079945812224,-1371.0336531440798
29631.3946999782,-42507.25120392456,3889.762328834812,-1371.927722922292
29599.364650173746,-42518.80705580796,3868.7963925357335,-1370.4078042993312
29589.59693784677,-42515.78957030649,3865.8236105231776,-1369.871362432404
29601.219844963533,-42499.092817198376,3873.400851893527,-1370.899542677348
29621.2917114844,-42474.43884306417,3884.822593310189,-1373.9617316677252
29618.609502149764,-42464.71583422612,3879.8828577855656,-1378.1191561364124
29589.99926924697,-42475.24350586456,3854.983014462354,-1388.065682419024
29578.890452252683,-42472.42718606319,3847.361069603094,-1388.6468277748618
29588.30053666837,-42453.60701723183,3857.754630774812,-1388.4233103303088
29613.915635814148,-42419.98999357104,3876.1501164615297,-1387.439833574275
29617.380156204723,-42401.48274916205,3873.2890931712495,-1388.1774411413005
29592.79323730388,-42406.22131898657,3856.8605609966,-1382.4330428162866
29579.53865284189,-42405.55076665292,3851.563197560692,-1381.8295457159932
29585.32775465581,-42393.21260371359,3856.949967974421,-1385.3611213399315
29605.91371129915,-42366.81519351187,3871.232732681362,-1390.3679120979205
29612.418068935644,-42348.151486891686,3874.786660049756,-1389.3397318529765
29588.83697853529,-42354.454678828086,3858.648700553024,-1383.8412027169709
29571.313210882334,-42358.83562074132,3849.775058004267,-1384.8917347063702
29579.71746679753,-42343.88230370072,3856.748802274323,-1383.5953335279626
29605.734897343507,-42316.076733598326,3874.9878257498535,-1378.4991357921524
29609.24412122299,-42300.94460260208,3874.361976905105,-1383.349464338954
29586.937080256597,-42303.11272181424,3858.648700553024,-1378.6332462588844
29572.54255682737,-42304.94556485958,3848.344546359128,-1378.1862113697782
29577.81756851883,-42290.64044840819,3852.9937092058312,-1378.0297491585911
29603.29855719788,-42259.68328233758,3871.836229781655,-1374.8558014459377
29610.875798568228,-42242.96417748501,3874.6972530719354,-1372.933551422781
29588.6358128352,-42249.423831632594,3858.3134243861946,-1372.5982752559514
29576.364705129232,-42251.07786072229,3851.719659771879,-1370.966597910714
29580.23155692,-42240.46078210602,3856.301767385217,-1373.581752011985
29600.61634786324,-42216.99145042794,3871.523305359281,-1375.436946801775
29608.95354854507,-42200.96524965349,3877.0888897286527,-1376.5545340245408
29582.3326208988,-42211.47056954749,3856.592340063136,-1379.259095103633
29565.501757323957,-42217.59494752824,3847.383421347549,-1372.262999089122
29575.04595220637,-42203.848624688224,3857.1287819300633,-1365.5127722636191
29597.66591759514,-42179.172298809564,3875.211343194407,-1370.2960455770549
29611.658109624164,-42158.273417743854,3881.670997341991,-1374.833449701482
29590.08867622479,-42163.459022457486,3866.024776223276,-1373.4923450341637
29574.66597255063,-42169.13636554914,3860.705061042912,-1373.0453101450576
29578.5328243414,-42162.69906314601,3865.130706445064,-1369.6925484767614
29606.42780142162,-42135.18406572152,3882.140383975552,-1372.5535717670407
29624.19743826359,-42114.307536400265,3890.2093637239177,-1377.582714269485
29610.361708445755,-42113.07819045522,3878.34058741815,-1378.8567637034373
29596.011888505447,-42113.45817011096,3868.617578580091,-1374.676987490295
29599.85638855176,-42104.1374926731,3869.757517547312,-1371.0783566329906
29622.76692661845,-42081.13754762859,3884.599075865636,-1368.6867199762726
29641.408281494176,-42058.33876828418,3893.316256203205,-1369.4019757988426
29624.0409760524,-42062.69735845296,3878.944084518443,-1368.3067403205323
29606.3383944438,-42069.492288767375,3868.662282069002,-1363.1881908402672
29610.607577634764,-42060.43983226298,3871.411546637005,-1366.742118208661
29630.3441679888,-42037.88692210757,3885.940180532954,-1370.0278246435912
29651.33245603233,-42010.43897991646,3897.563087649714,-1371.480688033186
29635.10508955778,-42010.99777352784,3883.302674687228,-1368.194981598256
29617.24604573799,-42014.10466600712,3871.456250125915,-1364.283426318577
29618.47539168303,-42003.845215302135,3870.495125114337,-1364.261074574122
29635.239200024516,-41981.22524991337,3880.329892674672,-1364.283426318577
29645.81157515187,-41961.1533833925,3886.029587510776,-1362.3835280398762
29624.890342341703,-41965.69078751693,3872.5067821153134,-1364.12696410739
29611.34518520179,-41966.11547066158,3863.521380844281,-1364.6187024854069
29613.513304413955,-41957.08536590164,3868.57287509118,-1364.484592018675
29636.245028525,-41932.2972813007,3887.616561367102,-1361.1988855837449
29658.06033111338,-41905.85516761007,3903.039265041264,-1359.678966960784
29637.563781447865,-41912.65009792449,3888.91296254551,-1354.7168796917058
29614.362670703256,-41919.86971138355,3878.050014740231,-1352.3699465238983
29613.78152534742,-41913.030077580224,3880.620465352591,-1355.3427285364544
29636.78147039193,-41888.89019356849,3900.4017591955376,-1355.722708192195
29651.01953160996,-41869.46652763683,3909.945954077954,-1355.7450599366498
29631.68527265612,-41873.959228272346,3894.813823081711,-1354.515713991608
29609.266472967443,-41881.75998708725,3880.978093263876,-1355.0521558585351
29608.4394584226,-41875.52385038422,3881.916866530999,-1352.816981413005
29625.20326676408,-41855.18376292989,3896.043169026753,-1350.4700482451974
29648.605543208785,-41829.30044285065,3910.4600442004257,-1350.9617866232145
29636.20032503609,-41826.88645444947,3897.3395702051607,-1353.196961068745
29614.541484658897,-41832.09441090756,3884.129689232074,-1349.8889028893595
29615.1896852481,-41825.50064629324,3887.884782300566,-1348.3913360108538
29638.81547913736,-41800.28787854766,3905.609715653624,-1341.9093301188148
29659.51319450297,-41778.51727944819,3915.779759380789,-1344.6585946868177
29647.800880408395,-41777.779671881166,3898.971247550398,-1349.4642197447083
29625.51619118645,-41783.8146428841,3885.24727645484,-1348.324280777488
29621.403470206675,-41777.53380269215,3889.1811834789737,-1348.860722644415
29637.18380179212,-41755.539686148135,3904.358017964127,-1346.5584929655188
29661.793072437416,-41728.628185823945,3916.4056082255374,-1348.3019290330326
29654.08172060033,-41725.25307241119,3905.140329020063,-1345.6197196983958
29635.239200024516,-41732.182113192335,3891.5951718801466,-1342.6692894302953
29630.47827845553,-41730.05869746908,3889.114128245608,-1344.6585946868177
29646.973865863547,-41710.16564490386,3903.2404307413617,-1345.55266446503
29668.990334152026,-41683.12003411294,3917.277326259295,-1349.419516255798
29655.10990084528,-41682.85181317948,3902.480471429881,-1352.1464290793454
29631.349996489287,-41689.64674349389,3886.2531049553286,-1354.292196547055
29630.12065054425,-41682.18126084581,3889.874087557088,-1352.191132568256
29648.11380483077,-41665.57391471552,3902.480471429881,-1350.3582895229208
29673.81831095437,-41639.422373702815,3916.673829159001,-1350.7606209231164
29669.035037640937,-41633.07447827751,3909.63302965558,-1347.3408040214545
29647.778528663937,-41642.03752780408,3896.266686471306,-1344.9491673647365
29645.67746468514,-41638.08126903549,3899.15006150604,-1341.3728882518874
29655.86986015676,-41624.46905666221,3906.928468576488,-1340.4564667292198
29680.076799401857,-41600.08330346147,3919.5125007048255,-1337.8636643724042
29674.53356677694,-41595.858823759416,3910.5718029227023,-1338.5565684505189
29652.293581043912,-41602.027905229086,3897.5407359052574,-1339.003603339625
29641.98942685001,-41602.631402329374,3895.596134137647,-1341.6858126742618
29651.667732199163,-41585.0629311875,3906.615544154113,-1338.4448097282425
29669.23620334103,-41561.81711695399,3918.484320459881,-1334.712068404206
29661.12252010376,-41559.80545995301,3906.816709854211,-1333.3709637368877
29640.53656346042,-41566.712148989696,3891.639875369057,-1339.003603339625
29629.226580766037,-41568.90261994632,3886.498974144337,-1338.64597542834
29637.474374470043,-41556.47505002917,3894.769119592801,-1338.2883475170552
29661.144871848213,-41529.00475609359,3910.907079089532,-1339.808266140016
29655.266363056468,-41522.96978509066,3905.430901697982,-1340.814094640505
29628.28780749891,-41535.06207884098,3888.19770672294,-1341.618757440896
29619.88355158372,-41534.547988718514,3884.353206676628,-1339.2494725286333
29629.539505188408,-41519.862892611374,3892.1763172359847,-1337.707202161217
29657.21096482408,-41489.55392712998,3911.622334912102,-1337.1707602942895
29650.17016532066,-41482.42372064874,3905.140329020063,-1341.8646266299045
29622.990444063,-41494.53836614351,3885.135517732563,-1342.7139929192058
29614.83205733681,-41494.270145210045,3883.0791572426742,-1342.7586964081163
29622.968092318548,-41480.54617411449,3893.8974015590434,-1349.1512953223344
29649.0972815868,-41455.64633079128,3913.544584935258,-1346.5584929655188
29644.15754606218,-41453.79113600149,3904.648590642046,-1344.3680220088986
29616.41903119314,-41467.20218267467,3883.7497095763338,-1343.585710952963
29608.75238284497,-41466.64338906329,3881.2463141973394,-1343.6974696752393
29619.77179286144,-41452.1371069118,3892.668055614001,-1345.954995865225
29643.978732106538,-41426.43260078819,3910.504747689337,-1346.6031964544293
29642.682330928128,-41418.028344873,3904.939163319965,-1350.872379645393
29617.380156204723,-41430.90294967925,3884.643779354546,-1348.0560598440245
29607.99242353349,-41432.40051655776,3880.19578220794,-1343.0492690860356
29615.256740481465,-41420.93407165218,3887.616561367102,-1340.5682254514963
29633.22754302353,-41399.699914419645,3900.290000473261,-1344.099801075435
29633.071080812348,-41389.26164975901,3897.205459738429,-1346.9608243657142
29603.075039753323,-41404.25967028853,3873.9819972493647,-1348.190170310756
29587.920557012625,-41410.78637966947,3863.4096221220047,-1352.9957953686471
29594.693135582584,-41399.54345220845,3868.617578580091,-1356.1473913368454
29622.744574874,-41371.82728908388,3886.454270655426,-1355.2756733030883
29623.61629290775,-41364.92060004719,3885.269628199295,-1357.577902981985
29596.72714432802,-41379.002199054026,3866.0918314566416,-1354.515713991608
29586.937080256597,-41384.18780376766,3863.566084333192,-1348.5030947331304
29591.80976054785,-41375.62708564128,3869.8022210362224,-1350.6935656897506
29610.026432278926,-41356.22577145407,3882.073328742186,-1351.9899668681585
29616.15081025968,-41346.36865214928,3879.659340341013,-1352.9287401352813
29591.273318680924,-41359.15384997772,3860.52624708727,-1352.4370017572644
29583.5843185883,-41358.90798078871,3854.200703406418,-1353.93456863577
29598.694097840085,-41341.96535849159,3862.1802761769623,-1352.9957953686471
29620.598807406284,-41321.24529138152,3878.877029285077,-1354.1804378247784
29627.52784818743,-41312.19283487712,3879.726395574379,-1359.835429171971
29603.94675778708,-41325.4027158502,3858.916921486488,-1362.5399902510633
29584.299574410867,-41333.89637874322,3848.210435892396,-1362.65174897334
29581.95264124306,-41331.75061127551,3848.970395203876,-1368.351443809443
29602.38213567521,-41312.68457325513,3864.750726789323,-1370.988949655169
29609.19941773408,-41300.61463124927,3866.583569834658,-1373.067661889513
29585.01483023344,-41309.93530868713,3847.785752747745,-1372.777089211594
29567.20048990256,-41319.61361403628,3838.129799143053,-1372.933551422781
29572.27433589391,-41312.25989011048,3844.343584101628,-1374.7440427236609
29592.72618207052,-41292.92563115664,3859.520418586781,-1376.1745543688005
29600.48223739651,-41282.17444207364,3862.247331410329,-1380.2649236041218
29573.66014405014,-41298.6476777372,3845.192950390929,-1381.7624904826273
29558.28214386489,-41308.12481738625,3834.8887961970327,-1381.874249204904
29564.29476312337,-41299.07236088185,3839.202682876907,-1382.3436358384654
29588.83697853529,-41273.65842743617,3859.207494164407,-1378.1862113697782
29593.82141754883,-41263.39897673118,3858.514590086292,-1385.3387695954764
29570.82147250432,-41274.93247687012,3838.509778798793,-1389.60795278644
29558.572716542807,-41278.66521819415,3829.3232118276615,-1390.7478917536607
29555.666989763617,-41275.58067745932,3832.5642147736808,-1394.8829644778923
29577.14701618517,-41255.66527314964,3850.847941738122,-1392.4689760767194
29587.987612245997,-41239.97434854202,3863.186104677452,-1388.6244760304066
29563.065417178324,-41252.044290547885,3848.6351190370474,-1386.6798742627948
29541.920666923605,-41265.16476454315,3840.543787544225,-1381.9636561827251
29546.34631232576,-41259.42036621814,3850.847941738122,-1376.5545340245408
29566.172309657613,-41240.89077006469,3862.9625872328975,-1380.6001997709511
29580.81270227584,-41221.51180762194,3871.05391872572,-1382.2095253717334
29561.858422977737,-41226.943281524575,3855.3853458625495,-1384.4670515617197
29539.909009922627,-41237.82858107431,3841.214339877885,-1384.8470312174595
29543.127661124192,-41232.59827287176,3843.516569556781,-1386.0093219291357
29568.005152702943,-41210.00065922745,3860.503895342815,-1386.0093219291357
29583.96429824404,-41193.34860960825,3869.712814058402,-1388.4233103303088
29565.501757323957,-41203.451598102045,3853.3513371171166,-1385.3387695954764
29547.35214082625,-41211.16294993913,3842.153113145008,-1383.997664928158
29544.33465532478,-41208.21251967103,3842.846017223122,-1389.026807430602
29570.150920170658,-41182.44095831406,3858.872217997577,-1392.5583830545406
29579.53865284189,-41168.649931985135,3863.722546544379,-1397.0063802011466
29560.76318749943,-41175.17664136608,3851.294976627228,-1393.9441912107698
29541.160707612125,-41186.59838278274,3838.9344619434432,-1392.647790032362
29547.55330652634,-41179.89285944616,3844.90237771301,-1387.4621853187307
29573.436626605588,-41157.183487079565,3861.397965121027,-1384.8246794730044
29587.741743056984,-41139.8608851267,3870.67393906998,-1384.1094236504346
29573.57073707232,-41143.03483283935,3853.4407440949376,-1384.8917347063702
29549.542611782865,-41154.94831263404,3839.694421254924,-1387.2386678741775
29537.450318032545,-41161.38561503716,3837.95098518741,-1391.5749062985071
29552.493042050966,-41143.97360610648,3853.4183923504825,-1394.3465226109652
29568.49689108097,-41124.23701575244,3866.8070872792114,-1393.4971563216636
29552.89537345116,-41126.02515530887,3858.760459275301,-1384.4894033061748
29528.80019292834,-41137.24573102543,3846.690517269435,-1382.813022472027
29522.765221925405,-41138.13980080364,3846.8916829695327,-1387.9092202078368
29540.087823878268,-41121.04071629533,3859.743936031334,-1390.2785051200992
29559.578545043296,-41101.594698619214,3868.036433224253,-1400.3144383805322
29546.972161170503,-41103.71811434247,3855.228883651362,-1397.3416563679764
29520.373585268688,-41116.45860868199,3841.3931538335273,-1392.6924935212724
29514.338614265755,-41117.7550098604,3841.124932900064,-1393.9888946996805
29530.00718712893,-41104.34396318722,3852.52432257227,-1393.9218394663144
29549.520260038407,-41086.306105411786,3865.555389589714,-1395.1735371558116
29539.50667852243,-41089.12242521315,3855.564159818192,-1399.5991825579624
29518.18311431207,-41099.51598638487,3839.42620032146,-1404.6059733159511
29516.99847185593,-41095.872652038655,3843.42716257896,-1397.811043001538
29526.721480694,-41086.082587967234,3855.027717951265,-1399.0180372021243
29549.90023969415,-41060.489840565904,3873.5349623602583,-1396.2687726341217
29543.597047757758,-41053.47139280694,3868.170543690985,-1391.932534209792
29521.468820747,-41060.98157894392,3853.4407440949376,-1393.9441912107698
29517.22198930049,-41058.47818356493,3852.9937092058312,-1395.575868556007
29532.242361574456,-41040.75325021187,3863.722546544379,-1399.3980168578646
29551.28604785038,-41022.31306103624,3873.6020175936246,-1406.3941128723757
29545.65340824764,-41018.44620924547,3861.532075587759,-1409.7692262851272
29520.79826841334,-41029.107991350655,3842.957775945399,-1407.578755328507
29513.69041367655,-41029.21975007293,3842.846017223122,-1404.5389180825853
29525.715652193507,-41017.06040108924,3851.384383605049,-1408.0704937065236
29543.84291694676,-41001.2800695038,3860.6603575540016,-1410.7303512967053
29536.779765698884,-41001.704752648446,3850.535017315748,-1408.1375489398897
29509.91296886361,-41015.85340688866,3835.738162486334,-1409.545708840574
29501.12873329267,-41016.8815871336,3837.973336931865,-1408.226955917711
29512.8186956428,-41005.88452886159,3848.5457120592255,-1407.3105343950433
29542.121832623703,-40981.31996170521,3864.415450622493,-1411.669124563828
29538.478498277487,-40977.49781340335,3856.4805813408593,-1410.640944318884
29513.2657305319,-40990.797101354256,3837.749819487312,-1402.057874448046
29509.488285718955,-40989.90303157605,3838.107447398597,-1397.2522493901552
29518.22781780098,-40979.129490748586,3846.6011102916136,-1402.1025779369568
29537.51737326591,-40959.50465911683,3859.788639520245,-1404.2259936602109
29527.816716172307,-40963.50562137432,3851.4961423273257,-1398.8168715020263
29503.050983315825,-40979.17419423749,3836.676935753457,-1394.7935575000713
29497.328936735263,-40982.906935561536,3838.062743909687,-1391.8431272319708
29505.04028857235,-40974.90501104653,3848.5010085703143,-1393.3183423660212
29527.07910860528,-40953.55909509172,3863.677843055468,-1397.3863598568869
29522.04996610284,-40951.413327624,3855.1841801624514,-1399.5321273245963
29499.27353850288,-40960.15285970603,3836.4087148199937,-1402.035522703591
29485.013125540398,-40966.09842373114,3829.3232118276615,-1405.477691349708
29491.517483176885,-40959.03527248326,3840.186159632941,-1400.5156040806298
29517.780782911872,-40937.42113559498,3856.52528482977,-1403.4436826042752
29523.592236470253,-40927.83223722366,3851.384383605049,-1405.9917814721805
29502.827465871276,-40939.43279259596,3833.346525829616,-1405.2318221606995
29495.94312857904,-40942.15970541951,3833.882967696544,-1401.1414529253784
29506.381393239662,-40932.61551053709,3845.885854469044,-1398.191022657278
29529.00135862844,-40912.49894052732,3859.855694753611,-1397.028731945602
29529.31428305081,-40906.77689394676,3854.4242208509713,-1396.0229034451131
29512.058736331317,-40913.7059347279,3837.4368950649377,-1392.223106887711
29508.638919429653,-40911.96249866039,3831.513682784281,-1392.0889964209791
29518.540742223355,-40900.42899852145,3839.649717766013,-1391.351388853954
29544.71463498052,-40878.457233721885,3855.072421440175,-1389.317380108521
29552.4259868176,-40866.364939971565,3856.972319718876,-1383.5506300390518
29532.532934252376,-40874.83625112013,3843.851845723611,-1384.0647201615238
29522.429945758577,-40879.1501378,3840.320270099672,-1385.4058248288425
29527.123812094196,-40872.71283539687,3845.349412602117,-1379.9743509262028
29545.22872510299,-40854.42910843243,3861.688537798946,-1377.806231714038
29548.33561758228,-40843.767326327245,3866.8070872792114,-1374.162897367823
29521.08884109126,-40857.67011137845,3849.149209159519,-1373.2241241007
29510.382355497168,-40861.08992828011,3841.7954852337225,-1377.292141591566
29521.804096913827,-40848.72941359632,3848.880988226055,-1379.3708538259095
29545.027559402894,-40828.121105208535,3864.974244233876,-1381.2484003601553
29549.810832716328,-40820.40975337145,3863.923712244477,-1382.2765806050993
29526.006224871428,-40832.90437852197,3841.124932900064,-1387.573944041007
29509.197713041038,-40841.80037281518,3828.3173833271726,-1392.580734798996
29511.432887486564,-40838.58172161361,3833.346525829616,-1394.1230051664122
29534.16461159761,-40817.6828405479,3849.99857544882,-1395.7770342561048
29544.04408264686,-40804.22709038581,3848.2774911257616,-1400.5603075695406
29523.92751263708,-40814.71005853535,3829.099694383108,-1399.7556447691495
29516.17145731109,-40818.062820203646,3823.668220480469,-1400.3144383805322
29519.94890212404,-40811.42435210042,3825.478711781349,-1400.8061767585489
29536.355082554237,-40794.81700597012,3837.816874720678,-1401.901412236859
29549.4755565495,-40779.90839241843,3841.3484503446166,-1403.3989791153645
29531.907085407627,-40787.95502042234,3822.528281513248,-1403.7566070266494
29515.3667945107,-40797.923898449415,3816.6497727215024,-1406.2376506611886
29515.99264335545,-40798.683857760894,3821.2095285903847,-1411.222089674722
29541.138355867668,-40776.91325866142,3837.1463223870182,-1412.2055664307554
29553.878850207195,-40761.51290673172,3838.2192061208734,-1415.3348106544986
29529.20252432853,-40777.78497669518,3816.0015721322975,-1417.2123571887444
29521.200599813536,-40781.60712499704,3810.525394740748,-1417.1005984664678
29527.392033027656,-40773.29227605966,3815.3757232875496,-1418.128778711412
29549.877887949693,-40752.192229293854,3832.631270007047,-1416.9664879997358
29561.858422977737,-40738.423554709385,3836.5204735422703,-1415.0218862321242
29538.23262908848,-40750.2699792707,3814.504005253793,-1416.251232177166
29522.69816669204,-40757.31077877412,3806.1891563164186,-1411.8926420083812
29530.856553418227,-40748.45948796982,3812.4029412749937,-1406.5952785724735
29549.85553620524,-40731.67332788388,3824.4058280474937,-1405.477691349708
29559.355027598744,-40721.45858066781,3826.126912370552,-1406.9752582282138
29539.909009922627,-40733.12619127348,3809.407807517983,-1401.029694203102
29525.067451604304,-40742.268054755696,3798.366045757061,-1405.455339605253
29528.062585361316,-40738.95999657631,3806.837356905623,-1404.9188977383253
29547.03921640387,-40721.59269113454,3823.735275713834,-1402.639019803884
29558.75153049845,-40710.37211541797,3830.798426961712,-1398.615705801929
29543.90997218013,-40719.26810971119,3816.5380139992258,-1394.905316222348
29524.79923067084,-40733.52852267368,3811.665333707969,-1389.6526562753506
29529.13546909517,-40730.39927844993,3819.2425750783177,-1394.4359295887864
29548.29091409337,-40710.796798562624,3839.04622066572,-1398.0345604460908
29563.266582878423,-40696.51403385568,3847.8081044922,-1397.8557464904484
29547.955637926538,-40702.996039747726,3833.8382642076335,-1395.8887929783814
29537.65148373264,-40706.617022349485,3825.769284459268,-1389.4738423197082
29546.167498370112,-40699.844443779526,3831.603089762103,-1386.0763771625016
29568.4298358476,-40680.532536570136,3846.422296335971,-1386.6351707738845
29591.921519270127,-40657.107908380975,3860.727412787368,-1381.6507317603507
29576.118835940222,-40663.835783462026,3847.875159725566,-1376.1074991354346
29553.163594384623,-40677.313885368574,3835.693458997424,-1377.7168247362167
29559.355027598744,-40668.66376026437,3844.4776945683593,-1380.6449032598618
29583.42785637711,-40647.4966582652,3862.537904088248,-1379.929647437292
29603.633833364707,-40628.96706211175,3873.758479804812,-1381.024882915602
29589.932214013603,-40635.56082672606,3857.62052030808,-1381.5389730380743
29581.59501333177,-40636.209027315264,3852.52432257227,-1377.515659036119
29584.679554066606,-40629.57055921204,3858.492238341837,-1381.360159082432
29610.182894490117,-40605.49773043367,3873.9596455049095,-1386.0540254180462
29620.10706902827,-40593.427788427805,3879.10054672963,-1389.2503248751552
29600.72810658552,-40597.1828814963,3865.041299467242,-1388.6468277748618
29581.66206856514,-40603.642535643885,3853.0607644391976,-1389.6526562753506
29579.985687730998,-40601.09443677598,3856.637043552047,-1392.0442929320686
29598.671746095628,-40584.66590460133,3873.467907126893,-1390.479670820197
29621.492877184497,-40565.93514274778,3887.2142299669063,-1387.6633510188285
29605.86900781024,-40573.422977140304,3873.087927471152,-1388.6915312637725
29582.80200753236,-40587.30341044705,3858.67105229748,-1385.7187492512169
29586.020658733927,-40581.40254991085,3863.3425668886384,-1383.7294439946943
29605.600786876774,-40563.34234039096,3876.597151350636,-1384.6682172618173
29621.71639462905,-40546.08679367146,3884.710834587912,-1384.5564585395407
29612.28395846891,-40544.92450295979,3872.90911351551,-1384.936438195281
29587.987612245997,-40560.078985700486,3854.4689243398816,-1382.0754149050017
29580.924460998114,-40563.588209579975,3854.491276084337,-1383.2600573611328
29595.184873960603,-40548.27726462809,3869.064613469197,-1380.3766823263982
29616.128458515224,-40526.394906806345,3884.420261909993,-1380.577848026496
29600.61634786324,-40530.865255697405,3870.808049536711,-1385.048196917557
29580.27626040891,-40541.59409303595,3855.877084240566,-1385.6740457623062
29585.215995933533,-40535.201494121735,3860.52624708727,-1385.1152521509234
29605.019641520936,-40515.95664214571,3877.3794624065713,-1385.3387695954764
29631.953493589583,-40490.14037729983,3894.053863770231,-1388.4009585858537
29623.951569074583,-40490.34154299993,3883.4814886428703,-1386.8586882184372
29602.493894397485,-40502.52324372807,3865.510686100804,-1386.4787085626972
29597.75532457296,-40503.12674082837,3864.974244233876,-1383.3941678278647
29614.20620849207,-40489.49217671063,3874.7643083053,-1386.2998946070547
29632.95932209007,-40471.789595102025,3885.895477044044,-1392.3125138655323
29622.275188240437,-40473.86830733637,3871.746822803834,-1393.899487721859
29600.593996118787,-40484.73125514165,3855.497104584826,-1391.9772376987023
29598.671746095628,-40482.78665337404,3855.653566796013,-1394.055949933046
29612.99921429148,-40467.94509505572,3867.8352675241554,-1395.218240644722
29640.67067392715,-40440.13952495331,3884.934352032465,-1394.838260988982
29635.753290146986,-40438.57490284144,3878.877029285077,-1394.7935575000713
29615.3908509482,-40448.58848435742,3864.2366366668502,-1394.2347638886886
29613.71447011405,-40444.47576337764,3863.2531599108174,-1397.1404906678786
29622.38694696271,-40434.70805105067,3871.456250125915,-1396.9169732233254
29644.06813908436,-40410.65757401676,3882.609770609113,-1398.3027813795543
