 EXG Channel 0, EXG Channel 1, EXG Channel 2, EXG Channel 3
-14780.895683872186,-17330.42506342233,-29722.88039003377,-15983.061907656422
-14760.466189440036,-17301.4348508638,-29710.475171861075,-15969.96378540561
-14752.710134114044,-17321.439662151297,-29711.749221295027,-15974.545893018949
-14760.577948162312,-17354.922575345347,-29720.01936674349,-15983.553646034436
-14744.01530552093,-17320.187964461802,-29715.392555641243,-15976.289329086463
-14734.24759319396,-17278.501961052654,-29700.88627348975,-15960.754866690026
-14737.220375206516,-17270.388277815375,-29693.823122241876,-15956.932718388169
-14740.953116530553,-17302.463031108742,-29691.275023373968,-15960.39723877874
-14734.113482727227,-17329.016903521646,-29692.43731408564,-15967.415686537706
-14735.186366461085,-17324.63596160841,-29691.69970651862,-15965.940471403655
-14726.871517523708,-17291.644786792374,-29680.412075568685,-15951.367134018796
-14708.654845792636,-17277.18320812979,-29672.92424117616,-15944.169872304186
-14687.6665577491,-17244.63906820286,-29671.806653953397,-15943.164043803696
-14694.617950274702,-17271.483513293686,-29681.909642447197,-15954.071695097888
-14709.7724330154,-17295.265769394133,-29690.984450696047,-15958.743209689048
-14718.71313079752,-17287.085030923492,-29683.69778200361,-15948.617869450793
-14714.131023184184,-17290.728365269704,-29676.29935458891,-15942.784064147958
-14708.498383581447,-17330.313304700056,-29682.82606396986,-15950.785988662958
-14699.870610221698,-17325.37356917543,-29692.54907280792,-15959.63727946726
-14694.595598530246,-17298.395013617876,-29693.845473986326,-15955.63631720976
-14709.973598715496,-17303.46885960923,-29692.146741407723,-15948.282593283964
-14692.829810718276,-17290.0801646805,-29681.35084883581,-15946.226232794075
-14686.683080993069,-17281.18417038729,-29678.60158426781,-15948.997849106534
-14685.990176914953,-17272.75756272764,-29690.1574361512,-15961.760695190516
-14690.102897894729,-17295.489286838685,-29695.432447842653,-15971.751924962036
-14673.942586653542,-17295.913969983336,-29681.283793602444,-15961.73834344606
-14656.351763767216,-17286.682699523295,-29675.78526446644,-15956.888014899258
-14635.832862357243,-17280.625376775908,-29686.69291576063,-15960.441942267653
-14591.755222291378,-17279.776010486607,-29694.247805386523,-15965.895767914746
-14574.611434294158,-17293.790554260082,-29697.287642632444,-15968.354459804828
-14579.17119016304,-17310.263789923643,-29690.58211929585,-15962.54300624645
-14561.02157366533,-17279.396030830863,-29680.72499999106,-15955.815131165402
-14545.822387435725,-17271.058830149035,-29685.530625048952,-15960.68781145666
-14545.040076379786,-17302.060699708545,-29697.82408449937,-15973.696526729647
-14543.944840901477,-17295.75750777215,-29701.48977059004,-15979.195055865654
-14553.466684039437,-17301.56896133053,-29695.186578653644,-15972.914215673713
-14550.136274115595,-17293.634092048895,-29692.526721063463,-15975.596425008349
-14541.977887389408,-17295.869266494425,-29695.76772400948,-15982.413707067217
-14532.50074774036,-17296.60687406145,-29694.53837806444,-15982.68192800068
-14541.664962967036,-17307.31335965554,-29699.008726955504,-15983.777163478991
-14557.042963152286,-17270.455333048743,-29689.35277335081,-15972.31071857342
-14544.324820557216,-17252.618640973407,-29677.1040173893,-15966.767485948503
-14533.014837862833,-17286.928568712305,-29676.902851689203,-15972.489532529062
-14524.58823020318,-17304.65350206536,-29677.573404022864,-15980.759677977523
-14529.617372705625,-17292.13652517039,-29688.54811055042,-15990.527390304494
-14548.63870723709,-17295.42223160532,-29689.19631113962,-15987.532256547483
-14546.381181047103,-17277.496132552165,-29683.51896804797,-15979.64209075476
-14539.742712943878,-17280.200693631257,-29683.31780234788,-15987.01816642501
-14540.457968766448,-17295.04225194958,-29694.627785042263,-15999.468088086616
-14557.959384674954,-17331.341484945,-29708.08353520436,-16014.443756871671
-14582.03221345332,-17326.04412150909,-29700.93097697866,-16009.63813181378
-14567.727097001924,-17280.24539712017,-29685.15064539321,-16001.278579387495
-14563.16734113304,-17300.406670618853,-29687.318764605378,-16006.620646312314
-14559.50165504237,-17313.57184810303,-29695.432447842653,-16011.69449230367
-14556.685335241002,-17310.822583535028,-29702.182674668155,-16015.06960571642
-14561.69212599899,-17298.32795838451,-29700.238072900545,-16005.994797467569
-14560.93216668751,-17288.828466991006,-29694.53837806444,-16000.45156484265
-14540.077989110709,-17285.073373922514,-29692.772590252476,-16001.16682066522
-14527.44925349346,-17294.461106593742,-29695.946537965126,-16004.139602677777
-14540.770893188825,-17329.70980759976,-29699.478113589063,-16009.369910880318
-14554.383105562105,-17308.922685256326,-29690.671526273672,-16000.988006709578
-14567.771800490833,-17311.42608063532,-29686.514101804987,-15996.45060258515
-14573.35973660466,-17344.81958685155,-29691.409133840694,-15999.512791575527
-14546.649401980569,-17306.598103832974,-29692.146741407723,-15997.41172759673
-14541.82142517822,-17291.108344925447,-29695.320689120377,-16004.050195699954
-14549.890404926588,-17270.65649874884,-29688.861034972797,-15997.59054155237
-14560.865111454144,-17289.789592002584,-29681.32849709136,-15992.583750794382
-14554.271346839829,-17296.919798483825,-29683.474264559063,-15992.203771138642
-14540.569727488724,-17271.505865038143,-29691.58794779634,-15995.042442684466
-14555.478341040414,-17315.494098126186,-29701.176846167666,-16009.459317858138
-14570.07403016973,-17322.467842396243,-29704.283738646955,-16010.085166702887
-14575.326690116728,-17307.76039454465,-29693.97958445306,-15997.769355508011
-14563.390858577592,-17260.017068388115,-29683.80954072589,-15990.370928093307
-14551.700896227469,-17277.026745918603,-29691.6102995408,-16002.753794521546
-14544.97302114642,-17302.66419680884,-29695.097171675825,-16009.593428324872
-14556.081838140708,-17303.71472879824,-29687.855206472304,-16002.373814865809
-14568.196483635484,-17302.910065997847,-29686.514101804987,-16001.099765431854
-14556.50652128536,-17309.928513756815,-29695.007764698003,-16013.12500394881
-14544.6824484685,-17321.52906912912,-29701.378011867764,-16019.584658096392
-14547.051733380764,-17311.694301568783,-29701.40036361222,-16017.12596620631
-14563.12263764413,-17314.309455670056,-29697.77938101046,-16008.83346901339
-14588.804792023277,-17303.155935186856,-29696.907662976704,-16008.341730635371
-14647.99221134093,-17298.216199662234,-29701.288604889945,-16013.326169648906
-14685.72195598149,-17312.923647513824,-29707.591796826346,-16019.651713329758
-14714.6227615622,-17339.499871671185,-29719.4158696432,-16028.79357681198
-14736.34865717276,-17290.549551314063,-29712.21860792859,-16019.36114065184
-14753.045410280874,-17278.434905819286,-29708.619977071285,-16014.846088271868
-14758.186311505597,-17306.53104859961,-29714.789058540948,-16023.69737907617
-14750.6314218797,-17305.435813121298,-29714.45378237412,-16024.099710476365
-14755.817026593331,-17318.33276967201,-29720.98049175507,-16028.368893667328
-14768.043430810383,-17301.4348508638,-29713.87263701828,-16023.02682674251
-14764.511855186449,-17268.13075162539,-29704.037869457945,-16018.288256917986
-14787.44474499759,-17317.684569082805,-29715.660776574707,-16033.710960592149
-14793.345605533792,-17361.315174259566,-29725.562599368408,-16048.060780532454
-14756.5322824159,-17296.89744673937,-29723.99797725653,-16042.450492674172
-14764.131875530706,-17285.14042915588,-29728.17775346968,-16037.398998427272
-14767.81991336583,-17302.41832761983,-29727.19427671365,-16034.26975420353
-14767.663451154644,-17325.775900575627,-29731.619922115795,-16038.181309483209
-14776.559445447856,-17333.151976245877,-29739.755957097528,-16047.881966576811
-14784.002576351471,-17316.030539993113,-29745.857983333823,-16051.815873600946
-14797.54773349139,-17346.00422930768,-29745.29918972244,-16054.006344557563
-14804.230905083528,-17356.397790479397,-29738.906590808227,-16052.79935035698
-14787.802372908876,-17325.328865686522,-29734.771518083995,-16050.31830672244
-14776.335928003304,-17304.005301476158,-29742.21464898761,-16058.36493472635
-14776.604148936767,-17301.300740397066,-29747.24379149005,-16064.42225747374
-14784.024928095929,-17310.777880046116,-29742.19229724316,-16059.70603939367
-14804.767346950452,-17352.687400899817,-29749.70248338014,-16063.058801061963
-14810.511745275468,-17355.995459079204,-29754.77632937149,-16066.858597619368
-14797.346567791292,-17325.37356917543,-29754.686922393677,-16069.361992998362
-14789.009367109462,-17324.3900924194,-29758.08438755088,-16082.594225715904
-14800.565218992857,-17332.81670007905,-29753.72579738209,-16085.47760075064
-14812.92573367664,-17344.886642084915,-29749.70248338014,-16085.18702807272
-14805.840230684307,-17338.605801892973,-29750.998884558547,-16087.176333329242
-14796.49720150199,-17316.343464415488,-29749.188393257667,-16082.70598443818
-14803.381538794223,-17322.423138907332,-29755.64804740525,-16085.410545517272
-14818.334855834826,-17322.75841507416,-29756.31859973891,-16081.767211171058
-14804.387367294714,-17319.71857782824,-29743.980436799586,-16073.85469363388
-14797.88300965822,-17312.1860399468,-29740.247695475544,-16074.949929112188
-14784.203742051572,-17310.062624223545,-29745.634465889278,-16082.728336182636
-14777.900550115177,-17299.333786885,-29748.09315777936,-16086.08109785093
-14798.93354164762,-17314.063586481047,-29745.165079255712,-16083.37653677184
-14804.297960316891,-17323.406615663363,-29739.420680930696,-16077.98976635811
-14804.767346950452,-17322.847822051983,-29739.465384419607,-16077.073344835442
-14799.514687003457,-17339.81279609356,-29745.23213448908,-16082.348356526896
-14783.30967227336,-17351.793331121604,-29757.45853870613,-16092.294882809509
-14791.132782832718,-17334.113101257455,-29755.55864042743,-16089.836190919425
-14793.367957278248,-17315.38233940391,-29749.21074500212,-16082.795391416
-14794.150268334184,-17324.077167997024,-29753.010541559524,-16086.9975193736
-14796.519553246446,-17352.374476477442,-29754.530460182486,-16091.8478479204
-14803.269780071949,-17387.466715272276,-29764.499338209556,-16103.358996314884
-14813.55158252139,-17363.840921383016,-29764.924021354203,-16100.117993368864
-14799.268817814447,-17311.917819013335,-29754.97749507159,-16089.925597897243
-14771.463247712049,-17303.67002530933,-29746.014445545014,-16085.142324583809
-14751.860767824744,-17310.487307368196,-29748.763710113017,-16091.400813031294
-14745.602279377255,-17335.118929757944,-29762.331218997388,-16103.291941081518
-14761.53907317389,-17334.24721172419,-29764.722855654105,-16101.883781180832
-14765.987070320496,-17333.934287301814,-29759.38078872929,-16100.497973024603
-14752.39720969167,-17343.992572306703,-29755.73745438307,-16096.85463867839
-14734.649924594156,-17351.97214507725,-29756.36330322782,-16095.290016566518
-14726.133909956685,-17362.924499860346,-29763.471157964606,-16099.022757890554
-14724.457529122536,-17360.979898092737,-29758.93375384018,-16095.55823749998
-14730.6266105922,-17331.833223323014,-29747.109681023325,-16083.37653677184
-14733.800558304854,-17327.1393569874,-29745.79092810046,-16082.124839082342
-14732.302991426348,-17358.074171313547,-29752.31763748141,-16091.624330475848
-14720.165994187117,-17358.14122654691,-29753.859907848822,-16095.714699711169
-14732.68297108209,-17335.29774371359,-29753.971666571106,-16090.61850197536
-14754.520625414923,-17332.347313445487,-29752.65291364824,-16085.27643505054
-14742.853014809254,-17321.059682495557,-29746.483832178576,-16083.555350727482
-14721.328284898793,-17339.455168182274,-29755.022198560506,-16091.110240353377
-14716.612066818723,-17355.570775934553,-29762.59943993085,-16094.731222955135
-14736.795692061864,-17363.080962071534,-29764.052303320444,-16098.195743345708
-14747.099846255762,-17369.920595874857,-29758.531422439984,-16102.397871303308
-14727.027979734896,-17339.43281643782,-29750.976532814093,-16097.927522412245
-14714.28748539537,-17336.750607103182,-29750.305980480432,-16100.0509381355
-14710.599447560246,-17327.1393569874,-29761.50420445254,-16110.71272024068
-14710.733558026976,-17317.90808652736,-29765.818091132416,-16107.04703415001
-14699.267113121405,-17324.255981952665,-29757.50324219504,-16097.748708456602
-14693.768583985398,-17345.020752551645,-29763.158233542235,-16102.95666491469
-14688.38181357167,-17371.48521798673,-29764.924021354203,-16108.589304517423
-14652.66372593209,-17359.996421336702,-29771.763655157527,-16113.394929575315
-14637.017504813375,-17371.216997053267,-29772.4789109801,-16114.780737731546
-14638.023333313864,-17367.461903984775,-29764.812262631927,-16108.27638009505
-14633.105949533696,-17366.254909784187,-29762.621791675305,-16108.14226962832
-14614.956333035989,-17354.654354411883,-29764.007599831537,-16111.67384525226
-14596.583199093724,-17322.669008096338,-29768.03091383349,-16110.735071985137
-14605.03215849783,-17342.696171128293,-29771.204861546143,-16110.936237685231
-14622.913554062075,-17388.629005983952,-29769.59553594536,-16106.197667860708
-14619.046702271307,-17361.091656815013,-29766.08631206588,-16101.61556024737
-14611.134184734128,-17360.1975870368,-29764.186413787174,-16103.8507346929
-14601.701748573989,-17370.032354597137,-29765.14753879876,-16109.393967317816
-14602.931094519032,-17357.202453279788,-29763.98524808708,-16105.594170760414
-14601.388824151616,-17309.973217245726,-29758.821995117905,-16098.531019512538
-14582.143972175596,-17284.425173333308,-29751.73649212557,-16087.533961240526
-14580.17701866353,-17303.200638675768,-29754.038721804467,-16082.169542571251
-14567.682393513012,-17326.982894776214,-29758.26320150652,-16089.255045563585
-14570.476361569925,-17345.937174074315,-29759.805471873937,-16093.233656076629
-14582.389841364604,-17332.459072167763,-29753.05524504844,-16083.130667582833
-14577.226588395428,-17334.202508235277,-29745.969742056102,-16079.04029834751
-14566.07306791223,-17333.91193555736,-29742.728739110084,-16077.699193680191
-14562.921471944032,-17333.2413832237,-29750.50714618053,-16084.672937950249
-14562.45208531047,-17329.10631049947,-29752.78702411497,-16086.841057162412
-14576.868960484144,-17339.67868562683,-29745.83563158937,-16080.783734415025
-14585.07205069924,-17373.809799410083,-29744.762747855515,-16086.148153084298
-14580.869922741644,-17343.679647884328,-29748.18256475718,-16086.572836228948
-14574.276158127328,-17331.18502273381,-29751.06593979191,-16092.160772342777
-14580.691108786,-17349.62521190944,-29752.18352701468,-16092.876028165345
-14586.904893744577,-17347.77001711965,-29743.4216431882,-16079.75555417008
-14574.969062205442,-17324.81477556405,-29739.755957097528,-16074.122914567342
-14569.291719113797,-17319.875040039427,-29743.46634667711,-16075.32990876793
-14552.349096816672,-17319.629170850418,-29749.568372913407,-16082.348356526896
-14560.93216668751,-17345.937174074315,-29752.831727603883,-16083.51064723857
-14579.148838418583,-17355.123741045445,-29748.40608220173,-16074.927577367733
-14574.387916849604,-17327.452281409776,-29744.718044366604,-16069.496103465091
-14563.033230666308,-17303.871191009428,-29748.31667522391,-16073.094734322398
-14568.107076657663,-17329.62040062194,-29751.98236131458,-16082.169542571251
-14569.917567958542,-17324.881830797414,-29751.535326425477,-16083.51064723857
-14583.21685590945,-17316.61168534895,-29749.098986279845,-16077.587434957915
-14586.279044899828,-17311.515487613142,-29746.97557055659,-16074.793466901
-14582.434544853517,-17345.110159529468,-29744.405119944237,-16081.096658837398
-14586.010823966364,-17346.898299085893,-29751.825899103394,-16086.751650184591
-14591.688167058011,-17351.97214507725,-29759.917230596213,-16090.484391508628
-14601.701748573989,-17344.886642084915,-29746.72970136758,-16082.393060015806
-14608.876658544144,-17339.946906560293,-29738.638369874763,-16076.983937857622
-14585.004995465875,-17321.864345295948,-29740.27004722,-16077.207455302174
-14559.367544575638,-17298.484420595698,-29739.55479139743,-16075.016984345555
-14568.062373168752,-17320.500888884173,-29745.008617044525,-16080.113182081364
-14576.064297683752,-17325.641790108897,-29736.582009384874,-16073.720583167147
-14577.584216306714,-17328.391054676897,-29727.373090669287,-16070.300766265484
-14568.442352824492,-17331.676761111827,-29732.201067471637,-16072.401830244284
-14567.861207468655,-17330.827394822525,-29740.940599553654,-16077.85565589138
-14574.566730805249,-17308.252132922666,-29744.49452692205,-16070.770152899046
-14582.88157974262,-17301.121926441425,-29739.085404763868,-16060.555405682971
-14578.388879107104,-17323.294856941087,-29734.771518083995,-16062.120027794845
-14567.615338279646,-17339.61163039346,-29735.911457051214,-16067.864426119855
-14560.440428309492,-17321.70788308476,-29740.337102453366,-16074.502894223082
-14567.816503979744,-17322.2890284406,-29742.527573409985,-16077.810952402468
-14572.018631937342,-17319.85268829497,-29732.78221282747,-16076.581606457426
-14566.743620245888,-17300.786650274593,-29728.35656742532,-16073.251196533583
-14560.59689052068,-17294.41640310483,-29735.799698328938,-16078.950891369688
-14565.871902212131,-17325.731197086716,-29748.808413601928,-16095.781754944535
-14566.900082457076,-17328.681627354817,-29748.204916501632,-16094.75357469959
-14586.368451877648,-17310.129679456913,-29749.14368976876,-16091.400813031294
-14591.084669957718,-17299.93728398529,-29746.12620426729,-16083.354185027383
-14585.384975121617,-17326.87113605394,-29743.51105016602,-16080.873141392844
-14580.668757041543,-17359.39292423641,-29746.28266647848,-16083.93533038322
-14587.441335611504,-17332.973162290236,-29744.047492032947,-16077.587434957915
-14592.31401590276,-17300.496077596676,-29734.995035528547,-16063.75170514008
-14575.393745350091,-17298.66323455134,-29724.668529590195,-16056.46503644765
-14563.21204462195,-17294.148182171368,-29721.561637110903,-16056.21916725864
-14555.768913718332,-17308.542705600586,-29724.22149470109,-16061.047144060987
-14564.664908011546,-17325.99941802018,-29727.12722148028,-16066.545673196992
-14594.705652559478,-17339.85749958247,-29725.83082030187,-16064.22109177364
-14610.865963800665,-17352.039200310614,-29727.97658776958,-16067.104466808376
-14588.581274578724,-17347.501796186185,-29730.435279659665,-16067.596205186392
-14558.853454453169,-17345.512490929665,-29729.518858137,-16065.85276911888
-14552.036172394295,-17317.036368493602,-29734.525648894985,-16062.500007450582
-14570.69987901448,-17277.920815696816,-29729.720023837093,-16052.84405384589
-14646.248775273416,-17277.80905697454,-29725.74141332405,-16047.010248543054
-14704.09508992375,-17290.504847825152,-29730.770555826493,-16053.291088734995
-14744.261174709938,-17298.50677234015,-29736.582009384874,-16064.556367940471
-14776.559445447856,-17306.799269533072,-29740.471212920096,-16071.932443610722
-14792.78681192241,-17285.632167533895,-29731.26229420451,-16063.818760373446
-14796.161925335162,-17283.776972744105,-29719.371166154287,-16054.967469569145
-14784.561369962856,-17285.60981578944,-29718.566503353897,-16057.023830059032
-14774.748954146977,-17308.542705600586,-29732.93867503866,-16072.915920366757
-14791.35630027727,-17326.982894776214,-29748.137861268267,-16090.819667675456
-14815.60794301128,-17310.643769579383,-29745.14272751125,-16085.924635639743
-14820.927658191642,-17317.4386998938,-29742.10289026533,-16080.336699525918
-14815.853812200286,-17320.14326097289,-29743.15342225473,-16082.862446649367
-14817.396082567702,-17339.05283678208,-29752.228230503588,-16089.769135686058
-14822.559335536878,-17357.448322468797,-29757.59264917286,-16095.915865411269
-14823.386350081724,-17308.498002111675,-29752.250582248045,-16087.690423451711
-14834.6516292872,-17340.393941449398,-29753.50227993754,-16091.221999075651
-14830.896536218708,-17333.57665939053,-29758.486718951077,-16092.85367642089
-14824.481585560035,-17304.117060198434,-29762.264163764023,-16095.08885086642
-14829.533079806934,-17311.67194982433,-29762.93471609768,-16096.85463867839
-14830.538908307422,-17310.822583535028,-29754.19518401565,-16088.8974176523
-14820.45827155808,-17338.359932703966,-29747.60141940134,-16084.695289694702
-14817.865469201264,-17328.34635118799,-29747.40025370124,-16086.930464140234
-14802.97920739403,-17281.340632598476,-29753.05524504844,-16089.433859519228
-14815.876163944742,-17310.554362601564,-29753.1223002818,-16090.774964186548
-14826.046207671909,-17318.04219699409,-29747.55671591243,-16086.885760651325
-14819.005408168485,-17298.819696762526,-29741.05235827593,-16083.622405960848
-14811.4952220315,-17315.918781270837,-29740.80648908693,-16087.08692635142
-14800.341701548305,-17322.2890284406,-29748.115509523814,-16096.541714256016
-14806.622541740244,-17310.554362601564,-29756.139785783267,-16101.906132925287
-14827.879050717242,-17330.693284355795,-29748.540192668464,-16094.75357469959
-14842.720609035565,-17344.52901417363,-29740.58297164237,-16089.053879863488
-14822.358169836782,-17294.57286531602,-29740.068881519903,-16083.734164683125
-14814.445652299602,-17286.32507161201,-29742.058186776423,-16084.94115888371
-14821.68761750312,-17307.268656166634,-29746.23796298957,-16097.748708456602
-14831.209460641085,-17332.548479145586,-29741.16411699821,-16093.300711309996
-14836.775045010454,-17313.795365547583,-29735.19620122865,-16081.543693726504
-14846.341591637323,-17355.25785151218,-29735.12914599528,-16084.181199572233
-14821.240582614017,-17312.677778324818,-29729.3176924369,-16086.70694669568
-14808.92477141914,-17259.21240558772,-29726.83664880236,-16088.919769396756
-14819.430091313136,-17262.252242833645,-29718.79002079845,-16082.840094904912
-14811.003483653483,-17263.392181800864,-29716.264273675,-16075.128743067831
-14807.78483245192,-17294.37169961592,-29722.098078977837,-16077.632138446825
-14802.59922773829,-17305.771089288126,-29731.59757037134,-16089.590321730417
-14799.559390492368,-17289.27550188011,-29734.10096575033,-16089.389156030316
-14811.02583539794,-17299.981987474202,-29735.285608206465,-16087.869237407356
-14813.55158252139,-17289.007280946647,-29733.34100643885,-16080.649623948291
-14807.158983607173,-17298.350310128964,-29730.88231454877,-16079.196760558698
-14796.720718946544,-17301.81483051954,-29730.524686637484,-16083.197722816198
-14803.716814961055,-17296.47276359472,-29737.163154740712,-16087.80218217399
-14815.78675696692,-17309.101499211967,-29733.720986094595,-16083.063612349466
-14798.240637569505,-17291.197751903266,-29721.40517489972,-16073.050030833489
-14790.6410444547,-17304.60879857645,-29717.851247531325,-16072.826513388934
-14785.969529863542,-17296.27159789462,-29720.75697431052,-16077.766248913558
-14786.394213008192,-17315.963484759748,-29730.524686637484,-16088.13745834082
-14801.347530048792,-17360.644621925905,-29729.563561625902,-16090.149115341796
-14799.06765211435,-17303.37945263141,-29726.680186591173,-16085.410545517272
-14795.223152068038,-17290.013109447136,-29729.69767209264,-16086.572836228948
-14789.456401998568,-17312.90129576937,-29730.636445359763,-16094.530057255037
-14779.800448393877,-17304.586446831996,-29738.437204174665,-16104.700100982202
-14785.50014322998,-17303.155935186856,-29740.471212920096,-16102.353167814395
-14796.296035801894,-17313.393034147386,-29734.235076217068,-16091.37846128684
-14794.709061945568,-17305.771089288126,-29727.70836683612,-16089.970301386154
-14781.320367016837,-17284.648690777864,-29727.283683691465,-16092.227827576142
-14765.830608109309,-17296.316301383533,-29730.658797104217,-16094.597112488404
-14777.699384415077,-17297.389185117387,-29728.557733125417,-16092.205475831686
-14799.559390492368,-17319.785633061605,-29726.45666914662,-16089.791487430512
-14812.21047785407,-17340.349237960487,-29726.12139297979,-16085.65641470628
-14786.058936841362,-17304.698205554272,-29724.377956912274,-16085.678766450736
-14768.378706977215,-17311.89546726888,-29726.97075926909,-16085.701118195191
-14761.49436968498,-17293.410574604342,-29718.85707603181,-16073.832341889423
-14761.606128407257,-17277.406725574343,-29710.810448027903,-16061.382420227816
-14773.318442501835,-17312.409557391355,-29717.15834345321,-16063.483484206616
-14768.468113955036,-17325.775900575627,-29722.32159642239,-16075.08403957892
-14760.913224329142,-17293.589388559983,-29717.44891613113,-16073.318251766952
-14783.98022460702,-17300.1831531743,-29710.20695092761,-16066.880949363824
-14781.007442594462,-17293.38822285989,-29700.573349067374,-16060.622460916336
-14768.624576166225,-17289.61077804694,-29700.416886856183,-16061.293013249997
-14777.051183825874,-17323.42896740782,-29710.251654416523,-16072.200664544183
-14779.755744904964,-17351.256889254677,-29721.181657455167,-16085.65641470628
-14774.123105302227,-17327.184060476313,-29722.54511386694,-16085.56700772846
-14768.06578255484,-17293.924664726816,-29711.63746257275,-16073.27354827804
-14760.421485951125,-17286.839161734482,-29709.625805571774,-16071.574815699438
-14757.202834749562,-17289.119039668924,-29712.553884095418,-16074.547597711991
-14736.460415895035,-17312.811888791548,-29717.40421264222,-16083.309481538474
-14731.20775594804,-17304.921722998824,-29709.84932301633,-16073.497065722591
-14730.29133442537,-17287.956748957247,-29705.289567147443,-16064.735181896112
-14725.753930300943,-17308.341539900488,-29703.97081422458,-16065.7410103966
-14714.24278190646,-17318.221010949732,-29708.9105497492,-16072.982975600122
-14702.374005600692,-17293.276464137612,-29716.823067286383,-16079.643795447802
-14714.399244117649,-17318.757452816662,-29716.15251495272,-16080.649623948291
-14718.958999986531,-17300.965464230238,-29709.335232893853,-16074.972280856644
-14697.47897356498,-17283.687565766282,-29703.859055502304,-16074.011155845066
-14652.373153254171,-17294.081126938003,-29709.55875033841,-16080.448458248196
-14612.430585912536,-17308.00626373366,-29723.014500500503,-16093.121897354353
-14589.676510057034,-17318.958618516757,-29723.2156662006,-16093.859504921378
-14576.377222106126,-17310.464955623742,-29711.59275908384,-16081.61074895987
-14569.001146435876,-17309.079147467513,-29711.816276528392,-16083.08596409392
-14567.92826270202,-17311.515487613142,-29720.153477210224,-16091.713737453669
-14555.299527084771,-17303.960597987247,-29723.2156662006,-16089.210342074675
-14562.69795449948,-17324.05481625257,-29718.87942777627,-16082.728336182636
-14575.103172672174,-17308.09567071148,-29711.4139451282,-16071.775981399534
-14573.583254049214,-17300.652539807863,-29708.239997415545,-16071.820684888446
-14568.889387713598,-17319.76328131715,-29708.955253238117,-16073.519417467049
-14563.144989388586,-17330.402711677874,-29717.247750431037,-16075.575777956938
-14569.35877434716,-17285.296891367067,-29717.98535799806,-16072.22301628864
-14568.755277246866,-17263.41453354532,-29706.29539564793,-16066.433914474715
-14558.965213175445,-17291.644786792374,-29698.941671722136,-16067.03741157501
-14554.293698584284,-17317.57281036053,-29700.036907200447,-16072.312423266463
-14538.714532698934,-17289.27550188011,-29706.183636925656,-16078.548559969491
-14559.658117253555,-17309.459127123253,-29718.231227187065,-16089.031528119032
-14582.523951831336,-17334.314266957554,-29717.471267875582,-16087.75747868508
-14572.689184271,-17308.654464322863,-29710.430468372164,-16084.650586205791
-14558.719343986431,-17300.00433921866,-29715.839590530348,-16089.076231607944
-14556.55122477427,-17293.499981582165,-29722.27689293348,-16097.882818923334
-14560.619242265137,-17289.27550188011,-29719.304110920923,-16095.222961333153
-14570.588120292205,-17303.781784031606,-29708.08353520436,-16085.298786794996
-14563.860245211155,-17313.795365547583,-29705.44602935863,-16082.28130129353
-14548.459893281448,-17283.70991751074,-29705.82600901437,-16079.93436812572
-14536.389951275582,-17279.396030830863,-29711.88333176176,-16086.952815884688
-14537.932221643,-17289.320205369022,-29712.77740153997,-16086.03639436202
-14550.985640404895,-17298.618531062428,-29706.474209603573,-16076.916882624257
-14559.747524231378,-17301.099574696967,-29701.93680547915,-16071.507760466073
-14557.892329441587,-17322.981932518713,-29704.88723574725,-16077.162751813265
-14557.44529455248,-17342.137377516912,-29707.837666015348,-16082.728336182636
-14559.769875975831,-17323.406615663363,-29702.249729901523,-16075.911054123766
-14562.854416710668,-17259.45827477673,-29689.39747683972,-16060.868330105344
-14562.541492288292,-17266.923757424804,-29693.197273397123,-16063.327021995428
-14540.815596677732,-17290.46014433624,-29692.88434897475,-16069.093772064898
-14528.186861060483,-17315.38233940391,-29699.589872311342,-16081.834266404425
-14537.954573387451,-17298.260903151146,-29702.58500606835,-16080.291996037007
-14541.68731471149,-17283.799324488562,-29694.694840275628,-16068.758495898068
-14527.53866047128,-17262.855739933937,-29689.620994284272,-16063.46113246216
-14520.453157478947,-17263.92862366779,-29693.376087352764,-16068.534978453516
-14511.579514930192,-17284.224007633213,-29702.20502641261,-16078.593263458404
-14526.711645926434,-17302.127754941914,-29704.97664272507,-16081.65545244878
-14539.183919332496,-17305.994606732682,-29697.309994376898,-16077.47567623564
-14545.218890335427,-17310.42025213483,-29699.947500222625,-16080.381403014828
-14545.420056035526,-17289.074336180012,-29704.77547702497,-16088.539789741017
-14556.171245118529,-17313.70595856976,-29707.949424737624,-16100.18504860223
-14544.861262424143,-17328.391054676897,-29702.92028223518,-16097.592246245416
-14530.891422139575,-17298.842048506984,-29696.21475889859,-16091.356109542385
-14532.634858207091,-17300.071394452025,-29696.684145532152,-16087.019871118056
-14524.54352671427,-17256.08316136398,-29689.464532073085,-16075.8439988904
-14500.425994446994,-17235.094873320446,-29689.553939050908,-16071.954795355176
-14500.783622358278,-17257.536024753575,-29693.666660030685,-16072.759458155568
-14533.551279729758,-17297.70210953976,-29689.64334602873,-16071.172484299244
-14528.499785482858,-17289.387260602387,-29679.36154357929,-16068.80319938698
-14510.886610852076,-17287.37560360141,-29680.188558124133,-16076.626309946336
-14497.184991500972,-17296.070432194523,-29682.1555116362,-16080.448458248196
-14498.637854890569,-17281.94412969877,-29682.49078780303,-16078.079173335933
-14522.576573202205,-17280.357155842445,-29678.06514240088,-16072.982975600122
-14519.782605145288,-17265.135617868378,-29671.06904638637,-16065.338678996406
-14516.385139988082,-17270.99177491567,-29665.749331206007,-16062.947042339689
-14529.505613983349,-17282.122943654413,-29676.20994761109,-16065.450437718682
-14531.293753539772,-17279.61954827542,-29679.29448834592,-16061.427123716729
-14533.372465774117,-17293.18705715979,-29673.438331298632,-16054.855710846869
-14531.629029706604,-17291.242455392177,-29672.09722663131,-16057.31440273695
-14536.367599531128,-17292.13652517039,-29673.3042208319,-16060.063667304954
-14536.412303020035,-17332.928458801325,-29677.573404022864,-16069.719620909647
-14532.768968673823,-17285.74392625617,-29681.887290702736,-16071.060725576965
-14529.013875605331,-17238.805262900027,-29673.483034787543,-16057.023830059032
-14528.142157571574,-17289.499019324663,-29671.4043225532,-16058.65550740427
-14528.6785994385,-17301.166629930332,-29678.266308100978,-16067.819722630946
-14516.988637088376,-17282.23470237669,-29683.16134013669,-16078.235635547118
-14516.809823132731,-17275.41742031782,-29686.894081460727,-16082.571873971448
-14531.964305873433,-17272.1764173718,-29680.79205522443,-16075.396964001297
-14538.602773976658,-17288.13556291289,-29678.176901123155,-16073.430010489228
-14536.479358253404,-17300.56313283004,-29684.256575615,-16075.598129701391
-14533.037189607288,-17285.98979544518,-29691.364430351787,-16080.76138267057
-14533.39481751857,-17268.08604813648,-29690.20213964011,-16079.37557451434
-14540.30150655526,-17271.461161549232,-29681.97669768056,-16071.172484299244
-14547.051733380764,-17275.395068573365,-29678.3557150788,-16070.904263365775
-14544.794207190778,-17261.447580033255,-29679.36154357929,-16072.960623855666
-14537.865166409632,-17285.2298361337,-29682.64725001422,-16082.236597804618
-14551.07504738272,-17312.253095180167,-29683.25074711451,-16090.37263278635
-14555.701858484968,-17280.781838987095,-29673.997124910013,-16080.090830336909
-14549.398666548572,-17267.817827203016,-29669.34796206331,-16076.13457156832
-14538.155739087551,-17291.175400158812,-29669.90675567469,-16082.460115249172
-14526.219907548417,-17289.767240258127,-29672.47720628705,-16091.669033964758
-14523.73886391388,-17268.71189698123,-29675.67350574416,-16093.300711309996
-14537.865166409632,-17253.55741424053,-29671.35961906429,-16084.8964553948
-14551.767951460834,-17255.054981119036,-29664.27411607196,-16079.241464047607
-14558.674640497524,-17260.598213743953,-29650.5501449764,-16072.692402922205
-14548.102265370164,-17263.727457967696,-29639.44132798211,-16066.456266219173
-14540.569727488724,-17265.85087369095,-29639.62014193775,-16061.672992905736
-14536.658172209049,-17256.485492764175,-29634.322778501843,-16048.284297977008
-14527.672770938012,-17247.74596068215,-29630.85825811127,-16040.215318228642
-14518.843831878166,-17247.298925793046,-29635.77564189144,-16044.84212933089
-14530.131462828096,-17257.267803820112,-29653.58998222232,-16059.41546671575
-14585.384975121617,-17277.250263363156,-29668.58800275183,-16070.725449410136
-14631.384865210635,-17291.577731559006,-29668.163319607174,-16073.050030833489
-14654.51892072188,-17300.026690963114,-29674.1535871212,-16074.167618056254
-14667.147656339128,-17284.51458031113,-29678.55688077889,-16074.569949456449
-14647.679286918556,-17234.17845179778,-29679.562709279384,-16079.04029834751
-14651.90376662061,-17241.688637934763,-29681.82023546937,-16086.90811239578
-14682.257435590916,-17281.251225620654,-29668.118616118267,-16081.722507682149
-14691.712223495511,-17280.84889422046,-29663.603563738296,-16079.397926258796
-14681.564531512802,-17271.55056852705,-29668.699761474105,-16083.667109449758
-14654.362458510694,-17231.07155931849,-29672.186633609133,-16086.259911806574
-14649.310964263794,-17254.965574141213,-29678.73569473454,-16092.630158976335
-14665.448923760525,-17258.586556742976,-29671.627839997756,-16088.808010674478
-14670.835694174257,-17253.043324118058,-29660.54137474792,-16083.555350727482
-14654.8094933998,-17219.672169646285,-29657.72505494655,-16077.140400068807
-14646.785217140345,-17217.861678345405,-29660.899002659204,-16079.822609403443
-14665.001888871418,-17249.198824071744,-29664.11765386077,-16082.057783848975
-14686.19134261505,-17270.388277815375,-29661.36838929277,-16079.777905914534
-14679.19524660054,-17260.307641066032,-29650.95247637659,-16072.468885477649
-14658.09519983473,-17234.40196924233,-29645.31983677385,-16069.518455209549
-14648.528653207855,-17249.489396749665,-29650.460737998572,-16079.196760558698
-14662.409086514604,-17276.646766262864,-29654.953438634093,-16089.500914752594
-14672.400316286126,-17276.93733894078,-29646.72799667454,-16081.677804193236
-14659.10102833522,-17235.966591354205,-29633.071080812348,-16066.411562730262
-14647.47812121846,-17235.16192855381,-29629.56185693286,-16063.79640862899
-14619.761958093875,-17247.36598102641,-29638.882534370725,-16071.887740121812
-14620.298399960804,-17245.287268792068,-29651.57832522134,-16083.287129794018
-14629.328504720748,-17224.94718133774,-29646.035092596423,-16079.93436812572
-14634.625868156656,-17218.867506845894,-29639.24016228201,-16072.737106411114
-14630.311981476783,-17239.721684422693,-29642.637627439217,-16074.346432011896
-14610.485984144923,-17236.70419892123,-29650.52779323194,-16080.381403014828
-14611.93884753452,-17227.696445905738,-29659.557897991886,-16085.455249006183
-14631.384865210635,-17247.187167070766,-29652.606505466287,-16082.840094904912
-14640.482025203948,-17276.84793196296,-29653.098243844302,-16085.298786794996
-14639.699714148011,-17277.09380115197,-29657.68035145764,-16087.42220251825
-14614.375187680149,-17256.574899741998,-29656.898040401706,-16090.752612442093
-14610.329521933738,-17268.71189698123,-29665.1011306168,-16095.692347966711
-14623.673513373556,-17251.746922939652,-29664.16235734968,-16088.316272296464
-14602.439356141014,-17218.59928591243,-29659.37908403624,-16084.114144338864
-14573.78441974931,-17224.54484993754,-29660.139043347725,-16085.857580406378
-14548.549300259268,-17241.040437345557,-29669.61618299677,-16095.647644477804
-14546.582346747202,-17249.77996942758,-29676.344058077822,-16105.57181901596
-14566.989489434898,-17279.284272108587,-29671.896060931216,-16109.550429529005
-14574.41026859406,-17294.23758914919,-29667.44806378461,-16111.696196996714
-14546.939974658488,-17247.254222304135,-29662.955363149093,-16112.322045841462
-14527.87393663811,-17238.715855922204,-29662.933011404635,-16113.506688297592
-14528.231564549396,-17253.46800726271,-29669.571479507864,-16118.446423822215
-14539.139215843585,-17251.322239794998,-29664.430578283143,-16112.411452819284
-14540.145044344074,-17256.194920086255,-29661.25663057049,-16111.629141763347
-14541.30733505575,-17280.714783753727,-29664.318819560867,-16117.038263921531
-14537.999276876364,-17295.60104556096,-29668.342133562823,-16120.480432567649
-14536.077026853209,-17278.74783024166,-29674.041828398924,-16128.102377426909
-14549.01868689283,-17301.457202608253,-29668.6550579852,-16123.453214580204
-14549.44337003748,-17305.011129976647,-29664.67644747215,-16117.887630210833
-14525.370541259115,-17254.183263085277,-29670.398494052708,-16117.172374388265
-14515.602828932148,-17250.42817001679,-29671.60548825329,-16118.66994126677
-14540.659134466548,-17295.064603694034,-29683.764837236984,-16134.249107152118
-14558.138198630597,-17267.817827203016,-29679.629764512752,-16126.8059762485
-14541.799073433767,-17246.203690314735,-29665.77168295046,-16114.512516798082
-14517.100395810652,-17249.958783383227,-29664.989371894524,-16114.959551687189
-14515.088738809674,-17273.673984250305,-29675.67350574416,-16124.727264014158
-14515.714587654424,-17279.507789553143,-29678.64628775672,-16132.19274666223
-14521.59309644617,-17291.75654551465,-29675.87467144426,-16129.24231639413
-14530.667904695025,-17293.924664726816,-29667.425712040156,-16116.479470310149
-14516.049863821252,-17266.99081265817,-29666.57634575085,-16115.04895866501
-14497.7214333679,-17275.03744066208,-29669.86205218578,-16123.676732024758
-14507.355035228138,-17297.724461284215,-29683.094284903324,-16134.8079007635
-14527.784529660288,-17300.071394452025,-29683.45191281461,-16131.18691816174
-14535.227660563907,-17291.689490281286,-29676.0534853999,-16122.894420968822
-14539.608602477148,-17302.641845064383,-29678.042790656425,-16127.47652858216
-14530.64555295057,-17289.61077804694,-29687.58698553884,-16131.410435606294
-14523.984733102889,-17309.459127123253,-29697.153532165717,-16135.52315658607
-14530.332628528196,-17328.413406421354,-29693.644308286228,-16130.583421061448
-14530.511442483836,-17285.118077411422,-29680.993220924523,-16121.463909323682
-14526.801052904257,-17264.21919634571,-29682.088456402835,-16118.982865689144
-14522.353055757649,-17266.02968764659,-29689.64334602873,-16122.849717479912
-14513.032378319784,-17274.970385428715,-29689.911566962197,-16129.152909416309
-14525.370541259115,-17290.616606547428,-29683.78718898144,-16128.57176406047
-14529.68442793899,-17291.1306966699,-29684.189520381635,-16128.81763324948
-14537.708704198443,-17270.544740026562,-29682.91547094768,-16126.47070008167
-14527.8292331492,-17259.570033499007,-29684.480093059552,-16125.040188436533
-14511.780680630289,-17278.054926163546,-29690.87269197377,-16132.304505384507
-14502.571761914704,-17281.005356431648,-29681.753180236006,-16126.403644848306
-14506.639779405568,-17275.685641251283,-29674.1535871212,-16118.647589522314
-14507.980884072887,-17280.781838987095,-29673.438331298632,-16118.021740677565
-14510.841907363169,-17293.052946693057,-29677.26047960049,-16130.114034427888
-14522.800090646757,-17303.580618331507,-29684.54714829292,-16141.021685722077
-14525.817576148222,-17300.786650274593,-29683.273098858965,-16137.221889164672
-14523.627105191605,-17298.95380722926,-29677.282831344943,-16134.763197274591
-14528.723302927412,-17311.359025401955,-29684.21187212609,-16142.675714811769
-14527.8292331492,-17323.697188341284,-29691.185616396146,-16144.19563343473
-14517.905058611042,-17301.18898167479,-29692.772590252476,-16142.139272944842
-14521.570744701714,-17290.88482748089,-29684.61420352629,-16131.343380372928
-14534.87003265262,-17311.113156212945,-29676.344058077822,-16123.52026981357
-14533.35011402966,-17321.08203424001,-29679.003915668003,-16123.743787258123
-14521.7272069129,-17265.40383880184,-29687.810502983397,-16124.57080180297
-14522.39775924656,-17269.2259871037,-29693.53254956395,-16130.114034427888
-14518.843831878166,-17272.399934816352,-29687.74344775003,-16125.040188436533
-14516.608657432636,-17241.12984432338,-29676.142892377724,-16111.517383041071
-14519.424977234004,-17280.491266309175,-29670.398494052708,-16111.159755129784
-14496.626197889593,-17294.505810082654,-29669.839700441327,-16117.32883659945
-14489.20541873043,-17261.000545144147,-29677.48399704504,-16123.743787258123
-14507.735014883878,-17253.579765984985,-29676.791092966927,-16120.279266867552
-14535.87586115311,-17261.51463526662,-29676.4558168001,-16114.400758075806
-14540.457968766448,-17288.113211168435,-29676.54522377792,-16115.205420876197
-14525.929334870498,-17298.015033962136,-29673.483034787543,-16118.424072077762
-14517.860355122131,-17284.69339426677,-29678.422770312165,-16124.928429714257
-14525.951686614952,-17287.46501057923,-29678.06514240088,-16127.744749515625
-14528.790358160775,-17304.072356709523,-29668.766816707477,-16123.922601213766
-14534.422997763517,-17281.631205276397,-29672.58896500933,-16124.23552563614
-14542.11199785614,-17265.94028066877,-29679.897985446216,-16129.890516983334
-14517.390968488571,-17268.42132430331,-29681.39555232472,-16129.108205927398
-14523.224773791406,-17261.358173055432,-29676.20994761109,-16116.255952865597
-14552.326745072216,-17277.74200174117,-29670.95728766409,-16109.23750510663
-14566.162474890052,-17312.409557391355,-29673.59479350982,-16115.518345298571
-14553.578442761713,-17321.126737728922,-29673.483034787543,-16118.33466509994
-14517.614485933123,-17257.714838709217,-29671.761950464483,-16116.367711587873
-14533.9312593855,-17277.13850464088,-29673.997124910013,-16121.061577923489
-14556.953556174463,-17301.94894098627,-29669.3032585744,-16119.89928721181
-14556.081838140708,-17289.119039668924,-29671.87370918676,-16120.32397035646
-14556.484169540903,-17306.821621277526,-29674.62297375476,-16128.32589487146
-14552.93024217251,-17301.636016563894,-29678.10984588979,-16139.39000837684
-14556.238300351895,-17293.008243204145,-29674.935898177137,-16136.640743808835
-14553.533739272803,-17278.14433314137,-29669.77264520796,-16125.934258214744
-14541.955535644956,-17271.349402826956,-29671.091398130822,-16130.181089661251
-14521.011951090331,-17264.12978936789,-29670.711418475083,-16131.969229217675
-14517.502727210847,-17294.259940893644,-29683.16134013669,-16140.038208966043
-14530.131462828096,-17312.811888791548,-29686.93878494964,-16140.95463048871
-14545.777683946812,-17280.60302503145,-29677.1040173893,-16129.085854182942
-14555.143064873584,-17292.583560059495,-29672.365447564775,-16131.075159439464
-14546.001201391364,-17321.394958662386,-29671.806653953397,-16134.897307741325
-14544.078951368208,-17331.721464600738,-29675.53939527743,-16139.747636288124
-14543.095474612175,-17272.645804005362,-29678.847453456816,-16131.455139095206
-14540.97205888892,-17274.746867984162,-29669.3032585744,-16118.155851144296
-14540.860300166643,-17275.931510440292,-29674.10888363229,-16119.049920922507
-14528.6785994385,-17249.064713605014,-29681.97669768056,-16120.167508145274
-14516.720416154913,-17244.303792036033,-29684.43538957064,-16119.42990057825
-14538.915698399032,-17275.976213929203,-29686.82702622736,-16124.503746569604
-14567.704745257468,-17308.31918815603,-29682.960174436597,-16125.934258214744
-14570.364602847649,-17290.728365269704,-29676.72403773356,-16120.94981920121
-14564.240224866897,-17287.152086156857,-29675.51704353297,-16124.52609831406
-14552.237338094395,-17290.41544084733,-29682.177863380657,-16131.94687747322
-14557.69116374149,-17298.171496173323,-29687.072895416368,-16135.701970541711
-14547.945803158977,-17287.308548368044,-29679.830930212847,-16124.101415169407
-14539.25097456586,-17296.115135683434,-29680.032095912946,-16121.642723279325
-14538.40160827656,-17278.65842326384,-29686.759970993997,-16127.38712160434
-14531.405512262048,-17271.908196438337,-29690.00097394001,-16131.723360028667
-14527.15868081554,-17295.131658927403,-29686.46939831608,-16132.840947251434
-14524.16354705853,-17267.66136499183,-29672.141930120222,-16120.636894778836
-14514.261724264828,-17246.65072520384,-29662.754197448998,-16115.540697043029
-14519.53673595628,-17294.79638276057,-29663.58121199384,-16122.357979101896
-14509.836078862678,-17274.500998795153,-29663.849432927305,-16123.52026981357
-14516.765119643822,-17248.192995571255,-29667.80569169589,-16117.86527846638
-14544.056599623753,-17264.398010301353,-29666.308124817388,-16112.791432475024
-14552.706724727956,-17263.146312611858,-29669.079741129848,-16113.059653408489
-14543.184881589996,-17267.057867891537,-29674.846491199314,-16116.881801710344
-14532.97013437392,-17301.926589241815,-29686.96113669409,-16127.342418115428
-14551.79030320529,-17329.128662243922,-29697.80173275492,-16135.52315658607
-14558.11584688614,-17289.05198443556,-29682.669601758676,-16124.056711680498
-14547.185843847496,-17267.147274869356,-29672.432502798143,-16116.658284265792
-14545.263593824338,-17290.90717922535,-29674.86884294377,-16128.52706057156
-14547.252899080862,-17294.148182171368,-29682.535491291943,-16136.640743808835
-14556.685335241002,-17295.04225194958,-29683.25074711451,-16136.014894964088
-14552.192634605484,-17253.26684156261,-29673.863014443283,-16126.738921015136
-14559.971041675932,-17259.301812565544,-29671.53843301993,-16126.493051826126
-14564.441390566994,-17289.968405958225,-29681.283793602444,-16133.265630396085
-14543.117826356627,-17294.304644382555,-29682.691953503127,-16133.511499585093
-14540.50267225536,-17288.269673379622,-29685.843549471327,-16129.599944305415
-14549.286907826294,-17269.024821403604,-29676.277002844454,-16118.535830800038
-14545.822387435725,-17265.672059735305,-29668.766816707477,-16116.52417379906
-14531.427864006504,-17273.85279820595,-29676.56757552237,-16125.062540180988
-14524.54352671427,-17293.254112393155,-29689.620994284272,-16137.020723464577
-14553.824311950722,-17334.940115802303,-29701.55682582341,-16150.38706664885
-14578.366527362648,-17308.31918815603,-29697.35469786581,-16147.257822425106
-14562.5861957772,-17279.59719653096,-29689.419828584178,-16139.926450243764
-14546.425884536016,-17301.121926441425,-29693.44314258613,-16144.57561309047
-14544.704800212956,-17320.746758073183,-29709.13406719376,-16153.426903894771
-14560.842759709689,-17337.33175245902,-29715.392555641243,-16156.891424285344
-14574.365565105149,-17312.47661262472,-29707.54709333743,-16145.71555205769
-14572.085687170707,-17311.09080446849,-29705.78130552546,-16140.66405781079
-14560.708649242955,-17303.24534216468,-29703.59083456884,-16141.111092699895
-14542.424922278517,-17281.295929109565,-29706.69772704813,-16149.180072448264
-14548.169320603529,-17313.303627169567,-29715.571369596884,-16162.479360399171
-14555.791265462787,-17317.081071982513,-29707.010651470504,-16154.455084139716
-14563.54732078878,-17308.721519556228,-29703.25555840201,-16149.649459081826
-14560.619242265137,-17296.293949639075,-29702.339136879345,-16145.424979379772
-14547.990506647886,-17298.976158973714,-29706.45185785912,-16148.643630581337
-14538.178090832009,-17303.960597987247,-29706.85418925932,-16152.421075394284
-14564.93312894501,-17341.377418205433,-29711.324538150377,-16154.700953328724
-14572.35390810417,-17315.896429526383,-29710.139895694247,-16150.72234281568
-14555.07600964022,-17279.9771761867,-29701.579177567863,-16146.43080788026
-14547.342306058685,-17299.95963572975,-29708.195293926638,-16152.756351561113
-14563.368506833138,-17329.91097329986,-29719.79584929894,-16161.227662709674
-14576.488980828402,-17326.33469418701,-29717.80654404241,-16154.566842861992
-14574.83495173871,-17321.506717384662,-29712.03979397295,-16147.995429992132
-14563.88259695561,-17353.425008466842,-29711.70451780612,-16153.158682961308
-14554.293698584284,-17366.277261528645,-29715.72783180807,-16161.987622021154
-14554.628974751113,-17318.2880661831,-29719.304110920923,-16159.238357453152
-14572.040983681796,-17322.62430460743,-29713.3138434069,-16154.835063795455
-14575.304338372272,-17314.75649055916,-29709.089363704847,-16155.416209151294
-14574.857303483166,-17328.681627354817,-29714.69965156313,-16161.920566787789
-14572.488018570904,-17357.403618979886,-29720.68991907715,-16168.670793613292
-14565.871902212131,-17345.37838046293,-29722.83568654486,-16170.816561081
-14563.100285899674,-17323.272505196634,-29718.141820209246,-16165.00510752262
-14568.420001080038,-17322.490194140697,-29721.3157679219,-16164.021630766589
-14562.563844032748,-17327.742854087694,-29727.44014590265,-16171.442409925749
-14560.082800398208,-17347.837072353017,-29737.40902392972,-16179.39963095184
-14575.17022790554,-17362.410409737877,-29748.249619990544,-16188.67560490079
-14604.294550930805,-17366.232558039734,-29747.154384512232,-16183.713517631712
-14595.644425826602,-17351.256889254677,-29745.41094844472,-16176.270386728096
-14582.345137875694,-17345.557194418572,-29747.690826379163,-16178.90789257382
-14578.947672718488,-17358.67766841384,-29749.59072465786,-16181.143067019351
-14574.49967557188,-17374.457999999286,-29748.920172324204,-16185.30049148804
-14574.589082549704,-17360.935194603826,-29745.54505891145,-16182.01478505311
-14591.598760080193,-17382.59403498102,-29745.679169378185,-16181.25482574163
-14574.924358716533,-17348.10529328648,-29747.78023335698,-16182.238302497664
-14559.233434108906,-17357.269508513156,-29752.339989225864,-16188.005052567132
-14561.02157366533,-17351.703924143785,-29759.850175362848,-16191.424869468794
-14549.577480504213,-17336.14711000289,-29749.858945591324,-16183.15472402033
-14544.123654857118,-17355.280203256632,-29737.721948352093,-16179.734907118667
-14551.54443401628,-17375.754401177695,-29744.919210066702,-16184.16055252082
-14554.606623006655,-17373.318061032067,-29752.295285736956,-16186.865113599912
-14561.580367276714,-17332.123796000935,-29754.46340494912,-16185.47930544368
-14581.987509964409,-17342.584412406017,-29748.137861268267,-16177.790305351056
-14598.84072528371,-17386.5055902607,-29741.36528269831,-16178.416154195806
-14604.383957908629,-17373.183950565333,-29746.1709077562,-16182.77474436459
-14594.482135114926,-17351.748627632693,-29750.529497924985,-16185.7698781216
-14573.18092264902,-17319.67387433933,-29750.238925247068,-16185.211084510218
-14564.575501033723,-17289.253150135657,-29735.84440181785,-16173.63288088237
-14567.615338279646,-17297.32212988402,-29729.80943081492,-16168.447276168738
-14567.749448746375,-17317.639865593894,-29727.84247730285,-16170.011898280609
-14566.7883237348,-17340.86332808296,-29725.16026796821,-16173.811694838012
-14572.35390810417,-17350.563985176563,-29731.75403258253,-16176.113924516909
-14598.684263072522,-17359.124703302947,-29728.60243661433,-16167.530854646073
-14598.013710738864,-17351.927441588337,-29719.39351789874,-16160.467703398192
-14609.703673088989,-17369.58531970803,-29728.289512191957,-16164.803941822523
-14590.503524601882,-17331.654409367373,-29726.54607612444,-16172.761162848612
-14551.45502703846,-17308.252132922666,-29725.02615750148,-16172.761162848612
-14557.892329441587,-17320.90322028437,-29721.762802811005,-16165.452142411728
-14566.050716167774,-17353.514415444664,-29713.71617480709,-16162.233491210163
-14565.000184178376,-17339.298705971087,-29710.229302672065,-16161.942918532244
-14567.660041768557,-17312.208391691256,-29711.77157303948,-16163.418133666291
-14577.181884906518,-17349.580508420528,-29717.247750431037,-16164.513369144604
-14563.301451599771,-17329.687455855306,-29712.106849206317,-16154.477435884171
-14573.60560579367,-17353.357953233477,-29715.280796918967,-16159.126598730874
-14563.569672533236,-17314.912952770348,-29715.772535296983,-16160.57946212047
-14560.619242265137,-17298.95380722926,-29717.9630062536,-16161.62999410987
-14577.897140729088,-17343.545537417598,-29722.433355144665,-16167.955537790722
-14565.849550467678,-17331.76616808965,-29719.192352198646,-16164.558072633514
-14571.236320881406,-17337.95760130377,-29721.539285366453,-16165.787418578557
-14582.099268686685,-17322.445490651786,-29725.98728251306,-16167.262633712608
-14552.103227627664,-17301.166629930332,-29734.50329715053,-16174.079915771475
-14528.92446862751,-17314.778842303615,-29744.78509959997,-16181.791267608556
-14544.30246881276,-17322.043159251592,-29746.28266647848,-16176.583311150467
-14546.269422324827,-17310.509659112653,-29732.469288405096,-16162.85934005491
-14550.158625860053,-17319.09272898349,-29733.273951205487,-16168.067296512998
-14549.465721781937,-17338.739912359706,-29734.50329715053,-16176.873883828388
-14559.54635853128,-17373.452171498797,-29741.544096653957,-16185.859285099425
-14590.592931579702,-17375.888511644425,-29738.30309370793,-16186.820410111
-14593.766879292356,-17338.114063514957,-29729.80943081492,-16179.511389674117
-14568.174131891028,-17305.748737543672,-29723.662701089703,-16172.96232854871
-14564.64255626709,-17330.358008188967,-29725.473192390586,-16175.286909972065
-14564.709611500455,-17320.27737143962,-29727.90953253621,-16181.455991441726
-14575.617262794643,-17279.686603508784,-29721.69574757764,-16173.29760471554
-14586.010823966364,-17282.748792499162,-29710.765744538992,-16162.568767376992
-14576.511332572858,-17302.23951366419,-29702.3614886238,-16158.321935930484
-14569.962271447454,-17318.779804561116,-29702.875578746272,-16162.971098777189
-14561.55801553226,-17340.81862459405,-29707.904721248717,-16170.101305258431
-14566.855378968166,-17333.174327990335,-29697.511160077,-16157.897252785831
-14577.673623284534,-17309.302664912066,-29682.26727035848,-16144.977944490664
-14564.419038822538,-17283.5311035551,-29677.573404022864,-16137.713627542693
-14545.196538590972,-17262.922795167302,-29679.473302301565,-16142.496900856127
-14546.02355313582,-17269.13658012588,-29675.67350574416,-16149.71651431519
-14563.21204462195,-17283.41934483282,-29672.54426152042,-16144.732075301656
-14591.196428679996,-17328.23459246571,-29672.34309582032,-16138.831214765456
-14569.381126091615,-17287.59912104596,-29663.022418382458,-16131.835118750943
-14541.01676237783,-17249.534100238576,-29657.32272354636,-16126.8059762485
-14526.465776737426,-17244.974344369693,-29656.51806074596,-16124.593153547426
-14537.753407687356,-17248.84119616046,-29651.95830487708,-16116.926505199255
-14546.761160702845,-17248.260050804623,-29644.984560607027,-16105.817688204968
-14533.707741940943,-17254.451484018744,-29632.691101156608,-16097.771060201056
-14520.475509223405,-17269.829484203994,-29634.613351179763,-16104.253066093095
-14506.215096260918,-17248.483568249176,-29639.351921004287,-16109.863353951378
-14513.367654486616,-17234.35726575342,-29631.26058951147,-16101.99553990311
-14528.835061649688,-17268.22015860321,-29621.045842295396,-16097.368728800862
-14530.287925039283,-17280.938301198283,-29615.122630014732,-16090.730260697635
-14517.122747555108,-17250.40581827233,-29612.23925498,-16085.008214117075
-14506.818593361211,-17216.811146356005,-29619.257702738967,-16087.04222286251
-14530.958477372942,-17232.010332585614,-29621.42582195113,-16088.360975785374
-14541.843776922677,-17229.573992439986,-29612.90980731366,-16082.460115249172
-14506.639779405568,-17217.615809156396,-29604.57260663183,-16079.554388469982
-14493.899285066043,-17225.88595460486,-29609.24412122299,-16082.549522226993
-14493.407546688028,-17249.042361860556,-29617.313100971354,-16087.533961240526
-14492.312311209716,-17240.593402456452,-29616.329624215323,-16082.661280949267
-14485.740898339856,-17230.557469196017,-29606.271339210434,-16076.067516334952
-14467.747744053337,-17219.02396905708,-29600.05755425186,-16086.461077506672
-14471.569892355192,-17239.051132089036,-29608.595920633787,-16100.47562128015
-14488.11018325212,-17268.197806858756,-29618.27422598293,-16112.545563286016
-14489.384232686072,-17224.12016679289,-29613.82622883633,-16109.505726040094
-14488.95954954142,-17200.02498627007,-29600.68340309661,-16103.582513759437
-14488.311348952217,-17190.279625687555,-29602.762115330952,-16104.945970171211
-14487.082003007175,-17205.54586715053,-29612.19455149109,-16108.946932428713
-14495.48625892237,-17233.35143725293,-29620.28588298391,-16118.312313355484
-14506.908000339032,-17229.953972095725,-29622.67751964063,-16118.04409242202
-14492.49112516536,-17205.724681106174,-29611.568702646346,-16108.455194050694
-14502.258837492329,-17236.815957643506,-29615.703775370574,-16113.730205742146
-14484.511552394815,-17236.21246054321,-29621.53758067341,-16119.541659300528
-14483.192799471952,-17241.93450712377,-29620.57645566183,-16121.799185490512
-14488.601921630136,-17256.12786485289,-29616.754307359974,-16122.00035119061
-14485.986767528864,-17250.472873505696,-29605.9360630436,-16111.584438274436
-14470.318194665697,-17194.92878853426,-29596.213054205546,-16101.034414891532
-14468.887683020555,-17195.06289900099,-29595.698964083072,-16103.515458526072
-14471.547540610736,-17238.157062310824,-29598.15765597316,-16109.483374295638
-14487.327872196183,-17276.110324395933,-29597.9341385286,-16109.550429529005
-14507.44444220596,-17280.021879675613,-29600.973975774526,-16107.315255083471
-14497.095584523153,-17218.2640097456,-29602.91857754214,-16101.23558059163
-14480.376479670584,-17202.97541653817,-29602.89622579768,-16101.034414891532
-14478.20836045842,-17218.73339637916,-29607.23246422201,-16108.343435328416
-14500.96243631392,-17254.36207704092,-29613.13332475821,-16111.47267955216
-14525.437596492482,-17266.096742879956,-29603.90205429817,-16105.147135871308
-14519.11205281163,-17246.51661473711,-29599.074077495825,-16097.99457764561
-14512.138308541576,-17273.137542383378,-29602.67270835313,-16102.397871303308
-14493.407546688028,-17253.333896795975,-29601.97980427501,-16101.99553990311
-14493.184029243474,-17213.726605621174,-29601.398658919177,-16091.579626986935
-14501.834154347678,-17199.26502695859,-29583.249042421467,-16075.888702379312
-14501.744747369856,-17213.056053287513,-29578.219899919022,-16068.244405775597
-14487.998424529842,-17199.22032346968,-29575.314173139832,-16065.115161551854
-14480.711755837412,-17199.26502695859,-29570.70971378204,-16062.544710939494
-14477.9177877805,-17202.59543688243,-29562.43956833357,-16056.50973993656
-14474.81089530121,-17198.192143224733,-29553.78944322937,-16044.573908397426
-14470.988746999354,-17202.2601607156,-29555.912858952623,-16035.096768748375
-14480.376479670584,-17232.211498285713,-29565.255888134947,-16038.807158327958
-14472.329851666673,-17267.259033591632,-29572.497853338464,-16047.03260028751
-14461.62336607258,-17247.723608937697,-29572.67666729411,-16042.182271740709
-14463.746781795837,-17205.88114331736,-29565.30059162385,-16033.643905358782
-14464.394982385038,-17190.726660576664,-29562.283106122388,-16031.878117546812
-14456.8624445036,-17183.060012228492,-29560.94200145507,-16030.738178579591
-14438.802234983712,-17194.459401900698,-29566.485234079988,-16036.639039115791
-14447.47471183237,-17192.112468732892,-29572.09552193827,-16044.015114786043
-14471.033450488265,-17223.94135283725,-29574.28599289489,-16045.22210898663
-14473.179217955974,-17245.577841469985,-29578.73399004149,-16049.245422988586
-14454.694325291435,-17217.30288473402,-29576.85644350725,-16046.630268887317
-14446.714752520891,-17213.16781200979,-29578.59987957476,-16052.419370701238
-14459.857578260611,-17217.638160900853,-29585.86419652274,-16058.074362048432
-14465.110238207608,-17209.16684975229,-29585.640679078184,-16050.765341611546
-14466.518398108292,-17201.03081477056,-29583.651373821664,-16047.010248543054
-14460.0140404718,-17240.660457689817,-29587.741743056984,-16056.42033295874
-14454.29199389124,-17264.062734134524,-29596.95066177257,-16065.65160341878
-14462.629194573068,-17218.420471956786,-29598.09060073979,-16064.8916441073
-14461.779828283768,-17190.436087898743,-29590.558062858352,-16053.84988234638
-14458.784694526756,-17227.74114939465,-29589.306365168857,-16053.402847457271
-14457.62240381508,-17224.611905170907,-29590.04397273588,-16054.632193402314
-14446.938269965443,-17211.98316955366,-29593.77671405992,-16060.264833005052
-14464.171464940486,-17236.123053565392,-29600.169312974136,-16063.192911528697
-14471.52518886628,-17233.59730644194,-29597.643565850685,-16053.425199201729
-14473.022755744789,-17269.51655978162,-29600.102257740768,-16053.22403350163
-14476.621386602092,-17277.160856385333,-29603.76794383144,-16058.968431826645
-14463.344450395638,-17232.144443052344,-29603.5891298758,-16058.968431826645
-14485.24915996184,-17263.57099575651,-29609.0876590118,-16061.494178950094
-14486.053822762233,-17266.096742879956,-29604.438496165098,-16056.487388192105
-14471.34637491064,-17209.435070685755,-29597.88943503969,-16045.244460731086
-14458.9635084824,-17214.620675399387,-29593.68730708209,-16043.210451985651
-14452.90618573501,-17236.815957643506,-29595.162522216146,-16051.704114878668
-14464.059706218208,-17243.946164124747,-29600.884568796704,-16050.22889974462
-14454.806084013711,-17206.238771228644,-29592.68147858161,-16038.181309483209
-14438.601069283612,-17170.900663244804,-29584.120760455226,-16027.921858778223
-14449.486368833348,-17214.82184109948,-29586.60180408976,-16034.89560304828
-14451.073342689677,-17258.765370698617,-29593.01675474844,-16046.183233998208
-14462.159807939508,-17263.392181800864,-29601.264548452444,-16053.313440479453
-14475.52615112378,-17247.209518815223,-29597.978842017517,-16048.17253925473
-14474.140342967552,-17200.561428136996,-29591.69800182557,-16040.79646358448
-14452.235633401351,-17166.58677656493,-29585.75243780046,-16036.951963538166
-14446.692400776436,-17197.432183913254,-29591.96622275904,-16048.485463677103
-14451.453322345416,-17229.953972095725,-29594.42491464912,-16049.26777473304
-14456.124836936577,-17216.87820158937,-29585.551272100365,-16038.51658565004
-14457.86827300409,-17220.253315002123,-29579.270431908422,-16039.36595193934
-14473.536845867258,-17260.32999281049,-29580.119798197724,-16044.484501419603
-14469.62529058758,-17219.716873135196,-29581.6844203096,-16042.562251396448
-14448.569947310682,-17206.4622886732,-29579.873929008714,-16040.751760095569
-14449.776941511269,-17199.332082191955,-29575.98472547349,-16034.537975136993
-14454.58256656916,-17203.847134571926,-29575.068303950826,-16036.46022516015
-14467.479523119871,-17259.614736987918,-29579.963335986537,-16044.238632230596
-14470.72052606589,-17272.75756272764,-29580.008039475448,-16048.485463677103
-14471.10050572163,-17281.83237097649,-29586.780618045406,-16053.715771879646
-14459.030563715763,-17240.50399547863,-29580.18685343109,-16036.728446093612
-14431.04617965772,-17132.969752904148,-29572.229632405,-16022.60214359786
-14418.976237651854,-17139.317648329456,-29574.50951033944,-16023.093881975876
-14406.90629564599,-17158.473093327655,-29571.357914371245,-16022.60214359786
-14421.323170819662,-17182.702384317206,-29576.230594662506,-16026.848975044368
-14425.368836566073,-17156.886119471328,-29570.687362037585,-16019.763472052036
-14436.790577982734,-17181.54009360553,-29572.18492891609,-16021.75277730856
-14452.123874679077,-17228.903440106325,-29575.738856284483,-16028.8829837898
-14461.802180028222,-17268.197806858756,-29579.09161795278,-16034.448568159172
-14447.51941532128,-17198.125087991368,-29578.644583063677,-16026.916030277736
-14455.00724971381,-17148.191290878214,-29567.13343466919,-16009.861649258335
-14463.478560862372,-17168.06199169898,-29560.673780521607,-16005.681873045192
-14441.305630362704,-17191.01723325458,-29560.49496656597,-16010.21927716962
-14435.13654889304,-17183.194122695222,-29566.373475357712,-16012.566210337429
-14446.066551931686,-17206.41758518429,-29568.13926316968,-16015.091957460876
-14452.839130501645,-17207.915152062793,-29562.81954798932,-16008.811117268937
-14480.28707269276,-17236.391274498856,-29564.786501501385,-16009.414614369229
-14488.981901285875,-17220.07450104648,-29561.836071233283,-16004.005492211045
-14458.427066615472,-17171.5041603451,-29567.535766069388,-16008.677006802203
-14454.29199389124,-17173.11348594588,-29571.872004493714,-16015.427233627706
-14478.230712202874,-17198.929750791758,-29572.34139112728,-16013.728501049103
-14487.529037896282,-17211.960817809202,-29571.067341693324,-16010.174573680708
-14484.131572739074,-17220.432128957764,-29570.55325157085,-16011.023939970011
-14466.071363219186,-17239.967553611703,-29571.939059727083,-16014.823736527413
-14445.731275764856,-17201.097870003923,-29573.23546090549,-16013.996721982568
-14440.031580928751,-17127.4935755126,-29568.832167247798,-16002.083242187888
-14452.123874679077,-17139.854090196382,-29561.634905533185,-15994.21542813962
-14458.67293580448,-17164.06102944148,-29559.89146946567,-15994.30483511744
-14444.837205986643,-17162.38464860733,-29566.574641057807,-16002.664387543726
-14446.893566476532,-17191.64308209933,-29566.66404803563,-16005.21248641163
-14449.419313599985,-17190.883122787847,-29558.43860607608,-15996.964692707625
-14448.257022888309,-17177.717945303673,-29553.29770485136,-15991.957901949634
-14449.218147899885,-17186.770401808073,-29554.772919985407,-15993.88015197279
-14444.412522841994,-17198.482715902654,-29557.70099850905,-15996.897637474256
-14454.47080784688,-17224.388387726354,-29562.461920078036,-15999.333977619885
-14464.797313785231,-17231.07155931849,-29556.35989384173,-15992.941378705667
-14443.317287363683,-17212.318445720488,-29547.821527459804,-15983.553646034436
-14434.42129307047,-17173.091134201426,-29554.080015907293,-15984.78299197948
-14431.537918035738,-17152.549881046998,-29555.19760313006,-15984.648881512749
-14415.489365516827,-17170.67714580025,-29551.151937383645,-15982.9725006786
-14406.682778201435,-17156.81906423796,-29537.22680058799,-15970.008488894522
-14398.926722875443,-17121.30214229848,-29529.13546909517,-15960.084314356363
-14387.527333203238,-17121.97269463214,-29531.41534702961,-15958.899671900235
-14372.66342314046,-17130.980447647627,-29533.896390664147,-15963.973517891587
-14382.60994942307,-17161.803503251496,-29538.36673955521,-15975.194093608154
-14402.145374077008,-17164.172788163756,-29533.672873219595,-15970.611985994816
-14410.594333481116,-17163.993974208115,-29526.78853592736,-15965.44873302564
-14413.500060260303,-17177.27091041457,-29534.745756953453,-15971.796628450946
-14410.70609220339,-17180.266044171578,-29535.617474987208,-15976.11051513082
-14410.482574758838,-17177.15915169229,-29542.188887857068,-15983.978329179088
-14408.292103802218,-17186.30101517451,-29545.116966380712,-15986.660538513726
-14393.383490250528,-17179.86371277138,-29538.18792559957,-15983.419535567706
-14382.922873845444,-17168.374916121356,-29543.775861713395,-15986.772297236002
-14384.8451238686,-17178.656718570797,-29549.20733561604,-15996.11532641832
-14377.580806920623,-17178.321442403965,-29553.61062927373,-16001.144468920766
-14378.519580187747,-17183.574102350965,-29552.381283328687,-15998.618721797317
-14394.9481123624,-17235.45250123173,-29550.593143772265,-15996.540009562972
-14417.456319028894,-17319.89739178388,-29559.869117721217,-16010.912181247731
-14398.524391475248,-17208.429242185266,-29563.46774857852,-16004.184306166686
-14386.85678086958,-17144.257383854077,-29566.820510246816,-16006.464184101127
-14387.080298314131,-17132.455662781675,-29557.18690838658,-16002.954960221645
-14391.103612316088,-17142.424540808744,-29551.777786228395,-15996.11532641832
-14377.13377203152,-17165.826817253448,-29549.38614957168,-15997.88111423029
-14356.8383880661,-17159.63538403933,-29547.79917571535,-16002.59733231036
-14356.726629343824,-17151.34288684641,-29554.281181607388,-16007.559419579438
-14390.164839048964,-17171.772381278563,-29559.310324109832,-16008.677006802203
-14395.216333295864,-17166.944404476217,-29549.40850131613,-15999.73630902008
-14375.882074342022,-17165.78211376454,-29546.838050703773,-15993.231951383586
-14364.03564978071,-17197.856867057904,-29551.643675761665,-15998.9763497086
-14371.277614984228,-17244.66141994732,-29563.355989856245,-16014.622570827314
-14360.593481134592,-17194.280587945057,-29557.65629502014,-16006.665349801226
-14351.116341485542,-17152.72869500264,-29543.84291694676,-15991.26499787152
-14339.35932390205,-17138.512985529065,-29541.831259945782,-15986.01233792452
-14318.616905047526,-17151.275831613046,-29541.96537041252,-15988.672195514704
-14316.337027113084,-17176.1533231918,-29546.23455360348,-15993.88015197279
-14326.12709118451,-17165.670355042264,-29549.18498387158,-15991.868494971812
-14321.701445782355,-17144.190328620713,-29545.25107684745,-15987.129925147286
-14313.833631734087,-17167.994936465613,-29550.48138504999,-15991.35440484934
-14307.038701419677,-17195.241712956635,-29557.99157118697,-15997.232913641086
-14293.046509390657,-17164.48571258613,-29560.047931676854,-15997.568189807916
-14300.891971694467,-17159.076590427947,-29556.60576303074,-15988.895712959256
-14313.54305905617,-17178.0532214705,-29555.085844407786,-15986.526428046996
-14308.491564809272,-17195.331119934453,-29553.70003625155,-15990.370928093307
-14287.525628510191,-17185.58575935194,-29550.883716450186,-15993.790744994967
-14282.496486007749,-17176.3544888919,-29557.94686769806,-16002.776146266002
-14295.549904769648,-17167.190273665223,-29556.829280475293,-15996.852933985345
-14298.098003637551,-17150.67233451275,-29553.543574040363,-15987.420497825206
-14289.269064577707,-17171.34769813391,-29551.33075133929,-15989.834486226378
-14277.556750483129,-17182.12123896137,-29559.55619329884,-16000.138640420277
-14266.15736081092,-17185.25048318511,-29563.355989856245,-16004.676044544703
-14285.223398831296,-17185.049317485013,-29564.071245678813,-16006.397128867762
-14276.819142916102,-17158.33898286092,-29557.85746072024,-15997.41172759673
-14268.616052701003,-17150.135892645823,-29563.646562534163,-15999.199867153153
-14270.001860857232,-17173.895797001816,-29571.872004493714,-16007.849992257356
-14272.527607980684,-17192.715965833184,-29577.77286502992,-16009.861649258335
-14258.781285140669,-17168.3525643769,-29569.79329225937,-16001.54680032096
-14251.405209470417,-17176.913282503283,-29566.373475357712,-15999.35632936434
-14251.00287807022,-17186.569236107975,-29568.832167247798,-16001.770317765511
-14252.791017626649,-17198.750936836117,-29575.69415279557,-16009.302855646953
-14270.851227146535,-17225.327160993478,-29587.49587386797,-16024.233820943096
-14262.379915997974,-17180.10958196039,-29581.32679239831,-16018.802347040457
-14240.162282009398,-17161.311764873477,-29574.64362080617,-16013.393224882271
-14229.634610370947,-17181.54009360553,-29579.13632144169,-16020.635190085792
-14225.700703346814,-17217.235829500656,-29585.50656861145,-16033.062760002944
-14226.058331258098,-17170.319517888965,-29599.834036807304,-16043.903356063767
-14238.083569775054,-17169.291337644023,-29601.465714152542,-16048.753684610569
-14260.904700863925,-17237.330047765976,-29603.924406042628,-16047.144359009786
-14263.050468331632,-17218.398120212332,-29605.33256594331,-16041.198794984675
-14244.565575667091,-17187.440954141734,-29605.82430432133,-16039.74593159508
-14218.0564067431,-17195.420526912276,-29609.445286923088,-16046.764379354046
-14211.23912468423,-17176.510951103086,-29610.04878402338,-16045.55738515346
-14196.464621599273,-17165.938575975728,-29605.89135955469,-16040.818815328934
-14168.457885796774,-17195.48758214564,-29607.47833341102,-16047.949021810178
-14148.006039620166,-17204.07065201648,-29606.65131886617,-16050.564175911448
-14144.340353529496,-17219.40394871282,-29617.96130156056,-16064.17638828473
-14160.388906048409,-17251.881033406382,-29623.97392081904,-16068.199702286684
-14153.75043794518,-17198.281550202555,-29613.848580580783,-16054.051048046476
-14146.284955297107,-17175.415715624775,-29616.4413829376,-16051.324135222929
-14150.75530418817,-17198.482715902654,-29625.695005142094,-16065.7410103966
-14151.023525121633,-17242.068617590503,-29637.496726214496,-16081.454286748683
-14165.350993317485,-17257.245452075655,-29633.22754302353,-16076.000461101588
-14160.32185081504,-17240.481643734176,-29622.901037085183,-16065.696306907692
-14162.288804327109,-17256.93252765328,-29628.846601110294,-16068.467923220149
-14165.887435184412,-17278.99369943067,-29635.30625525788,-16073.497065722591
-14141.65814419486,-17206.21641948419,-29638.793127392903,-16074.23467328962
-14149.637716965404,-17220.856812102415,-29635.73093840253,-16068.199702286684
-14159.248967081186,-17233.105568063926,-29624.018624307948,-16056.241519003095
-14141.434626750306,-17179.953119749203,-29613.982691047517,-16049.156016010764
-14127.822414377024,-17209.70329161922,-29623.258664996465,-16056.442684703194
-14142.8874901399,-17242.15802456832,-29640.514211715963,-16075.352260512384
-14131.935135356802,-17207.64693112933,-29634.3451302463,-16067.03741157501
-14137.388961003897,-17216.94525682274,-29630.835906366818,-16062.008269072569
-14148.207205320265,-17227.98701858366,-29629.785374377418,-16065.673955163236
-14154.666859467849,-17239.766387911604,-29629.2936359994,-16071.664222677258
-14151.269394310642,-17253.780931685083,-29633.00402557898,-16079.50968498107
-14163.339336316509,-17277.585539529984,-29633.27224651245,-16083.778868172036
-14173.352917832484,-17267.616661502918,-29628.01958656545,-16080.113182081364
-14163.60755724997,-17258.072466620502,-29630.63474066672,-16075.79929540149
-14139.154748815865,-17200.941407792736,-29636.870877369747,-16071.038373832507
-14131.108120811954,-17198.34860543592,-29640.782432649423,-16073.966452356157
-14141.859309894957,-17229.149309295335,-29643.799918150893,-16073.161789555765
-14160.545368259594,-17249.668210705306,-29637.72024365905,-16062.947042339689
-14156.23148157972,-17257.267803820112,-29632.311121500865,-16062.477655706129
-14146.79904541958,-17249.109417093925,-29635.14979304669,-16063.505835951071
-14123.9332108418,-17229.350474995434,-29641.52004021645,-16063.572891184438
-14129.74466440018,-17249.198824071744,-29641.073005327347,-16069.85373137638
-14145.010905863155,-17258.385391042877,-29628.801897621383,-16069.719620909647
-14143.155711073365,-17255.859643919426,-29624.15273477468,-16072.80416164448
-14132.784501646103,-17229.998675584637,-29629.494801699497,-16077.743897169104
-14138.014809848644,-17273.584577272486,-29636.982636092027,-16086.885760651325
-14156.119722857444,-17301.14427818588,-29640.15658380468,-16086.125801339842
-14145.994382619188,-17267.951937669746,-29632.758156389973,-16073.9441006117
-14126.41425447634,-17279.23956861968,-29632.19936277859,-16071.932443610722
-14114.858402592949,-17283.95578669975,-29639.12840355973,-16076.291033779507
-14108.063472278533,-17282.61468203243,-29650.72895893204,-16087.198685073698
-14106.387091444383,-17221.59441966944,-29652.40533976619,-16086.438725762217
-14115.394844459874,-17206.17171599528,-29647.42090075265,-16077.766248913558
-14105.604780388448,-17229.998675584637,-29640.17893554913,-16074.055859333976
-14096.1276407394,-17241.956858868227,-29648.0467495974,-16079.263815792065
-14081.978986499187,-17255.636126474874,-29653.21000256658,-16086.572836228948
-14084.728251067192,-17258.117170109414,-29653.58998222232,-16084.42706876124
-14101.98379778669,-17262.632222489385,-29648.896115886702,-16076.782772157523
-14114.657236892848,-17272.3775830719,-29647.13032807473,-16078.861484391868
-14124.715521897737,-17281.921777954314,-29653.12059558876,-16089.210342074675
-14128.69413241078,-17302.083051453003,-29665.14583410571,-16094.552408999492
-14129.342332999986,-17307.1345456999,-29666.5539940064,-16095.08885086642
-14141.769902917136,-17302.75360378666,-29664.072950371858,-16091.780792687036
-14131.13047255641,-17267.70606848074,-29655.378121778744,-16083.555350727482
-14114.36666421493,-17242.068617590503,-29656.54041249042,-16080.76138267057
-14106.49885016666,-17254.183263085277,-29662.06129337088,-16089.813839174967
-14117.898239838869,-17276.26678660712,-29667.112787617774,-16092.47369676515
-14129.968181844732,-17263.213367845223,-29661.59190673732,-16088.003347874088
-14120.625152662416,-17239.74403616715,-29654.551107233896,-16083.220074560651
-14114.836050848491,-17237.12888206588,-29656.808633423883,-16084.270606550052
-14128.627077177416,-17252.12690259539,-29670.331438819343,-16096.072327622454
-14150.285917554607,-17278.077277908003,-29674.891194688225,-16101.772022458556
-14158.198435091786,-17289.0296326911,-29656.51806074596,-16087.198685073698
-14145.882623896912,-17251.344591539455,-29646.39272050771,-16075.75459191258
-14130.236402778197,-17239.3193530225,-29643.419938495157,-16075.978109357133
-14133.499757468671,-17261.447580033255,-29647.934990875125,-16085.65641470628
-14142.440455250797,-17270.52238828211,-29647.376197263744,-16088.204513574186
-14164.211054350264,-17272.55639702754,-29651.1983455656,-16087.13162984033
-14160.254795581675,-17244.124978080392,-29648.47143274205,-16081.56604547096
-14149.213033820752,-17259.055943376534,-29651.57832522134,-16085.008214117075
-14132.382170245906,-17226.020065071592,-29649.41020600917,-16084.918807139256
-14131.532803956605,-17220.432128957764,-29646.213906552068,-16080.202589059185
-14149.70477219877,-17241.532175723576,-29645.275133284944,-16077.006289602075
-14155.89620541289,-17261.31346956652,-29640.402452993687,-16074.122914567342
-14161.37238280444,-17286.302719867555,-29641.810612894373,-16077.408621002272
-14155.717391457249,-17245.84606240345,-29647.13032807473,-16081.9460251267
-14175.65514751138,-17238.87231813339,-29652.87472639975,-16082.638929204812
-14174.112877143963,-17236.301867521033,-29639.262514026468,-16075.218150045652
-14151.85053966648,-17242.18037631278,-29627.594903420795,-16072.8935686223
-14156.454999024272,-17246.31544903701,-29632.355824989776,-16078.034469847022
-14162.557025260572,-17248.818844416004,-29643.285828028424,-16083.46594374966
-14169.262548597164,-17241.2192513012,-29649.857240898284,-16083.778868172036
-14169.955452675278,-17197.678053102263,-29636.37913899173,-16064.8916441073
-14172.905882943378,-17215.93942832225,-29630.902961600183,-16059.571928926938
-14179.589054535516,-17252.775103184595,-29633.42870872363,-16065.361030740862
-14179.052612668587,-17254.049152618547,-29636.91558085866,-16071.105429065876
-14183.9476447043,-17234.78194889807,-29638.904886115182,-16071.440705232706
-14190.697871529805,-17225.416567971297,-29632.66874941215,-16068.266757520052
-14190.027319196144,-17232.055036074526,-29624.97974931953,-16063.908167351266
-14180.930159202831,-17214.88889633285,-29627.237275509517,-16064.690478407205
-14172.168275376354,-17220.499184191132,-29633.04872906789,-16071.41835348825
-14174.671670755348,-17229.194012784246,-29640.06717682686,-16076.961586113166
-14198.76685127817,-17240.146367567348,-29631.68527265612,-16071.485408721615
-14213.586057852037,-17262.60987074493,-29625.695005142094,-16067.685612164214
-14204.33243564754,-17275.193902873267,-29622.58811266281,-16070.36782149885
-14194.43061285384,-17252.998620629147,-29629.38304297722,-16076.51455122406
-14181.153676647387,-17255.36790554141,-29632.15465928968,-16077.85565589138
-14194.967054720766,-17266.543777769064,-29627.72901388753,-16071.172484299244
-14189.08854592902,-17206.618750884387,-29622.76692661845,-16066.635080174814
-14166.71444972926,-17200.49437290363,-29623.05749929637,-16066.500969708082
-14166.826208451535,-17245.868414147906,-29632.91461860116,-16077.587434957915
-14171.363612575962,-17235.58661169846,-29635.30625525788,-16073.094734322398
-14179.030260924132,-17221.84028885845,-29627.997234820992,-16066.03158307452
-14182.584188292529,-17227.092948805446,-29620.53175217292,-16064.08698130691
-14178.694984757303,-17221.88499234736,-29622.521057429443,-16063.863463862355
-14173.308214343577,-17215.112413777402,-29624.130383030224,-16064.042277817998
-14178.985557435222,-17234.580783197973,-29627.416089465158,-16071.440705232706
-14192.262493641674,-17231.049207574037,-29630.835906366818,-16068.333812753415
-14199.146830933909,-17243.342667024455,-29623.169258018646,-16059.75074288258
-14196.062290199076,-17261.000545144147,-29621.33641497331,-16065.003402829578
-14184.28292087113,-17231.585649440964,-29626.76788887595,-16070.166655798754
-14188.038013939622,-17229.64104767335,-29632.847563367795,-16070.568987198949
-14205.807650781591,-17233.93258260877,-29630.835906366818,-16068.065591819954
-14204.779470536649,-17248.707085693728,-29621.02349055093,-16063.997574329089
-14183.612368537471,-17214.4642131882,-29616.01669979295,-16060.309536493962
-14171.497723042694,-17213.681902132263,-29619.90590332817,-16064.913995851755
-14178.359708590471,-17238.827614644484,-29629.96418833306,-16074.637004689814
-14202.834868769036,-17230.08808256246,-29625.91852258665,-16065.919824352244
-14202.499592602206,-17202.394271182333,-29618.698909127583,-16058.65550740427
-14186.13811566092,-17190.994881510127,-29619.436516694608,-16059.214301015652
-14175.699851000292,-17202.997768282625,-29628.734842388018,-16065.584548185416
-14176.035127167122,-17222.913172592303,-29633.78633663492,-16076.000461101588
-14185.75813600518,-17220.856812102415,-29630.992368578,-16073.832341889423
-14201.76198503518,-17227.428224972275,-29628.488973199008,-16068.758495898068
-14216.178860208853,-17269.293042337067,-29630.321816244345,-16075.50872272357
-14192.642473297416,-17253.93739389627,-29630.455926711074,-16076.022812846044
-14180.393717335906,-17210.217381741688,-29633.585170934817,-16070.032545332022
-14200.24206641222,-17188.290320431035,-29630.16535403316,-16062.187083028208
-14210.501517117204,-17209.591532896942,-29621.17995276212,-16056.286222492006
-14196.554028577091,-17212.720777120685,-29617.648377138183,-16057.85084460388
-14194.296502387107,-17212.74312886514,-29626.83494410932,-16066.74683889709
-14206.81347928208,-17238.715855922204,-29639.351921004287,-16075.262853534565
-14199.39270012292,-17233.709065164217,-29634.322778501843,-16070.054897076476
-14188.865028484468,-17214.665378888294,-29625.53854293091,-16069.205530787174
-14187.032185439131,-17198.4603641582,-29621.515228928954,-16070.166655798754
-14175.878664955935,-17184.714041318184,-29624.10803128577,-16067.37268774184
-14175.409278322371,-17196.448707157222,-29628.801897621383,-16069.60786218737
-14198.364519877974,-17238.358228010922,-29627.840772609805,-16068.199702286684
-14219.218697454777,-17276.13267614039,-29626.499667942488,-16070.881911621324
-14216.29061893113,-17231.831518629973,-29625.315025486358,-16075.28520527902
-14193.603598308991,-17195.17465772327,-29624.0409760524,-16077.006289602075
-14178.51617080166,-17205.277646217066,-29623.035147551916,-16075.620481445849
-14171.050688153588,-17180.154285449302,-29618.497743427488,-16069.809027887468
-14176.28099635613,-17191.553675121508,-29617.91659807165,-16067.775019142036
-14183.008871437178,-17214.64302714384,-29617.62602539373,-16067.484446464116
-14188.105069172989,-17250.942260139258,-29621.96226381806,-16072.446533733197
-14217.877592787456,-17287.75558325715,-29632.355824989776,-16084.069440849951
-14204.779470536649,-17199.957931036704,-29622.38694696271,-16071.150132554789
-14196.308159388083,-17166.854997498394,-29617.491914927,-16062.120027794845
-14210.43446188384,-17223.561373181506,-29619.90590332817,-16068.691440664705
-14218.0564067431,-17239.542870467052,-29624.93504583061,-16076.0451645905
-14223.264363201186,-17242.672114690795,-29628.71249064356,-16077.85565589138
-14226.058331258098,-17209.479774174666,-29624.0409760524,-16071.261891277063
-14223.443177156829,-17187.64211984183,-29619.01183354996,-16066.053934818976
-14221.967962022778,-17181.048355227515,-29611.121667757237,-16065.56219644096
-14209.09335721652,-17216.69938763373,-29612.730993358015,-16077.676841935736
-14217.207040453795,-17244.63906820286,-29626.812592364862,-16094.105374110386
-14226.594773125027,-17223.159041781313,-29623.41512720765,-16086.28226355103
-14215.642418341926,-17243.476777491185,-29617.06723178235,-16076.447495990697
-14205.539429848128,-17209.479774174666,-29616.709603871062,-16070.345469754397
-14208.71337756078,-17192.157172221803,-29618.609502149764,-16070.457228476673
-14234.507290662204,-17227.539983694554,-29624.48801094151,-16080.269644292552
-14263.899834620934,-17241.778044912582,-29621.58228416232,-16082.795391416
-14275.187465570863,-17209.74799510813,-29616.597845148783,-16077.386269257817
-14283.189390085863,-17200.717890348184,-29619.01183354996,-16082.236597804618
-14293.471192535306,-17225.416567971297,-29625.560894675364,-16091.42316477575
-14295.438146047372,-17262.632222489385,-29630.992368578,-16098.396909045803
-14311.240829377277,-17288.13556291289,-29630.835906366818,-16097.391080545316
-14306.54696304166,-17250.294059550055,-29617.111935271256,-16078.034469847022
-14286.586855243071,-17202.953064793714,-29611.166371246145,-16068.110295308865
-14266.045602088643,-17183.060012228492,-29614.18385674761,-16067.976184842131
-14270.225378301786,-17219.895687090837,-29624.711528386066,-16079.308519280974
-14282.474134263291,-17220.96857082469,-29619.615330650253,-16077.319214024452
-14286.586855243071,-17220.499184191132,-29609.601749134275,-16069.9431383542
-14290.54311401166,-17207.848096829428,-29609.69115611209,-16071.37364999934
-14277.936730138868,-17207.758689851606,-29609.86997006774,-16077.18510355772
-14270.180674812877,-17220.275666746576,-29611.836923579805,-16085.209379817175
-14295.929884425388,-17238.93937336676,-29611.702813113072,-16086.37167052885
-14308.200992131353,-17236.681847176773,-29604.52790314292,-16081.923673382244
-14284.485791264273,-17202.528381649063,-29600.95162403007,-16077.095696579898
-14274.405154514929,-17208.183372996256,-29604.6396618652,-16078.146228569298
-14273.68989869236,-17239.14053906686,-29606.09252525479,-16080.783734415025
-14287.16800059891,-17222.30967549201,-29607.7912578334,-16075.128743067831
-14289.693747722358,-17200.226151970168,-29603.14209498669,-16067.37268774184
-14300.534343783182,-17206.775213095574,-29608.0371270224,-16072.066554077452
-14289.11260236652,-17178.83553252644,-29609.735859601005,-16070.189007543207
-14265.06212533261,-17191.82189605497,-29615.10027827028,-16074.569949456449
-14275.701555693337,-17201.67901535976,-29616.262568981954,-16075.732240168123
-14287.033890132176,-17203.221285727177,-29610.24994972348,-16068.758495898068
-14272.505256236229,-17174.275776657556,-29605.645490365685,-16069.384344742815
-14264.749200910235,-17181.58479709444,-29607.545388644387,-16077.36391751336
-14267.9678521118,-17205.679977617263,-29610.205246234567,-16084.292958294507
-14278.763744683713,-17223.673131903786,-29605.77960083242,-16079.487333236617
-14288.531457010682,-17223.89664934834,-29602.71741184204,-16070.434876732215
-14294.83464894708,-17211.55848640901,-29610.115839256745,-16071.79833314399
-14285.31280580912,-17219.15807952381,-29616.91076957116,-16075.240501790107
-14277.422640016395,-17228.858736617414,-29618.00600504947,-16073.675879678236
-14287.659738976923,-17222.64495165884,-29612.887455569205,-16072.13360931082
-14295.214628602818,-17203.713024105196,-29604.84082756529,-16063.70700165117
-14283.904645908431,-17202.371919437875,-29604.77377233193,-16061.069495805445
-14267.051430589132,-17210.642064886342,-29603.83499906481,-16061.762399883555
-14265.620918943992,-17236.346571009944,-29609.557045645364,-16069.741972654105
-14261.77641889768,-17196.06872750148,-29608.327699700323,-16069.719620909647
-14262.62578518698,-17175.415715624775,-29600.124609485225,-16058.163769026252
-14250.421732714383,-17159.3001078725,-29598.15765597316,-16058.454341704171
-14243.559747166604,-17174.029907468546,-29598.895263540184,-16064.578719684929
-14247.985392568757,-17202.50602990461,-29600.884568796704,-16068.80319938698
-14255.182654283364,-17203.154230493812,-29602.516246141942,-16064.779885385024
-14256.143779294942,-17181.026003483057,-29589.619289591228,-16055.436856202705
-14259.340078752051,-17192.045413499523,-29587.87585352372,-16056.263870747553
-14266.269119533195,-17227.808204628018,-29590.111027969248,-16066.433914474715
-14256.456703717316,-17213.346625965434,-29595.78837106089,-16075.732240168123
-14262.134046808964,-17189.11733497588,-29598.269414695435,-16077.162751813265
-14272.974642869787,-17207.423413684777,-29588.680516324108,-16070.032545332022
-14277.48969524976,-17238.09000707746,-29588.993440746483,-16068.870254620346
-14279.099020850545,-17235.050169831535,-29596.99536526148,-16072.044202332998
-14271.387669013462,-17219.068672545993,-29601.37630717472,-16075.173446556742
-14274.53926498166,-17184.892855273825,-29596.32481292782,-16070.814856387957
-14294.745241969258,-17202.68484386025,-29596.213054205546,-16065.85276911888
-14281.244788318252,-17201.790774082037,-29601.219844963533,-16062.455303961671
-14257.216663028796,-17166.29620388701,-29598.80585656236,-16060.644812660792
-14248.00774431321,-17166.832645753937,-29602.315080441844,-16064.019926073544
-14251.606375170515,-17178.00851798159,-29610.24994972348,-16069.049068575989
-14264.480979976772,-17190.145515220825,-29604.594958376285,-16063.237615017608
-14280.171904584397,-17213.681902132263,-29603.83499906481,-16067.08211506392
-14266.738506166756,-17187.329195419454,-29599.81168506285,-16062.187083028208
-14245.8619768455,-17199.44384091423,-29606.38309793271,-16073.474713978138
-14258.758933396211,-17222.801413870027,-29615.368499203745,-16079.442629747706
-14259.675354918882,-17197.231018213155,-29602.78446707541,-16065.964527841155
-14256.188482783851,-17195.711099590197,-29595.363687916244,-16060.08601904941
-14262.9163578649,-17237.575916954986,-29593.106161726257,-16061.762399883555
-14264.97271835479,-17263.74980971215,-29604.05851650936,-16068.646737175792
-14271.275910291186,-17205.992902039638,-29613.043917780396,-16060.957737083168
-14276.796791171646,-17175.25925341359,-29606.76307758845,-16057.51556843705
-14265.82208464409,-17179.841361026927,-29597.62121410623,-16056.062705047454
-14260.457665974816,-17193.386518166844,-29605.980766532517,-16059.996612071587
-14267.833741645069,-17208.049262529526,-29614.42972593662,-16069.026716831531
-14271.11944808,-17195.12995423436,-29615.256740481465,-16068.669088920247
-14268.861921890011,-17190.54784662102,-29609.646452623187,-16062.27649000603
-14268.839570145556,-17206.97637879567,-29601.935100786104,-16054.833359102411
-14262.044639831143,-17187.306843675,-29602.22567346402,-16053.961641068656
-14257.887215362456,-17191.710137332695,-29611.1887229906,-16060.197777771686
-14264.212759043308,-17208.049262529526,-29608.104182255767,-16061.9412138392
-14273.39932601444,-17197.96862578018,-29601.59982461928,-16056.867367847844
-14272.795828914146,-17194.12412573387,-29596.70479258356,-16050.720638122635
-14264.235110787764,-17211.1114515199,-29596.771847816926,-16053.9392893242
-14258.848340374034,-17236.41362624331,-29602.404487419662,-16063.058801061963
-14261.843474131045,-17234.066693075503,-29605.265510709945,-16067.08211506392
-14261.0164595862,-17171.92884348975,-29586.37828664521,-16056.956774825669
-14267.58787245606,-17164.50806433059,-29587.5852808458,-16054.140455024297
-14271.72294518029,-17186.144552963324,-29594.42491464912,-16061.382420227816
-14263.989241598754,-17183.954082006705,-29599.81168506285,-16067.439742975206
-14279.613110973014,-17202.997768282625,-29605.734897343507,-16074.301728522983
-14301.808393217134,-17211.759652109107,-29608.528865400414,-16075.46401923466
-14285.31280580912,-17203.802431083015,-29602.22567346402,-16070.032545332022
-14286.20687558733,-17216.654684144818,-29609.42293517863,-16073.497065722591
-14291.325425067596,-17244.84023390296,-29615.10027827028,-16082.504818738082
-14291.995977401257,-17200.807297326006,-29619.01183354996,-16083.868275149856
-14294.231151846783,-17191.084288487946,-29607.21011247756,-16075.75459191258
-14292.174791356898,-17200.20380022571,-29599.3870019182,-16069.60786218737
-14288.73262271078,-17188.871465786873,-29606.696022355085,-16075.486370979115
-14279.9707388843,-17189.2067419537,-29607.366574688745,-16078.101525080388
-14283.815238930612,-17208.74216660764,-29610.00408053447,-16075.28520527902
-14290.945445411857,-17208.429242185266,-29602.695060097583,-16066.36685924135
-14285.268102320208,-17189.698480331717,-29598.82820830681,-16063.17055978424
-14277.82497141659,-17187.865637286384,-29603.23150196451,-16065.159865040763
-14275.746259182246,-17231.228021529678,-29608.2382927225,-16074.055859333976
-14285.82689593159,-17243.968515869205,-29614.56383640335,-16080.828437903934
-14289.850209933546,-17224.477794704177,-29609.69115611209,-16071.105429065876
-14269.465418990305,-17171.995898723115,-29594.067286737834,-16051.726466623124
-14256.210834528309,-17173.73933479063,-29585.081885466803,-16051.79352185649
-14247.739523379749,-17173.87344525736,-29585.394809889174,-16064.288147007008
-14253.506273449217,-17183.59645409542,-29594.983708260504,-16065.31632725195
-14275.410983015418,-17190.79371581003,-29588.54640585737,-16058.65550740427
-14283.457611019328,-17221.39325396934,-29579.89628075317,-16057.537920181505
-14263.92218636539,-17196.78398332405,-29588.56875760183,-16061.56123418346
-14254.512101949706,-17187.306843675,-29594.78254256041,-16063.774056884537
-14239.402322697915,-17170.87831150035,-29596.86125479475,-16060.331888238416
-14244.00678205571,-17180.198988938213,-29593.66495533764,-16055.16863526924
-14254.623860671982,-17206.059957273003,-29596.436571650094,-16059.929556838222
-14243.045657044133,-17227.294114505545,-29597.66591759514,-16066.411562730262
-14239.87170933148,-17211.200858497723,-29608.81943807834,-16076.93923436871
-14259.161264796408,-17210.530306164062,-29620.62115915074,-16084.002385616588
-14266.000898599732,-17181.83066628345,-29610.987557290504,-16070.144304054298
-14257.820160129091,-17195.73345133465,-29603.65618510916,-16064.13168479582
-14250.108808292009,-17221.572067924986,-29609.06530726735,-16070.926615110233
-14255.450875216828,-17226.332989493967,-29615.457906181564,-16078.146228569298
-14248.991221069244,-17196.448707157222,-29609.2888247119,-16076.268682035052
-14262.268157275696,-17197.432183913254,-29606.696022355085,-16072.982975600122
-14255.182654283364,-17194.347643178422,-29600.035202507403,-16061.27066150554
-14240.989296554244,-17180.86954127187,-29598.358821673253,-16056.956774825669
-14238.82117734208,-17186.2563116856,-29599.901092040676,-16061.583585927916
-14245.929032078868,-17192.045413499523,-29599.00702226246,-16066.791542386
-14260.614128186004,-17221.437957458253,-29599.76698157394,-16071.8430366329
-14256.412000228403,-17218.241658001145,-29599.834036807304,-16069.920786609744
-14241.324572721074,-17190.92782627676,-29590.982746003003,-16064.958699340666
-14240.966944809788,-17202.55073339352,-29587.94290875708,-16074.815818645457
-14256.590814184048,-17215.715910877694,-29597.95649027306,-16083.04126060501
-14253.215700771298,-17217.660512645307,-29593.933176271104,-16078.190932058207
-14255.249709516733,-17249.2211758162,-29581.90793775415,-16069.741972654105
-14257.931918851367,-17230.4680622182,-29584.925423255616,-16067.484446464116
-14248.052447802122,-17184.982262251648,-29594.581376860308,-16064.019926073544
-14246.9125088349,-17216.3641114669,-29605.19845547658,-16071.574815699438
-14274.718078937303,-17239.3193530225,-29607.85831306676,-16071.396001743797
-14268.124314322988,-17215.291227733043,-29603.79029557589,-16056.84501610339
-14249.840587358543,-17202.193105482234,-29601.510417641453,-16054.22986200212
-14250.287622247652,-17195.286416445546,-29602.22567346402,-16057.13558878131
-14250.0641048031,-17206.529343906564,-29602.73976358649,-16063.394077228795
-14242.9115465774,-17192.090116988435,-29597.464751895044,-16061.31536499445
-14243.403284955417,-17185.4069453963,-29588.501702368463,-16053.581661412914
-14246.309011734607,-17216.520573678084,-29592.972051259527,-16058.27552774853
-14245.280831489665,-17219.716873135196,-29596.14599897218,-16060.60010917188
-14237.748293608223,-17194.995843767625,-29595.27428093842,-16058.968431826645
-14252.679258904369,-17219.448652201732,-29595.14017047169,-16055.07922829142
-14252.567500182093,-17203.98124503866,-29590.558062858352,-16053.067571290445
-14244.073837289076,-17187.01627099708,-29591.96622275904,-16059.057838804463
-14224.828985313055,-17185.69751807422,-29599.208187962555,-16061.672992905736
-14225.365427179984,-17212.497259676133,-29616.91076957116,-16072.647699433292
-14249.125331535975,-17244.192033313757,-29613.33449045831,-16069.65256567628
-14271.767648669202,-17269.65067024835,-29602.67270835313,-16066.500969708082
-14246.711343134804,-17220.45448070222,-29590.222786691524,-16059.728391138124
-14218.81636605458,-17172.97937547915,-29594.78254256041,-16057.13558878131
-14227.645305114424,-17198.63917811384,-29606.740725844,-16065.875120863337
-14237.904755819412,-17195.085250745447,-29599.208187962555,-16062.209434772663
-14229.031113270656,-17171.414753367277,-29584.701905811064,-16048.530167166016
-14228.360560936995,-17181.49539011662,-29588.70286806856,-16050.720638122635
-14230.52868014916,-17206.194067739736,-29589.731048313508,-16053.492254435094
-14228.695837103824,-17175.885102258337,-29595.78837106089,-16053.9392893242
-14246.9125088349,-17194.794678067527,-29597.352993172764,-16055.347449224884
-14250.287622247652,-17214.50891667711,-29590.58041460281,-16049.491292177594
-14236.29543021863,-17192.581855366454,-29590.04397273588,-16049.781864855511
-14221.945610278322,-17179.751954049105,-29587.04883897887,-16050.206548000164
-14217.609371853992,-17204.651797372317,-29587.76409480144,-16060.287184749508
-14228.360560936995,-17200.762593837095,-29593.352030915263,-16058.946080082187
-14243.224470999774,-17214.97830331067,-29593.642603593184,-16060.376591727329
-14242.9115465774,-17220.566239424497,-29586.937080256597,-16063.103504550876
-14225.67835160236,-17194.615864111885,-29589.32871691331,-16064.779885385024
-14223.9572672793,-17185.853980285407,-29595.989536760997,-16072.13360931082
-14236.429540685362,-17201.142573492834,-29587.5852808458,-16061.449475461182
-14243.470340188784,-17235.18428029827,-29586.87002502323,-16053.402847457271
-14226.639476613936,-17195.73345133465,-29577.459940607543,-16045.244460731086
-14214.793052052624,-17172.219416167667,-29583.204338932555,-16052.262908490053
-14229.366389437484,-17196.53811413504,-29591.34037391429,-16062.142379539298
-14226.035979513645,-17183.21647443968,-29579.985687730998,-16042.31638220744
-14218.659903843392,-17176.466247614175,-29567.80398700285,-16033.88977454779
-14213.943685763325,-17190.301977432013,-29569.905050981648,-16043.858652574856
-14207.61814208247,-17197.320425190977,-29577.012905718435,-16053.067571290445
-14202.633703068936,-17200.65083511482,-29583.785484288397,-16063.215263273152
-14213.563706107583,-17208.228076485168,-29582.399676132165,-16060.46599870515
-14218.257572443195,-17215.559448666507,-29571.335562626788,-16057.18029227022
-14210.322703161562,-17190.681957087752,-29567.535766069388,-16056.018001558545
-14218.123461976464,-17175.01338422458,-29569.927402726105,-16057.26969924804
-14201.158487934888,-17156.796712493506,-29583.98664998849,-16059.057838804463
-14205.33826414803,-17187.172733208266,-29588.769923301927,-16059.41546671575
-14222.124424233964,-17198.080384502457,-29575.314173139832,-16054.74395212459
-14225.968924280278,-17197.856867057904,-29575.425931862108,-16055.03452480251
-14213.071967729566,-17187.68682333074,-29579.158673186143,-16055.526263180527
-14217.117633475977,-17209.189201496745,-29592.86029253725,-16065.584548185416
-14231.221584227274,-17214.665378888294,-29593.19556870408,-16067.03741157501
-14235.021380784678,-17193.766497822584,-29581.215033676035,-16057.113237036854
-14232.696799361323,-17210.016216041593,-29573.973068472515,-16056.666202147748
-14223.063197501087,-17198.102736246914,-29573.70484753905,-16059.41546671575
-14227.600601625516,-17197.678053102263,-29575.738856284483,-16063.327021995428
-14231.847433072024,-17181.942425005727,-29570.061513192835,-16058.543748681994
-14220.984485266745,-17178.07557321496,-29563.55715555634,-16055.07922829142
-14210.456813628294,-17190.21257045419,-29568.25102189196,-16059.504873693571
-14201.583171079536,-17199.533247892054,-29565.4794055795,-16063.237615017608
-14201.04672921261,-17194.101773989412,-29576.878795251705,-16068.646737175792
-14218.414034654385,-17206.88697181785,-29578.979859230505,-16065.875120863337
-14225.410130668895,-17197.4098321688,-29573.74955102796,-16059.683687649214
-14226.393607424929,-17177.02504122556,-29574.576565572806,-16058.923728337732
-14216.089453231032,-17172.375878378854,-29571.022638204413,-16057.962603326156
-14216.022397997664,-17188.759707064593,-29579.784522030892,-16067.37268774184
-14244.029133800166,-17210.97734105317,-29587.965260501536,-16066.299804007986
-14275.20981731532,-17232.45736747472,-29587.09354246778,-16066.076286563431
-14237.43536918585,-17172.755858034594,-29574.598917317264,-16054.363972468853
-14207.752252549202,-17164.150436419302,-29575.180062673106,-16058.901376593278
-14213.09431947402,-17199.756765336606,-29586.87002502323,-16071.932443610722
-14232.182709238854,-17204.271817716577,-29587.205301190057,-16064.84694061839
-14230.774549338168,-17189.16203846479,-29581.304440653854,-16057.537920181505
-14227.824119070068,-17205.83643982845,-29580.09744645327,-16064.958699340666
-14232.965020294789,-17240.481643734176,-29584.299574410867,-16073.541769211504
-14236.496595918728,-17224.343684237443,-29596.302461183368,-16077.85565589138
-14238.195328497332,-17224.298980748532,-29597.062420494847,-16075.776943657034
-14230.774549338168,-17197.141611235336,-29583.114931954737,-16062.74587663959
-14225.208964968797,-17149.375933334344,-29576.588222573784,-16060.555405682971
-14214.077796230054,-17140.85991869687,-29580.67859180911,-16065.56219644096
-14199.102127445,-17162.317593373966,-29585.99830698947,-16073.206493044674
-14216.24591544222,-17189.877294287362,-29585.41716163363,-16067.529149953029
-14241.503386676715,-17195.93461703475,-29580.767998786927,-16061.628289416823
-14231.9591917943,-17179.01434648208,-29578.309306896845,-16055.28039399152
-14219.285752688142,-17163.837511996928,-29579.270431908422,-16057.761437626055
-14224.024322512669,-17171.526512089553,-29585.148940700168,-16063.774056884537
-14233.970848795278,-17166.899700987306,-29587.272356423426,-16065.450437718682
-14247.024267557175,-17172.822913267963,-29580.70094355356,-16058.879024848822
-14244.252651244718,-17193.006538511105,-29577.81756851883,-16062.432952217216
-14228.226450470263,-17205.50116366162,-29578.80104527486,-16065.629251674323
-14223.10790099,-17213.2125154987,-29587.04883897887,-16072.8935686223
-14234.999029040222,-17195.845210056927,-29592.927347770616,-16076.648661690791
-14237.368313952484,-17143.028037909036,-29582.064399965337,-16066.74683889709
-14232.473281916771,-17146.62666876634,-29580.499777853463,-16064.08698130691
-14231.042770271632,-17192.671262344273,-29586.5347488564,-16073.340603511406
-14213.228429940753,-17180.824837782962,-29589.060495979847,-16077.252158791083
-14216.402377653409,-17161.4011718513,-29582.69024881009,-16069.31728950945
-14231.109825504998,-17178.991994737626,-29577.929327241105,-16061.337716738906
-14217.944648020824,-17199.89087580334,-29569.61447830373,-16057.806141114968
-14213.183726451842,-17210.060919530504,-29570.061513192835,-16059.259004504564
-14220.872726544469,-17208.25042822962,-29571.76024577144,-16061.158902783263
-14222.504403889703,-17154.4497793257,-29568.27337363641,-16052.262908490053
-14224.471357401771,-17133.349732559887,-29561.70196076655,-16043.277507219018
-14237.323610463574,-17163.21166315218,-29567.826338747305,-16049.535995666503
-14234.10495926201,-17179.64019532683,-29570.57560331531,-16055.727428880624
-14222.258534700695,-17174.745163291118,-29576.72233304052,-16063.394077228795
-14218.14581372092,-17190.480791387654,-29572.52020508292,-16062.947042339689
-14220.448043399818,-17164.26219514158,-29561.90312646665,-16051.279431734018
-14218.257572443195,-17137.32834307293,-29563.13247241169,-16047.233765987608
-14214.748348563711,-17153.06397116947,-29566.44053059108,-16054.498082935585
-14219.844546299524,-17185.339890162933,-29574.80008301736,-16066.880949363824
-14213.071967729566,-17176.488599358632,-29571.24615564897,-16062.589414428405
-14221.81149981159,-17155.477959570642,-29568.94392597007,-16055.503911436072
-14197.291636144118,-17127.67238946824,-29558.75153049845,-16051.949984067678
-14187.747441261705,-17158.428389838744,-29556.494004308464,-16055.392152713795
-14201.38200537944,-17206.84226832894,-29566.46288233553,-16063.66229816226
-14207.036996726632,-17177.919111003772,-29568.94392597007,-16066.23274877462
-14191.055499441089,-17099.62095017683,-29554.638809518678,-16047.434931687703
-14196.598732066004,-17134.847299438396,-29556.024617674902,-16045.51268166455
-14216.357674164496,-17171.88414000084,-29569.033332947893,-16055.727428880624
-14226.795938825124,-17173.001727223604,-29574.62126906172,-16065.025754574031
-14219.598677110514,-17160.01536369507,-29571.335562626788,-16057.984955070611
-14246.376066967972,-17192.559503621997,-29571.715542282527,-16051.03356254501
-14248.991221069244,-17184.3564134069,-29563.937135212083,-16047.233765987608
-14212.312008418085,-17132.992104648605,-29554.035312418386,-16044.79742584198
-14211.060310728588,-17161.691744529217,-29552.381283328687,-16046.51851016504
-14219.084586988043,-17195.442878656733,-29556.918687453115,-16048.08313227691
-14220.313932933084,-17166.2515003981,-29552.224821117503,-16043.344562452385
-14213.854278785502,-17126.554802245475,-29536.399786043145,-16039.500062406072
-14216.62589509796,-17154.15920664778,-29540.33369306728,-16046.786731098502
-14211.90967701789,-17172.39823012331,-29546.41336755912,-16054.56513816895
-14233.81438658409,-17172.77820977905,-29553.811794973823,-16058.879024848822
-14234.931973806855,-17138.468282040154,-29543.440585546567,-16048.664277632748
-14218.302275932108,-17120.67629345373,-29539.529030266887,-16043.970411297132
-14227.377084180962,-17156.3496776044,-29552.783614728884,-16058.74491438209
-14229.43344467085,-17147.073703655446,-29560.33850435478,-16065.808065629968
-14231.445101671829,-17148.168939133757,-29556.09167290827,-16062.879987106322
-14245.0126105562,-17167.503198087597,-29557.41042583113,-16061.13655103881
-14254.825026372078,-17205.12118400588,-29562.23840263348,-16065.472789463138
-14249.594718169536,-17163.81516025247,-29555.55523104134,-16059.124894037832
-14221.967962022778,-17127.068892367948,-29548.64854200465,-16057.26969924804
-14214.837755541535,-17155.232090381633,-29556.538707797376,-16061.069495805445
-14234.686104617847,-17180.847189527416,-29564.16065265664,-16060.018963816045
-14240.654020387414,-17178.969642993172,-29562.104292166747,-16061.31536499445
-14241.458683187806,-17171.548863834007,-29558.90799270964,-16059.03548706001
-14237.994162797231,-17190.83841929894,-29565.70292302405,-16065.025754574031
-14222.01266551169,-17170.83360801144,-29566.306420124343,-16061.494178950094
-14221.833851556046,-17147.073703655446,-29558.75153049845,-16047.74785611008
-14221.856203300502,-17140.502290785586,-29553.230649617988,-16042.808120585458
-14217.698778831817,-17158.87542472785,-29549.833184460786,-16042.830472329912
-14213.295485174118,-17182.098887216915,-29558.75153049845,-16053.916937579745
-14209.920371761367,-17160.462398584175,-29557.99157118697,-16051.435893945203
-14216.402377653409,-17131.67335172574,-29547.888582693173,-16045.915013064743
-14225.700703346814,-17147.58779377792,-29548.961466427027,-16051.145321267286
-14224.67252310187,-17151.789921735515,-29541.920666923605,-16053.447550946184
-14228.986409781744,-17154.96386944817,-29548.24621060445,-16061.985917328111
-14233.412055183897,-17162.63051779634,-29562.95365845605,-16066.411562730262
-14243.135064021952,-17159.322459616957,-29559.600896787757,-16062.052972561476
-14245.638459400949,-17201.45549791521,-29565.59116430177,-16065.428085974228
-14238.53060466416,-17205.277646217066,-29568.27337363641,-16068.60203368688
-14221.05154050011,-17181.249520927613,-29572.117873682724,-16072.379478499828
-14228.76289233719,-17183.484695373143,-29580.52212959792,-16077.319214024452
-14234.95432555131,-17160.1494741618,-29571.60378356025,-16068.825551131436
-14238.195328497332,-17158.383686349833,-29570.262678892934,-16067.640908675305
-14221.118595733476,-17145.665543754763,-29568.25102189196,-16064.779885385024
-14205.941761248325,-17163.323421874455,-29573.838958005785,-16071.8430366329
-14217.05057824261,-17196.582817623952,-29577.839920263283,-16077.36391751336
-14223.554935879103,-17172.711154545683,-29565.85938523524,-16064.623423173836
-14230.573383638071,-17149.44298856771,-29564.585335801286,-16059.259004504564
-14232.160357494398,-17156.30497411549,-29568.69805678106,-16060.622460916336
-14216.782357309146,-17156.416732837766,-29574.80008301736,-16061.002440572078
-14221.09624398902,-17162.87638698535,-29587.987612245997,-16065.338678996406
-14245.05731404511,-17167.63730855433,-29576.588222573784,-16055.839187602902
-14247.20308151282,-17141.172843119246,-29566.932268969093,-16050.519472422538
-14246.286659990152,-17139.138834373814,-29575.49298709548,-16055.906242836269
-14229.254630715208,-17127.515927257053,-29576.61057431824,-16057.31440273695
-14232.24976447222,-17141.083436141424,-29580.388019131187,-16069.406696487273
-14251.315802492596,-17160.037715439525,-29573.168405672124,-16065.13751329631
-14255.115599049996,-17151.566404290963,-29566.574641057807,-16056.152112025276
-14247.29248849064,-17164.753933519594,-29571.3802661157,-16064.556367940471
-14246.890157090444,-17199.332082191955,-29578.108141196743,-16072.178312799731
-14248.655944902415,-17190.100811731914,-29579.337487141787,-16071.70892616617
-14241.034000043155,-17163.05520094099,-29567.647524791664,-16062.120027794845
-14248.499482691228,-17187.776230308562,-29561.29962936636,-16060.51070219406
-14236.965982552289,-17177.561483092486,-29562.99836194496,-16061.002440572078
-14220.738616077737,-17145.1961571212,-29560.003228187947,-16059.549577182484
-14219.084586988043,-17131.092206369904,-29562.95365845605,-16058.65550740427
-14240.229337242765,-17162.049372440502,-29565.971143957515,-16059.37076322684
-14248.968869324788,-17187.753878564105,-29559.95852469904,-16059.884853349313
-14242.598622155028,-17166.58677656493,-29557.745701997963,-16062.36589698385
-14219.889249788434,-17122.039749865504,-29554.012960673925,-16056.241519003095
-14214.122499718966,-17135.24963083859,-29557.142204897667,-16056.956774825669
-14229.321685948576,-17166.273852142556,-29555.689341508078,-16056.576795169924
-14233.72497960627,-17180.578968593953,-29550.995475172454,-16050.787693356002
-14229.72401734877,-17169.2019306662,-29550.70490249454,-16045.423274686727
-14219.822194555069,-17147.38662807782,-29552.358931584236,-16046.22793748712
-14226.058331258098,-17145.15145363229,-29561.254925877445,-16051.234728245108
-14241.77160761018,-17179.5060848601,-29558.259792120432,-16048.12783576582
-14243.29152623314,-17194.772326323073,-29558.773882242906,-16047.636097387804
-14226.9076975474,-17137.52950877303,-29554.080015907293,-16041.444664173683
-14216.827060798058,-17130.376950547332,-29557.41042583113,-16047.054952031966
-14236.876575574468,-17181.271872672067,-29553.722387996007,-16056.71090563666
-14248.052447802122,-17177.4050208813,-29548.46972804901,-16047.814911343448
-14234.9096220624,-17126.68891271221,-29533.85168717524,-16036.236707715596
-14226.14773823592,-17138.065950639957,-29528.867248161707,-16041.310553706951
-14220.917430033378,-17164.798637008505,-29535.326902309287,-16050.430065444716
-14232.562688894594,-17187.910340775292,-29544.75933846943,-16058.856673104368
-14245.794921612136,-17169.000764966102,-29537.383262799176,-16052.285260234506
-14247.024267557175,-17174.186369679734,-29526.296797549345,-16046.965545054143
-14243.783264611158,-17178.723773804162,-29528.867248161707,-16055.101580035876
-14220.425691655362,-17147.788959478017,-29529.336634795265,-16057.0908852924
-14226.415959169384,-17164.10573293039,-29535.326902309287,-16063.908167351266
-14246.934860579357,-17174.096962701915,-29540.825431445293,-16064.019926073544
-14255.026192072177,-17186.92686401926,-29537.89735292165,-16056.867367847844
-14250.377029225474,-17179.528436604553,-29539.41727154461,-16058.856673104368
-14237.323610463574,-17148.124235644846,-29543.19471635756,-16064.22109177364
-14241.72690412127,-17178.92493950426,-29547.03921640387,-16067.37268774184
-14241.995125054733,-17145.77730247704,-29537.94205641056,-16057.60497541487
-14241.570441910082,-17129.549936002488,-29527.03440511637,-16049.915975322245
-14246.621936156982,-17170.475980100153,-29529.09076560626,-16054.811007357956
-14240.20698549831,-17154.49448281461,-29531.99649238545,-16052.732295123613
-14244.565575667091,-17132.142738359304,-29531.907085407627,-16053.626364901826
-14249.035924558157,-17129.34877030239,-29525.693300449053,-16049.826568344424
-14254.9144333499,-17131.986276148116,-29520.88767539116,-16048.440760188194
-14255.652040916926,-17146.4478548107,-29518.96542536801,-16048.17253925473
-14245.77256986768,-17162.049372440502,-29522.474649247488,-16054.252213746577
-14247.895985590934,-17166.29620388701,-29531.5718092408,-16061.069495805445
-14269.44306724585,-17177.27091041457,-29533.56111449732,-16060.778923127524
-14270.381840512971,-17181.16011394979,-29529.00135862844,-16057.761437626055
-14253.752142638225,-17158.026058438547,-29526.18503882707,-16054.386324213308
-14246.688991390349,-17130.801633691983,-29526.520314993897,-16048.306649721462
-14259.720058407793,-17153.220433380655,-29532.667044719103,-16053.581661412914
-14282.027099374189,-17210.217381741688,-29532.957617397027,-16060.622460916336
-14286.050413376142,-17180.333099404943,-29525.6709487046,-16058.968431826645
-14275.746259182246,-17129.72874995813,-29525.067451604304,-16055.235690502608
-14265.285642777162,-17125.973656889637,-29530.767146440405,-16059.191949271197
-14265.799732899635,-17158.987183450125,-29531.03536737387,-16065.472789463138
-14277.869674905502,-17146.00081992159,-29533.96344589752,-16064.13168479582
-14286.653910476436,-17144.30208734299,-29528.80019292834,-16059.66133590476
-14284.619901731005,-17142.71511348666,-29526.676777205084,-16058.32023123744
-14279.21077957282,-17139.563517518465,-29528.17434408359,-16062.410600472762
-14275.835666160068,-17153.175729891747,-29526.341501038256,-16064.288147007008
-14295.482849536284,-17160.10477067289,-29525.98387312697,-16061.114199294354
-14303.93180894039,-17175.21454992468,-29522.675814947583,-16059.773094627037
-14280.238959817763,-17159.814197994972,-29520.440640502053,-16060.60010917188
-14270.9182823799,-17150.806444979484,-29520.08301259077,-16061.337716738906
-14278.45082026134,-17158.450741583198,-29529.76131793992,-16068.467923220149
-14294.745241969258,-17151.67816301324,-29535.3716057982,-16070.054897076476
-14302.188372872875,-17168.57608182145,-29529.046062117348,-16062.455303961671
-14297.49450653726,-17173.53816909053,-29530.94596039605,-16065.383382485315
-14292.890047179468,-17170.58773882243,-29532.018844129903,-16070.434876732215
-14288.844381433057,-17169.604262066397,-29536.64565523215,-16075.75459191258
-14290.073727378098,-17170.87831150035,-29536.064509876316,-16071.70892616617
-14297.203933859342,-17176.1533231918,-29516.50673347792,-16058.119065537345
-14307.038701419677,-17174.387535379832,-29515.635015444164,-16057.403809714771
-14302.25542810624,-17158.74131426112,-29519.61362595721,-16059.08019054892
-14292.8229919461,-17157.82489273845,-29521.71468993601,-16063.103504550876
-14303.283608351185,-17167.436142854232,-29525.715652193507,-16068.13264705332
-14315.755881757246,-17169.313689388477,-29524.12867833718,-16068.13264705332
-14300.489640294272,-17165.603299808896,-29511.812867142307,-16057.51556843705
-14272.795828914146,-17140.457587296678,-29515.344442766243,-16049.357181710862
-14253.215700771298,-17122.91146789926,-29524.240437059456,-16053.536957924003
-14274.874541148489,-17170.475980100153,-29525.022748115392,-16057.31440273695
-14284.35168079754,-17181.204817438702,-29521.334710280265,-16050.765341611546
-14285.536323253673,-17141.48576754162,-29519.725384679485,-16044.97623979762
-14285.089288364565,-17143.072741397948,-29526.22974231598,-16052.017039301045
-14281.870637163,-17186.21160819669,-29534.23166683098,-16061.85180686138
-14289.157305855431,-17149.845319967906,-29529.2695795619,-16049.379533455318
-14287.950311654844,-17118.82109866394,-29524.03927135936,-16044.395094441785
-14285.49161976476,-17144.81617746546,-29526.74383243845,-16051.927632323222
-14278.942558639355,-17156.50613981559,-29530.94596039605,-16055.839187602902
-14276.886198149468,-17169.693669044216,-29538.61260874422,-16065.405734229773
-14287.7714976992,-17163.032849196537,-29544.71463498052,-16064.958699340666
-14301.45076530585,-17172.77820977905,-29538.210277344024,-16061.583585927916
-14299.68497749388,-17175.929805747248,-29530.07424236229,-16064.399905729284
-14282.183561585374,-17163.032849196537,-29529.60485572873,-16064.355202240373
-14277.176770827386,-17146.514910044065,-29540.06547213381,-16063.930519095722
-14300.64610250546,-17146.78313097753,-29545.429890803087,-16064.17638828473
-14309.653855520948,-17187.172733208266,-29535.729233709484,-16063.46113246216
-14295.415794302917,-17172.26411965658,-29538.36673955521,-16066.210397030163
-14293.20297160184,-17160.77532300655,-29549.45320480504,-16078.66031869177
-14292.01832914571,-17142.402189064287,-29551.777786228395,-16081.99072861561
-14282.898817407944,-17152.52752930254,-29544.55817276933,-16071.932443610722
-14294.477021035796,-17170.63244231134,-29535.21514358701,-16067.015059830555
-14297.82978270409,-17162.541110818518,-29539.10434712224,-16072.602995944382
-14276.103887093532,-17144.883232698827,-29543.01590240192,-16074.36878375635
-14271.700593435837,-17156.796712493506,-29541.339521567766,-16072.379478499828
-14269.711288179316,-17151.655811268785,-29531.92943715208,-16065.964527841155
-14274.338099281562,-17158.58485204993,-29528.487268505964,-16062.388248728306
-14273.68989869236,-17157.44491308271,-29525.96152138252,-16059.773094627037
-14271.54413122465,-17165.15626491979,-29528.88959990616,-16062.343545239395
-14269.644232945948,-17159.233052639134,-29531.3706435407,-16067.260929019563
-14276.05918360462,-17137.685970984217,-29526.90029464964,-16060.577757427429
-14292.957102412833,-17165.73741027563,-29521.804096913827,-16058.007306815063
-14293.426489046396,-17177.0026894811,-29521.580579469275,-16054.766303869046
-14287.145648854454,-17185.898683774314,-29521.93820738056,-16053.9392893242
-14269.241901545753,-17146.514910044065,-29522.56405622531,-16054.721600380137
-14269.890102134956,-17123.805537677472,-29517.825486400783,-16051.927632323222
