 EXG Channel 0, EXG Channel 1, EXG Channel 2, EXG Channel 3
-14472.083982477665,-2267.092736612885,10123.015656830748,-3664.792020892146
-14511.691273652468,-2293.378388092326,10455.944890492548,-3292.9931036225685
-14500.381290958085,-2286.9410856891973,10786.191914819708,-3117.867185815237
-14480.77881107078,-2274.2005913496723,10667.794724439946,-3311.343885820376
-14470.944043510442,-2266.086908112396,10367.499037682896,-3555.044955616588
-14492.736994354367,-2274.4017570497704,10111.258639247257,-3672.525724473682
-14526.44342499297,-2295.367693348848,10470.36176566622,-3285.1699930632108
-14515.871049865613,-2292.93135320322,10784.739051430111,-3119.8341393273045
-14491.954683298432,-2278.9838646631083,10654.495436489038,-3313.2437840990765
-14470.20643594342,-2266.466887768136,10369.041308050311,-3547.467714246239
-14485.763250084312,-2268.8361726803987,10123.417988230944,-3651.1351050299536
-14514.149965542552,-2285.667036255245,10488.801954841849,-3264.7404986310603
-14494.86041007762,-2278.089794884896,10798.70889171468,-3106.8701275432263
-14475.414392401504,-2269.417318036237,10653.24373879954,-3304.481900272596
-14456.348354381127,-2259.403736520259,10365.465028937464,-3550.9545863812677
-14474.542674367747,-2265.215190078639,10115.751339882772,-3650.173980018375
-14505.477488693892,-2287.701045000678,10500.469565447518,-3257.1185537718006
-14487.037299518264,-2281.4872600421027,10812.09758664341,-3113.039209012891
-14467.837151031155,-2273.4182802937366,10669.739326207558,-3315.5236620335177
-14450.805121756212,-2265.9527976456643,10362.961633558469,-3558.4647725182504
-14468.172427197986,-2271.8760099263204,10130.548194712186,-3642.1720555033753
-14500.8730293361,-2289.1986118791838,10509.253801018454,-3240.175931474678
-14481.62817736008,-2279.4532512966694,10807.917810430266,-3103.85264204176
-14471.86046503311,-2275.385233805804,10658.272881301986,-3316.5294905340065
-14452.392095612538,-2259.962530131642,10358.0442497783,-3559.6941184632924
-14474.877950534576,-2269.5514285029685,10125.496700465286,-3639.7804188466575
-14507.980884072887,-2293.7807194925213,10517.74746391147,-3243.349879187331
-14494.748651355343,-2288.371597334337,10804.319179572962,-3117.800130581872
-14480.220017459396,-2279.0956233853844,10650.15919806471,-3321.7597987365484
-14465.110238207608,-2268.724413958122,10323.264935405845,-3567.472525533739
-14488.244293718852,-2282.224867609128,10103.413176943444,-3635.600642633515
-14517.212154532928,-2298.5863445504124,10532.432560018608,-3227.346030157332
-14502.9740933149,-2289.980922935119,10808.320141830462,-3116.9954677814803
-14490.39006118656,-2285.9352571887084,10635.831729868858,-3329.873481973825
-14468.19477894244,-2268.433841280203,10335.625450089628,-3574.893304692901
-14491.753517598334,-2281.196687364184,10125.697866165385,-3632.9631367877887
-14518.329741755697,-2302.654362041278,10534.198347830576,-3226.0496289789235
-14495.48625892237,-2291.545545046991,10800.56408650447,-3124.907985318659
-14477.269587191297,-2279.140326874295,10639.363305492796,-3332.8015604974703
-14455.700153791924,-2260.5883789763902,10330.61865933164,-3577.731976238725
-14478.789505814257,-2269.998463392075,10134.01271510276,-3625.877633795456
-14509.299636995753,-2292.529021803024,10542.781417701412,-3218.003000975013
-14497.855543834632,-2286.382292077815,10802.41928129426,-3128.6183748982403
-14481.963453526909,-2278.849754196376,10637.932793847656,-3341.317575134942
-14464.19381668494,-2263.4270505222144,10302.433109573498,-3593.020569446155
-14484.533904139267,-2274.692329727689,10131.799892401685,-3628.269270452174
-14512.518288197314,-2292.372559591837,10568.75414475848,-3211.6104020607954
-14497.319101967703,-2281.755480975566,10802.732205716637,-3135.7038778905726
-14478.364822669606,-2273.686501227201,10630.86964259978,-3346.99491822659
-14449.776941511269,-2255.536884729491,10312.670208534028,-3587.991426943711
-14471.704002821923,-2265.148134845273,10131.889299379503,-3614.791168545624
-14507.712663139424,-2291.143213646795,10565.580197045829,-3204.390788601731
-14493.072270521196,-2283.1636408762506,10800.944066160211,-3135.368601723743
-14476.397869157538,-2274.312350071949,10625.751093119514,-3350.437086872708
-14458.628232315568,-2258.241445808583,10295.839344959182,-3600.8436800055124
-14487.372575685094,-2269.082041869407,10133.252755791278,-3618.680372080848
-14513.077081808697,-2287.589286278401,10579.147705930198,-3203.988457201536
-14488.020776274298,-2277.9780361626194,10804.14036561732,-3142.141180293701
-14468.038316731254,-2268.1879720911948,10632.300154244918,-3347.2407874155983
-14451.565081067693,-2256.810934163444,10313.340760867686,-3588.1702408993533
-14485.003290772833,-2278.3580158183595,10156.364459558066,-3595.9709997142554
-14512.183012030484,-2297.6922747722,10590.994130491512,-3182.575486013352
-14496.313273467216,-2290.6738270132337,10784.98492061912,-3136.039154057402
-14467.971261497887,-2277.7768704625214,10629.57324142137,-3347.6654705602496
-14442.33381060765,-2259.4484400091696,10308.557487554252,-3599.9496102273
-14479.303595936728,-2280.727300730622,10161.661822993974,-3598.5861538155264
-14503.689349137469,-2295.5912107934014,10611.222459223563,-3181.7261197240496
-14482.656357605025,-2284.1247658878287,10812.656380254792,-3140.263633759455
-14458.918804993487,-2268.746765702577,10636.234061269051,-3345.586758325906
-14443.116121663586,-2258.666128953234,10295.437013558989,-3592.350017112496
-14472.173389455484,-2272.1889343486946,10159.091372381614,-3573.216923858753
-14487.707851851925,-2280.570838519435,10621.236040739544,-3159.463782246564
-14468.306537664716,-2269.014986636041,10803.626275494848,-3132.61933715574
-14451.073342689677,-2259.7837161759994,10620.8560610838,-3345.318537392442
-14435.404769826506,-2248.0714020814185,10286.51866752132,-3595.211040402776
-14466.741915552846,-2262.085945854896,10162.019450905258,-3566.757269711169
-14495.419203689004,-2280.5931902638904,10594.279836926442,-3153.6076251992736
-14481.382308171073,-2270.959588403653,10784.828458407934,-3134.273366245433
-14460.349316638629,-2258.1073353418515,10619.067921527378,-3349.833589772414
-14453.822607257678,-2252.474695739114,10268.950196379446,-3604.7552352851912
-14490.85944782012,-2273.083004126907,10155.425686290942,-3567.1372493669096
-14508.562029428726,-2286.538754289002,10630.40025596622,-3150.187808297612
-14492.759346098825,-2278.0003879070746,10792.56216198947,-3140.3530407372764
-14481.7175843379,-2271.4513267816696,10607.66853185517,-3356.2708921755425
-14462.115104450597,-2259.5154952425355,10274.493429004364,-3606.208098674786
-14489.898322808544,-2274.692329727689,10177.106878412593,-3556.967205639745
-14509.210230017929,-2292.1937456361948,10627.785101864947,-3151.841837387304
-14487.193761729452,-2283.253047854072,10777.810010648967,-3158.05562234588
-14464.171464940486,-2268.702062213667,10597.72200557256,-3371.291264449509
-14443.116121663586,-2252.564102716935,10252.722829904897,-3619.23916569223
-14479.840037803657,-2273.1947628491835,10165.416916062464,-3558.2636068181523
-14502.214134003418,-2287.1869548782056,10643.05134332792,-3148.4890757190083
-14487.14905824054,-2282.2472193535828,10778.36880426035,-3163.397689270698
-14464.23852017385,-2265.6398732232897,10584.065089710366,-3380.231962231632
-14445.23953738684,-2249.926596871209,10237.702457630929,-3629.699782097314
-14482.969282027398,-2271.473678526125,10173.530599299742,-3556.676632961826
-14496.20151474494,-2281.7107774866554,10654.87541614478,-3148.1537995521785
-14467.948909753432,-2266.153963345762,10781.430993250728,-3168.449183517597
-14452.459150845903,-2258.1073353418515,10573.8950459832,-3389.284418736031
-14441.260926873796,-2247.870236381321,10226.101902258624,-3637.76876184568
-14480.935273281966,-2266.1316116013068,10176.905712712492,-3547.6912316907924
-14498.660206635024,-2277.195725106684,10650.740343420548,-3146.6115291847623
-14482.38813667156,-2269.64083548079,10759.03454530651,-3179.6697592341616
-14469.7146975654,-2261.013062121041,10556.974775430534,-3395.028817061045
-14465.445514374438,-2255.3580707738483,10212.243820696332,-3643.1108287704974
-14508.182049772984,-2278.1344983738063,10165.528674784742,-3540.449266487273
-14520.274343523306,-2289.913867701753,10650.717991676092,-3133.111075533757
-14492.58053214318,-2277.1063181288623,10775.396022247794,-3164.358814282276
-14469.021793487287,-2266.3551290458595,10570.922263970646,-3382.064805276967
-14452.995592712832,-2254.754573673555,10226.280716214264,-3628.33632568554
-14491.015910031309,-2274.669977983234,10198.45279436741,-3519.7515511216584
-14504.873991593598,-2283.431861809714,10654.428381255671,-3123.4774736735194
-14476.710793579912,-2272.21128609315,10769.249292522583,-3169.142087595712
-14451.00628745631,-2254.709870184645,10564.127333656232,-3383.450613433196
-14434.041313414731,-2242.4611142231365,10215.015437008791,-3625.877633795456
-14475.839075546157,-2267.986806391097,10206.387663649042,-3504.239440469675
-14491.284130964772,-2278.536829774002,10676.221332099598,-3113.5756508798186
-14471.01109874381,-2266.802163934966,10763.951929086676,-3168.0468521174016
-14453.040296201742,-2253.480524239603,10555.544263785394,-3385.1940495007098
-14442.66908677448,-2240.181236288695,10202.073776969168,-3632.3149361985847
-14484.042165761251,-2262.7564981885557,10206.96880900488,-3504.999399781156
-14496.805011845234,-2271.9430651596863,10686.234913615575,-3119.722380605028
-14480.309424437217,-2268.813820935944,10759.03454530651,-3187.291704093421
-14462.405677128516,-2261.594207476879,10539.920394411134,-3406.4058549887964
-14449.776941511269,-2252.6311579503013,10185.935817472437,-3647.6705846393806
-14489.652453619536,-2270.870181425832,10206.275904926766,-3497.377454921896
-14508.696139895455,-2283.5659722764462,10688.805364227936,-3115.9672875365363
-14493.943988554956,-2280.481431541614,10744.617670132837,-3188.6104570162843
-14478.72245058089,-2271.8760099263204,10517.591001700284,-3407.590497444928
-14465.199645185428,-2258.6214254643232,10191.0543669527,-3644.563692160093
-14502.102375281142,-2278.9615129186527,10226.861861570103,-3480.099556457944
-14506.818593361211,-2285.979960677619,10692.49340206306,-3098.4211681391203
-14481.806991315723,-2274.982902405608,10749.982088802111,-3173.433622531131
-14460.796351527732,-2264.410527278248,10533.952478641568,-3393.3747879713524
-14444.81485424219,-2251.7817916609997,10194.250666409813,-3627.598718118515
-14479.34829942564,-2271.8313064374097,10237.389533208554,-3465.9509022177344
-14486.567912884702,-2280.235562352605,10709.480727849092,-3098.532926861397
-14462.182159683964,-2267.6291784798123,10756.285280738508,-3187.783442471438
-14444.457226330904,-2255.738050429589,10532.589022229797,-3409.423340490263
-14433.549575036715,-2247.534960214491,10184.818230249672,-3648.2964334841295
-14471.122857466084,-2270.4902017700915,10242.575137922186,-3467.0684894405
-14479.303595936728,-2278.805050707466,10707.73729178158,-3101.416301896132
-14451.207453156409,-2263.7846784334997,10755.614728404847,-3193.885468707737
-14433.661333758992,-2251.9159021277314,10532.32080129633,-3413.670171936771
-14431.649676758014,-2242.5281694565024,10176.190456889924,-3646.552997416616
-14477.224883702384,-2267.517419757536,10239.222376253889,-3450.774067732581
-14480.57764537068,-2274.7146814721445,10700.16005041123,-3091.156851191145
-14463.679726562468,-2269.4620215251475,10738.292126451985,-3191.069148906368
-14451.498025834326,-2260.4542685096585,10518.0827400783,-3411.189128302232
-14452.235633401351,-2250.954777116153,10164.34403232861,-3648.1623230173977
-14500.336587469172,-2277.665111740245,10247.671335657997,-3447.533064786561
-14500.403642702538,-2279.520306530036,10712.297047650463,-3090.843926768772
-14482.566950627202,-2273.0383006379966,10728.54676586947,-3203.4967188235187
-14476.934311024466,-2270.0655186254407,10494.635760144683,-3426.321259298475
-14475.704965079423,-2261.9965388770747,10146.14971234199,-3653.794962620135
-14505.209267760429,-2280.3473210748816,10254.60037643914,-3436.3348408144525
-14501.811802603224,-2285.9352571887084,10710.531259838492,-3098.75644430595
-14474.252101689828,-2273.0383006379966,10728.256193191552,-3215.4101986181977
-14451.43097060096,-2259.895474898276,10490.724204865004,-3432.5350442570502
-14443.42904608596,-2250.3959835047704,10157.213825847368,-3657.77357313318
-14483.461020405415,-2273.574742504924,10271.051260358248,-3435.77604720307
-14480.77881107078,-2275.9663791616417,10725.641039090282,-3099.0023134949583
-14454.627270058068,-2264.857562167354,10728.07737923591,-3224.9990969895243
-14430.643848257523,-2251.9606056166417,10493.674635133104,-3445.8566839524133
-14428.542784278725,-2246.439724736181,10146.86496816456,-3673.889180885456
-14471.10050572163,-2272.948893660175,10268.927844634993,-3437.318317570486
-14463.411505629005,-2272.300693070971,10728.211489702642,-3102.332723418799
-14438.086979161142,-2260.029585365008,10738.627402618817,-3226.563719101396
-14426.62053425557,-2255.022794607019,10493.920504322114,-3449.3659078318965
-14419.959714407889,-2245.0762683244075,10154.53161651273,-3663.406212735917
-14461.601014328126,-2268.992634891586,10298.61096127164,-3417.4029132608075
-14466.987784741854,-2271.8089546929546,10736.146358984275,-3095.3142756598327
-14454.135531680053,-2264.499934256069,10721.55066985496,-3229.7600185585047
-14448.637002544046,-2256.721527185622,10484.26455071742,-3456.674928268782
-14461.399848628029,-2259.1131638423403,10145.032125119224,-3669.8211633945903
-14514.373482987105,-2284.0353589100077,10299.594438027672,-3409.222174790165
-14517.100395810652,-2286.896382200287,10727.473882135617,-3099.1587757061457
-14487.998424529842,-2272.8818384268093,10708.296085392964,-3232.8222075488816
-14463.00917422881,-2258.286149297494,10474.340376179263,-3450.2376258656536
-14456.415409614494,-2250.6418526937787,10141.902880895484,-3655.7842678766574
-14495.15098275554,-2273.6194459938342,10306.61288578664,-3393.352436226897
-14489.116011752609,-2276.9945594065857,10740.728466597611,-3095.85071752676
-14458.024735215276,-2266.7127569571444,10717.46030061964,-3240.198283219133
-14432.677857002958,-2254.9333876291976,10480.107126248731,-3461.0335184375667
-14430.777958724257,-2247.512608470036,10141.187625072913,-3668.569465705093
-14470.00527024332,-2269.260855825049,10331.110397709655,-3389.2397152471203
-14457.398886370527,-2267.0033296350634,10764.197798275683,-3093.928467503604
-14436.321191349172,-2257.950873130664,10709.63719006028,-3248.200207734133
-14414.841164927622,-2243.8022188904547,10455.453152114527,-3474.265751155109
-14412.114252104077,-2234.682707152689,10136.471406992843,-3672.950407618333
-14452.235633401351,-2256.386251018793,10348.388296173607,-3384.0988140224
-14447.988801954843,-2257.5485417304685,10772.087964068409,-3096.5436216048747
-14433.974258181366,-2250.0160038490303,10718.577887842404,-3250.3459752018425
-14423.84891794311,-2243.042259578974,10459.811742283317,-3475.092765699955
-14429.772130223768,-2238.795428132466,10137.499587237786,-3668.658872682914
-14478.610691858614,-2270.825477936921,10346.2425287059,-3377.281531963531
-14482.589302371658,-2277.083966384407,10755.972356316131,-3101.393950151676
-14468.48535162036,-2269.8867046697983,10695.712053264626,-3264.941664331158
-14441.81972048518,-2251.82649514991,10443.07028568629,-3481.150088447343
-14446.804159498712,-2247.8031811479545,10125.47434872083,-3660.3663754899953
-14497.475564178892,-2276.0557861394627,10340.006392002868,-3358.818991043448
-14492.558180398724,-2279.83323095241,10765.471847709638,-3094.4872611149863
-14469.111200465108,-2273.083004126907,10711.090053449876,-3256.805629349426
-14447.117083921086,-2262.465925510636,10456.30251840383,-3481.753585547636
-14451.855653745612,-2261.460097010148,10135.86790989255,-3665.172000547886
-14494.793354844256,-2289.667998512745,10374.517485441862,-3359.2436741880983
-14473.447438889438,-2279.3638443188484,10787.600074720393,-3093.0791012143018
-14438.556365794704,-2258.241445808583,10723.74114081158,-3245.227425721577
-14425.078263888154,-2251.401812005259,10458.2694719159,-3472.365852876408
-14427.559307522692,-2249.6583759377454,10140.96410762836,-3653.8396661090455
-14458.203549170918,-2272.948893660175,10392.734157172938,-3335.908452976758
-14437.014095427288,-2270.1772773477173,10793.52328700105,-3089.2122494235336
-14409.409691024985,-2254.7769254180107,10718.488480864582,-3255.2186554930995
-14390.32130126015,-2242.9081491122424,10451.183968923566,-3483.2288006816866
-14396.602141452093,-2242.304652011949,10137.43253200442,-3657.192427777341
-14438.936345450444,-2271.5630855039462,10396.06456709678,-3331.7733802525263
-14434.018961670276,-2268.053861624463,10774.233731536118,-3092.1626796916344
-14415.467013772372,-2253.525227728513,10691.174649140195,-3262.7288416300826
-14404.0005688668,-2239.8459601218656,10442.64560254164,-3487.4085768948294
-14423.670103987468,-2241.142361300273,10134.169177313946,-3645.033078793655
-14481.762287826812,-2272.948893660175,10393.762337417882,-3312.059141642945
-14488.467811163404,-2278.447422796181,10781.699214184193,-3084.808955765838
-14481.024680259789,-2277.3968908067814,10690.59350378436,-3268.5402951884626
-14456.035429958753,-2259.537846986991,10430.463901813497,-3491.8789257858907
-14464.015002729298,-2263.0470708664743,10126.971915599335,-3651.403325963417
-14503.06350029272,-2290.3609025908595,10409.609724236694,-3309.779263708504
-14486.657319862525,-2286.6505130112782,10795.266723068562,-3090.128670946201
-14466.071363219186,-2276.7039867286667,10696.49436432056,-3273.614141179817
-14448.14526416603,-2262.421222021725,10420.584430764253,-3505.602896881449
-14443.831377486156,-2256.676823696712,10127.19543304389,-3654.376107975973
-14475.034412745765,-2277.5533530179687,10425.099483144222,-3305.6888944731827
-14466.183121941463,-2277.2851320845048,10790.550504988492,-3097.8623745277378
-14443.786673997243,-2266.802163934966,10694.192134641664,-3278.643283682261
-14411.04136837022,-2246.998518347564,10422.976067420968,-3499.2997049450523
-14420.13852836353,-2253.994614362075,10127.2401365328,-3648.2517299952183
-14450.693363033935,-2280.436728052703,10421.59025926474,-3300.391531037275
-14423.558345265192,-2270.959588403653,10799.200630092697,-3094.7107785595394
-14387.884961114522,-2249.63602419329,10698.170745154708,-3278.419766237708
-14366.494341670794,-2235.1073902973403,10421.500852286918,-3512.1296062623987
-14394.612836195569,-2247.8478846368653,10138.14778782699,-3654.957253331811
-14450.402790356016,-2278.0227396515297,10451.228672412475,-3299.273943814509
-14439.696304761925,-2270.7360709591,10792.18218233373,-3113.977982280014
-14427.089920889131,-2257.794410919477,10683.418593814204,-3299.5645164924285
-14409.409691024985,-2234.883872852787,10409.050930625312,-3519.6621441438374
-14438.779883239256,-2243.735163657089,10134.593860458595,-3645.837741594045
-14494.882761822077,-2275.049957638974,10460.482294616972,-3279.7608709050264
-14484.131572739074,-2268.277379069016,10795.065557368463,-3097.9070780166485
-14464.8643690186,-2257.727355686111,10668.241759329052,-3292.680179200194
-14448.033505443753,-2248.741954415077,10378.38433723263,-3532.1344175498984
-14461.15397943902,-2257.8838178972983,10124.937906853904,-3647.938805572845
-14497.788488601269,-2283.342454831893,10461.756344050926,-3269.6578824112275
-14479.929444781475,-2273.64179773829,10773.22790303563,-3098.04118848338
-14450.402790356016,-2261.8177249214323,10655.143637078245,-3289.014493109524
-14418.28333357374,-2239.510683955036,10393.739985673426,-3510.8779085729016
-14435.293011104228,-2241.7458584005667,10142.372267529045,-3615.57347960156
-14471.793409799744,-2268.567951746935,10494.009911299934,-3237.1137424843005
-14456.057781703208,-2268.9479314026757,10810.689426742723,-3087.602923822752
-14432.655505258504,-2258.956701631153,10674.701413476636,-3286.689911686172
-14395.216333295864,-2232.983974574086,10389.828430393747,-3515.1247400194097
-14406.816888668169,-2234.548596685958,10142.238157062313,-3611.460758621784
-14442.199700140918,-2258.219094064128,10503.867030604724,-3229.290631924943
-14421.479633030847,-2252.5864544613905,10807.560182518982,-3082.3726156202097
-14408.359159035585,-2240.9411956001754,10668.465276773606,-3282.711301173127
-14395.216333295864,-2225.2726227370053,10367.253168493888,-3515.348257463963
-14430.979124424352,-2237.767247887522,10112.733854381306,-3608.175052186853
-14469.558235354214,-2259.7837161759994,10513.2324115315,-3218.8300155198594
-14455.610746814102,-2253.6816899397004,10810.465909298173,-3086.440633111076
-14441.596203040624,-2245.188027046684,10660.351593536328,-3292.322551288909
-14425.458243543892,-2230.569986172913,10357.552511400285,-3533.184949539298
-14446.915918220988,-2239.6894979106783,10139.175968071935,-3617.38397090244
-14489.138363497064,-2264.566989489435,10530.13033033971,-3226.295498167932
-14477.806029058222,-2263.1364778442958,10807.828403452446,-3107.9653630215366
-14463.366802140094,-2257.369727774826,10654.428381255671,-3314.294316088476
-14434.465996559382,-2235.979108331097,10355.920834055049,-3547.89239739089
-14452.48150259036,-2241.477637467103,10135.063247092156,-3620.513215126183
-14487.551389640736,-2266.3551290458595,10523.737731425492,-3226.2731464234766
-14474.229749945373,-2263.538809244491,10792.718624200656,-3115.162624736145
-14457.980031726363,-2256.1850853186947,10639.408008981707,-3316.5965457673724
-14439.875118717566,-2247.0432218364745,10318.90634523706,-3560.7893539416023
-14461.95864223941,-2257.347376030371,10108.107043279058,-3630.571500131071
-14486.7690785848,-2276.301655328471,10518.194498800576,-3228.307155168909
-14463.52326435128,-2274.535867516502,10789.544676488003,-3120.0576567718576
-14445.016019942286,-2268.21032383565,10631.227270511064,-3326.2748511165205
-14422.843089442622,-2248.0714020814185,10319.688656292994,-3564.410336543362
-14445.351296109116,-2255.6486434517674,10115.304304993666,-3618.1662819583753
-14477.895436036044,-2278.447422796181,10524.497690736973,-3219.098236453324
-14462.316270150695,-2268.6573587247563,10770.9927285901,-3123.9245085626258
-14446.155958909509,-2254.8886841402878,10631.741360633536,-3325.1349121493
-14431.783787224746,-2240.2035880331505,10324.3378191397,-3566.377290055429
-14472.016927244298,-2258.1520388307617,10121.026351574224,-3618.278040680652
-14506.282151494284,-2278.849754196376,10534.779493186414,-3216.5501375854183
-14488.713680352412,-2270.1996290921725,10773.384365246817,-3136.374430224232
-14473.089810978152,-2260.2307510651053,10605.34395043182,-3348.313671149453
-14455.342525880638,-2242.930500856698,10292.665397246528,-3588.572572299549
-14479.214188958907,-2252.497047483569,10113.04677880368,-3619.216813947775
-14504.516363682314,-2269.417318036237,10538.668696721636,-3211.5433468274296
-14482.365784927106,-2263.8740854113207,10765.36008898736,-3135.7038778905726
-14460.885758505556,-2257.1238585858177,10607.109738243787,-3343.1727699247326
-14436.298839604717,-2241.2541200225496,10294.744109480873,-3582.895229207901
-14457.778866026269,-2248.183160803695,10135.823206403638,-3598.563802071071
-14488.378404185583,-2269.909056414253,10565.580197045829,-3191.4491285621084
-14468.910034765013,-2264.477582511614,10786.750708431093,-3132.5522819223743
-14443.943136208432,-2253.078192839407,10617.391540693228,-3341.295223390487
-14429.794481968223,-2241.567044444924,10292.486583290884,-3585.8233077315463
-14454.135531680053,-2253.480524239603,10138.125436082537,-3590.181897900331
-14474.453267389928,-2269.8643529253427,10581.338176886818,-3180.4744220345524
-14449.352258366616,-2263.404698777759,10790.796374177502,-3128.819540598338
-14424.18419410994,-2256.229788807605,10606.461537654584,-3342.9492524801794
-14398.36792926406,-2236.940233342676,10289.826725700705,-3583.7445954972027
-14425.748816221812,-2248.9654718596307,10153.01169788977,-3580.347130339996
-14457.66710730399,-2269.439669780692,10592.961084003578,-3171.8690004192595
-14451.43097060096,-2266.600998234868,10792.003368378088,-3129.3112789763545
-14451.38626711205,-2262.510628999547,10601.678264341148,-3346.6596420597607
-14438.042275672233,-2244.3610125018376,10280.103716862646,-3591.813575245568
-14469.781752798768,-2256.654471952256,10162.1982648609,-3575.116822137454
-14504.762232871322,-2277.7768704625214,10607.422662666162,-3166.3704712832537
-14492.91580831001,-2274.088832627396,10787.08598459792,-3138.162569780656
-14477.984843013865,-2264.3434720448818,10599.331331173342,-3352.6499095737827
-14458.985860226854,-2246.797352647466,10268.1231818346,-3598.3849881154288
-14484.332738439172,-2256.050974851963,10156.610328747074,-3568.2548365896746
-14504.82928810469,-2273.530039016013,10607.556773132894,-3156.8709798897485
-14481.650529104536,-2268.16562034674,10761.873216852337,-3136.687354646606
-14451.72154327888,-2251.82649514991,10596.805584049893,-3341.51874083504
-14434.533051792749,-2239.4883322105807,10277.957949394937,-3587.052653676588
-14465.132589952063,-2251.9159021277314,10167.808552719183,-3549.6134817139487
-14474.63208134557,-2262.577684232913,10628.410950709696,-3138.788418625405
-14452.369743868085,-2255.1569050737507,10790.729318944135,-3128.841892342793
-14436.254136115807,-2245.8809311247983,10604.360473675784,-3345.095019947889
-14421.680798730946,-2236.672012409212,10268.950196379446,-3596.753310770191
-14455.342525880638,-2255.134553329296,10164.746363728806,-3552.027470115122
-14466.09371496364,-2266.3327773014043,10617.0562645264,-3138.766066880949
-14437.371723338572,-2254.866332395832,10781.676862439735,-3134.362773223254
-14413.678874215946,-2246.8197043919213,10600.940656774124,-3349.319499649942
-14391.908275116475,-2231.151131528751,10256.477922973389,-3599.502575338194
-14430.912069190988,-2247.177332303206,10175.095221411611,-3545.590167711993
-14452.90618573501,-2258.7108324421447,10647.67815443017,-3141.9847180825136
-14440.38920884004,-2251.9159021277314,10790.058766610477,-3150.590139697807
-14436.365894838083,-2248.496085226069,10585.115621699766,-3364.496334135096
-14433.460168058891,-2239.2201112771168,10235.132007018568,-3610.9466684993113
-14475.05676449022,-2256.9673963746304,10173.552951044196,-3538.07998157501
-14504.739881126869,-2275.631102994812,10652.595538210338,-3133.692220889595
-14492.893456565556,-2270.8031261924657,10773.674937924736,-3154.367584510754
-14473.112162722608,-2259.2025708201613,10573.76093551647,-3370.9112847937686
-14451.833302001156,-2244.025736335008,10233.54503316224,-3617.2275086912528
-14480.108258737118,-2255.983919618597,10184.997044205316,-3529.4522082152616
-14493.787526343767,-2267.45036452417,10642.58195669436,-3132.7087441335616
-14462.919767250987,-2257.369727774826,10759.74980112908,-3158.569712468352
-14438.466958816882,-2243.601053190357,10574.342080872308,-3373.928770295235
-14427.514604033782,-2232.91691934072,10235.780207607771,-3619.19446220332
-14461.176331183477,-2254.5981114623683,10190.45086985241,-3530.8156646270354
-14479.10243023663,-2269.5290767585134,10654.718953933592,-3138.788418625405
-14457.488293348348,-2262.175352832717,10755.905301082768,-3177.9933784000136
-14429.459205801391,-2251.088887582885,10563.680298767124,-3391.229020503643
-14408.269752057762,-2237.431971720692,10225.565460391696,-3636.114732755987
-14443.741970508334,-2255.4921812405805,10187.902770984503,-3532.804969883558
-14452.95088922392,-2266.310425556949,10651.142674820743,-3137.4473139580864
-14421.390226053029,-2254.441649251181,10765.740068643105,-3177.9933784000136
-14398.479687986335,-2244.025736335008,10559.70168825408,-3391.363130970374
-14385.895655858,-2230.301765239449,10217.78705332125,-3636.874692067468
-14435.896508204522,-2253.346413772871,10198.430442622954,-3526.7476471361697
-14464.819665529689,-2266.556294745957,10662.58676798186,-3139.593081425796
-14453.397924113027,-2253.212303306139,10759.45922845116,-3187.6716837491613
-14443.853729230612,-2242.639928178779,10551.811522461358,-3404.5953636879167
-14443.630211786058,-2237.9013583542537,10197.06698621118,-3651.3586224745054
-14493.698119365949,-2264.20936157815,10181.756041259294,-3526.390019224885
-14510.171355029506,-2278.089794884896,10660.284538302963,-3136.1509127796785
-14485.472677406393,-2269.953759903164,10741.667239864735,-3192.63377101824
-14467.166598697497,-2263.6729197112227,10529.929164639612,-3409.5350992125395
-14452.61561305709,-2251.8711986388207,10198.58690483414,-3645.658927638403
-14498.39198570156,-2280.503783286069,10203.72780605886,-3504.4629579142284
-14509.34434048466,-2295.345341604393,10670.231064585574,-3119.007124782458
-14479.616520359104,-2285.8458502108874,10760.71092614066,-3184.207163358589
-14458.67293580448,-2273.64179773829,10545.105999124766,-3401.287305508531
-14452.637964801546,-2268.143268602284,10193.40130012051,-3644.9660235602887
-14483.908055294522,-2285.2647048550493,10216.177727720467,-3493.734120575681
-14486.880837307075,-2291.3220276024376,10698.59542829936,-3113.776816579916
-14462.428028872971,-2284.080062398918,10754.899472582278,-3197.39469258722
-14440.590374540136,-2276.636931495301,10530.040923361888,-3420.621564462372
-14424.944153421422,-2260.744841187577,10187.858067495594,-3652.1856370193527
-14461.310441650206,-2278.4250710517254,10238.775341364782,-3484.8381262824687
-14471.994575499844,-2292.0149316805523,10694.59446604186,-3124.4833021740083
-14450.00045895582,-2281.0402251529963,10726.557460612948,-3215.9913439740358
-14422.798385953713,-2259.627253964812,10509.83494637429,-3429.0705238664777
-14395.9986443518,-2237.7448961430664,10184.505305827295,-3657.39359347744
-14426.28525808874,-2253.6816899397004,10243.35744897812,-3483.608780337427
-14441.104464662609,-2264.030547622508,10705.323303380406,-3121.890499817193
-14430.107406390598,-2253.2346550505945,10731.206623459651,-3213.7338177840493
-14422.731330720346,-2240.807085133444,10507.93504809559,-3427.192977332232
-14428.252211600806,-2233.7215821411114,10186.181686661444,-3649.525779429171
-14485.360918684117,-2266.9362744016976,10256.299109017744,-3462.7546027606254
-14492.334662954172,-2272.9712454046307,10722.489443122084,-3100.768101306928
-14477.15782846902,-2269.350262802871,10749.803274846468,-3200.30041936641
-14454.806084013711,-2256.1403818297845,10519.110920323244,-3415.5924219599274
-14444.18900539744,-2242.483465967592,10172.97180568836,-3642.8202560925793
-14484.57860762818,-2263.918788900231,10263.451667243442,-3446.907215941813
-14494.547485655248,-2275.206419850161,10722.802367544457,-3099.3152379173325
-14476.129648224074,-2268.635006980301,10736.79455957348,-3208.9952479595245
-14447.027676943264,-2250.6865561826894,10512.584210942294,-3422.432055763252
-14434.018961670276,-2237.431971720692,10179.274997624756,-3644.094305526532
-14476.464924390904,-2262.3988702772704,10269.330176035188,-3438.167683859788
-14477.38134591357,-2268.6797104692114,10723.539975111482,-3097.035359982892
-14448.10056067712,-2255.670995196223,10732.055989748957,-3210.2469456490217
-14423.245420842815,-2240.8964921112647,10498.279094490896,-3429.450503522218
-14419.08799637413,-2229.4300472056925,10155.53744501322,-3654.063183553599
-14460.394020127538,-2250.798314904966,10274.761649937827,-3432.199768090221
-14458.024735215276,-2254.5310562290024,10735.900489795267,-3094.531964603897
-14429.7050749904,-2237.8790066097986,10746.74108585609,-3209.107006681801
-14416.629304484048,-2228.5583291719354,10510.214926030032,-3432.0656576234887
-14416.450490528405,-2220.6905151236674,10170.11078239808,-3652.0068230637103
-14464.126761451576,-2243.355184001349,10302.455461317952,-3418.833424905947
-14474.274453434284,-2255.961567874142,10745.757609100056,-3092.833232025293
-14464.57379634068,-2255.268663796028,10733.061818249444,-3221.6016318323177
-14457.421238114985,-2256.1850853186947,10478.274283203398,-3450.4611433102064
-14447.675877532469,-2243.5339979569912,10148.608404232074,-3664.769669147691
-14484.668014606004,-2261.4153935212366,10304.780042741304,-3415.3018492820083
-14483.081040749676,-2265.9080941567536,10746.182292244708,-3089.033435467891
-14467.479523119871,-2263.069422610929,10731.74306532658,-3224.5744138448736
-14446.491235076335,-2249.9936521045747,10487.751422852449,-3443.4426955512404
-14445.23953738684,-2243.332832256893,10146.194415830902,-3657.483000455261
-14492.222904231896,-2271.54073375949,10299.192106627475,-3410.6303346908494
-14492.625235632093,-2275.6758064837227,10749.13272251281,-3099.426996639609
-14463.836188773656,-2261.30363479896,10737.062780506943,-3234.945623272136
-14442.602031541112,-2245.3891927467816,10490.366576953718,-3452.182227633265
-14440.836243729143,-2235.710887397633,10149.949508899392,-3664.881427869968
-14482.276377949283,-2258.1743905752173,10316.47000509143,-3407.098759066911
-14476.822552302188,-2259.962530131642,10756.017059805044,-3100.142252462179
-14453.509682835303,-2251.1335910717958,10724.322286167418,-3237.180797717667
-14439.85276697311,-2245.188027046684,10471.41229765562,-3463.1122306719103
-14435.918859948975,-2234.5262449415022,10132.828072646627,-3666.177829048375
-14481.784639571268,-2261.013062121041,10315.911211480048,-3399.029779318545
-14476.442572646449,-2264.0081958780524,10739.8343968194,-3103.6067728527514
-14447.944098465932,-2247.333794514393,10709.9277627382,-3243.97572803208
-14429.9062406905,-2233.922747841209,10468.081887731778,-3463.9839487056674
-14429.213336612384,-2226.2560994930386,10138.885395394016,-3664.143820302942
-14479.77298257029,-2257.190913819184,10319.643952804085,-3388.367997213364
-14474.00623250082,-2256.2074370631503,10746.539920155994,-3098.2870576723885
-14446.535938565248,-2239.2871665104826,10715.918030252222,-3242.6122716203063
-14429.436854056938,-2224.5797186588907,10465.712602819516,-3462.195809149243
-14441.28327861825,-2223.0150965470198,10124.468520220342,-3658.242959766741
-14494.994520544353,-2256.4533062521587,10331.84800527668,-3378.220305230654
-14489.00425303033,-2256.8779893968094,10763.661356408758,-3093.7496535479613
-14467.34541265314,-2247.244387536572,10708.49725109306,-3247.842579822848
-14442.512624563293,-2230.055896050441,10456.906015504124,-3468.677815041282
-14442.512624563293,-2226.1666925152176,10122.792139386194,-3661.305148757118
-14483.952758783433,-2254.553407973457,10351.517540397352,-3365.546866124495
-14476.24140694635,-2251.5582742164465,10770.61274893436,-3090.37454013521
-14444.501929819817,-2234.4144862192256,10707.40201561475,-3243.5286931429737
-14416.47284227286,-2221.405770946237,10449.440532856052,-3468.409594107818
-14424.005380154298,-2222.858634335832,10133.43156974692,-3655.650157409925
-14472.173389455484,-2248.20551254815,10364.012165547869,-3347.7325257936154
-14466.764267297302,-2248.853713137354,10766.097696554389,-3087.84879301176
-14437.684647760949,-2237.566082187424,10699.131870166288,-3248.5354839009624
-14416.696359717413,-2222.366895957816,10433.704904759516,-3474.802193022036
-14416.808118439689,-2216.667201121712,10123.82031963114,-3654.286700998152
-14450.9615839674,-2239.3542217438485,10372.95286332999,-3339.8870634898026
-14450.00045895582,-2243.601053190357,10776.245388537096,-3092.833232025293
-14441.015057684786,-2240.382401988793,10698.30485562144,-3269.814344622415
-14422.19488885342,-2222.2551372355388,10443.606727553217,-3492.5941816084605
-14437.058798916198,-2228.334811727382,10135.130302325524,-3670.2011430503294
-14483.8186483167,-2259.336681286893,10391.951846117005,-3346.302014148476
-14479.8176860592,-2263.9411406446866,10765.337737242906,-3108.4794531440084
-14462.740953295346,-2261.1248208433176,10675.796648954947,-3287.427519253197
-14443.451397830417,-2246.0373933359856,10413.811852194292,-3512.8895655738797
-14450.201624655918,-2242.1928932896726,10120.24404051829,-3670.3799570059728
-14489.54069489726,-2263.918788900231,10399.260866553888,-3335.3720111098305
-14480.801162815234,-2259.984881876097,10776.46890598165,-3103.271496685922
-14463.500912606823,-2252.139419572284,10683.373890325296,-3281.2807895279875
-14436.52235704927,-2237.7448961430664,10410.839070181735,-3506.519318404117
-14443.831377486156,-2237.789599631977,10114.231421259812,-3666.937788359856
-14491.239427475864,-2263.3376435443934,10372.95286332999,-3328.733543006604
-14481.941101782457,-2261.9965388770747,10752.440780692194,-3104.5231943754197
-14447.51941532128,-2244.696288668667,10681.58575076887,-3272.876533612792
-14424.720635976868,-2225.2279192480946,10406.167555590577,-3500.104367745444
-14433.370761081072,-2223.484483180581,10109.269333990733,-3651.291567241141
-14479.482409892373,-2252.698213183667,10411.129642859656,-3301.4420630266745
-14464.95377599642,-2248.831361392899,10768.80225763348,-3092.229734925
-14442.847900730125,-2240.6506229222564,10657.043535356945,-3278.93385636018
-14416.383435295038,-2223.5962419028574,10385.089860569222,-3506.2287457261978
-14422.261944086784,-2218.5000441670472,10109.515203179742,-3645.3236514715736
-14463.858540518111,-2240.404753733248,10416.315247573286,-3290.7802809214927
-14461.779828283768,-2246.953814858653,10767.550559943982,-3092.1626796916344
-14441.216223384885,-2240.404753733248,10658.719916191092,-3277.45864122613
-14415.399958539005,-2224.758532614533,10382.362947745676,-3502.697170102259
-14428.47572904536,-2229.720619883612,10103.122604265523,-3640.652136880414
-14473.425087144982,-2256.4980097410694,10415.130605117156,-3283.9629988626243
-14469.692345820946,-2258.934349886698,10746.584623644903,-3095.7166070600283
-14440.925650706966,-2240.6282711778013,10655.25539580052,-3274.239990024565
-14420.339694063628,-2224.937346570176,10375.679776153538,-3503.0771497579995
-14444.166653652985,-2234.436837963681,10096.126508251013,-3641.009764791699
-14480.845866304144,-2259.403736520259,10440.902166474125,-3278.330359259887
-14461.891587006045,-2254.709870184645,10779.173467060742,-3093.2802669144
-14442.892604219032,-2248.9654718596307,10655.34480277834,-3290.355597776842
-14422.485461531338,-2231.0393728064746,10369.421287706053,-3525.115969790932
-14428.14045287853,-2227.2619279935275,10116.980685827815,-3643.1331805149534
-14473.782715056268,-2257.056803352452,10451.698059046035,-3281.8842866282807
-14461.712773050402,-2259.5825504759014,10771.283301268018,-3120.012953282947
-14437.9081652055,-2247.602015447857,10649.846273642335,-3310.7627404645373
-14413.47770851585,-2228.625384405301,10365.375621959642,-3539.152865308865
-14427.536955778236,-2230.1453030282623,10115.505470693764,-3645.39070670494
-14466.361935897105,-2257.5485417304685,10462.493951617951,-3273.8823621132806
-14446.625345543069,-2249.524265471013,10774.770173403043,-3116.2131567255446
-14421.9043161755,-2236.15792228674,10654.20486381112,-3307.298220073965
-14408.917952646963,-2229.899433839254,10356.81490383326,-3540.8515978874684
-14434.28718260374,-2239.398925232759,10102.13912750949,-3642.037945036644
-14474.877950534576,-2264.432879022703,10457.889492260158,-3265.03107130898
-14460.14815093853,-2263.382347033304,10759.03454530651,-3121.108188761257
-14425.391188310528,-2244.025736335008,10643.163102050195,-3308.0805311299005
-14404.604065967093,-2223.708000625133,10355.80907533277,-3539.7787141536137
-14431.895545947022,-2230.569986172913,10113.963200326349,-3638.0369827791433
-14473.916825523,-2255.670995196223,10476.441440158063,-3263.0641177969123
-14463.411505629005,-2253.2570067950496,10766.634138421314,-3130.965308066048
-14445.95479320941,-2245.992689847075,10624.991133808033,-3330.901662218769
-14421.926667919955,-2226.8819483377874,10333.189109944,-3557.503647506672
-14438.198737883418,-2231.620518162312,10104.19548799938,-3635.555939144605
-14471.905168522022,-2256.9450446301757,10482.990501283468,-3247.462600167108
-14453.599089813126,-2252.809971905944,10768.80225763348,-3126.3608487082543
-14424.698284232412,-2238.214282776628,10629.997924566022,-3324.240842371088
-14403.017092110766,-2223.05980003593,10332.85383377717,-3563.337452809508
-14432.342580836128,-2234.883872852787,10112.510336936752,-3639.333383957551
-14470.184084198963,-2265.572817989924,10482.856390816736,-3255.6433386377503
-14454.157883424508,-2260.297806298471,10774.61371119186,-3138.9225290921368
-14432.744912236323,-2247.020870092019,10625.14759601922,-3340.490560590096
-14401.094842087608,-2223.9315180696867,10321.029760960311,-3570.579418013027
-14429.503909290304,-2234.258024008039,10110.163403768944,-3636.8970438119222
-14467.390116142047,-2260.744841187577,10508.426786473608,-3250.256568224021
-14457.778866026269,-2258.576721975413,10761.359126729862,-3154.6134536997624
-14434.84597621512,-2247.579663703402,10607.24384871052,-3359.4671916326515
-14415.668179472468,-2232.939271085176,10304.757690996848,-3600.4189968608616
-14440.791540240234,-2243.690460168178,10103.18965949889,-3650.598663163026
-14469.871159776589,-2262.6894429551894,10498.569667168817,-3247.9543385451248
-14455.342525880638,-2259.604902220357,10755.435914449205,-3156.2898345339104
-14441.99853444082,-2249.792486404477,10595.062147982377,-3366.843267302903
-14424.89944993251,-2233.0286780629967,10291.57016176822,-3605.850470763501
-14455.789560769745,-2249.054878837452,10097.936999551894,-3657.0359655661546
-14490.658282120025,-2277.5533530179687,10496.222734001009,-3264.449925953141
-14468.597110342636,-2268.6797104692114,10741.667239864735,-3177.6357504887287
-14436.030618671251,-2248.4513817371585,10582.679281554138,-3379.784927342526
-14417.590429495624,-2234.302727496949,10266.916187634017,-3623.106017482998
-14445.95479320941,-2249.0995823263625,10090.270351203722,-3664.3896894919503
-14470.161732454508,-2268.053861624463,10506.906867850646,-3259.912521828714
-14444.233708886351,-2257.7497074305666,10738.582699129904,-3184.944770925614
-14420.943191163922,-2244.986861346586,10563.501484811484,-3391.519593181562
-14404.268789800262,-2231.7546286290444,10264.479847488386,-3634.214834477286
-14431.560269780191,-2245.858579380343,10087.14110697998,-3660.254616767719
-14458.38236312656,-2262.600035977368,10519.647362190171,-3253.162295003211
-14438.37755183906,-2252.988785861586,10750.250309735577,-3187.403462815698
-14416.383435295038,-2243.4669427236254,10583.52864784344,-3397.934543840235
-14396.51273447427,-2224.758532614533,10270.51481849132,-3635.3324217000513
-14436.008266926798,-2243.4222392347147,10106.832993845104,-3651.760953874702
-14470.34054641015,-2264.030547622508,10534.377161786218,-3244.8921495547474
-14451.498025834326,-2253.704041684156,10753.468960937138,-3179.4015383006977
-14434.935383192944,-2250.3289282714045,10575.973758217546,-3387.00454080159
-14418.28333357374,-2233.1404367852733,10249.794751381249,-3628.33632568554
-14453.733200279858,-2245.5903584468792,10097.42290942942,-3634.281889710652
-14480.376479670584,-2262.555332488457,10558.964080687056,-3223.881509766759
-14461.735124794855,-2257.4591347526475,10758.56515867295,-3184.944770925614
-14437.81875822768,-2248.250216037061,10584.422717621652,-3398.158061284788
-14416.6516562285,-2233.654526907745,10257.93078636298,-3643.3790497039618
-14449.32990662216,-2249.2560445375498,10111.57156366963,-3639.9592328023
-14469.737049309855,-2264.2540650670608,10553.957289929069,-3228.2848034244544
-14447.00532519881,-2255.2239603071166,10743.768303843535,-3186.82231745986
-14430.28622034624,-2248.831361392899,10570.162304659165,-3401.779043886548
-14413.27654281575,-2238.1695792877176,10251.202911281933,-3644.541340415638
-14446.37947635406,-2252.854675394854,10129.3412005116,-3621.921375026867
-14468.015964986798,-2268.1879720911948,10575.772592517447,-3218.315925397387
-14445.016019942286,-2260.1189923428287,10754.541844670994,-3189.906858194692
-14424.072435387665,-2247.222035792117,10570.9446157151,-3399.1862415297323
-14400.983083365332,-2227.418390204715,10243.089228044655,-3642.1273520144646
-14429.727426734857,-2243.042259578974,10121.71925565234,-3615.3946656459175
-14448.81581649969,-2258.084983597396,10584.512124599472,-3209.0623031928903
-14432.27552560276,-2251.535922471991,10763.571949430938,-3191.3150180953767
-14407.845068913111,-2235.599128675357,10579.32651988584,-3394.134747282833
-14394.7469466623,-2224.15503551424,10251.337021748664,-3634.281889710652
-14440.299801862217,-2248.674899181712,10152.519959511752,-3598.988485215722
-14468.10537196462,-2266.6457017237785,10599.554848617894,-3196.3218088533654
-14446.021848442777,-2255.335719029393,10756.821722605437,-3186.3529308262982
-14428.028694156254,-2245.1656753022285,10569.089420925313,-3395.6993693947043
-14409.364987536072,-2228.625384405301,10225.274887713776,-3636.785285089646
-14443.540804808235,-2244.91980611322,10144.316869296656,-3585.2645141201638
-14461.265738161295,-2261.795373176977,10614.91049705869,-3183.268390091466
-14441.551499551715,-2255.1569050737507,10762.834341863912,-3188.67751224965
-14418.596257996114,-2238.3036897544494,10572.799810504892,-3394.805299616492
-14395.529257718235,-2218.164768000217,10240.965812321405,-3632.0243635206657
-14433.393112825528,-2237.6107856763347,10162.06415439417,-3568.388947056407
-14452.90618573501,-2252.6311579503013,10627.382770464752,-3166.549285238896
-14427.581659267147,-2240.8741403668096,10772.51264721306,-3184.5647912698737
-14406.794536923711,-2227.1054657823406,10574.27502563894,-3395.0064653165896
-14390.187190793418,-2210.788692329966,10235.511986674308,-3634.080724010554
-14425.19002261043,-2230.547634428457,10168.68027075294,-3557.7495166956805
-14446.848862987625,-2246.283262524994,10624.67820938566,-3158.457953746075
-14424.363008065584,-2239.2424630215723,10753.64777489278,-3185.235343603533
-14404.402900266994,-2231.933442584687,10560.70751675457,-3395.2970379945086
-14384.442792468404,-2219.6176313898127,10225.341942947143,-3631.733790842746
-14413.209487582386,-2234.638003663779,10185.041747694224,-3531.88854836089
-14434.33188609265,-2251.513570727536,10641.665535171693,-3132.8428546002933
-14410.683740458937,-2240.5165124555247,10747.188120745195,-3170.080860862835
-14389.024900081742,-2230.9052623397424,10559.500522553984,-3384.47879367814
-14374.853894097078,-2216.890718566265,10222.615030123596,-3622.010782004688
-14417.925705662456,-2240.382401988793,10194.11655594308,-3517.963411565234
-14435.918859948975,-2254.5757597179127,10660.284538302963,-3128.774837109427
-14416.8528219286,-2244.472771224114,10754.385382459806,-3176.004073143491
-14404.402900266994,-2234.9732798306086,10524.184766314598,-3395.833479861436
-14397.630321697035,-2223.81975934741,10192.97661697586,-3643.6472706374257
-14433.035484914242,-2241.410582233737,10196.3070268997,-3526.5688331805272
-14446.535938565248,-2255.335719029393,10663.704355204623,-3136.307374990866
-14426.978162166854,-2246.5291317140022,10749.244481235086,-3188.431643060642
-14410.259057314284,-2233.855692607843,10539.696876966582,-3402.539003198028
-14396.222161796351,-2218.6565063782346,10204.755986303806,-3641.0321165361543
-14434.465996559382,-2238.6389659212787,10207.68406482745,-3513.627173140904
-14454.247290402329,-2255.201608562661,10674.50024777654,-3133.1334272782124
-14437.975220438866,-2249.5913207043795,10740.527300897516,-3200.7921577444267
-14413.94709514941,-2235.532073441991,10528.36454252774,-3414.9442213707234
-14394.36696700656,-2219.908204067732,10194.49653559882,-3653.2138172642967
-14431.962601180388,-2242.34935550086,10211.237992195844,-3511.704923117748
-14450.827473500667,-2258.0626318529407,10673.36030880932,-3128.976002809525
-14432.38728432504,-2250.820666649421,10744.751780599569,-3204.0555124349016
-14412.47188001536,-2239.086000810385,10530.867937906736,-3429.1152273553885
-14393.830525139634,-2222.702172124645,10179.945549958416,-3668.0330238381657
-14433.28135410325,-2243.131666556796,10217.965867276893,-3509.894431816868
-14441.95383095191,-2252.8770271393096,10694.952093953145,-3127.210214997556
-14417.94805740691,-2245.0986200688626,10757.894606339289,-3204.256678134999
-14389.583693693125,-2225.5855471593795,10535.070065864333,-3416.933526627246
-14380.352423233084,-2217.7847883444774,10194.384776876544,-3657.661814410903
-14417.031635884245,-2240.5165124555247,10230.706361616418,-3497.1986409662536
-14423.267772587273,-2243.668108423723,10697.299027120953,-3122.784569595405
-14403.955865377888,-2232.805160618444,10752.396077203284,-3205.0613409353905
-14388.644920426002,-2219.796445345455,10535.874728664725,-3422.9684976301787
-14381.22414126684,-2207.3018201949385,10184.997044205316,-3660.813410379101
-14429.32509533466,-2236.3143844979268,10232.159225006011,-3493.8458792979577
-14445.083075175651,-2251.9606056166417,10692.761622996524,-3131.322935977332
-14427.179327866952,-2248.3843265037926,10732.8830042938,-3223.725047555572
-14408.068586357664,-2237.051992064952,10512.986542342487,-3439.531140271561
-14393.584655950626,-2222.0763232798963,10159.873683437549,-3664.613206936504
-14435.538880293238,-2244.606881690846,10222.30210570122,-3480.2783704135863
-14435.293011104228,-2247.244387536572,10714.88985000728,-3115.5426043918856
-14414.99762713881,-2239.6447944217675,10749.713867868646,-3211.498643338519
-14400.08901358712,-2234.638003663779,10514.014722587432,-3433.1161896128883
-14391.863571627568,-2225.4961401815585,10171.004852176293,-3665.507276714716
-14431.113234891089,-2244.4951229685694,10256.433219484476,-3465.7273847731813
-14435.024790170764,-2251.893550383276,10714.420463373715,-3109.619392111229
-14404.335845033627,-2236.7837711314883,10742.65071662077,-3202.9602769565918
-14381.581769178125,-2222.0092680465305,10517.814519144837,-3418.229927805654
-14371.389373706506,-2210.364009185316,10172.77063998826,-3652.67737539737
-14421.725502219855,-2242.7740386455107,10262.848170143148,-3455.266768368097
-14424.407711554491,-2243.601053190357,10721.863594277334,-3103.8973455306705
-14395.015167595766,-2226.2337477485835,10740.750818342069,-3211.230422405055
-14378.541931932205,-2213.2697359645053,10516.853394133255,-3432.4903407681395
-14374.563321419158,-2204.932535282676,10173.195323132912,-3658.3770702334728
-14415.981103894845,-2227.6866111381783,10285.445783787463,-3438.435904793251
-14428.09574938962,-2238.5495589434577,10734.26881245003,-3102.9362205190923
-14412.22601082635,-2230.01119256153,10719.427254131706,-3223.7026958111164
-14392.154144305488,-2212.442721419659,10499.016702057925,-3440.4699135386845
-14384.88982735751,-2202.7867678149664,10168.657919008485,-3660.0087475787104
-14436.634115771549,-2233.25219550755,10301.159060139546,-3428.3999715328187
-14440.076284417664,-2236.761419387033,10753.044277792487,-3096.7000838160616
-14420.56321150818,-2231.4640559511254,10740.59435613088,-3228.620079591284
-14398.412632752972,-2221.0481430349523,10510.416091730129,-3449.3212043429858
-14393.048214083698,-2214.968468543109,10165.372212573557,-3667.273064526685
-14434.71186574839,-2243.086963067885,10301.427281073007,-3428.1093988549
-14431.537918035738,-2251.379460260804,10753.51366442605,-3104.5678978643296
-14412.04719687071,-2245.009213091041,10733.687667094193,-3239.751248330027
-14394.098746073098,-2235.3532594863486,10484.35395769524,-3460.474724826184
-14381.09003080011,-2222.188082002173,10149.994212388305,-3668.457706982817
-14420.496156274816,-2243.4669427236254,10307.328141609209,-3413.58076495895
-14428.76630172328,-2251.6476811942675,10741.533129398003,-3104.254973441956
-14412.382473037538,-2243.355184001349,10690.906428206734,-3251.3741554467865
-14384.599254679591,-2225.540843670469,10471.300538933345,-3471.2706173980973
-14371.992870806798,-2211.280430707983,10136.180834314924,-3679.700634443836
-14414.08120561614,-2238.817779876921,10298.253333360355,-3418.520500483573
-14416.294028317216,-2242.01407933403,10740.54965264197,-3108.4794531440084
-14395.439850740417,-2227.150169271251,10706.30678013644,-3247.4402484226525
-14383.772240134746,-2217.315401710916,10452.010983468412,-3468.8119255080137
-14383.973405834844,-2213.180328986684,10116.041912560691,-3674.8056024081234
-14427.067569144676,-2234.638003663779,10310.27857187731,-3395.967590328168
-14437.684647760949,-2242.5281694565024,10737.17453922922,-3095.4260343821093
-14419.42327254096,-2235.174445530706,10697.54489630996,-3242.768733831493
-14404.067624100164,-2225.8761198372986,10449.351125878233,-3468.767222019103
-14402.860629899578,-2223.3503727138486,10108.53172642371,-3673.129221573976
-14437.259964616296,-2244.1374950572845,10314.972438212924,-3384.4340901892297
-14429.347447079115,-2247.579663703402,10750.764399858046,-3090.70981630204
-14401.586580465626,-2237.6554891652454,10695.376777097796,-3242.7016785981277
-14375.613853408558,-2222.702172124645,10448.300593888833,-3466.889675484857
-14368.237777738308,-2212.5321283974804,10140.941755883903,-3657.862980111001
-14412.583638737637,-2239.5553874439465,10343.783836815815,-3373.1241074948443
-14412.13660384853,-2244.986861346586,10756.21822550514,-3095.0907582152795
-14394.165801306464,-2232.4028292182484,10701.188230656177,-3248.35666994532
-14372.104629529076,-2217.0918842663627,10446.803027010326,-3469.326015630486
-14379.078373799131,-2217.047180777452,10113.471461948331,-3663.58502669156
-14422.060778386687,-2244.0704398239186,10347.985964773414,-3365.8821422913247
-14413.164784093477,-2236.0014600755526,10759.816856362446,-3088.407586623143
-14394.7469466623,-2226.4572651931367,10700.092995177863,-3251.9553008026246
-14379.592463921605,-2218.0083057890306,10440.030448440368,-3476.5903325784607
-14381.8946936005,-2212.755645842033,10124.24500277579,-3660.969872590289
-14427.514604033782,-2240.494160711069,10363.967462058958,-3353.5663310964505
-14430.33092383515,-2248.987823604086,10765.56125468746,-3093.7273018035057
-14416.13756610603,-2245.0762683244075,10689.855896217334,-3267.2885974989654
-14393.785821650725,-2228.737143127578,10433.146111148131,-3489.867268784913
-14395.216333295864,-2221.919861068709,10112.689150892396,-3665.954311603822
-14437.215261127383,-2250.6418526937787,10366.649671393594,-3349.7665345390483
-14428.47572904536,-2256.721527185622,10769.025775078033,-3095.0237029819136
-14408.8508974136,-2253.6593381952453,10693.11925090781,-3266.2827689984765
-14384.88982735751,-2239.801256632955,10436.141244905144,-3489.196716451254
-14395.305740273683,-2243.310480512438,10109.492851435289,-3665.350814503529
-14436.90233670501,-2271.764251204044,10365.934415571024,-3340.714078034649
-14414.796461438713,-2259.895474898276,10774.90428386978,-3087.2005924225564
-14385.448620968891,-2243.1540183012507,10687.665425260717,-3259.64430089525
-14366.047306781687,-2233.0733815519075,10422.841956954237,-3495.5669636210164
-14371.970519062344,-2230.3911722172707,10123.976781842326,-3667.675395926881
-14415.08703411663,-2254.799277162466,10390.43192749404,-3335.237900643099
-14402.972388621854,-2251.1335910717958,10774.61371119186,-3101.170432707123
-14371.478780684329,-2233.699230396656,10689.9229514507,-3276.296350514454
-14347.718876328336,-2214.744951098556,10420.897355186624,-3500.7525683346475
-14360.45937066786,-2214.0743987648966,10116.980685827815,-3662.288625513152
-14408.806193924687,-2241.5893961893794,10384.53106695784,-3323.3020691039646
-14410.124946847553,-2246.596186947368,10758.9898418176,-3098.3317611612997
-14396.244513540809,-2244.0927915683737,10673.583826253873,-3281.5043069725407
-14366.449638181884,-2222.411599446726,10400.959599132491,-3505.737007348181
-14375.256225497274,-2218.3659337003155,10120.042874818191,-3655.069012054088
-14417.366912051071,-2240.8964921112647,10415.77880570636,-3307.901717174258
-14410.549629992203,-2242.930500856698,10781.90037988429,-3091.045092468869
-14390.880094871532,-2235.0403350639745,10682.59157926936,-3274.8658388693143
-14370.18237950592,-2217.20364298864,10411.844898682226,-3504.7311788476923
-14382.252321511784,-2217.807140088933,10120.065226562649,-3649.369317217984
-14417.255153328795,-2241.2988235114603,10438.376419350674,-3292.680179200194
-14403.262961299772,-2241.343527000371,10797.680711469737,-3091.223906424512
-14382.408783722973,-2233.2968989964606,10683.083317647375,-3279.9620366051245
-14362.828655580122,-2221.1375500127733,10398.00916886439,-3508.575678894005
-14372.685774884912,-2223.529186669491,10131.598726701586,-3643.267290981685
-14412.605990482092,-2247.244387536572,10448.92644273358,-3283.538315717973
-14399.686682186924,-2246.1938555471725,10794.640874223816,-3093.213211681034
-14381.470010455849,-2240.181236288695,10650.740343420548,-3291.160260577233
-14362.918062557945,-2223.6632971362237,10392.398881006107,-3522.701981389759
-14380.307719744173,-2225.429084948192,10125.42964523192,-3648.0058608062095
-14408.649731713502,-2238.7507246435557,10461.912806262111,-3270.9319318451803
-14397.205638552385,-2231.955794329142,10793.27741781204,-3089.882801757193
-14379.815981366157,-2222.232785491084,10662.922044148689,-3288.4780512425964
-14362.135751502008,-2210.229898718584,10381.021843078355,-3519.416274954829
-14367.164894004452,-2206.7206748391004,10117.025389316725,-3636.2935467116295
-14407.465089257372,-2230.167654772717,10454.78259978087,-3262.5723794188957
-14391.572998949649,-2224.378552958793,10790.394042777303,-3087.021778466914
-14374.205693507874,-2214.409674931726,10658.429343513171,-3284.0524058404453
-14359.788818334202,-2205.6924945941564,10358.893616067602,-3523.819568612525
-14377.670213898447,-2209.022904517997,10110.67749389142,-3633.7007443548137
-14417.881002173544,-2231.642869906768,10464.393849896653,-3248.177855989677
-14404.51465898927,-2231.4640559511254,10800.921714415756,-3087.021778466914
-14386.521504702749,-2228.2677564940163,10663.212616826608,-3292.36725477782
-14364.8403125811,-2218.1424162557623,10368.23664524992,-3529.1392837928875
-14383.593426179104,-2228.5136256830247,10117.04774106118,-3635.421828677872
-14418.909182418489,-2255.0004428625634,10479.302463448344,-3256.783277604971
-14404.55936247818,-2251.178294560706,10791.958664889176,-3104.679656586606
-14386.23093202483,-2245.8809311247983,10648.549872463927,-3307.4323305406965
-14361.0405160237,-2228.5583291719354,10352.09868575319,-3539.018754842133
-14372.931644073922,-2232.4028292182484,10117.204203272368,-3636.114732755987
-14414.908220160987,-2259.403736520259,10493.652283388648,-3252.424687436186
-14400.37958626504,-2249.703079426656,10790.215228821664,-3110.558165378352
-14382.207618022874,-2237.1637507872288,10648.907500375211,-3312.2826590874984
-14358.55947238916,-2223.3056692249384,10353.551549142783,-3551.759249181658
-14372.17168476244,-2224.356201214337,10120.422854473933,-3635.041849022132
-14407.129813090542,-2245.612710191335,10505.632818416694,-3238.87953029627
-14388.644920426002,-2239.7789048885,10784.202609563186,-3113.2850782018995
-14368.75186786078,-2228.603032660846,10621.236040739544,-3321.6256882698167
-14347.540062372693,-2214.409674931726,10348.09772349569,-3561.7281272087253
-14372.66342314046,-2224.9820500590863,10123.52974695322,-3641.590910147537
-14402.860629899578,-2240.471808966614,10513.098301064769,-3240.488855897052
-14388.868437870557,-2231.955794329142,10789.634083465826,-3122.225775984022
-14371.635242895514,-2224.6914773811677,10625.661686141691,-3331.080476174412
-14350.736361829802,-2208.7099800956225,10331.266859920845,-3565.572627255038
-14378.430173209928,-2224.467959936614,10126.077845821124,-3634.192482732831
-14412.270714315262,-2250.798314904966,10525.190594815089,-3234.655050594217
-14392.288254772218,-2245.0986200688626,10790.61756022186,-3128.774837109427
-14370.361193461562,-2237.7448961430664,10635.384694979752,-3338.5012553335737
-14352.256280452762,-2228.2230530051056,10326.260069162854,-3584.079871664032
-14372.194036506897,-2231.866387351321,10133.364514513554,-3631.1973489758193
-14404.067624100164,-2251.9829573610973,10546.827083447824,-3227.077809223868
-14387.884961114522,-2245.947986358164,10798.083042869932,-3132.0605435443576
-14374.719783630346,-2237.3649164873264,10625.304058230407,-3341.004650712568
-14362.091048013095,-2226.0102303040303,10319.643952804085,-3584.6833687643257
-14387.437926225415,-2239.3542217438485,10132.716313924351,-3629.4092094193943
-14424.295952832215,-2264.499934256069,10538.176958343622,-3223.143902199734
-14405.274618300751,-2255.134553329296,10778.346452515896,-3135.7709331239384
-14378.921911587944,-2241.2317682780945,10623.135939018242,-3339.5964908118835
-14361.733420101811,-2223.6185936473125,10315.508880079851,-3580.1683163843536
-14390.611873938067,-2232.961622829631,10130.883470879016,-3620.222642448264
-14417.7021882179,-2251.3571085163485,10553.666717251148,-3212.817396261382
-14397.965597863866,-2242.1258380563067,10787.8459439094,-3139.0342878144133
-14379.190132521408,-2231.3970007177595,10615.983380792544,-3349.654775816772
-14360.571129390137,-2217.7624366000223,10302.388406084588,-3591.2994851230965
-14385.985062835822,-2224.3338494698824,10135.264412792256,-3613.673581322859
-14412.09190035962,-2241.2541200225496,10564.95434820108,-3202.692056023128
-14395.551609462693,-2234.6603554082344,10782.861504895867,-3137.112037791257
-14381.537065689216,-2231.218186762117,10604.136956231232,-3352.9628339961573
-14364.013298036254,-2217.7624366000223,10280.03666162928,-3595.7474822697027
-14391.304778016183,-2231.262890251028,10126.368418499043,-3608.040941720121
-14412.717749204368,-2249.457210237648,10582.411060620674,-3197.3052856093987
-14383.213446523365,-2237.5884339318795,10795.289074813018,-3138.855473858771
-14359.006507278264,-2225.026753547997,10617.77152034897,-3348.1125054493555
-14343.516748370736,-2210.7216370966003,10292.218362357422,-3588.7290345107363
-14380.911216844466,-2231.8440356068654,10137.924270382437,-3596.172165414353
-14405.9004671455,-2250.0160038490303,10591.709386314082,-3185.525916281452
-14377.916083087455,-2232.022849562508,10795.981978891132,-3138.766066880949
-14359.364135189551,-2219.550576156447,10610.507203400994,-3356.0473747309898
-14348.590594362093,-2212.1297969972848,10275.342795293664,-3608.175052186853
-14376.17264701994,-2225.8761198372986,10155.224520590846,-3595.434557847328
-14404.112327589077,-2242.304652011949,10595.66564508267,-3181.927285424148
-14380.218312766352,-2228.2007012606505,10789.768193932558,-3152.557093209874
-14360.884053812511,-2217.807140088933,10604.539287631427,-3364.6751480907383
-14337.12414945652,-2198.986971257564,10278.583798239684,-3605.291677152119
-14365.51086491476,-2207.6817998506785,10150.418895532954,-3583.364615841462
-14386.85678086958,-2221.450474435148,10594.056319481888,-3176.6075702437843
-14371.74700161779,-2214.409674931726,10791.489278255616,-3155.1945990556
-14354.111475242553,-2206.899488794743,10603.533459130938,-3369.413717915263
-14344.164948959942,-2200.730407325078,10271.990033625369,-3612.578345844549
-14384.75571689078,-2222.366895957816,10162.533541027731,-3575.2956360930966
-14427.33579007814,-2254.441649251181,10591.66468282517,-3174.8864859207256
-14403.531182233237,-2246.283262524994,10771.8420948794,-3168.225666073044
-14376.75379237578,-2231.419352462214,10602.795851563911,-3374.8228400734474
-14355.385524676503,-2213.8508813203434,10276.706251705438,-3609.337342898529
-14386.968539591857,-2228.759494872033,10186.606369806095,-3563.2256940872307
-14410.147298592008,-2244.986861346586,10645.15240730672,-3160.111982835768
-14392.109440816575,-2239.890663610776,10794.685577712724,-3164.6046834712847
-14369.422420194438,-2227.999535560553,10602.57233411936,-3376.029834274034
-14348.300021684174,-2210.5651748854134,10273.442897014964,-3617.5180813691713
-14382.297025000697,-2223.864462836321,10189.266227396278,-3561.7057754642697
-14408.56032473568,-2241.9693758451194,10634.244756012533,-3157.7650496679607
-14382.699356400892,-2230.614689661824,10795.691406213213,-3159.709651435572
-14363.789780591702,-2220.087018023374,10606.886220799235,-3370.6654156047603
-14348.612946106548,-2203.636134104268,10269.75485917984,-3611.304296410596
-14385.113344802065,-2222.0092680465305,10191.92608498646,-3550.8428276589907
-14398.502039730793,-2233.855692607843,10652.930814377169,-3149.3160902638547
-14369.355364961071,-2219.1035412673405,10795.04320562401,-3163.1965235706
-14349.663478095948,-2207.9500207841425,10599.085461984332,-3379.6061133868834
-14339.582841346604,-2200.1716137136955,10254.26510027231,-3629.208043719297
-14380.307719744173,-2220.601108145846,10193.155430931502,-3556.408412028362
-14399.820792653656,-2236.180274031195,10667.571206995392,-3156.200427556089
-14379.413649965962,-2230.637041406279,10787.823592164945,-3178.82039294486
-14360.973460790332,-2223.260965736028,10587.32844440084,-3391.5642966704727
-14345.997792005275,-2207.525337639491,10247.31370774671,-3630.0797617530543
-14389.51663845976,-2229.899433839254,10204.376006648065,-3544.4055252558624
-14412.94126664892,-2249.97130036012,10662.87734065978,-3152.467686232053
-14396.08805132962,-2244.1374950572845,10760.196836018184,-3182.2849133354325
-14368.729516116324,-2228.2901082384715,10572.732755271523,-3391.7878141150254
-14347.048323994675,-2210.229898718584,10255.561501450718,-3632.2925844541296
-14380.687699399914,-2224.6467738922565,10218.077625999167,-3529.5863186819934
-14400.603103709593,-2241.030602577997,10694.840335230869,-3133.7592761229607
-14379.413649965962,-2232.8498641073543,10792.070423611454,-3176.562866754874
-14364.616795136548,-2222.0316197909856,10582.053432709388,-3393.6877123937265
-14361.711068357356,-2213.5826603868795,10240.40701871002,-3636.606471134004
-14400.536048476226,-2236.470846709114,10212.243820696332,-3530.8827198604013
-14408.985007880332,-2245.3668410023265,10676.936587922168,-3142.968194838548
-14381.045327311198,-2232.0675530514186,10770.65745242327,-3189.5492302834077
-14355.743152587793,-2214.566137142913,10556.505388796972,-3398.403930473796
-14339.493434368782,-2199.1881369576618,10223.598506879627,-3636.6511746229135
-14382.36408023406,-2221.2269569905948,10224.224355724378,-3517.024638298111
-14404.246438055809,-2237.789599631977,10688.961826439125,-3137.2908517468995
-14390.880094871532,-2233.8109891189324,10764.80129537598,-3202.714407767583
-14371.277614984228,-2221.2940122239606,10560.260481865464,-3409.445692234718
-14363.923891058434,-2212.465073164114,10218.368198677088,-3647.201198005819
-14402.100670588095,-2235.0179833195198,10206.901753771515,-3516.152920264354
-14413.500060260303,-2247.959643359142,10683.150372880742,-3134.5192354344413
-14389.51663845976,-2235.1967972751618,10769.137533800307,-3195.070111163868
-14372.439905695905,-2222.188082002173,10559.053487664878,-3403.0977968094107
-14364.817960836644,-2216.644849377257,10205.82887003766,-3645.0554305381097
-14404.335845033627,-2239.421276977215,10232.583908150662,-3494.5611351205275
-14411.8013276817,-2246.305614269449,10698.68483527718,-3112.167490979134
-14378.676042398936,-2233.96745133012,10770.858618123368,-3183.3577970692872
-14358.201844477877,-2224.9820500590863,10555.745429485492,-3404.1483287988103
-14343.002658248266,-2209.514642896014,10215.39541666453,-3640.920357813878
-14387.527333203238,-2234.213320519128,10248.453646713931,-3480.5912948359605
-14400.670158942958,-2245.25508228005,10708.676065048703,-3108.0547699993576
-14378.586635421114,-2233.0286780629967,10773.85375188038,-3186.621151759762
-14361.420495679438,-2222.702172124645,10550.805693960869,-3404.193032287721
-14350.512844385248,-2218.276526722494,10192.35076813111,-3644.429581693361
-14386.85678086958,-2232.91691934072,10246.620803668597,-3467.917855729801
-14395.730423418336,-2237.342564742871,10721.26009717704,-3102.5115373744416
-14369.489475427805,-2225.4961401815585,10767.863484366357,-3194.645428019217
-14346.511882127748,-2210.5651748854134,10540.255670577964,-3415.324201026464
-14343.047361737175,-2201.57977361438,10187.500439584308,-3648.34113697304
-14386.007414580276,-2222.34454421336,10241.971640821892,-3464.0510039390333
-14399.641978698011,-2235.241500764072,10706.999684214556,-3106.3783891652097
-14372.8422370961,-2221.9869163020758,10742.673068365226,-3205.843651991326
-14356.681925854911,-2215.9072418102314,10517.814519144837,-3425.6060034759053
-14347.182434461409,-2209.0676080069074,10174.759945244785,-3656.387764976951
-14386.677966913936,-2231.307593739938,10246.55374843523,-3472.6564255543267
-14405.118156089564,-2246.506779969547,10679.529390278984,-3129.624203398729
-14387.616740181058,-2244.271605524016,10718.30966690894,-3236.0185070059906
-14364.348574203084,-2234.4144862192256,10504.336417238286,-3451.086992154955
-14346.400123405472,-2215.9742970435973,10166.4003928185,-3666.781326148669
-14384.152219790483,-2232.6486984072567,10263.18344630998,-3454.775029990081
-14394.23285653983,-2239.10835255484,10716.253306419052,-3107.4736246435195
-14371.858760340068,-2229.810026861433,10729.55259436996,-3214.449073606619
-14352.92683278642,-2219.0588377784297,10495.954513067543,-3430.1434076003325
-14350.199919962875,-2209.849919062844,10149.591880988108,-3654.756087631713
-14390.85774312708,-2229.027715805497,10280.84132442967,-3438.6817739822595
-14399.08318508663,-2237.8790066097986,10736.392228173285,-3101.8633367852376
-14375.189170263908,-2224.2667942365165,10740.0355625195,-3216.907765496703
-14360.615832879048,-2210.0063812740304,10498.502611935452,-3439.061753638
-14354.804379320669,-2199.0987299798408,10159.761924715272,-3657.885331855456
-14395.059871084675,-2220.578756401391,10274.94046389347,-3430.7469047006257
-14397.42915599694,-2227.999535560553,10726.512757124035,-3101.416301896132
-14371.523484173238,-2216.935422055176,10729.574946114417,-3224.6638208226946
-14354.782027576211,-2205.8489568053437,10493.451117688552,-3449.008279920612
-14353.887957798,-2201.7809393144776,10155.045706635205,-3670.402308750428
-14389.42723148194,-2222.411599446726,10284.998748898355,-3438.458256537707
-14389.583693693125,-2229.96648907262,10721.125986710307,-3117.867185815237
-14375.278577241728,-2230.9052623397424,10705.54682082496,-3254.659861881717
-14363.365097447053,-2223.05980003593,10471.233483699976,-3470.957692975723
-14361.934585801911,-2217.985954044575,10138.43836050491,-3683.366320534506
-14402.36889152156,-2244.606881690846,10279.45551627344,-3441.408686805807
-14400.357234520585,-2247.624367192312,10712.095881950365,-3124.8632818297488
-14369.623585894537,-2231.866387351321,10719.986047743088,-3250.0554025239235
-14352.74801883078,-2221.2269569905948,10474.809762812823,-3464.5874458059607
-14351.093989741086,-2213.7838260869776,10147.557872242674,-3675.520858230693
-14391.32712976064,-2238.996593832564,10303.215420629433,-3425.6507069648155
-14386.163876791465,-2245.7915241469773,10736.16871072873,-3117.867185815237
-14363.163931746953,-2236.6496606647565,10709.056044704445,-3251.485914169063
-14343.650858837467,-2224.6244221478014,10472.485181389471,-3462.7098992717147
-14335.7830447892,-2212.0403900194638,10152.0952763671,-3660.992224334744
-14383.213446523365,-2237.6778409097005,10313.608981801151,-3398.649799662805
-14382.766411634257,-2243.086963067885,10745.847016077878,-3099.4493483840643
-14360.816998579145,-2233.609823418835,10708.966637726622,-3242.2546437090214
-14349.015277506744,-2224.311497725427,10460.92932950608,-3465.3697568618963
-14347.562414117148,-2217.8741953222984,10134.213880802856,-3666.289587770652
-14378.385469721015,-2234.369782730316,10322.61673481664,-3391.4748896926512
-14380.397126721997,-2241.768210145022,10735.185233972696,-3102.332723418799
-14354.759675831758,-2229.4971024390584,10699.601256799848,-3241.338222186353
-14336.900632011966,-2216.644849377257,10458.917672505102,-3458.4630678252065
-14348.545890873182,-2222.34454421336,10112.063302047649,-3662.020404579688
-14388.644920426002,-2250.574797460413,10322.28145864981,-3384.702311122693
-14381.31354824466,-2254.508704484547,10756.195873760686,-3101.5057088739527
-14350.803417063167,-2240.9411956001754,10710.374797627306,-3252.514094414007
-14331.580916831605,-2223.708000625133,10458.805913782826,-3471.717652287204
-14336.878280267512,-2219.1705965007063,10149.234253076822,-3661.461610968305
-14385.403917479984,-2246.596186947368,10359.0947817677,-3376.1415929963105
-14383.056984312176,-2248.406678248248,10772.199722790683,-3105.305505431355
-14361.12992300152,-2236.7837711314883,10709.793652271468,-3265.45575445363
-14342.309754170152,-2222.0316197909856,10454.492027102951,-3486.693321072259
-14337.884108768,-2207.7712068285,10142.305212295678,-3660.0534510676207
-14378.430173209928,-2227.306631482438,10370.2483022509,-3358.5060666210734
-14374.60802490807,-2225.8090646039327,10780.0451850945,-3094.330798903799
-14357.0395537662,-2214.8790615652874,10718.242611675574,-3256.202132249133
-14340.186338446896,-2202.473843392592,10455.542559092351,-3479.920742502301
-14344.32141117113,-2198.5846398573685,10135.53263372572,-3661.3498522460286
-14386.387394236015,-2223.39507620276,10385.805116391792,-3353.2757584185315
-14382.095859300598,-2224.15503551424,10787.354205531385,-3101.2598396849444
-14367.276652726729,-2217.4942156665584,10703.937495224178,-3274.977597591591
-14343.337934415094,-2197.668218334701,10450.535768334365,-3495.052873498544
-14341.683905325404,-2188.7722240414887,10144.696848952395,-3661.9757010907774
-14388.17553379244,-2218.209471489128,10383.078203568246,-3346.302014148476
-14382.140562789507,-2224.15503551424,10769.763382645056,-3111.0052002674583
-14354.670268853935,-2212.2192039751058,10696.002625942543,-3281.549010461451
-14325.523594084216,-2193.24257293255,10441.103332174222,-3499.366760178418
-14327.7811202742,-2187.8781542632764,10139.757113427771,-3664.1661720473976
-14371.36702196205,-2216.376628443793,10394.298779284807,-3341.474037346129
-14361.331088701618,-2215.1696342432065,10777.541789715504,-3099.8293280398048
-14342.533271614704,-2206.5865643723687,10707.983160970589,-3273.010644079524
-14325.545945828671,-2193.7790147994774,10443.942003720049,-3500.6855131012817
-14341.92977451441,-2199.4563578911257,10137.365476771054,-3664.5461517031376
-14384.666309912958,-2225.384381459282,10417.656352240603,-3328.5770807954173
-14378.094897043098,-2226.34550647086,10778.03352809352,-3105.081987986802
-14352.92683278642,-2215.639020876768,10699.06481493292,-3279.157373804733
-14328.675190052414,-2201.065683491908,10443.87494848668,-3499.411463667329
-14340.611021591549,-2206.161881227718,10148.0943141096,-3653.996128320233
-14383.861647112566,-2231.084076295385,10436.54357630534,-3308.9746009081127
-14377.849027854088,-2231.7769803735,10795.601999235392,-3098.175298950112
-14361.152274745977,-2225.96552681512,10689.744137495058,-3281.303141272442
-14341.192166947383,-2212.800349330944,10411.979009148958,-3508.2404027271755
-14342.063884981142,-2205.312514938416,10126.10019756558,-3647.402363705917
-14383.28050175673,-2229.072419294408,10429.949811691024,-3296.8599554133366
-14375.613853408558,-2229.698268139156,10804.766214462068,-3087.2676476559222
-14357.352478188574,-2223.1045035248403,10695.73440500908,-3273.8376586243703
-14338.21938493483,-2209.894622551754,10423.758378476905,-3502.6524666133487
-14347.830635050612,-2210.542823140958,10153.481084523331,-3640.965061302789
-14392.332958261128,-2238.9295385991977,10455.58726258126,-3293.7977664229597
-14381.268844755752,-2239.756553144044,10792.830382922932,-3107.943011277081
-14347.27184143923,-2220.087018023374,10690.861724717824,-3288.992141365068
-14331.089178453589,-2206.6983230946453,10408.91682015858,-3515.482367930694
-14351.943356030388,-2215.594317387857,10124.066188820148,-3650.621014907482
-14389.583693693125,-2238.9295385991977,10464.460905130018,-3291.584943721884
-14378.139600532008,-2237.6554891652454,10800.98876964912,-3114.5144241469416
-14357.732457844311,-2226.636079148779,10677.808305955925,-3304.906583417247
-14346.578937361115,-2217.382456944282,10397.71859618647,-3536.9176908633344
-14363.65567012497,-2221.7857506019773,10120.311095751656,-3661.4169074793945
-14399.664330442469,-2240.7176781556223,10467.321928420297,-3295.36238853483
-14384.040461068207,-2238.415448476726,10799.714720215168,-3124.7738748519278
-14361.018164279243,-2228.670087894212,10674.612006498815,-3317.423560312219
-14341.236870436296,-2214.1861574871727,10390.566037960773,-3549.3229090360296
-14358.89474855599,-2223.730352369589,10126.52488071023,-3669.619997694492
-14402.65946419948,-2252.54175097248,10469.043012743356,-3298.2681153140206
-14386.119173302552,-2247.1102770698403,10791.824554422445,-3133.8710348452373
-14356.592518877093,-2233.207492018639,10668.35351805133,-3329.6052610403613
-14328.898707496966,-2207.05595100593,10379.636034922129,-3555.380231783418
-14358.090085755595,-2218.0083057890306,10122.121587052536,-3669.1729628053854
-14397.697376930402,-2245.612710191335,10478.989539025968,-3295.0271123680013
-14381.80528662268,-2242.282300267494,10793.344473045408,-3137.626127913729
-14361.018164279243,-2232.179311773695,10661.066849358898,-3333.002726197568
-14335.671286066923,-2210.855747563332,10378.585502932729,-3560.27526381913
-14354.089123498095,-2215.080227265385,10141.075866350637,-3658.555884189115
-14390.075432071142,-2234.481541452592,10503.040016059878,-3279.000911593546
-14380.598292422092,-2233.0733815519075,10794.305598056984,-3138.9895843255026
-14363.23098698032,-2226.0102303040303,10644.928889862167,-3339.060048944956
-14335.671286066923,-2208.6876283511674,10370.784744117826,-3568.366595311951
-14354.491454898294,-2213.2920877089605,10132.96218311336,-3660.075802812076
-14385.18040003543,-2231.7993321179547,10513.165356298132,-3269.2779027554875
-14362.135751502008,-2223.797407602955,10808.364845319373,-3131.345287721788
-14339.672248324425,-2213.2026807311395,10660.910387147713,-3335.1484936652773
-14320.047416692663,-2198.7858055574666,10364.973290559446,-3570.333548824018
-14345.438998393896,-2209.514642896014,10123.842671375594,-3646.441238694339
-14382.051155811689,-2237.051992064952,10516.115786566234,-3253.184646747666
-14372.886940585013,-2237.208454276139,10799.513554515072,-3129.9594795655585
-14355.765504332248,-2230.234710006084,10656.551796978929,-3331.5051593190624
-14338.621716335025,-2216.5554423994354,10355.786723588317,-3564.499743521183
-14364.37092594754,-2226.099637281852,10135.91261338146,-3630.727962342258
-14408.023882868754,-2252.094716083374,10519.960286612546,-3239.59478611884
-14393.22702803934,-2249.7477829155664,10782.70504268468,-3132.5522819223743
-14369.534178916714,-2236.940233342676,10630.936697833144,-3337.7636477665483
-14349.41760890694,-2219.6846866231785,10335.536043111808,-3572.054633147077
-14374.809190608168,-2228.2230530051056,10111.2362875028,-3635.399476933417
-14401.98891186582,-2245.277434024505,10515.51228946594,-3237.560777373407
-14377.51375168726,-2236.9849368315863,10779.32992927193,-3137.201444769078
-14345.059018738151,-2219.237651734072,10645.554738706916,-3333.8520924868694
-14325.970628973322,-2203.39026491526,10342.755656570873,-3570.490011035205
-14358.157140988964,-2218.902375567243,10126.368418499043,-3622.748389571713
-14388.622568681549,-2242.863445623332,10540.255670577964,-3227.0554574794123
-14365.756734103768,-2234.213320519128,10795.490240513116,-3141.2918140043994
-14338.197033190374,-2220.0646662789186,10631.182567022151,-3350.682956061716
-14309.385634587485,-2196.6623898342123,10331.825653532223,-3588.4831653217275
-14333.16789068793,-2207.0783027503853,10146.194415830902,-3628.224566963264
-14367.075487026632,-2231.8216838624103,10558.606452775772,-3227.234271435055
-14350.110512985051,-2224.5797186588907,10793.456231767685,-3151.1265815647344
-14333.860794766046,-2217.96360230012,10625.035837296944,-3363.132877723322
-14321.45557659335,-2211.0345615189744,10303.03660667379,-3610.6113923324815
-14343.36028615955,-2220.958736057131,10142.77459892924,-3635.3324217000513
-14366.69550737089,-2237.431971720692,10568.195351147098,-3223.59093708884
-14347.741228072791,-2225.406733203737,10782.436821751216,-3142.968194838548
-14328.69754179687,-2211.9509830416423,10634.468273457083,-3350.370031639341
-14307.061053164132,-2193.130814210273,10329.523423853328,-3592.9535142127893
-14342.287402425696,-2210.2075469741285,10157.593805503107,-3616.66871507987
-14378.519580187747,-2232.7381053850777,10563.94851970059,-3213.085617194846
-14361.532254401714,-2223.2386139915725,10779.75461241658,-3156.133372322723
-14345.327239671618,-2212.5321283974804,10619.939639561137,-3365.837438802414
-14329.345742386073,-2199.7692823135,10297.672188004515,-3605.850470763501
-14361.934585801911,-2215.6837243656787,10139.377133772032,-3613.897098767412
-14394.03169083973,-2238.5942624323684,10568.75414475848,-3205.910707224692
-14371.255263239773,-2227.5748524159017,10776.84888563739,-3155.932206622625
-14352.50214964177,-2215.326096454394,10604.181659720143,-3368.43024115923
-14328.205803418852,-2193.4213868881925,10295.99580717037,-3606.275153908152
-14353.105646742064,-2204.507852138025,10155.358631057576,-3601.581287572538
-14376.686737142414,-2220.601108145846,10601.275932940953,-3193.01375067398
-14361.152274745977,-2216.577794143891,10799.04416788151,-3151.90889262067
-14343.673210581925,-2209.7828638294773,10623.471215185073,-3357.656700331772
-14319.488623081284,-2196.86355553431,10298.65566476055,-3598.273229393152
-14342.533271614704,-2209.805215573933,10157.81732294766,-3588.61727578846
-14370.69646962839,-2229.519454183513,10593.072842725856,-3183.089576135824
-14344.32141117113,-2218.276526722494,10798.306560314484,-3147.2150262850555
-14325.344780128573,-2209.738160340567,10602.371168419262,-3360.7188893221487
-14307.172811886408,-2195.3659886558044,10299.505031049852,-3603.4588341067833
-14330.575088331116,-2203.8149480599104,10188.908599484992,-3574.4909732927053
-14345.21548094934,-2215.1025790098406,10632.05428505591,-3161.5424944809074
-14326.082387695598,-2206.631267861279,10797.591304491914,-3142.141180293701
-14309.49739330976,-2194.851898533332,10618.352665704808,-3353.745145052093
-14299.662625749424,-2183.139584438752,10295.794641470273,-3594.9651712137666
-14337.951164001366,-2201.8032910589327,10183.365366860076,-3559.4258975298285
-14363.253338724771,-2224.423256447704,10632.300154244918,-3158.681471190628
-14343.807321048656,-2218.276526722494,10793.970321890154,-3150.500732719986
-14324.27189639472,-2208.218241717606,10609.411967922684,-3360.3389096664087
-14302.9259804399,-2193.9131252662096,10281.645987230062,-3605.470491107761
-14341.750960558767,-2214.253212720539,10177.06217492368,-3564.477391776728
-14369.288309727706,-2234.280375752494,10628.38859896524,-3163.889427648715
-14351.138693229996,-2225.8761198372986,10763.728411642123,-3168.806811428882
-14332.251469165263,-2215.080227265385,10593.0504909814,-3379.6955203647044
-14318.728663769802,-2199.121081724296,10267.40792601203,-3620.33440117054
-14363.789780591702,-2221.7857506019773,10181.420765092464,-3563.449211531784
-14388.399051236996,-2241.0976578113628,10640.257375271009,-3163.3529857817875
-14370.852931839578,-2234.34743098586,10772.780868146525,-3178.7309859670386
-14350.915175785443,-2222.791579102466,10563.836760978313,-3395.185279272232
-14332.74320754328,-2206.273639949994,10244.922071089992,-3637.05350602311
-14370.18237950592,-2224.467959936614,10187.433384350945,-3561.6163684864487
-14387.616740181058,-2238.773076388011,10643.431322983664,-3158.8602851462706
-14368.12601901603,-2232.0899047958737,10756.195873760686,-3180.653235990195
-14346.511882127748,-2223.797407602955,10569.603511047782,-3393.263029249076
-14328.138748185487,-2209.738160340567,10241.479902443874,-3636.1594362448977
-14360.325260201127,-2227.5525006714465,10187.746308773316,-3555.693156205792
-14379.74892613279,-2244.0704398239186,10649.935680620156,-3161.631901458729
-14351.809245563656,-2230.7935036174663,10759.570987173438,-3186.1517651262006
-14330.575088331116,-2216.667201121712,10548.771685215435,-3395.38644497233
-14317.611076547037,-2205.6477911052457,10210.366274162088,-3637.612299634493
-14354.379696176016,-2226.8372448488767,10185.198209905411,-3542.7738479106247
-14372.03757429571,-2238.147227543262,10664.10668660482,-3151.595968198296
-14339.806358791157,-2222.0986750243515,10768.019946577544,-3186.330579081843
-14313.297189867162,-2211.079265007885,10566.76483950196,-3397.487508951129
-14299.349701327052,-2200.573945113891,10222.50327140132,-3639.936881057845
-14344.679039082414,-2222.411599446726,10199.97271299037,-3536.22478678522
-14359.520597400737,-2235.979108331097,10669.739326207558,-3148.1761512966336
-14342.98030650381,-2231.285241995483,10758.520455184038,-3197.7299687540494
-14321.030893448698,-2218.097712766852,10557.0418306639,-3402.29313400902
-14302.903628695443,-2201.1327387252736,10228.180614492969,-3635.734753100247
-14348.41178040645,-2224.5797186588907,10212.936724774449,-3518.209280754242
-14358.89474855599,-2234.682707152689,10672.756811709023,-3136.2850232464107
-14337.057094223152,-2225.7196576261117,10752.84311209239,-3193.594896029818
-14322.237887649286,-2212.5768318863907,10529.8844611507,-3401.868450864369
-14316.672303279916,-2203.300857937438,10185.086451183137,-3638.014631034688
-14362.135751502008,-2225.8761198372986,10210.902716029015,-3508.6874376162814
-14377.022013309244,-2234.638003663779,10674.902579176734,-3127.724305120028
-14354.826731065124,-2228.245404749561,10732.324210682418,-3194.310151852388
-14332.69850405437,-2213.403846431237,10528.878632650212,-3405.601192188405
-14320.36034111504,-2197.9811427570758,10209.405149150509,-3639.020459535177
-14371.881112084522,-2225.116160525818,10217.74234983234,-3503.658295113837
-14387.639091925514,-2238.437800221181,10679.685852490167,-3130.8535493437707
-14367.589577149103,-2235.2862042529828,10745.712905611146,-3202.9602769565918
-14354.714972342848,-2228.826550105399,10528.968039628036,-3418.67696269476
-14328.40696911895,-2207.7041515951337,10195.837640266138,-3647.514122428194
-14347.584765861604,-2218.6565063782346,10227.621820881584,-3488.9731990067007
-14355.921966543434,-2227.1054657823406,10692.828678229893,-3118.023648026425
-14333.525518599216,-2221.338715712872,10747.501045167572,-3201.1944891446224
-14315.554716057148,-2215.124930754296,10525.391760515186,-3417.58172721645
-14296.198105358852,-2198.606991601824,10180.236122636334,-3645.278947982663
-14336.543004100682,-2218.947079056153,10227.174785992478,-3481.5300681030835
-14346.578937361115,-2227.954832071642,10715.247477918563,-3118.537738148897
-14330.84330926458,-2221.0257912904967,10754.050106292976,-3206.268335135977
-14316.560544557637,-2208.620573117801,10528.431597761108,-3419.7274946841594
-14310.771442743711,-2197.7799770569777,10188.573323318164,-3647.894102083934
-14352.524501386226,-2219.349410456349,10242.038696055257,-3474.489268599661
-14364.326222458629,-2231.240538506572,10693.253361374542,-3121.4434649280865
-14341.41568439194,-2221.3610674573265,10724.54580361197,-3213.8902799952366
-14326.26120165124,-2209.2911254514606,10500.424861958609,-3429.137579099844
-14316.046454435163,-2194.6954363221453,10166.601558518596,-3657.460648710805
-14347.450655394872,-2210.2746022074944,10237.747161119838,-3464.7886115060583
-14349.529367629217,-2216.331924954882,10699.64596028876,-3110.468758400531
-14328.988114474789,-2205.536032382969,10727.295068179974,-3208.0788264368566
-14314.705349767846,-2195.790671800455,10520.452024990562,-3416.0394568490337
-14310.9279049549,-2189.95686649762,10184.371195360563,-3640.629785135959
-14362.135751502008,-2219.908204067732,10249.682992658973,-3448.6506520093267
-14367.723687615837,-2226.054933792941,10692.426346829694,-3106.937182776592
-14344.343762915583,-2217.62832613329,10710.151280182754,-3212.3033061389096
-14328.943410985878,-2208.0617795064186,10496.960341568034,-3425.315430797986
-14321.41087310444,-2197.399997401237,10177.620968535062,-3643.021421792677
-14367.187245748908,-2225.5631954149244,10273.487600503877,-3439.486436782651
-14374.384507463516,-2234.0792100523963,10719.896640765268,-3103.047979241369
-14348.054152495164,-2218.9694308006087,10725.84220479038,-3220.238175420544
-14323.713102783337,-2207.0783027503853,10500.64837940316,-3439.1064571269108
-14316.44878583536,-2196.6847415786674,10158.689040981417,-3658.801753378124
-14363.163931746953,-2221.8751575797987,10270.89479814706,-3442.1909978617427
-14362.18045499092,-2228.625384405301,10722.60120184436,-3111.6534008566623
-14335.31365815564,-2218.902375567243,10717.63911457528,-3231.5705098593844
-14309.16211714293,-2203.412616659715,10488.109050763733,-3444.8508554519244
-14302.702462995348,-2190.627418831279,10156.00683164678,-3655.337232987551
-14352.36803917504,-2215.8178348324104,10281.869504674614,-3426.8800529098576
-14352.278632197218,-2215.7731313435,10726.132777468298,-3099.717569317528
-14333.458463365849,-2207.1677097282063,10711.894716250268,-3224.4403033781414
-14312.671341022417,-2193.510793866014,10488.198457741555,-3440.358154816408
-14306.479907808294,-2186.1570699402178,10156.2974043247,-3654.554921931616
-14353.865606053543,-2212.398017930748,10286.89864717706,-3416.419436504774
-14356.614870621548,-2218.4553406781365,10730.22314670362,-3099.0023134949583
-14326.618829562523,-2203.770244571,10732.994763016077,-3229.044762735935
-14307.552791542148,-2192.639075832257,10495.574533411806,-3445.677869996771
-14302.635407761982,-2185.911200751209,10163.449962550398,-3652.34209923054
-14355.02789676522,-2218.3659337003155,10318.548717325772,-3407.4340352337404
-14359.833521823111,-2223.730352369589,10747.433989934205,-3100.745749562472
-14339.538137857691,-2213.828529575888,10716.007437230044,-3241.6958500976384
-14316.538192813185,-2201.400959658737,10473.155733723132,-3458.4630678252065
-14314.817108490124,-2197.95879101262,10144.62979371903,-3665.4849249702606
-14357.710106099858,-2220.221128490106,10320.068635948735,-3402.360189242386
-14359.118266000542,-2223.260965736028,10745.020001533032,-3099.8293280398048
-14335.604230833558,-2215.5496138989465,10709.12309993781,-3244.378059432276
-14315.845288735069,-2203.904355037732,10473.736879078971,-3464.252169639131
-14318.281628880695,-2199.8139858024106,10158.15259911449,-3668.144782560442
-14365.17558874793,-2225.183215759184,10340.408723403065,-3399.7897386300256
-14364.572091647637,-2230.637041406279,10756.84407434989,-3106.266630442933
-14337.41472213444,-2219.908204067732,10716.096844207865,-3254.5033996705297
-14316.44878583536,-2206.608916116824,10461.35401265073,-3477.573809334494
-14319.153346914452,-2204.373741671293,10146.909671653471,-3678.046605354143
-14353.84325430909,-2223.328020969393,10344.05205774928,-3393.508898438084
-14340.968649502833,-2218.567099400413,10765.807123876468,-3097.6388570831846
-14323.02019870522,-2209.3581806848265,10718.130852953298,-3251.485914169063
-14308.8268409761,-2198.5622881129134,10469.422992399095,-3477.931437245779
-14319.108643425545,-2196.550631111936,10150.910633910971,-3669.865866883501
-14365.712030614855,-2223.708000625133,10355.04911602129,-3383.584723899928
-14359.9899840343,-2221.338715712872,10771.998557090588,-3105.4843193869974
-14341.326277414117,-2207.6147446173127,10710.7771290275,-3259.1749142616886
-14325.255373150752,-2196.081244478374,10457.375402137686,-3484.748719304648
-14330.418626119928,-2196.9529625121318,10134.303287780678,-3679.365358277006
-14372.17168476244,-2221.808102346433,10360.346479457196,-3381.6177703878607
-14364.437981180905,-2221.0704947794075,10766.41062097676,-3109.507633388953
-14340.991001247288,-2211.906279552732,10706.68675979218,-3268.9649783331133
-14313.45365207835,-2192.52731710998,10462.0692684733,-3487.520335617105
-14317.342855613571,-2190.917991509198,10144.115703596555,-3670.022329094688
-14362.247510224284,-2219.4611691786254,10360.72645911294,-3368.9890347706123
-14352.971536275332,-2219.0364860339746,10749.467998679638,-3111.2957729453774
-14318.393387602971,-2202.362084670316,10707.893753992768,-3275.4693359696075
-14299.707329238336,-2190.9403432536537,10453.709716047017,-3499.992609023167
-14302.009558917232,-2186.8276222738773,10149.301308310189,-3673.956236118822
-14341.013352991744,-2205.7595498275223,10395.617532207672,-3354.706270063671
-14336.207727933852,-2209.58169812938,10779.642853694302,-3105.864299042737
-14310.726739254802,-2200.573945113891,10694.773279997502,-3275.201115036144
-14276.26034930472,-2179.183325670162,10437.750570505928,-3497.019827010611
-14287.950311654844,-2180.3903198707485,10153.52578801224,-3667.921265115889
-14338.308791912652,-2210.609878374324,10406.480480012951,-3346.4361246152075
-14335.470120366826,-2211.973334786097,10784.917865385756,-3104.836118797793
-14316.113509668532,-2199.7692823135,10704.11630917982,-3274.1505830467445
-14302.009558917232,-2185.19594492864,10447.741800277448,-3492.9741612642006
-14319.332160870095,-2187.7440437965447,10141.969936128848,-3653.77261087568
-14362.60513813557,-2217.538919155469,10404.871154412169,-3326.9230517057244
-14351.518672885735,-2215.750779599045,10790.70696719968,-3093.950819248059
-14330.776254031212,-2204.776073071489,10707.513774337029,-3270.484896956074
-14318.460442836338,-2199.8810410357764,10420.427968553064,-3502.1160247464213
-14330.84330926458,-2203.904355037732,10126.323715010132,-3665.753145903724
-14364.12505675853,-2222.5233581690027,10420.852651697714,-3322.966792937135
-14359.40883867846,-2226.9713553156084,10779.955778116677,-3103.874993786216
-14334.30782965515,-2218.8800238227877,10689.699434006148,-3282.130155817289
-14298.388576315472,-2192.192040943151,10420.53972727534,-3507.793367838069
-14310.279704365696,-2192.9072967657207,10133.364514513554,-3661.3945557349393
-14354.782027576211,-2216.086055765874,10435.269526871389,-3311.0533131424563
-14339.426379135415,-2209.469939407103,10793.52328700105,-3099.985790250992
-14314.88416372349,-2199.7692823135,10681.764564724514,-3288.165126820222
-14290.498410522749,-2185.5535728399245,10410.39203529263,-3507.860423071435
-14302.344835084064,-2188.056968218919,10128.894165622492,-3652.140933530442
-14342.488568125793,-2212.8897563087653,10439.1140269177,-3297.6422664692723
-14326.484719095792,-2205.6924945941564,10792.56216198947,-3097.214173938534
-14308.06688166462,-2197.154128212229,10690.101765406343,-3287.1145948308226
-14290.610169245028,-2186.939380996153,10405.25113406791,-3526.5241296916165
-14304.870582207512,-2187.274657162983,10113.24794450378,-3658.958215589311
-14337.995867490275,-2203.8149480599104,10451.251024156933,-3287.1816500641885
-14326.507070840247,-2197.9811427570758,10813.461043055182,-3094.6660750706287
-14306.099928152553,-2189.8227560308883,10695.77910849799,-3289.930914632191
-14293.761765213225,-2177.8198692583883,10408.738006202935,-3524.5348244350944
-14316.895820724469,-2184.994779228542,10126.971915599335,-3656.0301370656657
-14360.235853223308,-2211.39218943026,10462.248082428943,-3285.393510507764
-14357.106608999564,-2213.761474342522,10790.595208477404,-3111.8322148123048
-14331.335047642597,-2198.9199160241983,10676.802477455436,-3300.1903653371774
-14305.764651985724,-2183.2960466499385,10399.506735742896,-3530.1451122933763
-14322.953143471856,-2189.95686649762,10135.309116281169,-3652.118581785987
-14367.723687615837,-2217.605974388835,10477.179047725089,-3283.784184906982
-14347.227137950318,-2207.592392872857,10808.968342419666,-3113.039209012891
-14324.629524306005,-2196.371817156293,10678.903541434234,-3309.421635797219
-14306.323445597109,-2181.57496232688,10384.262846024376,-3542.0362403436
-14320.02506494821,-2183.9665989835976,10132.649258690984,-3646.3518317165176
-14354.312640942651,-2203.926706782187,10499.575495669304,-3258.8843415837696
-14339.739303557792,-2196.5282793674805,10809.28126684204,-3101.461005385042
-14314.481832323294,-2182.9160669941984,10680.982253668575,-3300.257420570543
-14299.103832138042,-2174.221238401084,10374.070450552756,-3544.1149525779438
-14321.07559693761,-2188.705168808123,10117.874755606026,-3656.790096377146
-14345.059018738151,-2207.0112475170195,10492.825268843802,-3269.9261033446915
-14321.634390548992,-2197.7799770569777,10791.265760811062,-3122.963383551048
-14294.097041380051,-2186.1570699402178,10666.900654661737,-3323.771455737526
-14271.387669013462,-2172.298988377928,10379.837200622223,-3559.0459178740884
-14297.807430959634,-2186.2688286624943,10129.989401100804,-3654.979605076266
-14339.001695990766,-2207.882965550776,10514.729978410003,-3262.4829724410743
-14329.50220459726,-2202.67500909269,10808.61071450838,-3127.5454911643856
-14317.052282935654,-2195.6342095892683,10657.401163268229,-3333.270947131032
-14306.032872919188,-2183.340750138849,10361.464066679962,-3562.6445487313927
-14328.898707496966,-2192.3708548987934,10127.038970832702,-3640.4956746692274
-14365.734382359313,-2213.068570264408,10503.330588737796,-3249.295443212443
-14354.200882220375,-2209.20171847364,10791.04224336651,-3121.689334117095
-14331.133881942498,-2196.48357587857,10649.578052708872,-3316.4847870450963
-14308.44686132036,-2180.569133826391,10355.540854399307,-3551.6251387149264
-14321.45557659335,-2181.9549419826203,10136.158482570469,-3626.078799495554
-14355.31846944314,-2202.563250370413,10523.782434914405,-3231.5034546260185
-14335.045437222176,-2192.124985709785,10793.679749212237,-3114.335610191299
-14319.332160870095,-2186.2688286624943,10624.76761636348,-3321.1339498918
-14300.64610250546,-2173.6847965341567,10334.91019426706,-3564.7456127101914
-14315.197088145864,-2179.608008814813,10137.588994215608,-3628.492787896728
-14349.082332740109,-2204.7090178381227,10535.159472842157,-3229.5812046028623
-14335.31365815564,-2201.95975327012,10783.710871185169,-3133.1334272782124
-14312.850154978056,-2191.3650263983045,10634.043590312433,-3341.2505199015764
-14285.78219244268,-2176.5234680799804,10333.345572155187,-3582.2246768742416
-14305.697596752358,-2185.419462373193,10135.018543603248,-3634.460703666294
-14332.8326145211,-2203.770244571,10543.56372875735,-3231.25758543701
-14315.889992223978,-2198.741102068556,10793.970321890154,-3139.52602619243
-14294.521724524704,-2191.186212442662,10641.218500282586,-3347.0396217155007
-14273.220512058797,-2176.948151224631,10329.769293042338,-3587.656150776881
-14301.093137394564,-2189.8451077753434,10135.4432267479,-3634.460703666294
-14319.175698658908,-2203.747892826545,10550.47041779404,-3230.1847017031555
-14299.349701327052,-2194.181346199673,10792.115127100364,-3147.617357685251
-14281.31184355162,-2180.412671615204,10624.67820938566,-3352.582854340417
-14277.288529549664,-2172.880133733765,10281.355414552145,-3602.832985262035
-14313.699521267356,-2187.38641588526,10114.633752660007,-3635.444180422328
-14352.859777553056,-2211.906279552732,10532.678429207615,-3227.167216201689
-14331.536213342692,-2203.569078870902,10779.12876357183,-3152.110058320768
-14310.302056110151,-2187.05113971843,10612.116529001776,-3354.438049130207
-14292.532419268182,-2166.822810986377,10302.544868295774,-3591.634761289926
-14321.41087310444,-2178.892752992243,10139.377133772032,-3611.684276066336
-14363.588614891603,-2205.536032382969,10564.864941223255,-3206.1789281581555
-14343.025009992722,-2197.087072978863,10781.520400228548,-3147.9302821076253
-14319.287457381184,-2184.704206550623,10610.127223745254,-3357.5002381205845
-14297.159230370433,-2168.0074534425084,10295.74993798136,-3596.1945171588086
-14321.45557659335,-2177.462241347104,10139.66770644995,-3607.6386103199256
-14341.639201836491,-2193.846070032844,10572.218665149054,-3196.590029786829
-14319.68978878138,-2191.0521019759303,10783.487353740617,-3150.523084464441
-14298.053300148644,-2183.8101367724107,10618.9561628051,-3365.479810891129
-14281.624767973992,-2175.8752674907764,10287.546847766263,-3605.470491107761
-14317.767538758224,-2198.830509046377,10129.095331322593,-3602.743578284213
-14341.683905325404,-2217.58362264438,10590.323578157851,-3190.040968661424
-14318.661608536437,-2209.313477195916,10788.762365432069,-3153.182942054623
-14296.891009436968,-2195.6565613337234,10600.001883507,-3366.351528924886
-14269.82304690159,-2175.987026213053,10286.116336121124,-3605.7163602967694
-14292.800640201644,-2186.984084485064,10155.269224079757,-3594.6522467913924
-14324.36130337254,-2206.5865643723687,10597.654950339193,-3189.795099472416
-14310.659684021435,-2200.216317202606,10784.448478752194,-3159.7990584133936
-14291.794811701157,-2187.05113971843,10592.33523515883,-3375.7839650850256
-14270.471247490794,-2167.180438897662,10267.810257412226,-3616.378142401951
-14313.744224756269,-2183.9665989835976,10157.280881080733,-3595.143985169409
-14356.614870621548,-2208.4194074177035,10602.728796330548,-3189.5715820278624
-14347.204786205864,-2206.474805650092,10770.970376845644,-3171.757241696983
-14331.513861598238,-2196.14829971174,10576.085516939822,-3388.256238491087
-14309.54209679867,-2173.5283343229694,10256.477922973389,-3628.246918707719
-14344.142597215488,-2186.648808318235,10142.193453573402,-3592.7523485126912
-14371.590539406605,-2204.306686437927,10589.18363919063,-3180.563829012374
-14340.231041935807,-2190.2027356866283,10765.583606431916,-3165.364642782765
-14319.376864359008,-2182.24551466054,10577.0466419514,-3384.47879367814
-14303.820050218112,-2177.4175378581926,10247.0678385577,-3634.125427499465
-14327.9822859743,-2193.086110721363,10148.38488678752,-3589.980732200233
-14339.582841346604,-2205.8489568053437,10613.591744135829,-3182.195506357611
-14315.174736401408,-2202.898526537243,10766.634138421314,-3182.754299968994
-14290.431355289384,-2196.438872389659,10571.145781415198,-3394.3582647273856
-14269.331308523571,-2185.19594492864,10241.614012910606,-3634.751276344213
-14301.96485542832,-2203.859651548821,10160.655994493483,-3576.636740760415
-14321.924963226911,-2221.1375500127733,10617.995037793522,-3181.100270879301
-14290.87839017849,-2207.570041128402,10762.052030807976,-3187.2470006045105
-14272.125276580487,-2193.846070032844,10575.817296006358,-3400.8402706194247
-14265.755029410724,-2181.2843896489608,10237.568347164197,-3646.932977072356
-14311.062015421632,-2200.730407325078,10153.794008945706,-3577.8437349610017
-14349.752885073767,-2223.640945391768,10596.850287538802,-3179.5132970229743
-14340.566318102638,-2216.7119046106227,10745.064705021943,-3199.406349588198
-14319.622733548014,-2201.8703462922986,10554.0914003958,-3408.506918967595
-14311.531402055194,-2189.2639624195053,10207.996989249825,-3649.503427684716
-14353.64208860899,-2205.916012038709,10161.505360782789,-3567.0031389001774
-14385.560379691173,-2223.7527041140443,10621.526613417462,-3170.8855236632257
-14363.02982128022,-2211.861576063821,10750.65264113577,-3192.7678814849714
-14334.017256977231,-2191.655599076224,10556.125409141232,-3400.192070030221
-14322.30494288265,-2183.38545362776,10211.193288706934,-3650.3527939740175
-14369.55653066117,-2214.409674931726,10158.15259911449,-3567.5842842560155
-14380.03949881071,-2222.9033378247427,10638.022200825477,-3161.8330671588265
-14345.595460605082,-2202.4514916481367,10747.568100400937,-3193.751358241005
-14315.040625934676,-2186.447642618137,10542.446141534583,-3410.6303346908494
-14294.58877975807,-2171.606084299813,10197.089337955636,-3658.578235933571
-14328.183451674397,-2188.9063345082204,10160.052497393192,-3556.1401910948985
-14339.024047735222,-2196.349465411838,10627.271011742474,-3162.235398559022
-14307.373977586509,-2189.331017652872,10743.991821288088,-3206.558907813896
-14279.68016620638,-2183.7654332835,10538.244013576988,-3420.934488884746
-14252.05341005962,-2169.6838342766564,10191.54610533072,-3665.2167040367967
-14271.812352158113,-2185.6876833066563,10189.757965774294,-3544.092600833488
-14283.032927874678,-2201.356256169827,10664.196093582645,-3154.2781775329327
-14260.949404352834,-2195.142471211251,10757.380516216816,-3204.390788601731
-14252.902776348925,-2191.8120612874104,10542.379086301218,-3425.5389482425394
-14253.953308338325,-2183.2289914165726,10195.63647456604,-3669.463535483305
-14306.949294441856,-2204.686666093668,10196.128212944055,-3538.8846443754014
-14334.620754077525,-2217.516567411013,10675.662538488215,-3143.370526238743
-14341.616850092036,-2221.2269569905948,10740.348486941872,-3209.9787247155577
-14342.98030650381,-2219.0588377784297,10526.308182037852,-3429.741076200137
-14338.35349540156,-2204.86548004931,10180.079660425146,-3663.115640057998
-14380.151257532983,-2224.0432767919638,10179.2526458803,-3519.706847632748
-14397.004472852288,-2238.6166141768235,10660.977442381078,-3141.0906483043013
-14382.9452255899,-2232.91691934072,10732.79359731598,-3214.2255561620664
-14359.051210767177,-2221.562233157424,10515.624048188216,-3430.7469047006257
-14343.516748370736,-2211.5486516414467,10168.479105052842,-3670.290550028152
-14382.98992907881,-2230.301765239449,10191.568457075176,-3514.990629552678
-14380.307719744173,-2227.4854454380807,10668.174704095689,-3135.5474156793853
-14347.003620505766,-2215.6837243656787,10724.568155356426,-3217.287745152443
-14324.495413839271,-2206.4301021611814,10490.321873464807,-3443.2415298511423
-14312.44782357786,-2198.4281776461817,10144.518034996752,-3687.0767101140873
-14346.757751316758,-2224.5797186588907,10204.152489203512,-3523.8866238458904
-14351.563376374648,-2233.699230396656,10674.321433820896,-3156.8262764008377
-14328.474024352316,-2234.593300174868,10712.20764067264,-3252.8270188363817
-14308.849192720556,-2237.096695553863,10486.11974550721,-3476.232704667176
-14289.380823299984,-2227.6195559048124,10151.58118624463,-3704.712236489325
-14308.782137487193,-2235.82264611991,10230.97458254988,-3509.6485626278595
-14309.475041565303,-2242.282300267494,10698.349559110353,-3146.008032084469
-14291.861866934523,-2236.493198453569,10726.065722234933,-3246.188550733156
-14268.14666606744,-2217.047180777452,10523.51421398094,-3452.472800311184
-14258.87069211849,-2203.502023637536,10188.573323318164,-3672.145744817942
-14309.922076454412,-2227.5972041603573,10258.623690441096,-3482.0441582255557
-14337.50412911226,-2236.426143220204,10714.733387796092,-3123.9245085626258
-14333.391408132484,-2227.664259393723,10742.874234065324,-3224.485006867052
-14330.686847053392,-2221.1375500127733,10524.85531864826,-3444.4932275406395
-14332.340876143084,-2210.743988841056,10175.810477234185,-3674.895009385945
-14376.999661564789,-2228.625384405301,10253.281623516275,-3473.63990231036
-14392.80234489469,-2240.8964921112647,10718.510832609038,-3124.259784729455
-14371.925815573431,-2232.4251809627035,10736.07930375091,-3237.806646562415
-14346.288364683196,-2221.450474435148,10498.212039257533,-3463.44750683874
-14332.36322788754,-2209.380532429282,10155.828017691138,-3686.607323480526
-14374.27274874124,-2227.664259393723,10245.257347256822,-3476.6573878118265
-14379.681870899423,-2235.6885356531784,10704.563344068927,-3140.531854692919
-14355.60904212106,-2228.15599777174,10709.190155171174,-3256.1797805046776
-14327.334085385097,-2212.822701075399,10476.84377155826,-3469.929512730779
-14314.995922445763,-2202.1609189702176,10143.2439855628,-3685.690901957858
-14356.771332832735,-2227.06076229343,10255.092114817156,-3466.152067917832
-14363.32039395814,-2244.7409921575777,10682.63628275827,-3136.9332238356146
-14338.107626212552,-2239.309518254938,10693.83450673038,-3259.8678183398038
-14306.68107350839,-2225.6526023927454,10482.968149539012,-3473.550495332539
-14292.755936712736,-2216.220166232606,10145.993250130805,-3688.820146181601
-14329.479852852804,-2240.762381644533,10273.152324337045,-3456.674928268782
-14336.78887328969,-2251.513570727536,10716.677989563705,-3123.343363206788
-14313.654817778448,-2237.8790066097986,10713.436986617684,-3238.454847151619
-14297.762727470725,-2223.8421110918657,10474.318024434808,-3451.154047388321
-14304.44589906286,-2217.20364298864,10151.022392633247,-3666.8483813820335
-14362.761600346756,-2246.01504159153,10288.530324522297,-3433.7867419465474
-14374.049231296687,-2252.988785861586,10723.517623367026,-3116.503729403464
-14354.759675831758,-2240.2929950109715,10714.107538951344,-3245.160370488212
-14334.061960466142,-2220.15407325674,10487.237332729976,-3457.412535835807
-14339.247565179774,-2220.0646662789186,10147.446113520398,-3672.816297151601
-14379.70422264388,-2244.4951229685694,10301.94137119548,-3425.024858120067
-14378.072545298644,-2247.512608470036,10746.584623644903,-3113.3521334352654
-14358.224196222329,-2238.035468820985,10707.893753992768,-3257.811457849915
-14333.749036043768,-2220.824625590399,10478.855428559236,-3469.4601260972177
-14323.958971972344,-2206.988895772564,10165.416916062464,-3670.178791305875
-14355.430228165416,-2225.540843670469,10325.678923807016,-3414.452482992707
-14347.830635050612,-2224.512663425525,10752.932519070211,-3114.9614590360475
-14321.030893448698,-2212.1297969972848,10714.398111629262,-3259.7560596175267
-14297.718023981814,-2197.95879101262,10471.41229765562,-3478.31141690152
-14293.515896024215,-2191.745006054045,10133.029238346726,-3679.678282699381
-14338.442902379384,-2217.58362264438,10317.252316147364,-3410.9209073687684
-14344.567280360136,-2228.7147913831227,10743.880062565811,-3122.963383551048
-14318.795719003168,-2218.231823233584,10702.149355667754,-3267.780335876982
-14294.745241969258,-2202.33973292586,10453.173274180088,-3489.531992618083
-14291.63834948997,-2196.707093323123,10124.267354520243,-3689.6918642153582
-14328.764597030236,-2220.0423145344635,10318.414606859042,-3406.0482270775115
-14336.163024444942,-2231.642869906768,10746.472864922627,-3116.6378398701954
-14320.628562048503,-2224.758532614533,10693.678044519193,-3267.3780044767864
-14302.45659380634,-2210.743988841056,10448.702925289026,-3481.999454736645
-14313.341893356072,-2211.5262998969915,10126.681342921418,-3672.548076218137
-14365.689678870402,-2235.912053097732,10328.159967441556,-3376.163944740766
-14371.590539406605,-2239.130704299296,10738.582699129904,-3101.9974472519693
-14352.74801883078,-2228.603032660846,10702.55168706795,-3262.7735451189933
-14328.921059241422,-2213.672067364701,10447.16065492161,-3487.8556117839357
-14325.054207450654,-2204.1278724822846,10130.682305178918,-3673.866829141001
-14364.12505675853,-2220.8469773348543,10352.925700298036,-3373.0794040059336
-14358.805341578169,-2219.930555812187,10764.600129675882,-3099.5834588507964
-14329.189280174884,-2206.2959916944496,10707.73729178158,-3260.717184629105
-14303.64123626247,-2188.660465319212,10454.112047447212,-3487.8556117839357
-14306.97164618631,-2182.558439082913,10130.995229601293,-3673.196276807341
-14352.703315341869,-2207.257116706028,10361.441714935509,-3369.033738259523
-14337.41472213444,-2199.8363375468657,10779.75461241658,-3101.8856885296927
-14313.58776254508,-2187.252305418528,10704.49628883556,-3267.6238736657947
-14289.537285511173,-2171.203752899617,10437.97408795048,-3494.0246932536
-14285.536323253673,-2164.364119096293,10129.989401100804,-3670.6481779394367
-14321.924963226911,-2183.9442472391424,10379.01018607738,-3345.162075181255
-14312.291361366671,-2183.3631018833044,10768.668147166749,-3087.5135168449306
-14286.34098605406,-2178.66923554769,10696.002625942543,-3262.7958968634484
-14265.48680847726,-2167.7615842535,10419.846823197226,-3492.057739741533
-14269.085439334563,-2166.7557557530117,10120.400502729475,-3662.0651080685984
-14306.993997930766,-2188.1463751967403,10393.0023781064,-3332.4439325861854
-14304.088271151575,-2191.454433376125,10772.445591979696,-3093.503784358953
-14297.226285603796,-2190.158032197718,10686.771355482502,-3272.0495190679458
-14295.59460825856,-2186.693511807145,10419.91387843059,-3499.0985392449547
-14305.518782796717,-2183.988950728053,10119.841709118096,-3658.511180700205
-14350.199919962875,-2209.58169812938,10393.270599039864,-3323.0561999149563
-14348.188262961898,-2209.7158085961114,10778.07823158243,-3087.424109867109
-14329.435149363891,-2198.8528607908324,10692.381643340785,-3258.5714171613954
-14310.25735262124,-2183.9218954946878,10420.897355186624,-3483.4970216151505
-14317.320503869118,-2183.698378050134,10115.684284649407,-3650.7774771186687
-14358.246547966784,-2209.849919062844,10399.618494465172,-3313.780225966004
-14354.670268853935,-2215.214337732117,10764.533074442515,-3096.007179737948
-14329.725722041812,-2208.48646265107,10679.93172167918,-3277.7492139040487
-14301.11548913902,-2193.4213868881925,10406.905163157602,-3505.6923038592704
-14303.127146139996,-2188.571058341391,10101.3344647091,-3660.142858045442
-14346.422475149928,-2214.633192376279,10410.973180648469,-3316.5294905340065
-14338.487605868291,-2215.862538321321,10781.498048484094,-3105.014932753436
-14310.16794564342,-2201.669180592201,10673.673233231691,-3288.0757198424008
-14281.0212708737,-2185.844145517844,10404.088843356234,-3519.7291993772037
-14286.564503498616,-2187.3640641408047,10119.81935737364,-3668.5471139606375
-14315.554716057148,-2209.179366729184,10430.665067513592,-3314.7860544664927
-14297.315692581618,-2205.446625405148,10783.08502234042,-3114.2909067023884
-14257.216663028796,-2183.899543750232,10684.267960103509,-3294.5353739899847
-14226.86299405849,-2166.0181481859863,10407.19573583552,-3519.975068566212
-14240.38579945395,-2171.38256685526,10119.595839929085,-3662.132163301964
-14291.101907623042,-2197.2882386789606,10440.701000774026,-3297.5752112359064
-14297.874486193,-2200.1045584803296,10776.401850748283,-3108.010066510447
-14287.838552932568,-2191.454433376125,10665.939529650155,-3298.357522291842
-14277.735564438768,-2173.058947689408,10387.14622105911,-3521.383228466896
-14307.530439797692,-2180.837354759855,10094.56188613914,-3649.078744540065
-14359.297079956184,-2206.094825994352,10415.44352953953,-3279.358539504831
-14359.565300889648,-2206.318343438905,10773.205551291174,-3101.058673984847
-14344.589632104591,-2198.383474157271,10638.133959547757,-3302.4925950160737
-14316.672303279916,-2183.117232694296,10368.661328394572,-3535.442475729284
-14327.959934229844,-2183.832488516866,10100.99918854227,-3657.2594830107073
-14366.31552771515,-2206.094825994352,10435.001305937923,-3280.431423238686
-14353.664440353446,-2203.591430615357,10764.689536653705,-3108.255935699455
-14323.511937083238,-2189.9121630087093,10641.173796793675,-3303.364313049831
-14293.91822742441,-2173.19305815614,10355.853778821682,-3541.8350746435017
-14300.199067616351,-2173.908313978709,10093.913685549938,-3655.761916132202
-14335.559527344649,-2196.707093323123,10449.462884600507,-3274.888190613769
-14319.376864359008,-2190.515660109003,10768.981071589122,-3117.464854415042
-14294.298207080152,-2178.1327936807625,10632.411912967196,-3319.390513824286
-14268.750163167737,-2163.581808040358,10343.783836815815,-3554.6873277053032
-14271.67824169138,-2165.794630741433,10094.00309252776,-3657.505352199716
-14300.10966063853,-2189.733349053067,10450.513416589907,-3270.417841722708
-14274.986299870769,-2184.301875150428,10785.18608631922,-3115.095569502779
-14248.834758858056,-2176.0987849353296,10651.232081798564,-3315.7918829669816
-14224.180784723852,-2165.57111329688,10349.90821479657,-3553.7485544381807
-14240.542261665138,-2174.958845968109,10095.366548939532,-3646.8435700945342
-14274.472209748294,-2190.605067086824,10461.68928881756,-3249.921292057192
-14269.286605034662,-2186.29118040695,10790.371691032851,-3106.4901478874863
-14266.135009066464,-2183.854840261321,10637.932793847656,-3313.4673015436297
-14247.717171635291,-2165.258188874506,10338.061790235255,-3547.3559555239626
-14273.913416136911,-2169.6838342766564,10105.782461855706,-3628.761008830191
-14320.74032077078,-2192.52731710998,10483.54929489485,-3228.5530243579183
-14322.148480671463,-2195.6342095892683,10765.673013409736,-3100.768101306928
-14317.678131780403,-2188.8169275303994,10622.308924473396,-3308.259345085543
-14301.674282750402,-2173.2377616450503,10332.205633187968,-3541.388039754396
-14321.992018460276,-2184.1007094503298,10098.384034440998,-3622.211947704786
-14357.151312488477,-2205.021942260497,10496.356844467742,-3223.166253944189
-14340.678076824914,-2199.478709635581,10777.340624015407,-3107.987714765992
-14317.387559102484,-2187.7216920520896,10623.135939018242,-3316.551842278462
-14292.711233223825,-2174.243590145539,10312.737263767394,-3561.504609764172
-14302.657759506435,-2181.843183260344,10095.47830766181,-3632.0243635206657
-14328.898707496966,-2197.0423694899523,10495.395719456164,-3227.413085390697
-14308.11158515353,-2185.1288896952738,10753.9383475707,-3116.056694514358
-14277.713212694314,-2171.516677321992,10618.263258726984,-3321.0221911695235
-14249.415904213894,-2156.406898070204,10303.550696796265,-3565.2820545771187
-14261.172921797386,-2162.441869073137,10101.66974087593,-3624.938860528333
-14284.798715686646,-2181.5526105824247,10530.532661739906,-3217.175986430166
-14265.911491621911,-2179.809174514911,10786.37072877535,-3125.6455928856844
-14239.938764564844,-2171.784898255456,10624.34293321883,-3336.37783961032
-14217.29644743162,-2160.050232416419,10316.09002543569,-3573.954531425778
-14246.398418712428,-2175.5176395794915,10119.059398062158,-3622.457816893794
-14290.945445411857,-2198.67404683519,10526.755216926958,-3219.947602742625
-14284.597549986547,-2189.95686649762,10773.786696647012,-3126.494959174986
-14268.481942234272,-2172.231933144561,10613.77055809147,-3326.431313327708
-14262.715192164802,-2158.373851582271,10301.114356650634,-3567.539580767105
-14299.617922260515,-2170.66731103269,10103.726101365815,-3607.6162585754714
-14335.35836164455,-2189.889811264254,10533.281926307907,-3195.5394977974297
-14322.282591138195,-2183.452508861126,10775.41837399225,-3114.089741002291
-14313.364245100527,-2179.898581492732,10604.472232398062,-3325.581947038406
-14303.59653277356,-2169.080337176363,10279.276702317798,-3569.573589512538
-14328.205803418852,-2183.273694905484,10097.311150707144,-3606.096339952509
-14343.673210581925,-2193.6449043327457,10545.642440991693,-3189.281009349944
-14323.444881849871,-2185.151241439729,10770.61274893436,-3120.3482294497767
-14300.087308894075,-2177.23872390255,10589.8988950132,-3329.649964529272
-14274.852189404037,-2165.9510929526205,10284.864638431623,-3576.122650637943
-14303.820050218112,-2182.5807908273687,10108.911706079449,-3600.7766247721465
-14325.255373150752,-2199.4563578911257,10536.858205420758,-3189.236305861033
-14288.553808755138,-2182.9384187386536,10769.293996011496,-3122.203424239567
-14252.947479837834,-2166.9122179641986,10609.546078389416,-3332.354525608364
-14218.972828265769,-2148.3379183218385,10289.580856511697,-3581.0400344181103
-14242.710380877304,-2166.6887005196454,10125.854328376572,-3599.010836960177
-14257.283718262162,-2182.804308271922,10570.005842447978,-3184.430680803142
-14230.975715038268,-2175.249418646028,10785.677824697235,-3135.167436023645
-14211.283828173142,-2166.867514475288,10620.38667445024,-3346.7490490375817
-14197.224580910754,-2155.065793402886,10299.527382794307,-3589.712511266769
-14234.842566829037,-2170.712014521601,10152.72112521185,-3586.605618787482
-14280.06014586212,-2192.348503154338,10590.61415083577,-3172.941884153114
-14276.662680704914,-2186.6264565737797,10775.37367050334,-3132.306412733366
-14269.040735845654,-2178.088090191852,10618.106796515798,-3340.8481885013807
-14264.302166021129,-2163.7829737404554,10294.744109480873,-3581.442365818306
-14303.082442651088,-2178.66923554769,10157.81732294766,-3565.1926475992977
-14344.008486748757,-2204.15022422674,10602.348816674808,-3158.3461950237984
-14323.936620227889,-2194.024883988486,10778.189990304709,-3132.1275987777235
-14301.0260821612,-2178.043386702941,10609.479023156053,-3344.826799014425
-14285.133991853476,-2161.1007644058186,10286.742184965871,-3591.6794647788365
-14317.07463468011,-2177.797517513933,10163.62877650604,-3574.558028526071
-14336.543004100682,-2193.2649246770056,10610.127223745254,-3168.359776539776
-14313.744224756269,-2183.206639672117,10783.219132807151,-3153.3841077547204
-14283.9717011418,-2169.147392409729,10590.636502580226,-3362.99876725659
-14256.881386861967,-2152.04830790142,10263.026984098791,-3603.1012061954975
-14280.663642962414,-2162.4865725620475,10163.62877650604,-3565.1926475992977
