 EXG Channel 0, EXG Channel 1, EXG Channel 2, EXG Channel 3
-15706.392014788633,-11560.255177051447,-9287.038062457808,-29790.22619607761
-15357.70480128584,-11605.897439229184,-8958.176846286875,-29706.40715437021
-14118.233516005695,-10349.058848507268,-8734.122959866878,-30069.42183606885
-12869.732125965613,-8571.536370698974,-8761.414439846807,-30598.621737792702
-14015.214325811188,-9339.56466192778,-9259.903044689065,-30445.78050920731
-15688.734136668938,-11525.05117953434,-9306.88641153412,-29806.87824569681
-15399.86019132855,-11635.91583203266,-8978.673395952392,-29707.480038104062
-14173.33056608803,-10406.34636954622,-8737.609832001905,-30061.79989120959
-12890.02750993103,-8610.808385706949,-8751.199692630731,-30595.96188020252
-13953.657621581273,-9257.310242332249,-9249.956518406454,-30479.26342240136
-15688.085936079737,-11482.359347624702,-9321.03506577433,-29839.62355132384
-15429.699770176385,-11647.35992519378,-8990.475117024795,-29712.620939328783
-14218.43638639884,-10451.742762534948,-8744.091837893944,-30047.80769918057
-12895.682501278225,-8640.782075021514,-8741.946070426235,-30581.00856316192
-13857.947451823647,-9174.966415758898,-9242.692201458478,-30504.699707591502
-15645.863490803658,-11428.424588254044,-9323.247888475404,-29843.42334788124
-15453.929061165938,-11670.292815004925,-8997.270047339207,-29700.707459534107
-14262.53637820916,-10509.343207996277,-8751.847893219936,-30035.648350196883
-12920.023550990052,-8687.586627910929,-8730.747846454125,-30563.57420248678
-13782.219741609068,-9095.170688053451,-9217.25591626834,-30517.86488507568
-15615.196897410977,-11378.624901607622,-9329.819301345266,-29859.158975977774
-15479.767677756272,-11688.867114647284,-8999.59462876256,-29691.655003029708
-14312.269009622218,-10561.534531299416,-8751.646727519837,-30015.084745298
-12953.439408950737,-8741.677849492771,-8725.20461382921,-30545.737510411444
-13702.781641814903,-9021.8793179845,-9196.49114566936,-30533.913437594587
-15585.290263329776,-11336.111883653628,-9341.442208462026,-29874.067589529463
-15517.653884608018,-11726.03806567646,-9029.255393654752,-29690.5597675514
-14362.135751502008,-10623.158290762698,-8768.566998072505,-30001.249015480164
-12977.959272618207,-8794.69618734076,-8715.43690150224,-30531.36533872668
-13640.241460828956,-8960.166151543397,-9179.615578605602,-30557.829804161767
-15563.720829930406,-11290.782545898264,-9341.486911950937,-29887.74685713612
-15540.385608719063,-11743.427722862689,-9014.369131847518,-29676.36640982228
-14411.577810237148,-10682.323358335896,-8765.102477681932,-29978.51729136912
-13024.58501155198,-8866.400583553384,-8720.77896842706,-30518.37897519815
-13575.600215864208,-8905.024397972154,-9170.965453501398,-30583.020220162896
-15530.953172558926,-11240.245251684815,-9358.720106925975,-29921.363880796896
-15574.673184713503,-11770.361574931334,-9041.370039149528,-29696.95236646561
-14465.400810885529,-10739.275603208018,-8777.21712317671,-29987.88267229589
-13067.522712650623,-8924.068084248076,-8715.191032313232,-30511.51698965037
-13505.505145252366,-8831.956545347755,-9138.175444385462,-30584.271917852395
-15486.093221437124,-11169.54668397268,-9345.979612586452,-29915.217151071687
-15580.976376649902,-11773.356708688343,-9040.766542049234,-29663.53650850493
-14474.63208134557,-10767.639966921804,-8765.169532915299,-29930.39398555684
-13073.512980164644,-8962.468381222294,-8694.158040780789,-30461.337323348205
-13430.068007715705,-8773.104402196932,-9126.731351224344,-30593.50318831244
-15438.86398540306,-11114.494337379258,-9364.531560484358,-29937.524192038083
-15607.37378685162,-11799.95528459016,-9059.564359136148,-29666.06225562838
-14535.987619875386,-10832.080046186453,-8780.703995311736,-29923.77786919807
-13118.998780131196,-9034.865681513034,-8691.945218079713,-30443.72414871742
-13355.569643446166,-8718.163814325788,-9100.713920678369,-30604.25437739544
-15385.532723132696,-11043.125217333463,-9374.500438511424,-29958.8701079929
-15616.76151952285,-11800.3352642459,-9080.195019268396,-29665.995200395013
-14567.458876068458,-10871.285005961065,-8787.118945970411,-29905.1588660668
-13164.37282137547,-9099.596333455604,-8692.19108726872,-30422.7805641628
-13305.926419010928,-8666.799505567493,-9079.099783790089,-30615.83258102329
-15356.386048362978,-10981.613216592456,-9368.845447164233,-29983.50173038265
-15642.66719134655,-11806.504345715564,-9079.725632634834,-29667.224546340058
-14608.340216677216,-10903.650331932347,-8792.706882084238,-29899.30270901951
-13199.643874125944,-9144.18806364394,-8700.572991439461,-30415.225674536905
-13240.212290312324,-8605.220449593122,-9074.964711065855,-30639.12309874572
-15307.771004172684,-10901.973951098198,-9383.821115949288,-30005.13821901539
-15671.657403905085,-11816.562630720451,-9099.283409033227,-29664.832909683337
-14670.321604051782,-10967.084582696509,-8810.32005671502,-29886.4057524688
-13260.597081255566,-9227.53771871778,-8694.068633802966,-30388.51533991281
-13194.70413860132,-8573.279806766488,-9041.370039149528,-30627.880171284694
-15263.49219840672,-10844.105284703408,-9385.832772950263,-30020.627977922915
-15699.284160051842,-11841.14954962129,-9117.544784253214,-29673.46068304309
-14707.492555080958,-11015.677275142343,-8814.365722461429,-29874.984011052136
-13299.39970962998,-9299.577391097237,-8701.444709473219,-30379.507586897325
-13149.330097357048,-8553.699678623638,-9038.285498414696,-30659.954924578065
-15216.53118330612,-10781.56510371746,-9394.169973632095,-30061.643428998403
-15719.177212617064,-11852.973622438149,-9129.905298937,-29679.36154357929
-14751.659602124644,-11065.47696178877,-8823.954620832756,-29862.48938590162
-13347.098332297604,-9367.102011096718,-8694.850944858903,-30353.043121462244
-13095.663558919854,-8510.583163569352,-9002.857983453034,-30655.551630920367
-15152.851063352951,-10694.885038719778,-9380.647168236634,-30070.29355410261
-15727.626172021171,-11843.34002057791,-9130.128816381552,-29673.885366187737
-14802.509820760468,-11105.955970997333,-8833.185891292798,-29852.699321830198
-13405.659902770509,-9434.693686329569,-8707.166756053777,-30344.2141824024
-13064.304061449058,-8488.410233069686,-8997.515916528215,-30678.08218933132
-15101.777327272574,-10623.180642507154,-9391.823040464287,-30112.8065720566
-15747.183948419566,-11849.531453792031,-9154.04518294873,-29698.1593606662
-14856.288117919938,-11161.54475945768,-8853.28010955812,-29862.62349636835
-13460.131104008093,-9508.11916686525,-8703.054035074001,-30339.788537000244
-13010.682226500778,-8450.188750051111,-8971.900817382433,-30687.000535368985
-15015.365483208358,-10518.529774967406,-9389.990197418952,-30134.77833685617
-15739.293782626844,-11827.403226781276,-9159.744877784837,-29701.288604889945
-14878.6622141197,-11177.906236398963,-8845.389943765396,-29843.62451358134
-13501.370072528134,-9556.376583144258,-8698.538982694028,-30316.78859195573
-12971.969005104183,-8418.136348502201,-8953.371221228985,-30685.30180279038
-14962.302441871458,-10438.510529817406,-9389.721976485487,-30154.224354532285
-15757.443399124551,-11824.609258724364,-9187.215171720409,-29711.2127794281
-14921.15288032924,-11214.138414161018,-8869.596883010494,-29836.9413419892
-13546.855872494683,-9626.203432822638,-8709.357227010398,-30296.38144926804
-12941.7047431117,-8413.554240888863,-8932.248822718719,-30685.7935411684
-14899.650502163233,-10359.05007827879,-9380.937740914553,-30184.98035490279
-15774.16250397712,-11827.850261670384,-9192.065500267208,-29714.230264929567
-14973.34420363238,-11266.933234564453,-8861.684365473315,-29817.1376964018
-13612.011207581903,-9705.306256449969,-8699.745976894616,-30274.56614667966
-12920.001199245597,-8406.848717552271,-8906.320799150562,-30683.670125445144
-14824.615696026767,-10269.441934757464,-9368.219598319483,-30202.794695233668
-15781.516227902915,-11819.021322610535,-9190.411471177516,-29709.40228812722
-15016.058387286472,-11306.294656550248,-8866.557045764572,-29804.978347418117
-13658.592243026764,-9764.985414145638,-8704.618657185873,-30256.50593715977
-12896.55421931198,-8401.03726399389,-8901.828098515047,-30694.398962783693
-14760.622651651223,-10181.577227303653,-9362.855179650209,-30236.679939827914
-15779.392812179663,-11796.71428164414,-9195.887648569063,-29721.3157679219
-15046.657925445788,-11333.429674318992,-8874.156638879376,-29793.62366123482
-13705.441499405088,-9828.911403287815,-8702.897572862814,-30236.00938749425
-12870.626195743824,-8393.527077856908,-8870.781525466624,-30690.97914588203
-14680.80457220132,-10089.04100525868,-9357.535464469847,-30259.478719172326
-15775.056573755332,-11778.072926768416,-9211.086834798674,-29724.579122612373
-15092.166077156791,-11367.761953802345,-8884.080813417533,-29787.0298966205
-13761.544377987908,-9890.445755773277,-8705.132747308344,-30213.8811604835
-12851.269585045527,-8388.475583610008,-8857.817513682547,-30677.858671886766
-14604.093385230708,-9992.92850410086,-9358.27307203687,-30281.78576013872
-15781.40446918064,-11762.113781227325,-9224.900212872057,-29733.720986094595
-15137.584821889976,-11409.604419422678,-8891.881572232434,-29778.13390232729
-13803.722119775071,-9954.77407631565,-8700.662398417282,-30193.876349196
-12834.572831937414,-8404.390025662187,-8846.194606565787,-30675.51173871896
-14544.704800212956,-9915.278543863124,-9356.395525502629,-30316.654481489004
-15793.31794897532,-11748.3227548984,-9232.611564709136,-29746.59559090085
-15167.245586782168,-11441.5003587604,-8896.463679845772,-29767.4274167332
-13854.59469015535,-10018.029513124173,-8704.126918807855,-30184.39920954695
-12833.63405867029,-8419.05277002487,-8821.473577198218,-30668.962677593558
-14457.443589859438,-9830.766598077607,-9333.70850488049,-30327.830353716658
-15781.091544758268,-11735.716371025608,-9248.838931183687,-29750.149518269245
-15205.712938989753,-11483.074603447272,-8912.087549220032,-29756.206841016632
-13900.728690711105,-10084.302435434156,-8708.843136887925,-30155.9677905998
-12830.661276657736,-8443.773799392438,-8808.397806691863,-30660.87134610073
-14375.32328073064,-9743.93007086874,-9320.520975651858,-30361.805005288723
-15753.867120011702,-11695.4608792616,-9250.761181206844,-29766.242774277067
-15226.544764822098,-11504.80049905783,-8923.53164238115,-29751.98236131458
-13948.069685467444,-10142.327564040132,-8718.946125381724,-30143.07083404909
-12828.15788127874,-8459.174151322146,-8800.977027532701,-30648.68964537259
-14291.191314600865,-9649.04691565596,-9304.450071388492,-30367.01296174681
-15747.675686797582,-11676.260730774491,-9268.843742471188,-29769.93081211219
-15275.003346801204,-11554.846054893262,-8937.501482665717,-29741.991131543055
-14001.065671570976,-10216.803576565217,-8719.929602137758,-30124.049499517623
-12837.120930805318,-8498.624980285762,-8796.372568174907,-30645.06866277083
-14220.04571199962,-9578.169533988184,-9319.962182040475,-30412.99050009137
-15739.360837860208,-11647.292869960413,-9281.673643788534,-29785.577033230908
-15310.430861762869,-11583.366880818234,-8942.57532865707,-29729.004768014525
-14061.951823467234,-10284.618769242616,-8731.44075053224,-30112.20307495631
-12853.236538557594,-8533.940736525146,-8782.916818012813,-30638.787822578888
-14141.635792450405,-9490.193067812092,-9284.869943245643,-30422.31117752924
-15721.501794040418,-11610.032511953415,-9293.9447514945,-29793.24368157908
-15338.638763265464,-11604.57868630632,-8962.20016028883,-29731.195238971144
-14100.285065208089,-10333.010295988355,-8734.368829055886,-30094.63460381444
-12867.608710242355,-8572.944530599658,-8778.245303421654,-30632.797555064863
-14067.562111325517,-9411.134947673672,-9278.186771653507,-30458.74452099139
-15703.173363587066,-11567.452438766057,-9291.88839100461,-29812.6896992552
-15373.775705549206,-11621.945991748094,-8967.676337680381,-29730.07765174838
-14151.425856521828,-10379.457220966486,-8740.068523891989,-30083.1011036755
-12868.033393387008,-8585.685024939183,-8751.266747864098,-30603.382659361683
-13974.377688691342,-9309.479213890936,-9257.958442921454,-30468.713399018456
-15685.58254070074,-11524.38062720068,-9324.678400120543,-29833.834449509915
-15418.389787482,-11665.844817858317,-8996.375977560994,-29728.49067789205
-14201.091432701522,-10446.333640376764,-8755.513579310606,-30073.355743092987
-12901.6951205367,-8640.245633154587,-8755.670041521793,-30592.027973178385
-13917.961885686149,-9245.799093937769,-9258.852512699666,-30499.89408253361
-15664.683659635028,-11484.482763347956,-9323.672571620056,-29842.90925775877
-15449.3469535526,-11689.470611747576,-8996.73360547228,-29716.0631079749
-14241.34692446553,-10496.356844467742,-8749.724477496682,-30044.25377181217
-12914.83794627642,-8681.015215041067,-8738.123922124378,-30577.052304393328
-13829.78425380996,-9160.43778186295,-9225.838986139175,-30512.27694896185
-15633.458272630964,-11432.73847493392,-9320.02923727384,-29851.55938286297
-15465.104933393592,-11703.082824120858,-8995.504259527237,-29703.523779335475
-14284.128163352989,-10554.51608354045,-8750.484436808161,-30028.875771626925
-12933.345190685415,-8726.389256285342,-8728.423265030773,-30551.370150014183
-13751.128465071735,-9077.244589000296,-9211.243297009862,-30522.33523396674
-15613.051129943267,-11380.97183477543,-9341.598670673213,-29870.53601390553
-15500.085413466146,-11717.812623716907,-9017.341913860071,-29695.87948273176
-14326.12709118451,-10593.966912504067,-8759.179265401277,-30006.70284112726
-12966.626938179368,-8779.698166811248,-8723.796453928526,-30541.5577341983
-13689.19178118608,-9013.720931258313,-9183.616540863102,-30541.513030709397
-15580.88696967208,-11327.506462038336,-9334.267298491872,-29878.67204888726
-15525.052312022724,-11735.358743114322,-9014.838518481078,-29685.64238377123
-14385.60508318008,-10651.701468432126,-8756.497056066639,-29989.916681041323
-13002.300322330037,-8834.728161660214,-8713.738168923637,-30520.83766708823
-13605.663312156596,-8942.664735634891,-9171.211322690408,-30553.5606209708
-15546.912318100014,-11274.979862568363,-9347.454827720505,-29893.71477290568
-15559.250481039344,-11768.662842352727,-9030.685905299892,-29686.335287849342
-14420.674970230457,-10709.54778308246,-8761.369736357896,-29967.56493658601
-13036.140863435372,-8901.716339792769,-8714.989866613134,-30506.353736681194
-13542.899613726097,-8887.545333808104,-9159.074325451174,-30582.930813185078
-15511.417747904989,-11217.468824084855,-9355.881435380154,-29922.190895341744
-15575.030812624793,-11767.500551641057,-9041.750018805267,-29685.821197726877
-14478.454229647426,-10756.441742949692,-8782.603893590438,-29968.36959938641
-13084.420631458835,-8961.104924810521,-8713.447596245718,-30495.043753986807
-13478.370127483622,-8826.927402845313,-9140.678839764458,-30599.91813897111
-15472.123381152556,-11158.191997789383,-9366.587920974243,-29944.363825841407
-15605.451536828465,-11793.138002531292,-9060.391373680994,-29687.54228204993
-14520.743730156868,-10811.628200009847,-8788.392995404363,-29958.89245973736
-13113.388492272914,-9018.59361154957,-8708.999599099112,-30482.057390458274
-13415.13704241956,-8768.522294583594,-9127.75953146929,-30625.68970032808
-15440.629773215029,-11091.7179097793,-9379.171953102585,-29969.01779997561
-15626.126900449624,-11792.087470541892,-9074.696490132392,-29686.201177382613
-14570.252844125373,-10853.314203418997,-8802.541649644572,-29950.26468637761
-13151.609975291489,-9074.830600599123,-8700.1036048059,-30464.824195483237
-13349.177044531947,-8708.999599099112,-9099.261057288772,-30630.003587007952
-15401.827144840616,-11028.171900292862,-9382.23414209296,-29990.587233374983
-15659.945089810502,-11815.62385745333,-9080.038557057209,-29683.943651192625
-14611.424757412047,-10901.057529575532,-8795.41144316333,-29922.593226741938
-13201.588475893555,-9140.343563597628,-8695.856773359392,-30439.857296926653
-13287.933264724406,-8660.608072353372,-9077.356347722573,-30639.63718886819
-15338.124673142993,-10958.434457592304,-9382.14473511514,-30004.333556215
-15665.108342779678,-11825.48097675812,-9097.60702819908,-29688.995145439523
-14644.751208394911,-10953.137094156396,-8814.231611994697,-29917.429973772763
-13240.636973456976,-9215.6242389231,-8713.20172705671,-30437.0856806142
-13233.28324953118,-8623.504176557562,-9070.69552787489,-30671.91310786165
-15296.036338333648,-10897.905933607331,-9398.327398100782,-30052.56862074955
-15700.044119363323,-11852.81716022696,-9113.342656295616,-29711.078668961367
-14703.20102014554,-11012.056292540588,-8819.707789386248,-29917.49702900613
-13295.465802605844,-9284.489963589904,-8707.367921753874,-30416.25385478185
-13174.811086036098,-8575.157353300734,-9037.190262936385,-30668.11331130425
-15237.854747516483,-10811.71760698767,-9387.553857273324,-30063.632734254927
-15701.385224030642,-11834.712247218162,-9119.310572065184,-29695.87948273176
-14733.711151327034,-11039.124255075963,-8820.020713808623,-29890.339659492933
-13319.292762195202,-9329.886356578632,-8696.348511737408,-30382.79329333225
-13111.712111438765,-8530.610326601307,-9021.92402147341,-30672.06957007284
-15174.085220585494,-10738.202719474164,-9385.050461894329,-30078.496644317707
-15710.0577008793,-11839.137892620312,-9127.915993680475,-29692.705535019108
-14773.698422157577,-11078.686842761856,-8826.45801621175,-29876.794502353016
-13374.367460533078,-9404.42942433708,-8699.09777630541,-30370.20926120392
-13066.718049850231,-8504.190564655133,-9002.433300308383,-30678.752741664972
-15111.053301221527,-10661.15625633672,-9398.170935889597,-30100.24489167272
-15726.0615499093,-11843.563538022465,-9136.029676917751,-29688.41400008369
-14820.12299539125,-11129.693523608868,-8824.155786532854,-29851.80525205198
-13422.356655878622,-9474.457439715556,-8692.883991346836,-30340.77201375628
-13029.77061626561,-8479.514238776474,-8984.864829166512,-30685.435913257115
-15061.611242486388,-10585.09326995531,-9398.394453334147,-30124.563589640093
-15730.286029611354,-11828.565517492952,-9147.47377007887,-29690.604471040308
-14849.403780627705,-11153.274614009217,-8838.505606473162,-29839.042405968
-13459.639365630075,-9526.69346650761,-8698.650741416304,-30320.543685024222
-12978.830990651964,-8447.215968038556,-8970.447953992838,-30687.06759060235
-14981.793163036486,-10492.042957787868,-9387.509153784413,-30142.48968869325
-15739.137320415655,-11835.852186185382,-9172.060688979707,-29707.189465426145
-14891.939150326152,-11212.84201298261,-8864.634795741415,-29843.177478692232
-13524.302962339278,-9621.688380442663,-8716.9568201252,-30315.24632158832
-12970.09145856994,-8462.48220950153,-8961.797828888635,-30708.16763736816
-14945.136302129782,-10441.39390485214,-9403.982389447974,-30186.902604925945
-15763.947756761048,-11841.998915910592,-9191.596113633646,-29716.77836379747
-14945.516281785523,-11254.617423369578,-8871.452077800284,-29837.030748967023
-13569.900521028105,-9672.96328222314,-8703.054035074001,-30293.118094577563
-12920.872917279354,-8419.812729336349,-8928.829005817057,-30700.50098901999
-14861.94310926713,-10335.223118689431,-9385.51984852789,-30195.172750374408
-15757.845730524748,-11828.43140702622,-9195.462965424416,-29710.3634131388
-14974.30532864396,-11291.274284276282,-8885.04193842911,-29825.944283717192
-13628.573850223283,-9752.557844228488,-8718.655552703805,-30282.18809153892
-12902.32096938145,-8426.786473606406,-8912.95926725379,-30698.35522155228
-14791.535114232913,-10249.817103125704,-9386.503325283924,-30230.309692658157
-15779.459867413028,-11825.995066880592,-9221.055712825742,-29729.474154648087
-15042.187576554728,-11341.565709300725,-8903.862107260478,-29819.484629569608
-13688.431821874598,-9817.80258629353,-8723.885860906346,-30260.48454767281
-12887.948797696688,-8423.836043338304,-8900.71051129228,-30695.203625584083
-14730.000761747451,-10166.221578862856,-9380.736575214456,-30257.198841237885
-15790.009890795936,-11814.126290574824,-9229.124692574109,-29737.520782652
-15078.687975250245,-11376.613244606644,-8905.605543327993,-29807.97348117513
-13737.404493976175,-9881.52740973561,-8728.535023753051,-30242.826669553124
-12876.370594068838,-8424.104264271768,-8894.675540289349,-30701.573872753845
-14659.369249268682,-10075.4287928854,-9383.351729315726,-30292.693411432912
-15788.802896595347,-11801.1846305352,-9248.950689905963,-29757.34677998385
-15117.110623968914,-11415.751149147887,-8927.15262498291,-29813.00262367757
-13780.498657286009,-9937.093846451504,-8731.597212743427,-30227.31455890114
-12856.432838014704,-8422.271421226433,-8878.51522904816,-30696.142398851207
-14584.714422787956,-9985.239504008236,-9366.118534340683,-30301.72351619286
-15777.068230756311,-11767.94758653016,-9240.121750846118,-29739.97947454208
-15138.90357481284,-11430.145672577104,-8917.250802189208,-29774.423512747708
-13830.410102654709,-9999.477565226263,-8731.35134355442,-30193.272852095703
-12845.16755880923,-8434.67663939913,-8849.100333344977,-30680.004439354478
-14516.362788243629,-9905.086148391503,-9357.535464469847,-30326.265731604784
-15793.943797820068,-11758.559853858931,-9263.769896479833,-29757.45853870613
-15200.572037765032,-11478.313681878291,-8941.077761778566,-29781.978402373603
-13897.063004620435,-10069.594987582564,-8744.605928016415,-30192.53524452868
-12849.369686766826,-8447.305375016376,-8849.904996145367,-30685.011230112465
-14436.544708793726,-9800.971722718685,-9352.886301623144,-30360.8662320216
-15779.325756946297,-11713.811661459406,-9276.555094308267,-29779.98909711708
-15229.428139856833,-11492.618798329688,-8942.0612385346,-29765.52751845449
-13939.888946996803,-10119.081749806614,-8736.82752094597,-30163.16505231441
-12847.715657677134,-8466.930206648136,-8826.502719700662,-30670.54965144988
-14366.494341670794,-9718.896117078795,-9331.22746124595,-30383.687363110468
-15773.089620243269,-11691.258751304002,-9274.722251262934,-29778.49153023857
-15270.465942676778,-11530.795577859351,-8944.519930424683,-29761.213631774623
-13994.650720912305,-10184.035919193737,-8734.480587778162,-30151.07275856409
-12856.58930022589,-8493.372320338765,-8812.823452094013,-30661.944229834586
-14295.773422214204,-9643.660145242233,-9330.93688856803,-30402.596938919654
-15782.432649425586,-11679.41232674269,-9300.829088786732,-29796.0823531249
-15317.516364755198,-11569.665261467131,-8957.662756164404,-29755.98332357208
-14036.023799899078,-10245.816140868204,-8721.851852160913,-30124.02714777317
-12848.25209954406,-8512.885393248247,-8773.93141674178,-30640.9335900466
-14206.85818277099,-9543.747847527007,-9295.151745695084,-30426.69211944248
-15769.759210319426,-11640.319125690356,-9293.005978227377,-29814.12021090033
-15350.820463993608,-11588.15015413167,-8962.58013994457,-29750.1718700137
-14098.921608796312,-10306.545830553274,-8745.20942511671,-30123.20013322832
-12878.7398789811,-8558.952338570636,-8792.192791961765,-30650.88011632921
-14135.667876680838,-9464.600320410767,-9300.65027483109,-30453.55891627776
-15745.328753629776,-11595.86150596875,-9313.949562781998,-29822.1891906487
-15387.745545833774,-11618.704988802076,-8978.44987850784,-29741.767614098502
-14151.247042566189,-10362.38048820263,-8749.322146096487,-30103.91057776339
-12895.21311464466,-8594.715129699127,-8787.297759926052,-30639.6818923571
-14058.330840865476,-9381.876514181677,-9296.783423040322,-30482.88440500312
-15735.203413391522,-11563.272662552914,-9333.932022325042,-29843.19983043669
-15431.599668455085,-11656.412381698176,-8995.280742082685,-29737.610189629817
-14205.13709844793,-10428.519300045884,-8749.031573418568,-30083.458731586783
-12914.592077087413,-8642.145531433289,-8758.911044467814,-30619.408860136136
-13993.287264500532,-9320.766844840866,-9263.322861590726,-30499.93878602252
-15716.986741660448,-11535.489444194967,-9329.03699028933,-29853.973371264143
-15460.522825780254,-11692.085765848848,-9002.030968908188,-29734.25742796152
-14255.249709516733,-10498.256742746442,-8754.999489188134,-30071.969934936755
-12939.402513432804,-8691.274665746054,-8749.523311796584,-30603.405011106137
-13917.827775219415,-9243.809788681245,-9252.146989363073,-30518.17780949805
-15699.57473272976,-11497.491478620945,-9350.8075893888,-29871.430083683743
-15501.761794300295,-11727.110949410317,-9024.002733707755,-29733.3186546944
-14293.605303002038,-10548.145836370688,-8767.427059105285,-30060.36937956445
-12944.61046989089,-8726.769235941081,-8749.009221674112,-30592.29619411185
-13826.185622952657,-9158.448476606429,-9239.965288634932,-30544.798737144323
-15669.399877715095,-11441.098027360204,-9354.674441179568,-29891.121970548866
-15515.999855518325,-11723.422911575188,-9029.143634932476,-29731.463459904608
-14336.40889363395,-10586.166153689164,-8780.033442978078,-30059.76588246416
-12975.120601072384,-8763.82842824798,-8746.729343739671,-30588.00465917643
-13750.837892393816,-9069.309719718662,-9227.06833208422,-30572.783121202367
-15636.296944176787,-11374.936863772497,-9364.017470361883,-29901.11320032039
-15555.160111804023,-11745.484083352576,-9037.570242592126,-29710.3634131388
-14392.89175187251,-10636.658744413704,-8778.044137721556,-30020.203294778265
-13019.175889393797,-8816.623248651416,-8742.68367799326,-30558.6121152177
-13684.296749150366,-9002.25448635274,-9211.846794110155,-30578.57222301629
-15608.1337461631,-11325.42774980399,-9374.90276991162,-29919.866313918392
-15581.535170261286,-11771.143885987269,-9054.624623611526,-29717.82889578687
-14429.772130223768,-10698.349559110353,-8784.50379186914,-30007.21693124973
-13041.035895471085,-8882.337377350019,-8732.223061588176,-30547.61505694569
-13612.748815148929,-8944.72109612478,-9179.034433249764,-30595.8724732247
-15566.805370665235,-11276.075098046673,-9365.269168051384,-29935.713700737204
-15601.495278059874,-11793.3838717203,-9053.0376497552,-29712.64329107324
-14474.274453434284,-10753.580719659414,-8786.046062236555,-29998.49975091216
-13074.183532498304,-8946.106904281009,-8731.820730187981,-30531.544152682323
-13538.67513402404,-8884.684310517825,-9170.965453501398,-30618.8277147803
-15517.11744274109,-11210.092748414609,-9391.018377663897,-29959.54066032656
-15619.130804435112,-11806.884325371306,-9093.13667930802,-29722.589817355853
-14527.583363960191,-10807.403720307797,-8805.26856246812,-29989.26848045212
-13112.114442838962,-8997.806489206134,-8714.028741601556,-30503.91739653557
-13465.026136043803,-8815.55036491756,-9138.443665318926,-30626.27084568392
-15482.181666157445,-11151.35236398606,-9387.822078206787,-29982.45119839325
-15644.589441369706,-11814.998008608582,-9088.196943783396,-29712.93386375116
-14551.79030320529,-10834.985772965643,-8809.247172981164,-29969.844814520457
-13143.138664142927,-9054.021126511232,-8733.474759277673,-30494.75318130889
-13397.501516044322,-8758.911044467814,-9123.155072111496,-30636.418537666625
-15434.214822556356,-11075.490543304748,-9383.038804893353,-29984.105227482945
-15669.064601548267,-11820.3400755334,-9096.958827609877,-29704.373145624777
-14615.13514699163,-10892.58621842697,-8811.974085804712,-29954.288000379565
-13199.04037702565,-9118.818833687166,-8709.625447943861,-30464.60067803868
-13346.584242175131,-8705.982113597645,-9099.9986648558,-30648.980218050507
-15396.149801748968,-11006.423652937849,-9383.843467693743,-30012.51429468564
-15707.15197410011,-11837.260346086066,-9102.65852244598,-29708.10588694881
-14677.921197166586,-10949.82903597701,-8826.301554000564,-29950.085872421965
-13250.225871828305,-9189.53975314376,-8714.542831724028,-30455.88349770111
-13293.901180493973,-8669.61582536886,-9089.091013561609,-30668.51564270445
-15351.222795393802,-10954.567605801536,-9402.90950571412,-30039.314036287557
-15705.788517688336,-11844.032924656023,-9110.593391727614,-29701.89210199024
-14701.211714889016,-10988.765774818155,-8814.857460839447,-29922.392061041843
-13284.401689100469,-9250.828236440211,-8704.81982288597,-30426.7815264203
-13231.159833807926,-8617.424502065718,-9062.626548126524,-30676.294049774893
-15291.208361531302,-10869.474514660182,-9392.314778842305,-30047.941809647305
-15720.898296940124,-11850.2467096146,-9126.038447146231,-29707.12241019278
-14738.181500218094,-11031.502310216703,-8823.50758594365,-29911.506761492103
-13325.01480877576,-9314.821280815757,-8704.417491485774,-30410.68827041248
-13175.056955225104,-8580.432364992186,-9047.136789218996,-30684.743009179
-15242.97329699675,-10811.337627331928,-9401.970732446996,-30079.39071409592
-15725.189831875545,-11850.649041014796,-9123.467996533873,-29698.382878110755
-14774.324271002326,-11071.780153725167,-8829.274336013119,-29894.72060140617
-13368.108972085593,-9377.026185634872,-8697.466098960174,-30387.531863156782
-13121.971562143752,-8536.73470458206,-9008.35651258904,-30680.250308543484
-15172.967633362729,-10704.675102791203,-9385.989235161453,-30092.198263668808
-15755.20822467902,-11856.30403236199,-9145.52916831126,-29704.104924691317
-14822.067597158864,-11116.10366298004,-8843.333583275507,-29878.67204888726
-13423.049559956737,-9448.998802780963,-8707.993770598623,-30364.30840066772
-13084.39827971438,-8512.527765336963,-8996.10775662753,-30688.431047014124
-15119.502260625632,-10640.659706671204,-9386.704490984022,-30118.19334247033
-15769.088657985769,-11861.601395797898,-9150.33479336915,-29705.87071250328
-14871.666118105188,-11164.294024025685,-8840.472559985228,-29863.53991789102
-13464.28852847678,-9510.086120377317,-8695.186221025733,-30340.14616491153
-13035.112683190428,-8480.005977154491,-8968.928035369878,-30683.625421956232
-15058.638460473832,-10565.870769723746,-9391.398357319636,-30135.82886884557
-15776.397678422652,-11860.215587641667,-9164.975185987376,-29702.3614886238
-14903.115022553806,-11200.21327736536,-8847.647469955382,-29840.89760075779
-13508.544982498286,-9576.291987453937,-8701.735282151138,-30315.559246010693
-12998.031139139071,-8464.739735691517,-8964.033003334165,-30690.375648781737
-15001.417994668243,-10489.852486831249,-9392.918275942597,-30153.68791266536
-15779.348108690752,-11858.91918646326,-9172.820648291188,-29698.85226474432
-14942.029409650497,-11248.761266322288,-8861.527903262127,-29836.47195535564
-13560.713954056971,-9642.967241164117,-8710.944200866723,-30304.830408672144
-12954.89227234033,-8436.800055122383,-8943.692915879836,-30688.386343525213
-14917.397787260748,-10393.158840317588,-9383.95522641602,-30175.54791874265
-15779.973957535502,-11839.361410064868,-9186.656378109024,-29710.251654416523
-14985.414145638246,-11279.696080648431,-8878.381118581428,-29824.826696494427
-13601.751756876918,-9698.10899473536,-8703.523421707561,-30276.75661763628
-12931.847623806909,-8430.407456208164,-8925.878575548957,-30692.56611973836
-14847.950917238108,-10311.351455611164,-9379.261360080403,-30201.36418358853
-15787.573550650306,-11838.020305397547,-9199.553334659737,-29720.2652359325
-15017.26538148706,-11315.213002587916,-8880.169258137854,-29824.580827305417
-13656.781751725885,-9775.893065439828,-8716.822709658469,-30271.28044024473
-12901.136326925318,-8427.702895129072,-8901.224601414753,-30695.829474428832
-14785.947178119086,-10234.059123284713,-9376.690909468043,-30236.74699506128
-15790.523980918406,-11821.368255778343,-9214.01491332232,-29725.18261971267
-15053.095227848917,-11339.375238344102,-8894.519078078161,-29805.157161373754
-13710.649455863171,-9826.475063142188,-8727.842119674935,-30249.643951611997
-12895.034300689018,-8410.246182709478,-8895.591961812015,-30694.26485231696
-14730.224279192003,-10134.884433136516,-9378.635511235656,-30262.60796339607
-15808.047748571367,-11805.744386404083,-9224.609640194136,-29735.68793960666
-15095.94352196974,-11372.00878524885,-8904.555011338594,-29791.343783300377
-13758.191616319613,-9883.270845803125,-8731.86543367689,-30227.873352512524
-12868.301614320471,-8406.267572196433,-8879.677519759836,-30692.32025054935
-14641.957240337995,-10037.587289522564,-9361.312909282791,-30280.444655471405
-15796.290730987876,-11777.04474652347,-9229.750541418856,-29730.85996280432
-15128.062978752016,-11401.647198396588,-8909.941781752323,-29782.85012040736
-13797.754204005503,-9940.82658777554,-8719.236698059643,-30205.007517934744
-12855.918747892232,-8416.929354301614,-8859.024507883132,-30682.619593455744
-14573.35973660466,-9960.63023336294,-9359.033031348352,-30307.646728473515
-15799.352919978252,-11768.752249330551,-9246.916681160532,-29744.405119944237
-15175.269863041623,-11451.64805074311,-8921.38587491344,-29779.296193038965
-13853.767675610505,-10018.141271846447,-8730.904308665313,-30199.084305654087
-12846.285146031994,-8436.800055122383,-8855.381173536918,-30678.01513409795
-14493.184029243474,-9880.879209146406,-9374.589845489245,-30336.346368354127
-15799.665844400626,-11761.353821915844,-9290.949617737488,-29769.774349901003
-15214.474822816232,-11491.590618084743,-8941.0107065452,-29770.22138479011
-13914.810289717949,-10096.484136162298,-8744.91885243879,-30183.996878146758
-12859.271509560527,-8475.647386985705,-8845.613461209949,-30682.440779500103
-14430.129758135052,-9808.012522222103,-9351.09816206672,-30366.00713324632
-15794.03320479789,-11735.917536725705,-9283.148858922585,-29776.83750114888
-15264.095695507014,-11531.600240659744,-8957.215721275297,-29770.78017840149
-13968.43212466623,-10159.605462504083,-8748.763352485103,-30170.183500073377
-12861.8866636618,-8494.981645939546,-8838.393847750885,-30678.12689282023
-14352.099818241575,-9719.678428134732,-9352.841598134231,-30392.98568880388
-15782.902036059146,-11708.648408490231,-9302.773690554344,-29788.28159431
-15291.051899320117,-11558.087057839282,-8970.693823181848,-29761.70537015264
-14017.270686301075,-10221.162166734,-8763.135524169866,-30152.391511486952
-12855.963451381142,-8513.824166515371,-8823.373475476918,-30660.15609027816
-14267.92314862289,-9630.71848520261,-9331.98742055743,-30406.10616279914
-15768.753381818937,-11681.222818043569,-9311.960257525476,-29799.72568747112
-15321.405568290422,-11591.14528788868,-8977.153477329432,-29756.36330322782
-14052.675849518282,-10273.46524875942,-8755.871207221891,-30133.03490078865
-12853.795332168977,-8536.73470458206,-8808.956600303245,-30649.606066895256
-14182.248912125697,-9538.003449201997,-9321.504452407891,-30430.08958459969
-15752.63777406666,-11635.11116923227,-9321.102121007696,-29812.287367855
-15351.13338841598,-11604.77985200642,-8980.260369808719,-29736.02321577349
-14097.98283552919,-10324.650743562072,-8750.77500948608,-30103.24002542973
-12860.769076439034,-8568.675347408695,-8792.751585573147,-30623.16395320463
-14102.40848093134,-9462.879236087709,-9298.638617830113,-30440.058462626752
-15735.248116880432,-11610.881878242715,-9320.878603563144,-29811.505056799066
-15397.80383083866,-11650.042134528416,-9000.086367140577,-29729.854134303827
-14155.784446690614,-10394.34348277372,-8761.079163679977,-30079.34601060701
-12885.244236617596,-8619.525566044518,-8788.281236682085,-30612.0774879548
-14041.276459846076,-9397.165107389106,-9300.382053897629,-30468.62399204064
-15731.761244745405,-11590.787659977395,-9334.915499081077,-29825.81017325046
-15438.10402609158,-11696.667873462186,-9005.651951509948,-29723.819163300894
-14199.347996634007,-10455.83313177027,-8766.600044560439,-30070.22649886924
-12888.395832585791,-8642.525511089028,-8770.422192862296,-30587.512920798414
-13949.880176768324,-9296.336388151216,-9279.88550423211,-30474.949535721487
-15705.408538032598,-11529.789749358864,-9356.686098180544,-29830.772260519538
-15456.544215267208,-11695.12560309477,-9020.44880633936,-29705.535436336453
-14245.370238467483,-10498.904943335649,-8766.622396304894,-30049.059396870067
-12919.442405634214,-8694.806241369992,-8769.572826572994,-30590.686868511068
-13878.622815444804,-9227.582422206691,-9272.487076817402,-30514.690937363022
-15679.212293530976,-11485.645054059632,-9359.480066237458,-29858.55547887749
-15496.442079119932,-11724.920478453694,-9024.87445174151,-29713.291491662443
-14306.792832230669,-10562.450952822084,-8774.937245242269,-30041.10217584398
-12968.48213296916,-8749.903291452323,-8762.35321311393,-30578.99690616094
-13830.946544521636,-9162.158866186008,-9248.101323616664,-30540.37309174217
-15664.1472177681,-11437.208823824982,-9356.484932480447,-29872.81589183997
-15530.148509758534,-11741.617231561808,-9032.049361711664,-29707.234168915056
-14350.959879274356,-10611.848308068313,-8791.209315205731,-30033.770803662635
-12977.62399645138,-8788.750623315647,-8754.552454299028,-30563.596554231237
-13739.796130632894,-9080.329129735128,-9222.374465748604,-30548.039740090346
-15637.973325010937,-11398.20502975047,-9366.118534340683,-29892.373668238364
-15551.36031524662,-11769.534560386486,-9047.449713641372,-29711.436296872653
-14400.46899324286,-10682.613931013817,-8799.702978098749,-30024.85245762497
-13006.055415398529,-8853.66008921386,-8744.315355338496,-30549.29143777984
-13653.741914479962,-9012.268067868716,-9196.893477069554,-30569.296249067334
-15593.85098145616,-11345.343154113669,-9376.512095512402,-29914.99363362713
-15574.94140564697,-11794.166182776236,-9064.437039427405,-29716.957177753116
-14432.052008158207,-10728.256193191552,-8803.860402567436,-30011.06143129605
-13033.7268750342,-8912.311066664584,-8758.441657834252,-30542.36239699869
-13599.673044642574,-8962.378974244473,-9202.146137016553,-30592.74322900096
-15576.03664112528,-11304.37240652709,-9388.649092751632,-29934.03731990305
-15596.309673346244,-11803.33039800291,-9066.7392691063,-29707.50238984852
-14472.6651278335,-10763.28137675302,-8802.474594411206,-29989.87197755241
-13075.68109937681,-8951.471322950283,-8745.656460005815,-30521.66468163308
-13533.936564199515,-8876.481220302729,-9172.887703524557,-30601.63922329417
-15523.867669566593,-11204.415405322958,-9380.021319391886,-29939.31233159451
-15632.117167963645,-11810.482956228609,-9079.770336123744,-29694.60543329781
-14524.320009269715,-10808.543659275016,-8805.69324561277,-29968.056674964035
-13117.098881852497,-9010.815204479124,-8734.882919178357,-30502.665698846067
-13466.90368257805,-8818.143167274377,-9150.08892418014,-30621.53227585939
-15490.340052883632,-11157.074410566618,-9397.634494022668,-29974.27045992261
-15662.560243911774,-11837.57327050844,-9096.42238574295,-29710.095192205332
-14587.709556544967,-10874.257787973618,-8811.102367770955,-29967.341419141463
-13169.670184811375,-9083.36896698105,-8721.740093438637,-30486.81831202725
-13408.789146994251,-8777.530047599084,-9125.479653534849,-30641.760604591444
-15451.313907064668,-11106.6712268199,-9393.52177304289,-29992.487131653685
-15686.72247966796,-11859.813256241472,-9101.65269394549,-29709.648157316227
-14637.308077491294,-10932.059399135042,-8819.439568452784,-29959.25008764864
-13209.545696919644,-9153.888720737545,-8726.67982896326,-30477.40822761157
-13343.20912876238,-8723.192956828232,-9111.912144650478,-30655.842203598288
-15402.184772751902,-11035.302106774105,-9401.344883602247,-30011.06143129605
-15690.43286924754,-11857.421619584757,-9112.627400473048,-29700.528645578463
-14655.792970155831,-10957.763905258646,-8823.529937688105,-29933.27736059157
-13240.078179845594,-9197.988712547864,-8721.360113782897,-30446.33930281869
-13287.374471113024,-8668.699403846193,-9096.534144465226,-30655.708093131558
-15352.206272149837,-10965.45290535127,-9421.170880934103,-30032.005015850667
-15706.2579043219,-11853.666526516265,-9125.211432601383,-29701.13214267876
-14695.57907528628,-10981.88143752592,-8818.0314085521,-29910.076249846967
-13272.935244194896,-9238.7806461788,-8701.064729817477,-30411.69409891297
-13219.603981924532,-8605.220449593122,-9058.737344591302,-30657.71975013253
-15295.54459995563,-10881.119773521395,-9397.723901000489,-30035.916571130347
-15717.143203871634,-11848.995011925104,-9123.490348278328,-29691.409133840694
-14745.602279377255,-11037.51492947518,-8830.146054046876,-29897.87219737437
-13335.78834960322,-9324.432530931535,-8709.58074445495,-30401.99344181937
-13184.109411729503,-8591.764699431027,-9044.45457988436,-30680.630288199223
-15255.892605291916,-10830.850700241412,-9394.90758119912,-30072.685190759326
-15758.0692479693,-11890.479849634154,-9123.691513978423,-29697.086476932345
-14797.301864302382,-11102.558505840125,-8816.064455040032,-29888.86444435888
-13385.476277527368,-9404.76470050391,-8692.392252968819,-30388.24711897935
-13133.683876238332,-8558.21473100361,-9007.797718977656,-30678.797445153887
-15196.883999929903,-10744.237690477095,-9381.071851381284,-30085.828016499046
-15769.245120196954,-11881.650910574308,-9122.998609900307,-29695.83477924285
-14838.69729503361,-11138.63422139099,-8817.98670506319,-29870.75953135008
-13432.414940883513,-9461.96281456504,-8690.447651201208,-30358.988685487355
-13094.88124786392,-8525.447073632131,-8994.297265326652,-30682.127855077728
-15141.295211469558,-10665.000756383031,-9397.254514366929,-30116.76283082519
-15781.136248247178,-11871.033831958037,-9146.199720644918,-29703.4120206132
-14879.84685657583,-11168.294986283185,-8834.549347704571,-29864.881022558337
-13479.375955984113,-9518.17745187014,-8692.593418668917,-30341.979007956867
-13033.212784911728,-8471.646424728206,-8960.523779454683,-30678.46216898706
-15060.73952445263,-10554.337269584808,-9384.42461304958,-30132.498458921727
-15779.348108690752,-11848.458570058176,-9159.610767318103,-29701.48977059004
-14910.75931915752,-11187.249265581282,-8848.586243222504,-29850.50885087357
-13516.882183180116,-9562.389202402735,-8699.43305247224,-30326.42219381597
-12993.091403614451,-8441.851549369281,-8952.410096217405,-30699.383401797226
-14998.713433589151,-10467.187817953563,-9384.29050258285,-30165.556688971126
-15793.809687353336,-11844.859939200873,-9169.557293600714,-29704.59666306933
-14946.812682963931,-11231.773940536254,-8856.9904991377,-29834.1920774212
-13566.59246284872,-9640.799121951954,-8705.803299642002,-30307.445562773417
-12967.319842257482,-8444.243186026,-8935.66863962038,-30697.572910496347
-14928.730121699587,-10392.19771530601,-9369.538351242349,-30178.56540424412
-15794.770812364915,-11841.417770554754,-9172.641834335547,-29713.98439574056
-14991.225599196625,-11282.445345216436,-8864.455981785773,-29834.594408821395
-13618.560268707308,-9718.046750789494,-8697.24258151562,-30289.698277675903
-12942.71057161219,-8450.456970984575,-8908.935953251834,-30699.763381452965
-14878.37164144178,-10339.201729202478,-9373.248740821928,-30211.534227315693
-15825.862088902246,-11862.406058598288,-9200.782680604778,-29729.02711975898
-15053.11757959337,-11339.174072644004,-8878.716394748259,-29830.705205286173
-13681.771002026917,-9793.886219726352,-8706.160927553288,-30278.27653625924
-12929.970077272665,-8450.009936095468,-8908.846546274013,-30706.737125723022
-14827.23085012804,-10265.016289355312,-9377.942607157542,-30240.435032896406
-15837.641458230191,-11859.67914577474,-9207.287038241271,-29737.40902392972
-15097.08346093696,-11382.603512120666,-8898.0506537021,-29829.16293491876
-13742.455988223075,-9869.591578196476,-8719.72843643766,-30264.641972141504
-12908.333588639927,-8450.904005873681,-8889.199362897798,-30711.16277112517
-14728.480843124493,-10160.276014837744,-9366.923197141075,-30267.301829731685
-15822.50932723395,-11833.259383828568,-9222.01683783732,-29737.07374776289
-15120.910420526316,-11409.604419422678,-8896.463679845772,-29804.82188520693
-13765.2994710564,-9913.177479884323,-8708.597267698917,-30231.002596736267
-12872.570797511436,-8433.290831242899,-8866.959377164767,-30688.632212714223
-14641.264336259885,-10057.03330719868,-9359.10008658172,-30285.317335762666
-15801.722204890517,-11796.3343019884,-9228.007105351342,-29741.74526235405
-15136.646048622852,-11422.322562017747,-8908.086586962532,-29801.782047961005
-13799.430584839653,-9961.3007856966,-8717.761482925593,-30217.882122741
-12842.59710819687,-8423.970153805036,-8847.356897277463,-30681.36789576625
-14564.709611500455,-9966.240521221223,-9350.718182410978,-30309.9042546635
-15797.922408333114,-11773.42376392171,-9236.612526966635,-29742.08053852088
-15172.09591532897,-11452.117437376672,-8904.197383427309,-29773.194166802667
-13853.41004769922,-10021.426978281375,-8709.603096199406,-30190.59064276107
-12840.428988984704,-8440.398685979688,-8831.576565692016,-30674.997648596487
-14495.15098275554,-9885.438965015288,-9338.402371216103,-30328.567961283683
-15806.192553781577,-11765.198321962158,-9250.515312017837,-29758.620829417807
-15226.81298575556,-11504.353464168724,-8930.840662818035,-29774.26705053652
-13912.195135616676,-10095.85828731755,-8718.275573048064,-30175.50321525374
-12845.25696578705,-8464.180942080135,-8809.805966592547,-30673.902413118176
-14434.577755281658,-9815.61211533691,-9325.907746065586,-30350.45031910543
-15815.17795505261,-11759.677441081696,-9263.6357860131,-29766.68980916617
-15270.465942676778,-11539.356295985735,-8936.607412887504,-29766.913326610724
-13972.0978107569,-10160.588939260118,-8727.77506444157,-30167.836566905567
-12857.908053148754,-8493.171154638667,-8815.796234106569,-30676.539918963903
-14358.581824133616,-9731.88248060733,-9339.832882861245,-30394.59501440466
-15795.083736787288,-11719.958391184617,-9286.680434546524,-29786.716972198126
-15290.202533030812,-11561.864502652228,-8938.261441977196,-29753.72579738209
-14007.927657118757,-10218.390550421544,-8727.39508478583,-30146.49065095075
-12853.415352513235,-8514.427663615665,-8799.993550776668,-30662.234802512507
-14276.64032896046,-9632.461921270124,-9315.089501749218,-30413.59399719167
-15787.752364605947,-11686.006091357003,-9297.878658518632,-29801.335013071897
-15344.405513334932,-11605.830383995815,-8980.77445993119,-29765.304001009943
-14057.88380597637,-10277.80148718375,-8753.926605454279,-30130.933836809854
-12850.151997822762,-8537.78523657146,-8810.07418752601,-30649.22608723952
-14193.625950053449,-9551.950937742107,-9327.673533877556,-30437.622122481123
-15749.039143209357,-11648.008125782982,-9312.116719736665,-29807.41468756374
-15345.187824390869,-11617.989732979506,-8987.30116931214,-29752.38469271477
-14096.9770070287,-10338.62058384664,-8767.82939050548,-30128.63160713096
-12860.187931083196,-8578.510114969029,-8800.59704787696,-30652.26592448544
-14102.855515820447,-9467.39428846768,-9296.336388151216,-30458.92333494703
-15737.036256436855,-11617.363884134757,-9316.22944071644,-29825.005510450068
-15391.768859835727,-11658.938128821628,-8988.418756534906,-29743.667512377207
-14149.727123943225,-10398.322093286764,-8757.055849678021,-30112.18072321185
-12876.012966157552,-8611.523641529518,-8778.625283077394,-30632.752851575955
-14031.911078919302,-9385.072813638784,-9282.88063798912,-30477.89996598959
-15734.175233146578,-11582.338700573291,-9328.433493189035,-29836.360196633363
-15436.651162701985,-11682.094536077326,-8993.090271126064,-29725.562599368408
-14208.802784538602,-10455.631966070172,-8755.9159107108,-30074.160405893377
-12907.84185026191,-8656.80827579597,-8763.82842824798,-30613.843275766765
-13959.133798972822,-9306.975818511944,-9265.31216684725,-30494.50731211988
-15717.165555616088,-11541.837339620271,-9335.921327581564,-29849.011283995067
-15491.077660450655,-11720.964219685104,-9002.030968908188,-29724.73558482356
-14271.67824169138,-10520.27321103492,-8755.379468843874,-30064.45974879977
-12935.08862675293,-8701.757633895593,-8746.662288506304,-30599.24758663745
-13902.673292478716,-9235.182015321496,-9245.530873004303,-30526.8055828578
-15696.378433272654,-11489.13192619466,-9329.819301345266,-29861.23768821212
-15509.204925203912,-11727.289763365956,-9008.624733522503,-29720.2652359325
-14309.407986331938,-10561.75804874397,-8763.157875914321,-30056.636638240416
-12947.85147283691,-8731.708971465703,-8743.689506493749,-30588.451694065538
-13809.175945422166,-9140.880005464554,-9236.031381610796,-30540.931885353555
-15659.252185732388,-11432.000867366894,-9356.641394691636,-29886.428104213253
-15521.140756743043,-11738.46563559361,-9028.920117487922,-29719.527628365475
-14339.69460006888,-10605.09808124281,-8774.691376053259,-30035.067204841045
-12969.152685302815,-8778.915855755313,-8745.54470128354,-30567.53046125537
-13724.798110103382,-9067.65569062897,-9220.474567469904,-30549.649065691123
-15611.061824686743,-11381.77649757582,-9366.073830851774,-29891.01021182659
-15526.683989367964,-11754.380077645788,-9050.310736931651,-29711.90568350621
-14359.788818334202,-10643.878357872769,-8794.718539085216,-30022.393765734883
-12980.19444706374,-8826.726237145214,-8741.119055881389,-30555.102891338214
-13647.93046092158,-9003.39442531996,-9196.424090435994,-30579.62275500569
-15574.002632379848,-11321.024456146297,-9354.8085516463,-29908.824552157468
-15563.60907120813,-11781.515095414532,-9046.332126418609,-29708.463514860097
-14430.107406390598,-10715.985085485589,-8791.231666950187,-30013.453067952763
-13018.237116126673,-8886.204229140787,-8726.366904540886,-30534.092251550228
-13581.54577988932,-8945.302241480618,-9182.655415851525,-30590.55275804433
-15563.340850274666,-11290.648435431533,-9376.132115856662,-29930.12576462338
-15612.894667732082,-11823.536374990508,-9060.972519036832,-29706.183636925656
-14486.67967160698,-10783.46500199616,-8784.190867446765,-29984.79813156106
-13080.285558734604,-8968.883331880967,-8722.812977172493,-30517.41785018657
-13537.53519505682,-8901.716339792769,-9166.71862205489,-30611.697508299058
-15539.580945918671,-11242.860405786088,-9387.307988084316,-29958.803052759537
-15648.500996649384,-11837.930898419729,-9072.506019175771,-29705.177808425167
-14548.281079325803,-10835.321049132472,-8802.0275595221,-29976.9750210017
-13132.990972160218,-9030.104759944054,-8729.11616910889,-30504.342079680217
-13478.86186586164,-8834.281126771108,-9145.685630522446,-30626.561418361835
-15497.894942509529,-11165.523369970724,-9386.99506366194,-29975.052770978546
-15673.020860316858,-11840.926032176738,-9089.806269384178,-29709.648157316227
-14581.428716353026,-10865.898235547333,-8803.726292100704,-29955.65145679134
-13147.83253047854,-9063.274748715728,-8719.683732948748,-30471.12738741963
-13396.65214975502,-8755.44652407724,-9130.41938905947,-30626.47201138401
-15449.458712274876,-11091.360281868016,-9398.975598689984,-29987.256823451145
-15672.685584150027,-11828.923145404238,-9094.231914786327,-29699.187540911145
-14613.011731268374,-10891.133355037377,-8805.939114801778,-29943.67092176329
-13192.647778111432,-9113.47676676235,-8710.0054275996,-30460.84558497019
-13328.412273932969,-8691.408776212786,-9098.881077633034,-30643.705206359056
-15365.393801378466,-10993.951379531787,-9392.962979431508,-30009.40740220635
-15671.411534716077,-11830.711284960662,-9112.448586517405,-29704.17197992468
-14638.492719947424,-10941.290669595084,-8819.908955086346,-29940.720491495194
-13213.926638832883,-9187.14811648704,-8714.185203812744,-30466.299410617285
-13256.618470742522,-8659.311671174964,-9096.265923531762,-30681.323192277338
-15338.772873732196,-10961.250777393672,-9415.180613420083,-30043.963199134258
-15710.124756112667,-11860.327346363943,-9127.04427564672,-29713.157381195717
-14713.86280225072,-11006.46835642676,-8831.46480696974,-29927.465907033195
-13292.20244791537,-9266.452105814473,-8709.334875265942,-30427.07209909822
-13237.75359842224,-8630.276755127521,-9063.431210926916,-30674.237689285004
-15320.93618165686,-10903.78444239908,-9406.776357504888,-30055.51905101765
-15754.11298920071,-11886.456535632198,-9132.498101293815,-29700.372183367275
-14755.995840548974,-11056.960947151298,-8829.095522057476,-29902.61076719889
-13340.102236283094,-9338.067095049271,-8714.140500323832,-30402.86515985312
-13184.645853596432,-8593.329321542898,-9049.483722386803,-30675.578793952325
-15260.474712905254,-10824.771025749567,-9416.789939020866,-30087.48204558874
-15771.189721964563,-11890.725718823162,-9153.352278870616,-29715.63842483025
-14815.272666844448,-11106.62652333099,-8851.760190935158,-29908.265758546087
-13401.055443412715,-9408.877421483689,-8718.700256192715,-30400.741744129868
-13142.713980998276,-8565.233178762577,-9038.97840249281,-30702.91497742117
-15204.371834322434,-10753.714830126148,-9423.741331546466,-30114.125324979464
-15784.623120382204,-11900.202858472212,-9164.930482498465,-29717.35950915331
-14854.879958019252,-11162.036497835696,-8863.025470140634,-29902.83428464345
-13445.4236561565,-9486.01329159895,-8735.978154656668,-30394.930290571487
-13082.990119813696,-8532.242003946543,-9020.895841228466,-30705.619538500257
-15119.926943770284,-10660.977442381078,-9415.53824133137,-30129.68213912036
-15762.003154993434,-11873.313709892478,-9185.091755997151,-29718.342985909345
-14862.211330200593,-11170.150181072971,-8879.923388948846,-29884.349391978907
-13462.925072065003,-9520.032646659927,-8731.261936576599,-30359.65923782101
-13022.841575484465,-8483.24698010051,-8998.231172350785,-30698.712849463565
-15046.389704512325,-10568.642386036205,-9412.408997107625,-30140.790956114648
-15764.73006781698,-11873.939558737226,-9188.422165920992,-29712.866808517792
-14896.744775384042,-11224.017885210264,-8881.286845360619,-29869.217260982667
-13514.132918612111,-9607.04798782444,-8728.892651664335,-30350.40561561652
-12994.656025726325,-8484.364567323277,-8978.11460234101,-30714.560236282377
-14988.319872417436,-10509.142042296176,-9408.43038659458,-30175.65967746493
-15783.438477926074,-11887.752936810606,-9197.452270680937,-29723.93092202317
-14955.373401090314,-11280.120763793084,-8886.628912285438,-29855.381531164832
-13571.085163484237,-9678.081831703405,-8733.318297066486,-30323.739984481334
-12970.694955670231,-8470.551189249896,-8963.898892867433,-30712.77209672596
-14956.20041563516,-10440.25396588492,-9412.967790719007,-30204.67224176792
-15818.910696376646,-11887.64117808833,-9206.035340551774,-29726.814297057903
-15010.224581983635,-11316.28588632177,-8891.0992611765,-29843.468051370157
-13626.36102752221,-9737.470416721157,-8725.674000462772,-30300.82944641465
-12945.213966991185,-8450.121694817746,-8937.948517554822,-30713.755573481987
-14874.035403017451,-10331.400970387574,-9405.591715048757,-30229.527381602216
-15816.295542275377,-11863.411887098777,-9233.371524020617,-29726.300206935437
-15053.810483671485,-11342.929165712496,-8909.114767207477,-29826.95011221768
-13678.462943847531,-9792.254542381112,-8729.25027957562,-30272.42037921195
-12899.147021668796,-8424.394836949687,-8916.24497368872,-30690.39800052619
-14777.140590803694,-10224.894908058037,-9397.94741844504,-30232.27664617022
-15806.684292159593,-11834.15345360678,-9235.45023625496,-29727.97658776958
-15072.161265869292,-11360.743506043376,-8904.286790405129,-29807.548798030475
-13703.42984240411,-9828.4196649098,-8722.991791128134,-30244.16777422044
-12866.513474764048,-8398.489165125986,-8896.262514145674,-30685.659430701668
-14689.052365905329,-10112.264467747746,-9381.742403714945,-30248.32519868913
-15775.324794688797,-11785.00196754956,-9231.24810829736,-29715.2137416856
-15079.179713628258,-11366.689070068487,-8908.75713929619,-29786.94048964268
-13736.95745908707,-9885.52837199311,-8726.322201051975,-30222.95596873236
-12837.456206972149,-8410.648514109673,-8881.778583738636,-30681.52435797744
-14627.696827375512,-10057.256824643237,-9384.849296194232,-30280.51171070477
-15807.578361937803,-11821.368255778343,-9256.438524298492,-29742.1699454987
-15150.168854018317,-11455.090219389229,-8922.592869114027,-29789.82386467741
-13817.893125759736,-10000.997483849223,-8726.411608029795,-30212.49535232727
-12864.97120439663,-8472.316977061866,-8862.041993384599,-30677.143416064195
-14582.83687625371,-10008.64178045294,-9367.28082505236,-30294.86153064508
-15825.571516224329,-11822.351732534378,-9256.192655109484,-29739.107756508325
-15203.5895232665,-11500.128984466672,-8918.614258600981,-29767.89680336676
-13875.672385176706,-10064.632900313483,-8724.958744640202,-30177.894851910456
-12873.330756822916,-8492.187677882634,-8861.75142070668,-30674.617668940744
-14528.008047104842,-9930.25421264818,-9360.172970315572,-30317.28033033375
-15836.680333218615,-11802.838659624897,-9268.128486648618,-29742.125242009788
-15253.54567212411,-11534.438912205567,-8945.369296713985,-29767.025085333004
-13941.43121736422,-10129.564717956153,-8740.292041336543,-30174.60914547553
-12872.615501000346,-8492.120622649267,-8836.203376794265,-30660.804290867367
-14440.590374540136,-9816.23796418166,-9352.215749289484,-30349.109214438107
-15808.98652183849,-11747.94277524266,-9292.044853215795,-29769.99786734556
-15271.73999211073,-11534.528319183388,-8952.030116561666,-29758.41966371771
-13974.10946775788,-10157.169122358457,-8748.49513155164,-30169.69176169536
-12854.801160669464,-8488.186715625134,-8838.103275072966,-30671.60018343928
-14332.69850405437,-9702.86991630434,-9344.906728852598,-30369.78457805927
-15760.393829392651,-11687.50365823551,-9295.218800928453,-29768.522652211508
-15273.192855500323,-11544.09486581026,-8966.514046968705,-29755.871564849804
-13990.96268307718,-10205.515945615283,-8749.120980396388,-30145.864802106
-12826.190927766673,-8501.284837875943,-8812.711693371737,-30657.384473965703
-14245.34788672303,-9621.37545602029,-9319.17987098454,-30401.43464820798
-15754.872948512191,-11673.779687139951,-9291.26254215986,-29787.32046929842
-15310.766137929695,-11585.289130841393,-8954.309994496107,-29741.65585537623
-14047.646707015838,-10275.70042320495,-8739.353268069419,-30124.13890649544
-12854.197663569174,-8550.749248355538,-8797.870135053414,-30651.93064831861
-14197.0010634662,-9564.244397192526,-9309.970952268954,-30430.246046810877
-15777.962300534524,-11669.845780115817,-9305.500603377892,-29797.55756825895
-15376.972005006315,-11636.720494833053,-8973.711308683314,-29736.917285551703
-14117.898239838869,-10353.1939212315,-8745.276480350076,-30100.803685284103
-12883.07611740543,-8597.710263456138,-8783.207390690732,-30627.835467795787
-14133.387998746395,-9490.058957345362,-9288.334463636216,-30442.9865411504
-15769.066306241311,-11631.758407563972,-9304.472423132947,-29813.62847252232
-15423.418929984444,-11661.285061989434,-8973.756012172224,-29731.73168083807
-14190.742575018714,-10410.570849248274,-8751.199692630731,-30095.081638703545
-12910.859335763376,-8626.32049635893,-8769.349309128442,-30610.892845498664
-14059.82840774398,-9395.689892255055,-9281.69599553299,-30466.61233503966
-15754.470617111996,-11582.71868022903,-9332.032124046342,-29829.9899494636
-15465.037878160225,-11687.41425125769,-9003.819108464611,-29727.59660811384
-14227.041808014132,-10452.882701502169,-8757.547588056039,-30076.19441463881
-12914.770891043056,-8648.80635128097,-8770.869227751402,-30608.411801864127
-13965.10171474239,-9295.799946284287,-9265.401573825073,-30490.439294629014
-15715.265657337388,-11521.13962425466,-9334.870795592164,-29846.06085372697
-15466.289575849722,-11689.515315236487,-9004.534364287181,-29718.477096376075
-14246.733694879258,-10490.388928698174,-8756.675870022282,-30052.36745504945
-12913.653303820289,-8676.455459172184,-8756.944090955745,-30583.69077249656
-13877.169952055212,-9214.618410422612,-9248.50365501686,-30490.55105335129
-15675.323089995754,-11475.31854812128,-9340.391676472624,-29845.92674326024
-15490.094183694624,-11711.643542247242,-9011.68692251288,-29704.17197992468
-14283.457611019328,-10541.12738861172,-8759.11221016791,-30025.143030302886
-12940.877728566851,-8732.558337755007,-8749.277442607576,-30563.14951934213
-13808.863020999792,-9153.352278870616,-9222.709741915434,-30513.059260017784
-15656.413514186564,-11439.153425592593,-9333.887318836132,-29859.2483829556
-15520.40314917602,-11739.739685027562,-9009.317637600618,-29695.49950307602
-14341.438036136396,-10603.846383553311,-8755.938262455256,-30011.26259699614
-12978.227493551673,-8785.26375118062,-8728.445616775229,-30538.07086206328
-13749.273270281945,-9088.688682161412,-9205.05186379574,-30523.89985607861
-15636.1404819656,-11398.137974517103,-9346.404295731105,-29869.172557493755
-15556.009478093323,-11767.94758653016,-9023.555698818647,-29690.47036057357
-14405.676949700946,-10669.672270974192,-8762.241454391653,-29994.72230609921
-13027.356627864436,-8852.184874079809,-8725.942221396235,-30531.499449193416
-13688.253007918956,-9027.042570953676,-9190.72439559989,-30551.794833158838
-15609.005464196858,-11341.364543600625,-9349.198263788016,-29886.428104213253
-15593.60511226715,-11791.126345530314,-9029.50126284376,-29683.78718898144
-14444.770150753278,-10719.136681453789,-8772.098573696443,-29975.7233233122
-13051.20593919825,-8910.455871874794,-8724.288192306542,-30512.701632106506
-13618.515565218398,-8974.761840672712,-9176.307520426217,-30578.348705571738
-15578.294167315264,-11298.270380290793,-9363.793952917333,-29916.1112208499
-15612.291170631788,-11804.202116036668,-9052.478856143816,-29688.123427405768
-14479.683575592468,-10759.28041449552,-8781.039271478567,-29973.801073289047
-13071.389564441391,-8948.655003148915,-8715.548660224516,-30503.31389943527
-13532.72956999893,-8892.440365843817,-9154.514569582292,-30585.545967286347
-15530.59554464764,-11230.969277735863,-9371.929987899064,-29928.62819774487
-15628.496185361886,-11817.188479565202,-9063.297100460184,-29687.184654138644
-14518.06152082223,-10805.906153429289,-8793.288027440076,-29961.999352216644
-13096.64703567589,-9001.136899129975,-8721.181299827254,-30477.542338078303
-13451.212757970425,-8824.491062699684,-9144.880967722054,-30601.68392678308
-15477.286634121732,-11162.103553069062,-9385.47514503898,-29956.27730563609
-15641.504900634876,-11825.548031991486,-9083.100746047588,-29692.236148385546
-14554.11488462864,-10851.459008629205,-8800.93232404379,-29943.02272117409
-13134.55559427209,-9059.184379480408,-8712.262953789586,-30463.013704182355
-13388.829039195662,-8766.778858516082,-9122.931554666944,-30615.452601367542
-15439.221613314345,-11101.753843039733,-9393.879400954176,-29972.437616877272
-15667.567034669764,-11848.212700869168,-9099.7974991557,-29690.62682278476
-14613.257600457384,-10918.40248327285,-8817.450263196262,-29938.194744371744
-13187.79744956463,-9132.98983967183,-8716.979171869656,-30447.68040748601
-13339.87871883854,-8724.91404115129,-9101.8985631345,-30618.53714210238
-15407.884467588005,-11047.550862735614,-9387.95618867352,-29978.53964311357
-15707.889581667136,-11867.01051795608,-9100.222182300353,-29679.808578468397
-14683.062098391309,-10977.634606079411,-8808.64367588087,-29916.71471795019
-13247.230738071292,-9209.745730131355,-8694.403909969797,-30424.12166883012
-13294.638788060998,-8688.346587222408,-9071.209617997363,-30631.41174690864
-15360.163493175924,-10986.150620716884,-9381.407127548116,-29992.330669442497
-15708.716596211982,-11866.563483066975,-9100.289237533718,-29675.56174702189
-14707.269037636404,-11012.100996029496,-8822.658219654348,-29905.87412188937
-13282.72530826632,-9276.018652441342,-8712.598229956417,-30406.06145931023
-13235.18314780988,-8653.343755405398,-9055.339879434096,-30641.805308080355
-15317.404606032922,-10931.947640412764,-9389.00672066292,-30028.719309415737
-15734.77873024687,-11892.267989190575,-9114.907278407489,-29686.022363426968
-14747.4798259115,-11063.353546065517,-8826.435664467295,-29894.72060140617
-13314.978875515328,-9330.288687978828,-8701.757633895593,-30395.176159760496
-13171.257158667704,-8604.058158881446,-9040.475969371317,-30662.4359682126
-15235.150186437391,-10832.750598520111,-9396.136927144162,-30057.08367312952
-15730.867174967192,-11881.986186741136,-9133.548633283215,-29685.59768028232
-14765.472980198025,-11090.28739813416,-8833.007077337155,-29879.9013948323
-13347.143035786516,-9388.313816584803,-8708.396101998818,-30375.841900806656
-13109.096957337497,-8560.427553704685,-9026.483777342291,-30668.62740142672
-15180.299005544068,-10756.262928994052,-9399.556744045824,-30084.397504853907
-15757.041067724356,-11886.568294354474,-9144.8586159776,-29698.896968233224
-14809.64002724171,-11127.279535207694,-8834.951679104768,-29867.45147317069
-13395.556914276707,-9444.148474234162,-8707.233811287142,-30356.50764185281
-13068.997927784674,-8521.06613171889,-9008.200050377853,-30679.98208761002
-15122.542097871556,-10669.515808763004,-9402.19424989155,-30101.96597599578
-15766.0711724843,-11875.191256426724,-9156.973261472376,-29690.69387801813
-14870.637937860243,-11174.441716008392,-8846.574586221526,-29855.47093814265
-13469.496484934863,-9520.412626315669,-8703.970456596668,-30336.16755439849
-13045.282726917592,-8504.369378610776,-8981.556770987127,-30680.026791098928
-15081.951329940715,-10604.472232398062,-9388.023243906886,-30122.753098339213
-15785.830114582792,-11883.662567575284,-9160.549540585223,-29695.387744353746
-14910.535801712967,-11216.239478139816,-8847.580414722015,-29842.52927810303
-13510.176659843524,-9587.80313584842,-8699.455404216696,-30315.156914610496
-13005.38486306487,-8488.231419114045,-8962.088401566554,-30683.06662834485
-15008.861125571862,-10524.251821547963,-9387.352691573224,-30141.461508448305
-15782.209131981032,-11882.232055930144,-9171.188970945952,-29689.64334602873
-14937.827281692897,-11263.7592868518,-8861.550255006583,-29826.61483605085
-13565.87720702615,-9666.905959475753,-8710.452462488707,-30302.14819933751
-12981.803772664522,-8484.364567323277,-8946.48688393675,-30688.006363869477
-14953.585261533888,-10455.274338158886,-9388.827906707276,-30170.854052407038
-15787.864123328223,-11872.889026747827,-9180.554351872725,-29693.86782573078
-14980.16148569125,-11297.130441323572,-8876.078888902532,-29819.216408636144
-13602.846992355227,-9715.610410643863,-8721.002485871611,-30283.193920039408
-12925.387969659325,-8441.516273202453,-8928.583136628049,-30674.684724174112
-14858.456237132104,-10337.167720457044,-9378.680214724567,-30181.06879962311
-15798.056518799844,-11858.606262040885,-9193.183087489972,-29698.5616920664
-15011.565686650954,-11324.265459092316,-8873.955473179278,-29797.579920003405
-13622.293010031344,-9754.904777396296,-8699.38834898333,-30242.804317808663
-12881.578550526923,-8418.493976413487,-8905.04674971661,-30669.65558167167
-14774.391326235693,-10244.743257134349,-9376.087412367751,-30201.40888707744
-15780.59980638025,-11839.741389720606,-9211.422110965505,-29704.484904347053
-15046.434408001234,-11369.751259058865,-8908.444214873816,-29808.442867808684
-13683.916769494626,-9844.4235139398,-8726.076331862967,-30245.307713187663
-12873.241349845095,-8440.376334235232,-8898.989426969221,-30685.234747557017
-14719.048406964352,-10184.147677916011,-9375.8638949232,-30244.45834689836
-15796.514248432428,-11843.898814189291,-9222.933259359988,-29716.644253330735
-15087.516914310088,-11406.095195543194,-8895.100223434,-29782.89482389627
-13740.734903900016,-9908.86359320445,-8717.113282336388,-30223.26889315473
-12865.172370096729,-8444.757276148472,-8882.069156416555,-30677.07636083083
-14656.687039934044,-10102.586162398597,-9375.75213620092,-30260.059864528164
-15795.486068187483,-11824.788072680009,-9242.200463080462,-29728.93771278116
-15131.214574720214,-11440.338068048724,-8920.558860368594,-29786.918137898225
-13799.095308672824,-9976.4552684373,-8732.781855199559,-30208.293224369678
-12861.104352605862,-8460.96229087857,-8884.326682606541,-30682.530186477925
-14590.481172857426,-10021.739902703752,-9371.795877432332,-30289.497111975805
-15800.537562434383,-11816.674389442727,-9250.180035851006,-29738.3701489413
-15155.645031409864,-11470.959957952497,-8914.81446204358,-29769.640239434277
-13837.45090215813,-10035.84385345505,-8736.1122651234,-30189.54011077167
-12846.128683820809,-8470.282968316433,-8861.259682328664,-30676.092884074795
-14507.355035228138,-9936.512701095666,-9353.914481868089,-30313.122905865064
-15792.334472219289,-11791.796897863973,-9259.411306311047,-29749.50131768004
-15204.952979678272,-11514.724673595989,-8936.71917160978,-29768.768521400518
-13886.736498682085,-10107.414139200942,-8744.248300105131,-30179.52652925569
-12833.477596459104,-8478.44135504262,-8845.74757167668,-30663.486500202
-14425.748816221812,-9835.304002202034,-9355.52380746887,-30330.26669386229
-15762.472541626996,-11742.578356573387,-9268.150838393074,-29744.338064710864
-15210.607971025463,-11515.99872302994,-8927.085569749543,-29740.538268153465
-13913.335074583898,-10140.025334361237,-8728.06563711949,-30148.30114225163
-12823.352256220847,-8493.081747660846,-8833.543519204082,-30655.573982664824
-14350.669306596435,-9753.854245406896,-9352.729839411955,-30374.29963043924
-15769.870969041702,-11724.451091820132,-9285.45108860148,-29770.869585379314
-15265.705021107797,-11561.23865380748,-8951.337212483551,-29751.110643280823
-13982.893703328811,-10215.440120153442,-8752.138465897855,-30153.77731964318
-12834.282259259497,-8526.318791665888,-8825.116911544432,-30662.123043790227
-14290.364300056017,-9691.805802798965,-9338.8047026163,-30406.48614245488
-15789.0264140399,-11724.205222631124,-9300.873792275645,-29802.00556540556
-15329.832175950072,-11613.608791066265,-8970.470305737294,-29772.38950400228
-14055.31335536401,-10289.670263489515,-8758.642823534348,-30143.897848593933
-12867.251082331071,-8566.909559596725,-8815.192737006277,-30648.51083141695
-14242.44215994384,-9622.180118820685,-9337.955336326995,-30428.8825903991
-15798.74942287796,-11710.190678857649,-9330.065170534272,-29822.79268774899
-15392.551170891664,-11666.582425425342,-9003.036797408677,-29776.32341102641
-14133.008019090656,-10374.249264508398,-8783.028576735089,-30151.47508996428
-12898.454117590682,-8617.871536954824,-8821.093597542476,-30666.72750314802
-14195.145868676407,-9571.620472862778,-9328.433493189035,-30472.155567664573
-15795.575475165306,-11684.97791111206,-9329.305211222794,-29841.76931879155
-15400.329577962111,-11655.11598051977,-8987.815259434612,-29750.66360839172
-14143.446283751284,-10378.33963374372,-8762.464971836207,-30109.83379004405
-12878.873989447831,-8609.713150228637,-8796.93136178629,-30630.562380619336
-14059.82840774398,-9423.920145502108,-9299.59974284169,-30459.21390762495
-15727.91674469909,-11583.09865988477,-9325.572469898758,-29819.395222591786
-15424.134185807014,-11664.97309982456,-8992.375015303494,-29725.89787553524
-14180.550179547094,-10423.3113435878,-8756.45235257773,-30081.357667607987
-12881.55619878247,-8631.103769672367,-8773.327919641486,-30604.00850820643
-13967.2474822101,-9330.579260656748,-9275.92924546352,-30462.544317548796
-15687.840066890723,-11543.089037309772,-9335.340182225727,-29821.36217610385
-15421.67549391693,-11684.664986689686,-9006.188393376875,-29710.40811662771
-14186.875723227946,-10467.970129009502,-8758.486361323163,-30051.227516082232
-12884.752498239575,-8677.349528950397,-8755.82650373298,-30584.853063208237
-13896.012472631037,-9272.196504139483,-9253.97983240841,-30492.07097197425
-15675.881883607137,-11525.386455701168,-9344.459693963492,-29852.229935196632
-15457.259471089776,-11726.596859287842,-9014.458538825338,-29717.98535799806
-14253.528625193672,-10546.84943519228,-8764.610739303916,-30051.11575735996
-12916.98371374413,-8734.63704998935,-8756.45235257773,-30577.5663945158
-13831.013599755002,-9206.817651607713,-9237.998335122864,-30508.0524692598
-15654.53596765232,-11482.158181924604,-9345.219653274971,-29859.96363877817
-15497.649073320516,-11757.822246291906,-9028.294268643174,-29711.481000361564
-14318.326332369606,-10611.71419760158,-8776.054832465034,-30032.47440248423
-12959.474379953668,-8792.483364639684,-8746.952861184223,-30561.964876886
-13777.034136895436,-9151.161807913995,-9231.985715864386,-30535.41100447309
-15646.802264070782,-11449.88226293114,-9360.7094121825,-29876.995668053118
-15539.782111618772,-11787.125383272814,-9033.54692859017,-29709.201122427123
-14375.569149919647,-10671.92979716418,-8781.329844156486,-30032.9884926067
-13002.143860118853,-8853.436571769307,-8746.729343739671,-30556.75692042791
-13710.314179696345,-9079.74798437929,-9211.511517943323,-30554.32058028228
-15616.917981734035,-11385.419831922036,-9368.063136108296,-29895.368801995373
-15568.481751499388,-11790.09816528537,-9052.143579976986,-29700.75216302301
-14421.837260942131,-10704.652751046748,-8792.751585573147,-30000.511407913134
-13039.091293703474,-8894.943761222812,-8750.573843785984,-30537.601475429718
-13639.526205006388,-9009.675265511903,-9206.415320207516,-30570.972629901487
-15570.873388156104,-11324.600735259144,-9381.071851381284,-29906.231749800656
-15580.305824316243,-11804.090357314391,-9071.813115097655,-29700.97568046757
-14446.67004903198,-10749.51270216855,-8793.109213484433,-29989.93903278578
-13042.309944905037,-8936.070971020576,-8723.170605083777,-30519.8541903322
-13549.605137062686,-8937.702648365814,-9168.506761611314,-30580.449769550534
-15523.241820721843,-11273.728164878865,-9375.886246667653,-29927.979997155668
-15590.967606421424,-11822.4411395122,-9060.525484147724,-29702.719116535085
-14487.216113473907,-10812.09758664341,-8795.322036185507,-29986.429808906298
-13063.655860859855,-8997.761785717224,-8721.069541104978,-30499.31293717777
-13471.843418102671,-8879.722223248747,-9155.408639360505,-30606.266034396416
-15484.26037839179,-11215.904201972986,-9388.80555496282,-29964.569802829006
-15632.318333663745,-11848.883253202826,-9081.93845533591,-29710.49752360553
-14551.767951460834,-10864.445372157736,-8807.682550869293,-29979.053733236044
-13153.97926020375,-9080.351481479584,-8737.095741879433,-30501.1010767342
-13471.061107046737,-8853.794199680591,-9150.7594765138,-30629.19892420756
-15493.648111063016,-11177.682718954413,-9395.824002721787,-29983.88171003839
-15693.316244282276,-11880.265102418078,-9094.969522353354,-29709.089363704847
-14630.535498921336,-10929.131320611395,-8820.378341719907,-29966.715570296717
-13211.065615542606,-9147.294956123227,-8733.698276722227,-30481.878576502637
-13407.60450453812,-8799.50181239865,-9134.7556274838,-30645.672159871123
-15446.977668640337,-11113.756729812232,-9401.791918491355,-29998.41034393434
-15706.079090366256,-11882.097945463413,-9104.625475958048,-29705.960119481104
-14656.41881900058,-10954.835826735,-8826.569774934027,-29950.957590455724
-13230.645743685454,-9182.521305384793,-8728.959706897702,-30464.44421582749
-13342.73974212882,-8728.043285375034,-9104.692531191413,-30654.32228497533
-15387.969063278326,-11021.354618233994,-9388.045595651342,-30013.497771441675
-15710.616494490683,-11870.407983113288,-9108.268810304262,-29700.30512813391
-14680.782220456866,-10979.98153924722,-8818.679609141303,-29925.11897386539
-13253.511578263233,-9224.184957049483,-8714.364017768386,-30429.21786656593
-13260.48532253329,-8662.23974969861,-9083.03369081422,-30654.25522974196
-15323.03724563566,-10945.02341091912,-9409.033883694874,-30038.017635109143
-15707.710767711493,-11872.039660458526,-9125.23378434584,-29701.512122334498
-14701.546991055846,-11019.32060948856,-8820.22187950872,-29918.234636573157
-13278.590235542088,-9284.780536267825,-8709.536040966039,-30422.11001182914
-13192.04428101114,-8618.31857184393,-9064.347632449584,-30680.16090156566
-15250.572890111554,-10867.060526259009,-9394.371139332192,-30057.53070801863
-15699.1053460962,-11871.279701147045,-9125.479653534849,-29697.06412518789
-14735.543994372369,-11070.617863013493,-8840.31609777404,-29909.3609940244
-13326.914707054462,-9354.339165012738,-8719.661381204294,-30416.45502048195
-13158.114332927982,-8592.435251764686,-9055.563396878648,-30693.84016917231
-15236.558346338075,-10825.910964716788,-9425.685933314078,-30097.18270268234
-15751.989573477456,-11896.40306191481,-9163.231749919862,-29725.227323201576
-14802.26395157146,-11114.561392612624,-8854.017717125143,-29908.53397947955
-13401.79305097974,-9427.451721126046,-8732.804206944014,-30400.562930174223
-13136.74606522871,-8566.55193168544,-9042.64408858348,-30689.77215168144
-15196.77224120763,-10744.12593175482,-9421.05912221183,-30099.350821894503
-15785.450134927052,-11897.386538670844,-9166.316290654697,-29707.189465426145
-14859.7079348216,-11153.20755877585,-8851.737839190702,-29881.75658962209
-13464.154418010046,-9495.155155081173,-8727.506843508107,-30367.90703152502
-13102.994931101195,-8538.79106507195,-9025.232079652797,-30697.7964279409
-15129.51584214161,-10655.657727200714,-9418.332209388282,-30127.603426886017
-15788.64643438416,-11883.97549199766,-9169.534941856258,-29715.437259130154
-14887.491153179546,-11185.97521614733,-8858.823342183035,-29870.021923783057
-13496.564447470242,-9554.186112187635,-8723.125901594865,-30351.500851094825
-13041.929965249295,-8508.839727501838,-8983.322558799096,-30693.70605870558
-15063.533492509545,-10574.655005294682,-9401.680159769076,-30150.64807541944
-15799.643492656172,-11877.82876227245,-9184.10827924112,-29722.05337548893
-14939.257793338036,-11233.226803925849,-8878.962263937266,-29865.685685358727
-13543.614869548665,-9619.386150763768,-8727.529195252562,-30326.66806300498
-13000.713348473711,-8487.449108058108,-8973.554846472127,-30690.196834826093
-14975.422915866724,-10480.800030326847,-9398.550915545336,-30167.456587249828
-15774.49778014395,-11860.215587641667,-9175.882837281566,-29704.95429098061
-14942.074113139406,-11257.769019337777,-8859.583301494516,-29833.3427111319
-13557.2494336664,-9668.29176763198,-8713.425244501263,-30300.82944641465
-12942.688219867734,-8461.2975670454,-8944.654040891415,-30697.25998607397
-14910.267580779504,-10409.699131214516,-9392.359482331214,-30190.09890438305
-15778.252873212445,-11854.180616638734,-9190.836154322167,-29718.83472428736
-14976.719317045132,-11295.431708744967,-8871.9438161783,-29823.753812760573
-13611.07243431478,-9740.644364433809,-8713.537003223539,-30278.410646725973
-12929.7018563392,-8466.751392692495,-8934.77456984217,-30699.0481256304
-14844.486396847537,-10331.244508176387,-9392.33713058676,-30219.55850357515
-15797.162449021633,-11857.287509118025,-9212.271477254806,-29725.45084064613
-15045.339172522925,-11357.122523441616,-8900.084662447533,-29823.84321973839
-13700.14413596918,-9838.410894681325,-8737.565128512995,-30273.76148387927
-12929.523042383558,-8484.185753367634,-8923.464587147784,-30701.46211403157
-14791.98214912202,-10264.390440510564,-9387.24093285095,-30237.41754739494
-15815.535582963896,-11869.044526701517,-9218.418206980015,-29728.535381380963
-15078.911492694797,-11400.931942574018,-8899.727034536247,-29814.09785915588
-13728.866127594249,-9890.982197640204,-8725.58459348495,-30245.732396332314
-12900.465774591656,-8475.781497452439,-8901.112842692477,-30690.085076103816
-14727.139738457172,-10180.079660425146,-9389.051424151829,-30266.273649486742
-15813.881553874202,-11840.188424609712,-9236.366657777628,-29735.93380879567
-15126.855984551428,-11425.54121321931,-8907.594848584515,-29797.26699558103
-13788.657044012196,-9941.720657553751,-8725.338724295942,-30227.9851112348
-12876.817628957944,-8450.166398306656,-8878.783449981625,-30686.75466617997
-14624.947562807509,-10061.078972945092,-9371.438249521048,-30285.764370651767
-15787.528847161397,-11807.398415493775,-9235.87491939961,-29732.513991894008
-15124.173775216792,-11435.823015668751,-8901.67163630386,-29779.162082572235
-13798.692977272627,-9980.858562094994,-8711.972381111667,-30197.11735214202
-12840.272526773517,-8445.316069759854,-8853.436571769307,-30666.34752349228
-14545.867090924632,-9974.622425391964,-9358.496589481423,-30294.14627482251
-15775.347146433252,-11779.056403524448,-9242.580442736202,-29735.93380879567
-15160.875339612408,-11467.093106161728,-8916.826119044557,-29767.2262510331
-13835.372189923786,-10034.525100532186,-8720.287230049042,-30183.862767680024
-12822.033503297986,-8443.751447647983,-8847.60276646647,-30679.64681144319
-14496.425032189492,-9903.320360579535,-9351.813417889289,-30319.515504779283
-15804.002082824956,-11781.783316347995,-9260.59594876718,-29743.287532721464
-15227.930572978328,-11522.27956322188,-8927.420845916373,-29760.52072769651
-13905.646074491273,-10113.694979392883,-8722.924735894769,-30170.36231402902
-12832.561174936436,-8479.380128309742,-8830.41427498034,-30666.191061281093
-14429.99564766832,-9834.43228416828,-9345.264356763882,-30339.47561257787
-15804.784393880893,-11771.345051687367,-9266.317995347736,-29754.88808809377
-15274.377497956457,-11565.664299209631,-8933.075837263565,-29752.31763748141
-13952.160054702768,-10173.39648883301,-8717.873241647869,-30144.747214883235
-12827.48732894508,-8499.11671866378,-8812.734045116193,-30657.272715243427
-14350.26697519624,-9751.127332583348,-9341.93394684004,-30368.823453047688
-15790.613387896228,-11745.305269396937,-9290.74845203739,-29768.67911442269
-15302.45128899232,-11599.683654270608,-8955.9640235858,-29749.568372913407
-14000.81980238197,-10241.390495466054,-8737.54277676854,-30139.71807238079
-12825.49802368856,-8523.189547442145,-8805.894411312867,-30655.05989254235
-14263.273985776184,-9657.71939250462,-9327.98645829993,-30396.49491268336
-15773.380192921186,-11705.541516010942,-9292.000149726886,-29778.156254071742
-15332.84966145154,-11623.711779560064,-8955.71815439679,-29739.711253608617
-14034.68269523176,-10287.926827422005,-8726.098683607423,-30115.19820871332
-12823.128738776297,-8546.927100053681,-8781.262788923119,-30634.697453343568
-14184.439383082316,-9576.202580476116,-9302.058434731774,-30407.49197095537
-15740.679590783073,-11660.726268378052,-9296.358739895672,-29787.141655342777
-15342.438559822864,-11626.863375528264,-8960.881407365967,-29722.433355144665
-14058.576710054484,-10320.89565049358,-8731.463102276695,-30089.56075782308
-12809.158898491729,-8553.140885012255,-8772.143277185354,-30620.48174386999
-14088.729213324692,-9475.30680600486,-9287.08276594672,-30428.010872365343
-15711.82348869127,-11613.094700943791,-9299.286818419316,-29794.160103101745
-15362.488074599276,-11645.68354435963,-8967.318709769095,-29710.58693058335
-14104.241323976676,-10377.937302343524,-8747.444599562241,-30082.85523448649
-12830.77303538001,-8596.972655889113,-8770.958634729222,-30613.53035134439
-14028.290096317542,-9405.94934296004,-9275.593969296691,-30451.614314510145
-15715.06449163729,-11588.53013378741,-9310.999132513898,-29813.449658566675
-15430.325619021132,-11697.047853117929,-8988.999901890744,-29722.433355144665
-14202.85722051349,-10473.40160291214,-8750.953823441723,-30074.38392333793
-12884.685443006212,-8662.798543309993,-8752.987832187157,-30599.448752337543
-13973.662432868772,-9347.253662020405,-9265.960367436452,-30473.139044420608
-15709.431852034551,-11570.358165545244,-9330.601612401202,-29836.829583266925
-15466.06605840517,-11737.437455348669,-9010.010541678732,-29731.10583199332
-14242.419808199384,-10532.32080129633,-8764.141352670355,-30064.593859266504
-12888.8428674749,-8698.024892571557,-8743.622451260382,-30581.41089456212
-13896.504211009053,-9270.229550627417,-9252.817541696731,-30499.6482133446
-15682.38624124363,-11521.921935310596,-9334.33435372524,-29852.833432296924
-15489.73655578334,-11755.810589290928,-9011.865736468522,-29717.80654404241
-14283.9717011418,-10580.086479197322,-8766.64474804935,-30055.13907136191
-12922.638705091324,-8750.909119952812,-8753.188997887253,-30590.463351066515
-13813.311018146398,-9190.277360710785,-9249.196559094971,-30527.677300891555
-15638.66622908905,-11464.27678636036,-9349.42178123257,-29863.53991789102
-15498.45373612091,-11769.400449919754,-9024.78504476369,-29713.26913991799
-14299.908494938434,-10617.458595926597,-8760.430963090774,-30026.41707973684
-12915.329684654438,-8777.664158065816,-8736.782817457059,-30566.70344671052
-13721.557107157363,-9109.118176593563,-9228.811768151732,-30546.586876700745
-15584.284434829287,-11401.893067585595,-9339.98934507243,-29874.134644762835
-15494.273959907769,-11766.293557440467,-9017.78894874918,-29700.88627348975
-14326.21649816233,-10650.181549809164,-8759.335727612464,-30002.76893410313
-12933.434597663236,-8814.857460839447,-8721.62833471636,-30538.406138230104
-13638.632135228174,-9025.813225008636,-9202.235543994371,-30553.85119364872
-15554.89189087056,-11345.320802369217,-9361.67053719408,-29898.25217703011
-15530.237916736356,-11787.61712165083,-9049.707239831358,-29704.417849113688
-14377.312585987162,-10702.797556256955,-8779.36289064442,-29996.30927995554
-12974.22653129417,-8874.402508068384,-8726.72453245217,-30537.22149577397
-13577.92479728756,-8975.63355870647,-9190.903209555532,-30578.080484638274
-15529.79088184725,-11310.563839741211,-9370.6112349762,-29915.39596502733
-15558.535225216774,-11811.757005662565,-9057.239777712795,-29699.79103801144
-14441.931479207457,-10777.206513548674,-8789.845858793959,-29985.02164900561
-13033.279840145093,-8961.261387021708,-8726.523366752073,-30517.70842286449
-13534.405950833076,-8937.233261732252,-9174.586436103158,-30591.647993522645
-15509.964884515392,-11265.726240363863,-9371.57235998778,-29926.951816910725
-15582.473943528408,-11824.206927324169,-9050.69071658739,-29680.121502890768
-14478.476581391882,-10814.37746457785,-8786.604855847938,-29960.59119231596
-13055.162197966838,-9002.58976251957,-8711.525346222561,-30491.93686150752
-13454.38670568308,-8859.9409294058,-9141.595261287124,-30602.600348305747
-15465.104933393592,-11192.390166806004,-9372.220560576983,-29946.822517731493
-15616.493298589385,-11850.91726194826,-9070.22614124133,-29683.80954072589
-14521.794262146266,-10866.43467741426,-8791.276370439098,-29948.02951193208
-13095.73061415322,-9064.928777805422,-8711.39123575583,-30474.189576410008
-13400.474298056875,-8820.020713808623,-9136.253194362307,-30621.30875841484
-15442.641430216006,-11159.935433856896,-9397.14275564465,-29978.98667800268
-15655.519444408352,-11879.59455008442,-9093.382548497028,-29702.89793049073
-14584.200332665485,-10927.097311865964,-8813.337542216486,-29956.27730563609
-13133.7509314717,-9122.9539064114,-8718.767311426082,-30470.814462997256
-13319.404520917478,-8740.448503547728,-9114.683760962937,-30628.237799195984
-15361.437542609876,-11049.070781358574,-9383.37408106018,-29977.98084950219
-15640.56612736775,-11855.052334672491,-9093.002568841288,-29679.227433112555
-14607.51320213237,-10949.650222021368,-8804.262733967631,-29925.54365701004
-13174.27464416917,-9172.507723868815,-8709.066654332479,-30443.321817317228
-13268.24137785928,-8690.559409923484,-9105.698359691902,-30640.46420341304
-15332.55908877362,-10987.692891084302,-9406.217563893506,-30012.06725979653
-15674.630185917638,-11866.004689455593,-9114.907278407489,-29689.241014628533
-14655.792970155831,-10995.404242921382,-8814.768053861626,-29906.99170911213
-13220.632162169475,-9233.863262398632,-8697.488450704628,-30407.49197095537
-13205.94706606234,-8641.676144799727,-9065.867551072544,-30630.428270152603
-15282.781753871652,-10925.06330312053,-9398.506212056423,-30016.090573798487
-15696.758412928391,-11880.712137307184,-9123.088016878131,-29680.076799401857
-14696.38373808667,-11043.28167954465,-8821.585335920494,-29887.00924956909
-13265.29094759118,-9305.120623722152,-8698.38252048284,-30386.906014312037
-13160.304803884605,-8610.540164773485,-9048.388486908494,-30642.47586041401
-15238.100616705491,-10852.397781896329,-9395.421671321592,-30038.66583569835
-15715.891506182135,-11882.947311752714,-9128.452435547404,-29682.58019478085
-14753.648907381166,-11092.500220835236,-8831.46480696974,-29886.76338038008
-13332.189718745914,-9379.37311880268,-8701.176488539755,-30375.841900806656
-13125.21256508977,-8579.761812658526,-9029.948297732866,-30649.40490119516
-15187.943302147783,-10785.074327596943,-9393.678235254078,-30051.58514399352
-15734.532861057862,-11896.939503781738,-9139.851825219612,-29683.31780234788
-14798.844134669798,-11146.412628461436,-8838.12562681742,-29876.302763975
-13368.198379063411,-9443.500273644957,-8704.305732763498,-30370.902165282037
-13077.133962766406,-8551.151579755733,-9019.912364472431,-30690.6438697152
-15138.389484690368,-10719.02492273151,-9404.719997015,-30108.82796154356
-15748.614460064706,-11896.44776540372,-9159.00727021781,-29708.08353520436
-14828.12491990625,-11173.793515419187,-8853.973013636234,-29876.213356997177
-13399.066138156191,-9491.4894689905,-8709.446633988218,-30353.17723192897
-13011.799813723545,-8507.319808878876,-9006.009579421232,-30688.185177825115
-15053.4528557602,-10621.303095972908,-9411.33611337377,-30123.356595439505
-15734.44345408004,-11873.44782035921,-9163.388212131047,-29697.75702926601
-14843.45821660259,-11193.239533095304,-8854.442400269794,-29855.47093814265
-13433.957211250929,-9549.469894107568,-8717.023875358567,-30339.27444687777
-12967.99039459114,-8477.144953864212,-8987.792907690156,-30694.6448319727
-14997.998177766583,-10540.90387116717,-9410.106767428728,-30144.322531738584
-15764.774771305893,-11883.39434664182,-9193.853639823632,-29711.77157303948
-14907.13833655576,-11248.828321555651,-8869.976862666234,-29851.58173460743
-13497.2349998039,-9618.29091528546,-8704.931581608245,-30311.223007586363
-12941.36946694487,-8457.251901298989,-8958.355660242518,-30691.247366815493
-14944.242232351571,-10460.974032994993,-9403.334188858773,-30161.667485435904
-15769.893320786156,-11868.575140067953,-9194.837116579669,-29699.321651377875
-14944.733970729589,-11271.023603799773,-8869.395717310395,-29823.84321973839
-13560.244567423411,-9682.373366638823,-8714.967514868678,-30292.313431777173
-12924.538603370023,-8448.53472096142,-8946.688049636847,-30694.51072150597
-14900.745737641542,-10398.500907242407,-9401.076662668786,-30199.35252658755
-15798.056518799844,-11873.82780001495,-9200.693273626955,-29721.04754698844
-15010.671616872743,-11326.05359864874,-8888.19353439731,-29836.248437911087
-13636.821643927296,-9766.013594390584,-8721.896555649824,-30282.880995617037
-12911.731053797132,-8451.172226807144,-8925.967982526778,-30686.955831880077
-14834.338704864826,-10305.785871241793,-9395.801650977332,-30213.478829083306
-15820.207097555054,-11868.753954023596,-9222.419169237515,-29724.892047034748
-15042.947535866206,-11359.804732776252,-8886.807726241079,-29805.157161373754
-13664.694269263062,-9818.294324671546,-8718.163814325788,-30251.767367335247
-12878.605768514368,-8444.556110448375,-8904.42090087186,-30685.905299890677
-14755.414695193136,-10231.511024416808,-9382.278845581872,-30235.025910738223
-15798.101222288757,-11858.87448297435,-9217.814709879722,-29718.3653376538
-15082.89010320784,-11411.772538634845,-8895.480203089739,-29796.395277547275
-13723.747578113984,-9903.208601857255,-8716.599192213916,-30232.924846759423
-12861.953718895164,-8458.995337366503,-8885.019586684655,-30683.044276600394
-14687.934778682564,-10155.895072924504,-9375.57332224528,-30255.634219126016
-15796.000158309957,-11847.72096249115,-9231.181053063996,-29728.714195336604
-15117.244734435646,-11446.462446029478,-8912.66869457587,-29787.18635883169
-13766.752334445997,-9954.68466933783,-8720.376637026864,-30215.60224480656
-12841.814797140933,-8447.618299438751,-8875.721260991248,-30687.11229409126
-14616.051568514296,-10058.66498454392,-9377.674386224078,-30287.9995450973
-15805.052614814356,-11821.85999415636,-9242.580442736202,-29734.07861400588
-15151.308792985536,-11465.595539283222,-8913.071025976065,-29779.743227928077
-13802.425718596664,-10000.796318149129,-8717.20268931421,-30200.917148699424
-12829.11900629032,-8449.406438995176,-8853.168350835842,-30670.88492761671
-14542.02259087832,-9966.195817732312,-9360.105915082208,-30296.69437369041
-15795.575475165306,-11792.489801942089,-9253.868073686132,-29738.97364604159
-15188.211523081249,-11491.791783784842,-8920.938840024333,-29761.772425386003
-13857.07573378989,-10060.430772355889,-8720.398988771318,-30178.00661063273
-12815.238572983571,-8451.038116340413,-8834.102312815467,-30661.899526345675
-14451.609784556602,-9867.535217706589,-9345.711391652989,-30314.598120999115
-15767.009945751422,-11752.144903200258,-9258.07020164373,-29742.08053852088
-15200.862610442951,-11508.75675782642,-8930.43833141784,-29759.358436984832
-13887.27294054901,-10108.19645025688,-8723.125901594865,-30167.16601457191
-12799.681758842678,-8465.633805469728,-8822.881737098902,-30672.67306717313
-14373.870417341044,-9790.712272013698,-9341.688077651032,-30363.704903567424
-15767.054649240334,-11744.075923451892,-9272.8894082176,-29775.18347205919
-15247.309535421078,-11555.896586882662,-8931.131235495954,-29755.33512298288
-13949.85782502387,-10188.193343662422,-8728.15504409731,-30159.49936622374
-12810.7235206036,-8501.195430898122,-8806.989646791179,-30670.393189238694
-14311.106718910542,-9722.293582236003,-9322.51028090838,-30385.83313057818
-15761.779637548882,-11725.859251720816,-9277.046832686288,-29785.264108808533
-15281.93238758235,-11584.506819785454,-8944.229357746764,-29756.519765439007
-13994.114279045378,-10241.993992566348,-8734.614698244894,-30142.288522993156
-12824.738064377078,-8524.105968964812,-8803.770995589613,-30660.424311211624
-14253.640383915948,-9645.403581309743,-9325.617173387667,-30413.59399719167
-15771.1226667312,-11706.502641022522,-9300.918495764554,-29805.38067881831
-15332.246164351243,-11621.498956858988,-8966.223474290786,-29753.390521215264
-14057.615585042906,-10305.472946819418,-8736.1122651234,-30117.12045873648
-12830.862442357831,-8555.2195972466,-8787.610684348427,-30637.44671791157
-14157.058496124566,-9550.475722608056,-9297.856306774176,-30411.78350589079
-15735.87396572518,-11657.440561943122,-9296.626960829137,-29789.26507106603
-15361.303432143144,-11656.077105531347,-8974.225398805786,-29733.385709927767
-14098.74279484067,-10372.706994140985,-8748.092800151444,-30105.34108940853
-12850.040239100486,-8604.192269348177,-8781.486306367673,-30629.31068292984
-14092.88663779338,-9490.126012578728,-9289.630864814624,-30436.750404447368
-15729.749587744427,-11638.352172178287,-9306.908763278576,-29803.212559606145
-15394.294606959178,-11687.347196024322,-8971.67729993788,-29717.851247531325
-14131.13047255641,-10423.49015754344,-8732.178358099265,-30074.98742043822
-12848.87794838881,-8636.311726130454,-8763.046117192045,-30618.559493846835
-14004.731357661649,-9406.642247038157,-9269.894274460588,-30465.964134450453
-15690.857552392192,-11594.09571815678,-9322.51028090838,-29828.157106418268
-15408.487964688298,-11709.520126523988,-9000.44399505186,-29729.854134303827
-14179.074964413045,-10485.225675728998,-8763.11317242541,-30085.693906032317
-12858.7350676936,-8670.733412591626,-8760.810942746513,-30619.72178455851
-13932.267002137543,-9324.901917565096,-9262.83112321271,-30495.200216197994
-15676.999470829902,-11551.090961824772,-9325.818339087766,-29840.27175191304
-15444.96601163936,-11732.631830290777,-9000.622809007504,-29720.82402954388
-14238.44119768634,-10542.334382812309,-8764.856608492924,-30070.29355410261
-12897.895323979295,-8721.58363122745,-8756.050021177534,-30599.024069192896
-13870.911463607725,-9255.186826608997,-9258.49488478838,-30519.742431609924
-15665.041287546312,-11508.667350848598,-9344.571452685768,-29865.640981869816
-15489.91536973898,-11756.950528258149,-9019.398274349962,-29716.241921930545
-14289.157305855431,-10588.08840371232,-8765.996547460145,-30041.10217584398
-12929.053655749996,-8758.195788645244,-8746.908157695312,-30585.121284141696
-13808.483041344052,-9184.19768621894,-9237.663058956035,-30524.95038806801
-15647.56222338226,-11468.948300951515,-9344.459693963492,-29861.23768821212
-15521.654846865518,-11777.782354090496,-9020.985248206289,-29702.94263397964
-14342.153291958964,-10642.157273549708,-8764.610739303916,-30024.763050647147
-12947.51619667008,-8803.480422911694,-8731.619564487883,-30562.74718794193
-13723.501708924976,-9107.173574825953,-9209.701026642446,-30550.00669360241
-15620.248391657877,-11422.83665214022,-9354.51797896838,-29897.179293296256
-15549.348658245644,-11810.482956228609,-9033.658687312449,-29712.553884095418
-14370.718821372846,-10696.851992231846,-8768.119963183399,-30017.789306377093
-12960.189635776238,-8854.196531080786,-8724.936392895746,-30549.62671394667
-13645.31530682031,-9047.717934574835,-9207.935238830476,-30568.9162694116
-15578.98707139338,-11381.195352219982,-9364.084525595252,-29909.986842869144
-15560.41277175102,-11822.418787767743,-9042.21940543883,-29714.789058540948
-14410.482574758838,-10751.189083002697,-8781.195733689754,-30014.79417262008
-12999.23813333966,-8923.9563255258,-8728.87029991988,-30550.90076338062
-13579.489419399431,-8992.73264321478,-9191.39494793355,-30598.71114477052
-15545.88413785507,-11328.713456238922,-9379.350767058226,-29933.612636758404
-15596.063804157237,-11852.280718360034,-9071.880170331022,-29720.511105121503
-14473.000404000331,-10813.081063399442,-8801.446414166263,-30013.27425399712
-13048.00963974114,-8986.004768133733,-8734.659401733805,-30544.08348132175
-13533.422474077044,-8944.922261824879,-9190.545581644248,-30625.421479394616
-15536.295239483745,-11284.278188261773,-9398.170935889597,-29958.713645781718
-15633.167699953045,-11866.87640748935,-9080.262074501765,-29708.75408753802
-14522.710683668936,-10857.62809009887,-8805.380321190396,-29988.82144556301
-13088.332186738517,-9038.21844318133,-8732.737151710648,-30526.582065413248
-13451.928013792996,-8859.248025327686,-9157.800276017222,-30635.39035742168
-15483.54512256922,-11200.772070976744,-9396.405148077623,-29983.12175072691
-15653.351325196189,-11873.626634314853,-9092.153202551986,-29713.06797421789
-14570.07403016973,-10902.286875520573,-8814.343370716973,-29978.51729136912
-13131.113425625972,-9094.969522353354,-8727.640953974838,-30500.87755928964
-13406.08458591516,-8815.885641084391,-9149.597185802126,-30647.8849825722
-15448.408180285476,-11142.434017948392,-9405.05527318183,-29998.16447474533
-15672.506770194384,-11880.376861140354,-9101.272714289751,-29713.26913991799
-14604.898048031098,-10944.330506841006,-8814.276315483608,-29956.187898658267
-13161.824722507565,-9151.38532535855,-8715.481604991151,-30472.647306042592
-13333.843747835606,-8757.547588056039,-9116.293086563715,-30651.461261685046
-15393.132316247502,-11075.870522960488,-9402.216601636006,-30010.2344167512
-15689.225875046955,-11894.63727410284,-9114.773167940755,-29711.63746257275
-14642.650144416111,-10990.956245774776,-8825.541594689083,-29945.45906131972
-13188.937388531853,-9204.15779401753,-8720.06371260449,-30454.74355873389
-13261.602909756057,-8704.395139741318,-9107.441795759416,-30668.716808404544
-15338.594059776551,-11002.199173235796,-9413.638343052668,-30040.878658399422
-15692.109250081689,-11882.67909081925,-9126.463130290882,-29708.709384049107
-14669.874569162675,-11015.252591997694,-8830.637792424894,-29932.673863491284
-13240.18993856787,-9266.11682964764,-8724.019971373078,-30446.7863377078
-13216.742958634251,-8666.486581145118,-9091.259132773774,-30679.535052720912
-15287.945006840828,-10943.12351264042,-9415.739407031466,-30059.162385363867
-15726.530936542862,-11921.749940127129,-9141.796426987225,-29711.749221295027
-14729.28550592488,-11087.00169169923,-8839.578490207015,-29917.027642372566
-13288.268540891237,-9344.236176518938,-8724.265840562086,-30425.283959541797
-13177.962682004296,-8638.368086620341,-9079.32330123464,-30695.047163372896
-15255.602032613995,-10875.218912985196,-9423.942497246564,-30081.71529551927
-15757.465750869009,-11925.750902384629,-9148.658412535002,-29701.7132880346
-14784.315500773848,-11130.29702070916,-8845.054667598566,-29903.549540466018
-13345.511358441276,-9407.357502860728,-8717.560317225494,-30399.73591562938
-13125.301972067591,-8595.743309944071,-9044.78985605119,-30684.541843478903
-15199.00741565316,-10803.08983362792,-9410.263229639915,-30084.151635664897
-15749.575585076283,-11915.35734121291,-9155.699212038424,-29700.238072900545
-14812.92573367664,-11163.26584378074,-8853.66008921386,-29886.96454608018
-13383.308158315202,-9468.198951268072,-8709.91602062178,-30380.356953186627
-13070.942529552283,-8566.641338663261,-9018.861832483031,-30690.04037261491
-15133.002714276638,-10725.55163211246,-9408.34097961676,-30108.135057465443
-15751.520186843896,-11908.3612451984,-9158.761401028802,-29701.087439189847
-14836.596231054811,-11195.228838351828,-8850.843769412491,-29868.43494992673
-13404.609370781109,-9514.26589659046,-8702.696407162715,-30351.746720283834
-13009.29641834455,-8515.791120027438,-8998.409986306428,-30681.61376495525
-15046.099131834404,-10623.359456462797,-9405.748177259944,-30115.89111279144
-15733.929363957568,-11885.808335042992,-9173.602959347125,-29702.473247346075
-14850.27549866146,-11211.232687381827,-8855.51528400365,-29856.9461532767
-13432.772568794797,-9560.04226923493,-8702.986979840634,-30331.607798529603
-12947.51619667008,-8474.3509858073,-8976.326462784584,-30691.292070304404
-14977.367517634337,-10539.786283944402,-9399.065005667808,-30150.759834141714
-15754.78354153437,-11891.329215923455,-9177.738032071356,-29709.648157316227
-14901.460993464112,-11267.424972942468,-8861.28203407312,-29846.95492350518
-13504.164040585048,-9659.775752994508,-8714.252259046109,-30323.13648738104
-12953.528815928556,-8508.459747846096,-8975.9688348733,-30709.82166645785
-14956.133360401793,-10518.999161600968,-9421.39439837866,-30190.16595961642
-15787.439440183574,-11928.567222185997,-9209.075177797697,-29731.50816339352
-14979.088601957394,-11343.264441879326,-8892.127441421442,-29850.91118227377
-13581.679890356052,-9743.952422613194,-8718.834366659446,-30301.18707432593
-12937.390856431826,-8493.037044171935,-8948.498540937728,-30701.35035530929
-14892.207371259616,-10410.570849248274,-9405.994046448952,-30198.681974253894
-15795.329605976298,-11893.407928157798,-9210.975076076398,-29714.654948074214
-15011.230410484126,-11353.233319906392,-8890.652226287393,-29828.87236224084
-13619.968428607992,-9785.07963241096,-8720.06371260449,-30278.254184514783
-12900.35401586938,-8471.691128217117,-8935.512177409193,-30698.377573296737
-14826.69440826111,-10331.66919132104,-9407.536316816368,-30225.30290190016
-15798.928236833604,-11881.561503596486,-9227.940050117975,-29732.22341921609
-15039.63947768682,-11377.39555566258,-8903.415072371374,-29823.016205193548
-13662.213225628522,-9831.32539168899,-8722.67886670576,-30265.46898668635
-12876.147076624284,-8449.160569806167,-8912.556935853594,-30693.571948238845
-14757.605166149757,-10233.07564652868,-9398.349749845238,-30248.168736477943
-15803.108013046744,-11865.95998596668,-9238.199500822962,-29732.268122705
-15076.341042082437,-11418.321599760247,-8914.747406810213,-29809.873379453824
-13721.601810646274,-9904.505003035663,-8741.342573325941,-30252.28145745772
-12865.93232940821,-8456.715459432062,-8908.108938706988,-30702.378535554235
-14672.288557563848,-10145.166235585955,-9380.960092659008,-30267.27947798723
-15786.41125993863,-11842.043619399505,-9245.9332044045,-29740.873544320293
-15102.827859261974,-11447.915309419071,-8926.705590093803,-29808.2864055975
-13737.918584098648,-9955.73520132723,-8729.473797020173,-30236.50112587227
-12829.230765012597,-8461.38697402322,-8890.741633265214,-30706.93829142312
-14610.530687633836,-10086.42585115741,-9395.980464932974,-30315.91687392198
-15790.658091385138,-11842.11067463287,-9270.676585516523,-29775.295230781467
-15149.632412151386,-11495.904504764618,-8941.368334456485,-29806.207693363154
-13812.416948368187,-10040.381257579476,-8748.49513155164,-30228.812125779645
-12837.433855227691,-8485.683320246138,-8884.013758184166,-30705.239558844514
-14563.033230666308,-10022.566917248598,-9396.203982377529,-30337.508659065803
-15818.016626598434,-11854.560596294476,-9279.304358876272,-29775.406989503743
-15204.930627933816,-11543.156092543137,-8935.19925298682,-29791.79081818948
-13885.663614948227,-10108.822299101628,-8750.953823441723,-30216.049279695664
-12850.375515267317,-8499.519050063975,-8872.144981878399,-30699.02577388594
-14491.887628065066,-9922.699323022283,-9372.66759546609,-30346.002321958826
-15816.809632397848,-11811.913467873748,-9282.210085655464,-29778.111550582835
-15250.43877964482,-11561.506874740944,-8955.807561374613,-29789.64505072177
-13927.170804401732,-10151.089447866612,-8754.865378721403,-30198.234939364786
-12839.333753506393,-8498.714387263582,-8855.42587702583,-30691.44853251559
-14422.70897897589,-9832.353571933934,-9372.153505343616,-30376.33363918467
-15808.56183869384,-11783.794973348971,-9308.31692317926,-29797.602271747863
-15281.440649204333,-11590.832363466308,-8972.705480182825,-29782.045457606968
-13973.9977090356,-10216.937687031948,-8757.793457245047,-30181.292317067662
-12833.6787621592,-8532.018486501991,-8836.315135516541,-30677.5904509533
-14332.989076732289,-9753.608376217888,-9355.032069090852,-30397.366630717115
-15773.044916754356,-11754.93887125717,-9316.408254672082,-29808.532274786507
-15281.3065387376,-11613.318218388344,-8978.293416296652,-29772.65772493574
-13996.81884012447,-10268.637271957074,-8753.300756609531,-30155.3195900106
-12827.5767359229,-8554.549044912941,-8820.89243184238,-30681.814930655357
-14244.63263090046,-9671.309253133448,-9340.101103794706,-30432.101241600663
-15754.604727578728,-11729.234365133569,-9317.771711083857,-29819.75285050307
-15307.301617539122,-11640.296773945902,-8983.322558799096,-29770.53430921249
-14030.100587618424,-10324.583688328708,-8762.040288691556,-30145.97656082828
-12813.49513691606,-8577.191362046166,-8811.437643937785,-30666.571040936837
-14153.70573445627,-9580.449411922624,-9326.690057121525,-30447.948628419475
-15736.075131425278,-11689.224742558568,-9326.690057121525,-29828.38062386282
-15365.125580445005,-11684.754393667508,-8995.21368684932,-29764.38757948728
-14103.973103043212,-10395.550476974306,-8765.750678271137,-30131.872610076975
-12854.845864158377,-8628.153339404267,-8807.302571213553,-30653.674084386123
-14108.465803678728,-9515.294076835404,-9317.212917472472,-30462.164337893053
-15752.302497899833,-11664.324899235356,-9331.518033923869,-29824.2902546275
-15412.824203112628,-11712.40350155872,-9001.628637507993,-29743.44399493265
-14159.070153125544,-10449.976974722978,-8760.140390412855,-30105.25168243071
-12874.40364055677,-8656.85297928488,-8783.900294768846,-30637.558476633847
-14041.72349473518,-9437.39824740866,-9304.293609177304,-30485.343096893204
-15716.673817238072,-11613.29586664389,-9346.069019564276,-29841.27758041353
-15435.690037690409,-11732.184795401668,-9026.617887809023,-29744.829803088884
-14205.96411299278,-10508.046806817869,-8772.567960330005,-30089.56075782308
-12883.031413916518,-8689.665340145271,-8759.156913656821,-30613.48564785548
-13954.462284381663,-9349.019449832374,-9274.543437307291,-30496.56367260977
-15691.908084381592,-11568.502970755457,-9350.673478922066,-29853.81690905296
-15456.655973989486,-11742.064266450914,-9015.754940003746,-29729.25063720353
-14242.129235521465,-10545.553034013872,-8770.086916695467,-30069.86887095796
-12900.421071102748,-8722.701218450215,-8763.962538714712,-30604.54495007336
-13872.118457808312,-9258.740753977389,-9264.418097069038,-30517.976643797952
-15656.43586593102,-11505.582810113763,-9352.774542900866,-29870.737179605625
-15474.805590487194,-11751.89903401125,-9028.048399454165,-29726.18844821316
-14269.912453879411,-10577.42662160714,-8783.855591279935,-30059.698827230797
-12908.400643873292,-8749.076276907477,-8754.932433954767,-30593.70435401253
-13794.379090592754,-9181.96251177341,-9242.826311925211,-30539.27785626386
-15629.502013862377,-11461.5051700479,-9357.42370574757,-29886.830435613447
-15501.851201278116,-11770.741554587074,-9033.390466378984,-29719.058241731916
-14312.090195666577,-10634.378866479265,-8778.580579588483,-30034.910742629854
-12944.27519372406,-8809.403635192351,-8756.832332233469,-30577.119359626697
-13731.682447395617,-9127.71482798038,-9236.813692666734,-30559.10385359572
-15603.149307149568,-11426.658800442076,-9362.162275572096,-29901.89551137633
-15529.522660913786,-11798.792993878484,-9034.731571046304,-29711.70451780612
-14365.287347470206,-10692.40399508524,-8782.782707546081,-30019.488038955697
-12972.08076382646,-8857.70575496027,-8737.833349446459,-30549.5596587133
-13677.725336280506,-9065.196998738886,-9213.411416222028,-30563.685961209056
-15608.625484541117,-11398.585009406212,-9376.892075168142,-29917.29586330603
-15593.381594822598,-11848.883253202826,-9056.524521890226,-29719.63938708775
-14444.52428156427,-10770.36687974535,-8791.231666950187,-30017.565788932538
-13032.519880833612,-8935.087494264542,-8733.698276722227,-30542.787080143346
-13614.73812040545,-9005.562544532126,-9182.655415851525,-30576.44880729304
-15564.950175875449,-11333.027342918796,-9367.437287263549,-29913.272549304074
-15587.860713942136,-11837.841491441905,-9054.334050933609,-29695.275985631462
-14478.275415691784,-10801.972246405156,-8792.572771617504,-29992.867111309424
-13058.358497423947,-8976.259407551219,-8730.30081156502,-30522.55875141129
-13542.340820114712,-8940.317802467085,-9182.85658155162,-30602.645051794658
-15522.68302711046,-11274.689289890444,-9388.045595651342,-29947.35895959842
-15616.1356706781,-11861.556692308986,-9079.949150079388,-29705.155456680717
-14499.956607813432,-10841.19955792422,-8800.462937410228,-29980.46189313673
-13071.501323163668,-9025.16502441943,-8730.390218542841,-30511.11465825017
-13460.935766808483,-8872.390851067406,-9163.410563875505,-30622.76162180443
-15454.86783443306,-11192.25605633927,-9391.800688719832,-29966.13442494088
-15613.14053692109,-11849.754971236584,-9092.063795574164,-29705.960119481104
-14530.198518061465,-10872.022613528086,-8811.392940448874,-29972.50467211064
-13097.697567665287,-9063.61002488256,-8721.248355060621,-30493.970870252957
-13386.012719394294,-8801.915800799823,-9145.976203200364,-30641.13475574669
-15412.801851368173,-11127.01131427423,-9402.19424989155,-29993.537663643085
-15621.969475980935,-11855.946404450704,-9104.04433060221,-29710.296357905438
-14565.089591156197,-10924.482157764693,-8832.716504659236,-29963.765140028616
-13119.669332464857,-9123.915031422976,-8723.505881250607,-30467.238183884405
-13307.088709722604,-8749.612718774404,-9119.556441254192,-30639.346616190272
-15362.331612388089,-11070.729621735769,-9398.215639378506,-29999.326765457008
-15648.925679794036,-11873.850151759403,-9102.926743379445,-29698.78520951095
-14613.168193479562,-10972.40429787687,-8818.299629485564,-29937.97122692719
-13171.011289478694,-9193.048977023242,-8719.236698059643,-30453.38010232212
-13250.449389272855,-8698.270761760565,-9100.669217189456,-30648.17555525012
-15330.972114917293,-11003.853202325488,-9408.229220894484,-30022.706690157254
-15690.00818610289,-11890.144573467323,-9130.195871614918,-29699.70163103362
-14667.773505183875,-11020.32643798905,-8835.957507605257,-29920.06747961849
-13228.23175528428,-9256.170303365028,-8718.208517814699,-30431.989482878387
-13225.057807571628,-8668.162961979266,-9085.402975726483,-30660.536069933903
-15304.105318082014,-10952.064210422544,-9403.37889234768,-30029.881600127414
-15715.444471293027,-11905.008483530102,-9118.550612753705,-29686.60350878281
-14721.507098854436,-11072.94244443684,-8826.45801621175,-29906.0082323561
-13291.040157203694,-9337.731818882445,-8713.089968334432,-30411.716450657423
-13190.99374902174,-8647.264080913554,-9063.386507438005,-30666.72750314802
-15259.960622782784,-10897.235381273673,-9407.268095882904,-30063.47627204374
-15722.462919051995,-11916.765501113594,-9141.550557798217,-29710.631634072262
-14754.341811459282,-11116.885974035977,-8845.702868187771,-29903.81776139948
-13327.004114032285,-9402.887153969665,-8712.754692167604,-30395.86906383861
-13129.101768624994,-8613.155318874755,-9048.656707841958,-30682.01609635545
-15209.982122180716,-10831.275383386062,-9424.970677491508,-30091.9523944798
-15746.334582130265,-11923.471024450188,-9158.806104517713,-29709.84932301633
-14800.967550393052,-11161.29889026867,-8854.509455503161,-29891.971336838167
-13376.289710556235,-9468.690689646088,-8720.667209704783,-30382.41331367652
-13078.318605222536,-8578.979501602591,-9031.31175414464,-30690.912090648664
-15129.38173167488,-10739.879100308312,-9410.687912784566,-30105.87753127546
-15745.753436774428,-11912.026931289069,-9161.220092918884,-29711.34688989483
-14839.434902600637,-11199.006283164774,-8862.220807340242,-29883.075342544955
-13424.390664624056,-9530.716780509563,-8725.003448129111,-30363.72725531188
-13039.940659992775,-8541.920309295692,-9015.21849813682,-30692.432009271623
-15083.337138096946,-10655.009526611511,-9421.126177445196,-30132.63256938846
-15763.321907916295,-11909.054149276511,-9181.224904206383,-29705.98247122556
-14877.18699898565,-11233.383266137036,-8869.418069054851,-29851.402920651784
-13465.763743610829,-9586.439679436646,-8708.619619443372,-30322.063603647188
-12999.260485084116,-8512.661875803695,-8971.789058660157,-30677.12106431974
-15030.676428160245,-10582.411060620674,-9399.6685027681,-30138.667540391398
-15791.976844308,-11923.247507005632,-9184.57766587468,-29708.016479970996
-14927.657237965732,-11282.311234749704,-8872.122630133943,-29849.77124330655
-13519.922020426038,-9657.831151226896,-8717.58266896995,-30320.09665013512
-12959.720249142678,-8497.485041318541,-8973.130163327476,-30695.6953639621
-14953.607613278344,-10498.83788810228,-9408.028055194383,-30166.67427619389
-15788.534675661884,-11911.222268488678,-9198.48045092588,-29709.60345382732
-14969.25383439706,-11325.33834282617,-8883.90199946189,-29838.327150145436
-13564.983137247937,-9721.198346757692,-8718.253221303608,-30290.257071287284
-12918.615391089368,-8475.982663152536,-8943.223529246276,-30685.54767197939
-14885.054813033918,-10414.504756272408,-9399.847316723744,-30184.578023502592
-15791.17218150761,-11899.800527072017,-9204.336607973171,-29711.03396547246
-14991.627930596822,-11347.555976814743,-8885.980711696233,-29824.737289516605
-13608.233762768956,-9778.150591629816,-8724.15408183981,-30284.445617728907
-12901.918637981253,-8469.433602027131,-8940.67543037837,-30703.674936732645
-14836.730341521545,-10342.152159470575,-9412.096072685252,-30221.458401853848
-15806.728995648504,-11895.330178180957,-9229.68348618549,-29729.518858137
-15051.821178414964,-11392.05830002526,-8905.918467750367,-29818.05411792447
-13687.068365462825,-9849.206787253235,-8729.20557608671,-30260.529251161726
-12905.651379305287,-8469.768878193961,-8919.396569656918,-30685.68178244612
-14773.899587857675,-10252.07462931569,-9403.781223747876,-30235.204724693864
-15815.22265854152,-11882.835553030438,-9243.742733447878,-29725.853172046325
-15090.13206841136,-11426.748207419898,-8919.374217912462,-29811.974443432624
-13721.937086813105,-9907.790709470595,-8737.25220409062,-30248.36990217804
-12861.193759583684,-8462.549264734896,-8907.326627651051,-30686.195872568594
-14686.90659843762,-10165.707488740383,-9395.891057955154,-30257.020027282244
-15791.976844308,-11855.566424794964,-9245.664983471035,-29723.93092202317
-15097.172867914782,-11448.69762047501,-8923.196366214319,-29785.577033230908
-13742.3442295008,-9962.083096752536,-8738.369791313386,-30218.977358219312
-12827.643791156268,-8462.884540901727,-8889.221714642254,-30684.85476790128
-14606.663835843068,-10084.95063602336,-9389.118479385195,-30291.933452121437
-15796.55895192134,-11850.447875314698,-9261.042983656283,-29747.266143234512
-15152.404028463843,-11502.051234489829,-8928.650191861414,-29790.293251310977
-13815.523840847474,-10046.639746026964,-8739.39797155833,-30213.54588431667
-12840.87602387381,-8488.521991791964,-8877.487048803217,-30686.75466617997
-14550.337439815694,-10010.094643842536,-9383.530543271369,-30310.731269208347
-15795.016681553923,-11831.538299505508,-9267.145009892583,-29747.713178123617
-15188.747964948174,-11528.649810391642,-8938.663773377391,-29774.69173368117
-13873.70543166464,-10104.016674043736,-8747.73517224016,-30193.630480006992
-12842.954736108151,-8508.191526912633,-8867.182894609321,-30688.9451371366
-14499.286055479772,-9949.96845125776,-9384.692833983045,-30345.44352834744
-15810.0817573168,-11832.946459406194,-9294.212972427962,-29771.4283789907
-15240.53695685112,-11581.802258706362,-8962.669546922392,-29782.62660296281
-13934.435121349708,-10188.05923319569,-8754.418343832296,-30191.328250328097
-12850.26375654504,-8541.696791851138,-8848.273318800131,-30693.50489300548
-14423.13366212054,-9865.680022916797,-9363.346918028226,-30372.39973216054
-15809.187687538588,-11818.52958423252,-9304.271257432849,-29792.03668737849
-15286.73801264024,-11632.764236064462,-8965.597625446037,-29781.106684339844
-13985.017119052069,-10260.925920119991,-8755.670041521793,-30180.01826763371
-12863.250120073571,-8580.812344647926,-8845.635812954404,-30690.487407504013
-14354.804379320669,-9797.820126750485,-9361.581130216256,-30405.435610465483
-15792.35682396374,-11791.796897863973,-9310.753263324888,-29800.61975724933
-15296.50572496721,-11641.5484716354,-8971.610244704514,-29757.41383521722
-14010.229886797651,-10297.716891493428,-8752.138465897855,-30139.516906680696
-12823.15109052075,-8567.624815419294,-8815.013923050634,-30655.797500109376
-14236.451892429815,-9678.43945961469,-9328.142920511118,-30399.691212140468
-15745.552271074328,-11732.94475471315,-9303.444242888005,-29793.62366123482
-15305.26760879369,-11645.571785637354,-8977.10877384052,-29748.920172324204
-14042.237584857654,-10337.324182668232,-8765.102477681932,-30136.320607223584
-12824.805119610444,-8582.064042337423,-8809.202469492253,-30649.5837151508
-14161.66295548236,-9587.646673637231,-9318.866946562166,-30415.292729770277
-15733.951715702024,-11692.68926294914,-9314.575411626747,-29797.1328851143
-15345.903080213438,-11669.823428371365,-8985.088346611064,-29738.638369874763
-14079.185018442276,-10377.892598854614,-8755.155951399322,-30104.82699928606
-12833.075265058907,-8612.37300781882,-8790.78463206108,-30637.35731093375
-14100.687396608282,-9519.74207398201,-9309.926248780042,-30449.69206448699
-15725.659218509105,-11666.917701592172,-9330.333391467737,-29812.197960877176
-15379.989490507782,-11710.078920135373,-8990.296303069152,-29723.68505283416
-14126.011923076145,-10439.806930995814,-8755.960614199712,-30087.102065933
-12853.191835068685,-8649.275737914531,-8785.420213391806,-30617.419554879616
-14041.164701123798,-9444.550805634355,-9309.434510402025,-30471.17209090854
-15718.73017772796,-11630.68552383012,-9336.927156082053,-29831.733385531115
-15434.326581278632,-11745.171158930203,-9014.54794580316,-29736.20202972913
-14207.640493826926,-10511.623085930716,-8778.513524355118,-30085.828016499046
-12897.805917001477,-8693.666302402771,-8776.390108631862,-30608.7247262865
-13963.00065076359,-9354.495627223923,-9276.488039074902,-30477.87761424513
-15692.019843103868,-11570.514627756433,-9340.883414850645,-29837.589542578407
-15462.445075803407,-11750.110894454823,-9022.30400112915,-29722.388651655758
-14238.24003198624,-10548.257595092964,-8780.748698800648,-30060.9952284092
-12896.6436262898,-8726.992753385633,-8779.78757378907,-30597.90648197013
-13889.351652783353,-9285.294626390294,-9279.907855976566,-30511.919321050565
-15671.523293438351,-11531.577888915288,-9355.635566191146,-29861.9976475236
-15482.271073135267,-11767.500551641057,-9029.858890755046,-29721.673395833182
-14276.975605127289,-10593.296360170409,-8784.50379186914,-30051.048702126587
-12916.536678855024,-8762.107343924921,-8766.935320727269,-30586.663554509112
-13802.626884296762,-9195.57472414669,-9256.527931276314,-30523.22930374495
-15634.441749386997,-11473.284539375849,-9375.260397822904,-29872.078284272942
-15504.175782701468,-11783.52675241551,-9059.02791726922,-29717.940654509148
-14308.916247953925,-10637.753979892012,-8791.45518439474,-30031.401518750376
-12931.288830195526,-8807.570792147017,-8766.331823626975,-30569.40800778961
-13728.776720616428,-9131.782845471243,-9248.168378850029,-30545.71515866699
-15606.971455451425,-11432.291440044812,-9379.104897869218,-29887.568043180472
-15526.25930622331,-11804.04565382548,-9056.591577123592,-29710.74339279454
