 EXG Channel 0, EXG Channel 1, EXG Channel 2, EXG Channel 3
15976.468143042106,40008.7955604548,-16073.452362233684,-9710.961247797162
15972.847160440346,40107.59027094725,-16079.599091958891,-9712.771739098042
15965.605195236829,40192.70571383306,-16084.494123994606,-9707.049692517485
15969.717916216605,40291.76864525898,-16085.27643505054,-9705.194497727693
15980.223236110598,40405.04728615848,-16082.9965571161,-9703.384006426812
15989.49921005955,40515.71077295671,-16085.455249006183,-9704.501593649578
15992.69550951666,40609.6328031579,-16089.836190919425,-9705.4403669167
15977.004584909031,40679.92903946985,-16087.08692635142,-9699.807727313964
15977.988061665066,40756.84139214056,-16080.180237314731,-9696.834945301409
15988.269864114509,40839.83341930311,-16076.93923436871,-9713.889326320808
15992.829619983391,40927.74283024584,-16077.028641346533,-9714.314009465455
15986.705242002636,41005.25868001684,-16080.537865226015,-9693.973922011128
15986.437021069172,41088.07189322375,-16081.834266404425,-9703.808689571464
15999.69160553117,41184.45261531504,-16079.08500183642,-9708.413148929256
16008.07350970191,41283.09086359631,-16083.108315838375,-9715.789224599508
16020.83635578589,41397.33062950738,-16084.248254805596,-9708.144927995792
16018.511774362538,41498.22640397864,-16090.596150230904,-9710.514212908056
16021.21633544163,41585.71113177671,-16094.32889155494,-9710.983599541618
16032.54866988047,41682.829461435016,-16095.066499121966,-9710.536564652512
16045.356219453362,41789.89431737594,-16086.125801339842,-9707.474375662134
16058.968431826645,41906.63747866601,-16083.108315838375,-9716.169204255248
16060.51070219406,42013.3670584401,-16092.451345020694,-9717.130329266827
16065.31632725195,42122.063591726255,-16097.9498741567,-9722.360637469368
16077.118048324352,42243.634729818674,-16097.055804378488,-9726.696875893698
16091.221999075651,42360.95903646458,-16093.9489118992,-9730.004934073084
16095.111202610877,42465.58755225987,-16091.959606642677,-9717.68912287821
16086.304615295485,42545.450335198686,-16102.822554447956,-9725.601640415389
16075.8439988904,42611.54444355303,-16107.918752183768,-9727.054503804982
16069.965490098655,42676.096281539954,-16106.108260882887,-9726.83098636043
16077.676841935736,42751.46636384325,-16100.341510813418,-9724.908736337273
16085.097621094896,42830.36802177048,-16094.306539810485,-9720.237221746114
16075.687536679214,42895.76922604671,-16101.459098036185,-9724.037018303516
16071.37364999934,42951.7379941628,-16102.062595136476,-9728.574422427944
16074.435838989715,43010.54543382472,-16096.340548555918,-9730.809596873474
16084.628234461336,43082.49569922635,-16091.37846128684,-9731.234280018123
16093.300711309996,43161.911447276056,-16092.786621187524,-9743.93007086874
16094.932388655234,43233.16880859957,-16099.335682312929,-9743.281870279536
16090.70790895318,43295.88780354116,-16106.108260882887,-9748.132198826335
16094.261836321572,43360.55140025037,-16101.816725947469,-9744.354754013391
16100.945007913711,43429.12655223925,-16093.591283987917,-9733.000067830097
16098.553371256992,43491.84554718084,-16097.301673567496,-9740.733771411631
16082.214246060164,43521.10398067284,-16106.577647516448,-9744.734733669133
16063.997574329089,43528.16713192072,-16105.214191104677,-9740.867881878365
16054.386324213308,43532.61512906732,-16097.748708456602,-9730.697838151198
16042.003457785066,43536.79490528046,-16098.843943934911,-9736.06225682047
16033.822719314425,43537.5772163364,-16100.877952680345,-9728.68618115022
16022.35627440885,43530.71523078862,-16104.297769582006,-9725.512233437566
16004.519582333516,43519.04762018295,-16104.588342259924,-9721.69008513571
16004.608989311337,43511.69389625715,-16097.27932182304,-9715.5433554105
15997.41172759673,43500.76389321851,-16096.295845067008,-9710.804785585977
15993.701338017148,43494.93008791567,-16093.971263643654,-9710.20128848568
15988.940416448168,43480.98259937556,-16092.496048509603,-9709.307218707469
15979.105648887831,43457.71443339759,-16094.351243299396,-9710.4918611636
15978.524503531991,43447.902017581706,-16092.227827576142,-9711.877669319829
15981.854913455834,43445.666843136176,-16083.912978638768,-9709.195459985192
15982.458410556128,43444.43749719113,-16076.067516334952,-9711.855317575371
15982.033727411475,43438.33547095484,-16074.748763412092,-9715.655114132776
15970.29906157244,43413.39092414271,-16077.98976635811,-9714.15754725427
15957.715029444103,43388.51343256395,-16085.589359472917,-9711.29652396399
15951.434189252162,43367.92747592062,-16081.56604547096,-9713.375236198335
15951.009506107512,43361.95956015105,-16066.836245874912,-9709.35192219638
15958.609099222316,43357.26569381544,-16066.299804007986,-9718.650247889787
15949.333125273362,43333.81871388182,-16072.558292455473,-9713.419939687246
15940.77240714698,43318.15014101865,-16077.520379724549,-9709.307218707469
15943.924003115178,43312.830425838285,-16070.948966854688,-9701.104128492372
15953.334087530862,43321.34644047576,-16065.070458062944,-9704.345131438393
15951.858872396811,43325.25799575543,-16071.664222677258,-9706.513250650556
15946.673267683182,43314.305640972336,-16078.593263458404,-9708.30139020698
15951.568299718894,43314.55151016134,-16073.497065722591,-9708.323741951435
15961.559529490416,43336.09859181626,-16068.020888331044,-9710.648323374788
15971.059020883922,43364.50765901896,-16068.982013342622,-9716.124500766338
15974.098858129842,43372.55428702287,-16075.352260512384,-9724.707570637176
15968.622680738294,43366.47461253102,-16080.291996037007,-9715.431596688222
15971.282538328474,43374.25301960147,-16075.240501790107,-9712.771739098042
15977.49632328705,43395.10719717827,-16076.268682035052,-9721.421864202246
16002.150297421254,43432.07698250735,-16071.150132554789,-9721.555974668978
16016.231896428097,43471.70662542661,-16071.887740121812,-9724.148777025794
16014.734329549592,43495.55593676042,-16082.348356526896,-9728.462663705666
16021.328094163908,43529.73175403258,-16084.248254805596,-9713.889326320808
16039.142434494786,43586.594591926885,-16082.236597804618,-9711.318875708446
16061.538882439005,43669.51956385608,-16083.823571660943,-9722.472396191644
16076.8945308798,43751.61752124042,-16088.025699618544,-9729.69200965071
16093.926560154743,43826.58527214352,-16092.160772342777,-9735.570518442457
16079.174408814242,43851.88744686693,-16094.977092144143,-9733.134178296828
16052.397018956784,43842.11973453996,-16086.90811239578,-9729.244974761605
16047.45728343216,43855.66489167987,-16076.648661690791,-9728.842643361408
16048.910146821756,43878.35191230201,-16076.84982739089,-9735.503463209088
16045.825606086924,43895.942735188335,-16078.749725669591,-9732.88830910782
16049.290126477496,43926.20699718082,-16073.608824444873,-9732.97771608564
16062.209434772663,43963.065023787625,-16064.735181896112,-9729.177919528238
16073.675879678236,44007.47794002032,-16069.60786218737,-9725.26636424856
16075.665184934758,44046.86171375057,-16078.70502218068,-9731.077817806938
16078.257987291574,44081.61867637857,-16086.70694669568,-9735.950498098196
16082.258949549074,44122.50001698733,-16089.746783941602,-9728.954402083684
16094.887685166324,44175.29483739077,-16093.61363573237,-9738.431541732734
16116.18889763223,44253.07890809523,-16094.463002021672,-9747.014611603572
16148.643630581337,44339.89308355965,-16101.839077691922,-9748.109847081882
16172.58234889297,44431.22231140403,-16108.946932428713,-9754.12246634036
16206.981683609689,44552.25700762952,-16109.930409184744,-9760.291547810024
16250.791102742089,44711.82611129595,-16116.14419414332,-9781.123373642373
16308.682120881334,44918.13271261844,-16121.709778512692,-9795.070862182482
16375.066801913596,45162.39257602603,-16127.342418115428,-9804.302132642524
16427.369883939016,45400.99744808644,-16145.223813679671,-9820.70831307272
16440.847985845565,45582.76183399699,-16158.76897081959,-9821.825900295486
16419.323255935105,45694.162928362246,-16160.467703398192,-9820.820071794997
16376.877293214477,45734.50782710408,-16155.550319618023,-9811.901725757329
16305.776394102144,45693.51472777304,-16149.269479426084,-9792.723929014675
16191.693090402256,45542.86397014427,-16140.217022921684,-9773.255559594105
16059.37076322684,45294.558440990266,-16126.157775659298,-9732.150701540791
15938.894860612734,44990.97704779828,-16101.928484669745,-9696.343206923391
15850.717228736548,44707.17694844925,-16075.821647145944,-9673.790296767986
15815.155603308154,44485.02296030796,-16052.866405590345,-9657.76409599353
15814.976789352511,44326.236167697454,-16042.003457785066,-9639.212148095628
15848.638516502204,44241.65716667857,-16034.26975420353,-9640.776770207498
15891.509162367483,44218.27724197832,-16036.996667027075,-9654.4783895586
15924.410930205697,44211.92934655301,-16046.138530509295,-9666.43657284219
15921.549906915416,44167.06939543121,-16060.60010917188,-9670.661052544245
15900.29339793842,44082.78096709025,-16069.496103465091,-9665.76602050853
15888.715194310573,43992.32345727962,-16069.98784184311,-9660.513360561534
15892.537342612428,43920.59670932254,-16064.332850495915,-9662.972052451618
15904.786098573935,43878.48602276874,-16063.617594673347,-9672.33743337839
15924.410930205697,43863.01861560567,-16074.502894223082,-9678.685328803698
15941.889994369743,43845.2489787637,-16082.750687927091,-9689.615331842344
15954.295212542442,43829.26748147816,-16083.912978638768,-9692.96809351064
15965.761657448014,43813.97888827073,-16085.36584202836,-9688.944779508683
15976.915177931212,43803.02653348762,-16085.790525173012,-9701.953494781674
15977.272805842496,43785.078082690015,-16084.784696672525,-9698.801898813475
15965.53814000346,43745.40373628184,-16085.65641470628,-9693.10220397737
15947.701447928126,43686.6633518533,-16085.209379817175,-9689.324759164425
15942.649953681226,43632.97446167165,-16074.458190734173,-9684.653244573265
15928.143671529731,43567.32738820641,-16069.831379631923,-9678.282997403505
15897.81235430388,43474.27707603897,-16071.172484299244,-9675.980767724606
15849.353772324774,43336.6797371721,-16073.161789555765,-9669.275244388014
15794.770812364915,43174.58488638221,-16065.338678996406,-9649.873930200809
15767.188759707064,43022.39185838603,-16051.949984067678,-9636.775807949998
15751.140207188157,42889.80131027714,-16041.22114672913,-9628.28214505698
15756.1693496906,42793.48764341923,-16031.118158235333,-9624.86232815532
15759.723277058993,42706.65111621036,-16037.756626338558,-9629.33267704638
15766.227634695488,42629.62700481737,-16045.110350264356,-9632.841900925863
15777.26939645641,42576.11692859136,-16043.65748687476,-9632.730142203587
15790.12164951821,42531.99458503659,-16045.333867708909,-9636.61934573881
15796.89422808817,42485.4806048251,-16046.31734446494,-9642.408447552734
15781.940911047568,42407.58477539835,-16054.520434680038,-9643.034296397484
15756.616384579704,42303.93973635909,-16053.268736990542,-9634.33946780437
15731.649486023129,42193.67858096106,-16047.680800876717,-9625.19760432215
15707.15197410011,42074.588486503184,-16041.243498473586,-9620.481386242078
15680.06165982028,41941.10386861609,-16037.354294938365,-9619.050874596938
15646.936374537514,41789.73785516475,-16034.828547814912,-9604.723406401088
15628.317371406243,41645.32323423901,-16029.866460545834,-9598.6660836537
15637.794511055294,41541.23116031065,-16020.8810592748,-9594.575714418375
15667.72349688095,41491.3420666864,-16016.83539352839,-9600.543630187944
15712.516392769385,41496.75118884459,-16021.484556375091,-9613.529993716478
15770.899149286646,41529.74236366062,-16034.806196070456,-9630.562022991422
15819.245972543476,41570.489593802646,-16039.768283339536,-9639.167444606715
15873.828932503337,41641.0764027925,-16044.216280486142,-9652.66789825772
15908.429432920151,41707.1928628913,-16055.727428880624,-9666.861255986842
15927.942505829637,41760.97116005077,-16066.143341796798,-9675.220808413123
15939.766578646491,41807.66395421791,-16079.152057069788,-9683.781526539507
15958.832616666868,41856.36840538602,-16086.08109785093,-9684.027395728515
15992.136715905275,41930.55384523319,-16084.739993183612,-9695.225619700626
16030.648771601773,42032.56720692721,-16083.175371071742,-9708.63666637381
16063.014097573056,42149.42212693956,-16093.121897354353,-9721.73478862462
16086.528132740035,42260.75616607144,-16107.114089383376,-9731.25663176258
16112.031473163544,42357.22629514054,-16113.797260975512,-9725.579288670931
16130.069330938975,42452.57883698688,-16121.9556477017,-9735.92814635374
16151.258784682606,42553.78753588051,-16124.347284358417,-9739.45972197768
16169.609566880414,42657.25376096413,-16128.61646754938,-9746.522873225556
16175.421020438796,42747.95713996376,-16142.8098252785,-9760.380954787846
16170.190712236252,42817.873396619965,-16151.906985271811,-9768.181713602748
16172.314127959506,42895.25513592424,-16147.52604335857,-9760.582120487945
16181.523046675093,42975.16262235196,-16142.63101132286,-9754.569501229464
16187.334500233472,43054.48896342385,-16145.648496824326,-9764.203103089703
16189.904950845832,43122.28180435679,-16147.727209058668,-9764.270158323068
16181.813619353012,43171.63445611411,-16146.833139280456,-9765.186579845737
16172.29177621505,43218.103732836695,-16148.0624852255,-9772.115620626882
16179.757258863125,43273.245486407934,-16142.966287489688,-9771.690937482232
16187.558017678026,43333.751658648456,-16141.558127589004,-9770.439239792731
16184.227607754185,43381.96437143855,-16147.749560803124,-9772.763821216084
16171.10713375892,43408.0935607068,-16156.377334162871,-9778.284702096547
16168.782552335568,43446.02447104746,-16153.359848661406,-9768.807562447497
16180.673680385791,43498.97575366208,-16152.354020160918,-9780.944559686728
16192.296587502551,43553.40225141076,-16153.069275983487,-9768.628748491854
16190.240227012662,43600.25150778908,-16165.653308111823,-9770.461591537189
16183.311186231518,43626.71597322416,-16170.458933169715,-9763.465495522678
16189.793192123556,43661.763508530086,-16165.496845900638,-9758.525759998056
16198.845648627956,43703.09188402795,-16166.189749978752,-9756.894082652818
16197.526895705092,43745.04610837056,-16169.72132560269,-9758.838684420429
16193.05654681403,43778.57372505352,-16177.812657095512,-9764.404268789802
16178.72907861818,43788.45319610277,-16184.96521532121,-9769.612225247887
16164.982755778165,43794.75638803916,-16185.099325787942,-9769.656928736798
16171.82238958149,43819.09743775099,-16181.34423271945,-9770.774515959563
16187.043927555553,43859.10706032599,-16177.946767562244,-9773.546132272022
16188.54149443406,43898.55788928961,-16179.690203629758,-9774.462553794689
16176.002165794633,43910.58312780656,-16182.461819942217,-9773.680242738754
16180.405459452328,43923.278918657175,-16179.734907118667,-9777.636501507342
16184.786401365567,43952.78322133818,-16178.974947807188,-9787.806545234507
16191.469572957703,43986.44494848787,-16183.758221120625,-9783.894989954828
16191.134296790877,44014.36227731255,-16191.357814235427,-9781.391594575834
16185.032270554577,44026.1416466405,-16198.219799783206,-9792.433356336756
16193.59298868096,44051.55558008618,-16190.955482835232,-9782.397423076323
16199.985587595176,44082.06571126768,-16183.44529669825,-9781.481001553657
16202.131355062886,44117.62733669608,-16178.796133851543,-9782.88916145434
16203.293645774562,44150.01501441181,-16182.707689131224,-9787.426565578768
16206.199372553752,44164.87892447459,-16180.62897689688,-9781.324539342468
16196.141087548864,44167.4270233425,-16184.048793798542,-9783.783231232552
16195.694052659755,44180.65925606004,-16182.797096109043,-9792.053376681017
16205.72998592019,44214.79036984329,-16178.371450706894,-9792.925094714772
16215.318884291515,44249.77084991585,-16177.879712328877,-9790.332292357956
16220.772709938612,44273.30723682728,-16178.952596062732,-9790.600513291422
16223.8796024179,44297.67063828357,-16178.125581517888,-9787.583027789957
16230.518070521126,44331.35471717772,-16177.991471051157,-9791.829859236464
16252.579242298514,44382.78608116938,-16168.82725582448,-9787.404213834312
16271.734687296712,44439.64891906368,-16174.191674493752,-9797.730719772664
16276.719126310243,44481.781957361934,-16185.099325787942,-9805.330312887469
16293.237065462718,44536.320213832885,-16182.73004087568,-9813.823975780484
16324.462452466782,44619.06637180643,-16184.093497287451,-9808.571315833487
16348.155301589406,44712.60842235189,-16189.68143340128,-9815.142728703348
16357.408923793904,44790.079568633984,-16190.8213723685,-9824.172833463292
16346.970659133276,44840.415697147335,-16196.006977082132,-9820.976534006184
16342.545013731124,44874.27858999713,-16196.833991626978,-9816.79675779304
16344.131987587452,44906.68861945732,-16188.720308389702,-9814.382769391868
16335.437158994337,44935.27650061566,-16185.814581610512,-9813.443996124744
16324.574211189058,44947.39114611044,-16185.747526377148,-9810.426510623278
16299.093222510008,44931.6555180139,-16187.379203722385,-9800.50233608512
16275.154504198374,44906.28628805713,-16187.133334533375,-9795.026158693572
16259.955317968765,44894.596325707,-16180.785439108067,-9790.84638248043
16258.301288879073,44898.32906703104,-16171.598872136936,-9784.051452166015
16261.452884847273,44899.02197110915,-16168.559034891015,-9780.944559686728
16250.45582657526,44880.11239529996,-16175.689241372258,-9781.88333295385
16232.239154844185,44850.74220308569,-16180.405459452328,-9777.390632318336
16223.92430590681,44834.04544997757,-16180.785439108067,-9770.863922937384
16230.026332143108,44835.00657498915,-16174.214026238207,-9771.869751437873
16235.390750812385,44839.49927562467,-16170.905968058822,-9769.858094436897
16227.54528850857,44822.75781902765,-16171.755334348123,-9761.386783288335
16217.889334903875,44799.91433619432,-16170.928319803275,-9759.486885009634
16210.15563132234,44778.27784756159,-16167.530854646073,-9753.988355873627
16213.10606159044,44767.996045112144,-16155.8632440404,-9754.904777396296
16219.006922126642,44765.403242755325,-16152.57753760547,-9752.669602950764
16200.477325973194,44731.1603702498,-16162.568767376992,-9757.11760009737
16179.287872229565,44682.634733037325,-16167.620261623892,-9766.326518812955
16175.53277916107,44651.11877335534,-16164.11103774441,-9762.146742599814
16173.38701169336,44626.26363352104,-16163.038154010554,-9759.084553609438
16178.371450706894,44614.39485721527,-16158.880729541866,-9759.375126287356
16171.308299459017,44586.14225222376,-16163.082857499465,-9751.708477939186
16159.372467919884,44547.9654726941,-16164.692183100247,-9741.82900688994
16156.62320335188,44524.2055683381,-16162.904043543822,-9744.667678435764
16148.397761392329,44501.45149248261,-16163.418133666291,-9755.910605896785
16152.018743994087,44483.43598645163,-16169.520159902591,-9759.419829776269
16150.834101537956,44457.865590794754,-16176.158628005818,-9762.54907400001
16141.602831077917,44423.66742177813,-16174.34813670494,-9754.345983784911
16135.456101352704,44393.24669757446,-16168.223758724183,-9747.729867426142
16129.309371627496,44363.04949081534,-16167.955537790722,-9754.07776285145
16130.695179783725,44343.69288011705,-16166.86030231241,-9755.26240530758
16121.57566804596,44311.01462972339,-16167.732020346168,-9746.88050113684
16118.357016844397,44271.31793157076,-16161.384124920862,-9738.677410921742
16115.317179598473,44236.38215498712,-16153.806883550513,-9734.050599819491
16112.456156308192,44206.22965171691,-16152.309316672006,-9736.732809154131
16106.24237134962,44182.49209910537,-16152.845758538931,-9739.660887677775
16094.9994438886,44138.28034857278,-16158.657212097314,-9742.58896620142
16081.834266404425,44084.278533968754,-16159.19365396424,-9727.725056138645
16069.31728950945,44033.2942048662,-16156.48909288515,-9727.278021249536
16072.871216877846,43993.66456194694,-16152.354020160918,-9724.551108425989
16074.771115156544,43959.28757897468,-16153.426903894771,-9728.328553238936
16062.120027794845,43912.19245340735,-16159.283060942062,-9730.071989306449
16053.134626523808,43857.31892076957,-16156.779665563068,-9713.330532709424
16042.51754790754,43802.98182999872,-16153.359848661406,-9710.6930268637
16030.671123346225,43752.3774805519,-16156.936127774256,-9712.995256542596
16033.196870469676,43717.70992490172,-16153.29279342804,-9713.978733298629
16023.943248265175,43667.77612778856,-16155.57267136248,-9721.086588035416
16008.744062035568,43602.17375781224,-16156.444389396238,-9714.626933887832
16009.526373091505,43556.64325435677,-16153.024572494576,-9706.736768095108
16018.668236573723,43530.84934125535,-16143.234508423153,-9702.758157582064
16024.8820215323,43514.599623036345,-16139.39000837684,-9700.5900383699
16021.104576719354,43481.54139298695,-16151.035267238054,-9702.199363970682
16015.874268516813,43426.37728767125,-16157.383162663362,-9703.58517212691
16007.715881790626,43377.56107778085,-16156.980831263165,-9706.78147158402
16017.282428417497,43356.97512113752,-16151.638764338348,-9707.07204426194
16025.21729769913,43344.56990296482,-16151.638764338348,-9708.144927995792
16019.74112030758,43318.30660322984,-16161.026497009576,-9711.25182047508
16012.543858592971,43272.44082360755,-16165.809770323012,-9708.860183818362
16019.69641681867,43243.4059075601,-16159.39481966434,-9700.992369770094
16032.705132091658,43233.99582314442,-16151.303488171518,-9693.146907466282
16044.819777586436,43227.89379690812,-16145.044999724032,-9696.186744712204
16039.142434494786,43210.23591878843,-16150.945860260234,-9701.081776747917
16027.27365818902,43170.2933514468,-16156.354982418416,-9704.702759349677
16023.02682674251,43141.19138016598,-16156.444389396238,-9709.597791385388
16024.546745365473,43123.39939157956,-16152.085799227454,-9698.936009280207
16024.993780254576,43111.35180131815,-16153.71747657269,-9709.575439640932
16018.31060866244,43092.64339120906,-16157.00318300762,-9723.813500858963
16022.020998242022,43066.67066415199,-16147.079008469464,-9708.279038462524
16020.679893574705,43040.65323360601,-16144.977944490664,-9702.15466048177
16016.880097017302,43019.84375951813,-16152.979869005663,-9707.83200357342
16013.996721982568,43005.449236088905,-16155.639726595848,-9714.045788531994
16006.64299805677,42982.6951602334,-16164.491017400149,-9724.104073536882
15995.511829318028,42943.26668301424,-16169.788380836057,-9715.319837965946
15982.25724485603,42899.9266505154,-16164.736886589157,-9702.892268048796
15986.146448391251,42871.27171412369,-16160.981793520665,-9712.145890253292
15997.054099685443,42859.537048284656,-16162.032325510065,-9712.078835019927
16002.798498010456,42845.79072544465,-16160.28888944255,-9708.524907651534
16000.138640420277,42821.516730966185,-16156.109113229408,-9707.787300084508
15996.540009562972,42796.72864636525,-16158.903081286322,-9709.530736152024
16006.508887590038,42784.05520725909,-16158.478398141671,-9704.412186671756
16017.707111562147,42790.13488175093,-16157.20434870772,-9706.82617507293
16024.814966298934,42791.52068990716,-16163.686354599758,-9717.420901944746
16024.524393621015,42779.96483802376,-16161.697049343236,-9710.58126814142
16018.914105762731,42765.25739017217,-16160.668869098292,-9709.128404751827
16027.78774831149,42761.83757327051,-16157.070238240987,-9708.524907651534
16033.55449838096,42766.55379135058,-16159.260709197606,-9715.811576343964
16036.259059460052,42769.079538474034,-16164.11103774441,-9719.11963452335
16029.821757056923,42751.93575047681,-16168.871959313388,-9712.525869909034
16026.044312243976,42744.22439863973,-16167.441447668249,-9711.900021064284
16038.337771694396,42751.26519814315,-16157.71843883019,-9708.12257625134
16051.972335812134,42766.419680883846,-16152.041095738545,-9708.904887307272
16053.671068390737,42773.03579724262,-16152.979869005663,-9713.755215854077
16036.303762948965,42750.684052787314,-16168.402572679828,-9717.532660667022
16025.17259421022,42728.51112228765,-16170.950671547733,-9704.233372716117
16027.653637844758,42724.26429084114,-16166.480322656673,-9709.418977429745
16034.470919903628,42736.04366016909,-16163.596947621936,-9709.597791385388
16042.808120585458,42753.88035224442,-16161.585290620958,-9709.083701262916
16052.709943379155,42744.7384887622,-16162.322898187984,-9702.646398859788
16045.959716553656,42727.92997693181,-16163.753409833123,-9700.232410458617
16045.110350264356,42727.63940425389,-16163.596947621936,-9699.62891335832
16044.931536308712,42730.56748277754,-16166.72619184568,-9703.62987561582
16045.579736897917,42731.14862813338,-16168.491979657649,-9706.714416350653
16037.063722260444,42716.35177330396,-16168.33551744646,-9702.311122692958
16036.951963538166,42702.60545046395,-16156.667906840792,-9697.326683679425
16036.862556560343,42689.17205204631,-16153.62806959487,-9697.974884268628
16034.470919903628,42683.18178453229,-16155.840892295944,-9700.92531453673
16032.436911158196,42681.68421765378,-16160.378296420373,-9703.853393060372
16023.607972098347,42662.41701393331,-16166.502674401128,-9702.959323282164
16015.717806305624,42636.98072874317,-16167.77672383508,-9702.355826181869
16015.807213283446,42621.7144872802,-16168.380220935373,-9687.290750418992
16026.69251283318,42627.77181002758,-16160.668869098292,-9687.760137052554
16026.938382022188,42630.78929552904,-16154.879767284368,-9687.648378330276
16011.113346947832,42605.30830685,-16161.562938876505,-9696.700834834675
16009.727538791603,42575.021693113056,-16160.847683053931,-9688.96713125314
16009.369910880318,42557.40851848228,-16159.685392342257,-9694.599770855875
16010.018111469522,42551.93234109072,-16162.792284821546,-9699.897134291785
16013.795556282468,42553.56401843596,-16168.402572679828,-9702.378177926324
16005.704224789648,42533.33568970391,-16178.214988495709,-9703.361654682358
15999.311625875427,42512.235642938096,-16178.818485596,-9706.133270994816
15999.244570642064,42501.90913699975,-16174.973985549688,-9699.897134291785
16006.30772188994,42499.45044510966,-16175.711593116714,-9705.038035516503
16012.812079526437,42500.16570093223,-16176.650366383836,-9711.363579197356
16000.228047398095,42482.1278431568,-16178.550264662535,-9707.899058806785
16001.904428232245,42464.067633636914,-16171.464761670204,-9695.538544123
16004.385471866784,42450.9695113861,-16166.033287767565,-9692.5881138549
16009.794594024968,42446.49916249504,-16162.881691799366,-9695.806765056464
16011.202753925652,42447.996729373546,-16163.239319710652,-9694.242142944591
15999.758660764535,42424.68385990666,-16171.621223881391,-9695.650302845275
15994.036614183977,42400.14164449473,-16167.508502901615,-9696.119689478835
15991.756736249536,42381.6567518302,-16165.049811011531,-9695.20326795617
15997.188210152177,42379.8015570404,-16163.351078432928,-9689.235352186604
15996.897637474256,42382.81904254187,-16162.188787721252,-9691.671692332233
15988.560436792426,42366.01053071148,-16161.540587132047,-9689.503573120068
15984.335957090374,42340.14956237669,-16159.461874897705,-9680.205247426658
15985.83352396888,42323.51986450194,-16154.231566695164,-9677.612445069844
15986.63818676927,42318.58012897732,-16153.20338645022,-9684.29561666198
15994.30483511744,42326.78321919242,-16148.017781736587,-9679.467639859637
15986.101744902344,42305.90668987116,-16154.388028906347,-9681.34518639388
15975.864645941812,42277.51997441292,-16159.81950280899,-9682.239256172092
15971.751924962036,42264.84653530676,-16161.495883643138,-9694.040977244496
15976.021108153,42262.11962248321,-16161.920566787789,-9695.96322726765
15990.437983326672,42268.69103535307,-16160.087723742454,-9693.482183633112
15984.268901857007,42255.235285190975,-16169.095476757942,-9698.10899473536
15975.059983141422,42234.20229365853,-16171.129485503376,-9687.849544030374
15982.771334978504,42223.80873248682,-16172.403534937328,-9686.39668064078
15991.35440484934,42227.04973543283,-16168.044944768542,-9686.06140447395
16004.184306166686,42238.80675301632,-16167.15087499033,-9683.982692239606
16005.324245133908,42234.69403203655,-16173.25290122663,-9683.15567769476
15993.991910695066,42211.06823814729,-16181.366584463904,-9682.999215483573
15990.415631582217,42198.84183393024,-16183.557055420526,-9682.01573872754
15995.55653280694,42201.47933977597,-16180.740735619156,-9680.115840448838
16001.010358454032,42209.6153747577,-16176.136276261364,-9683.893285261784
15986.906407702734,42192.18101408256,-16179.48903792966,-9685.837887029396
15984.917102446212,42171.550353950304,-16175.331613460972,-9682.194552683182
15988.225160625598,42165.403624225095,-16171.554168648026,-9685.524962607022
15991.44381182716,42169.82926962725,-16178.885540829366,-9691.381119654312
16004.005492211045,42186.2578018019,-16175.53277916107,-9682.4851253611
16003.69256778867,42184.17908956756,-16177.05269778403,-9680.339357893392
15990.952073449143,42159.99450206691,-16182.35006121994,-9680.473468360124
15987.666367014215,42149.86916182866,-16178.997299551644,-9678.685328803698
15989.678024015191,42153.49014443042,-16174.079915771475,-9677.925369492215
15996.987044452078,42168.30935100429,-16175.979814050175,-9679.95937823765
16007.626474812803,42176.49008947493,-16174.526950660582,-9677.098354947371
15997.098803174356,42153.93717931952,-16183.82527635399,-9676.763078780545
15988.269864114509,42133.82060930975,-16187.222741511196,-9678.707680548154
15989.208637381633,42136.52517038884,-16189.167343278808,-9678.975901481615
15992.829619983391,42146.2481792269,-16187.40155546684,-9679.780564282008
15996.204733396142,42143.38715593662,-16189.882599101378,-9685.055575973462
15987.93458794768,42120.253100425376,-16194.464706714716,-9672.62800605631
15986.057041413433,42109.5913183202,-16195.045852070554,-9676.561913080444
15996.428250840694,42120.85659752567,-16190.39668922385,-9677.590093325389
16000.11628867582,42133.95471977648,-16192.296587502551,-9674.684366546198
15985.49824780205,42125.19283595,-16206.668759187312,-9681.501648605066
15978.949186676646,42104.316306628745,-16199.896180617356,-9679.489991604089
15979.955015177133,42092.44753032298,-16187.133334533375,-9672.695061289676
15985.16297163522,42097.3872658476,-16181.813619353012,-9667.062421686938
15992.44964032765,42108.09375144169,-16181.791267608556,-9674.349090379368
15988.158105392233,42111.62532706563,-16188.787363623069,-9673.879703745808
15982.25724485603,42100.36004786015,-16187.20038976674,-9667.397697853768
15977.652785498238,42088.35716108765,-16180.025479796586,-9670.39283161078
15984.581826279382,42088.021884920825,-16176.046869283542,-9663.307328618446
15987.264035614018,42095.912050713545,-16182.372412964394,-9676.718375291632
15980.156180877231,42090.0335419218,-16190.01670956811,-9682.127497449816
15965.87341617029,42065.8266026767,-16195.425831726294,-9680.004081726562
15968.265052827008,42047.58757920117,-16191.089593301964,-9679.534695093
15982.25724485603,42055.09776533816,-16181.791267608556,-9676.539561335989
15986.63818676927,42060.97627412991,-16180.226645496685,-9679.266474159536
15985.475896057596,42061.35625378564,-16182.752392620134,-9677.098354947371
15968.533273760471,42033.148352283046,-16192.34129099146,-9680.741689293587
15965.314622558908,42018.84323583165,-16185.948692077243,-9676.15958168025
15972.131904617776,42020.74313411035,-16178.885540829366,-9670.549293821969
15981.005547166533,42036.21054127342,-16176.091572772451,-9673.29855838997
15977.205750609131,42044.07835532169,-16180.114886774409,-9671.465715344631
15975.21644535261,42027.627471402586,-16184.026442054088,-9675.779602024508
15972.288366828963,42008.114398493104,-16180.003128052133,-9675.891360746786
15972.981270907076,41999.95601176692,-16175.622186138891,-9672.29272988948
15977.272805842496,42005.946279280935,-16179.019651296096,-9676.003119469062
15977.719840731605,42007.37679092608,-16185.278139743585,-9683.781526539507
15963.124151602287,41989.38363663956,-16192.721270647202,-9681.076965460416
15952.998811364034,41968.86473522958,-16190.06141305702,-9676.852485758363
15960.39723877874,41964.17086889397,-16184.048793798542,-9672.091564189384
15966.566320248405,41973.02215969827,-16182.73004087568,-9671.979805467106
15967.549797004438,41975.458499843895,-16185.211084510218,-9674.706718290654
15957.53621548846,41952.52561003275,-16189.30145374554,-9679.624102070822
15953.579956719872,41940.27685407124,-16188.988529323164,-9678.282997403505
15960.06196261191,41935.60533948008,-16184.428773454283,-9678.797087525974
15969.15912260522,41943.16022910598,-16180.405459452328,-9680.898151504774
15969.628509238782,41946.2000663519,-16181.925378075288,-9670.079907188405
15959.011430622511,41924.78709516372,-16186.596892666448,-9662.994404196072
15954.20580556462,41904.89404259849,-16187.222741511196,-9660.289843116982
15955.233985809564,41901.00483906327,-16185.836933354967,-9654.701907003157
15959.905500400722,41908.91735660045,-16185.658119399324,-9653.919595947218
15971.170779606198,41921.076705584135,-16183.53470367607,-9644.174235364704
15966.812189437413,41908.71619090035,-16185.211084510218,-9645.694153987664
15962.29713705744,41890.81244359165,-16182.461819942217,-9651.662069757233
15963.34766904684,41885.62683887802,-16180.20429375223,-9645.560043520933
15971.237834839563,41895.48395818281,-16179.243168740652,-9638.161616106228
15971.461352284115,41903.99997282028,-16181.455991441726,-9638.943927162163
15963.213558580108,41885.20215573337,-16185.993395566156,-9634.09359861536
15957.044477110445,41868.63951309199,-16193.30241600304,-9639.010982395528
15960.39723877874,41866.00200724626,-16190.77666887959,-9639.882700429283
15963.414724280206,41872.23814394929,-16186.663947899811,-9645.470636543112
15970.58963425036,41876.84260330709,-16189.30145374554,-9650.00804066754
15962.16302659071,41864.10210896756,-16195.11290730392,-9645.29182258747
15955.099875342832,41852.41214661743,-16194.040023570064,-9650.924462190207
15961.559529490416,41853.82030651812,-16194.889389859369,-9649.449247056156
15970.120247616798,41868.795975303176,-16192.58716018047,-9651.19268312367
15982.570169278404,41890.72303661383,-16187.267445000109,-9640.776770207498
15977.406916309228,41884.799824333175,-16186.686299644269,-9635.658220727231
15968.041535382456,41868.90773402545,-16189.256750256627,-9643.928366175696
15966.320451059397,41864.884420023496,-16192.140125291364,-9654.120761647317
15974.16591336321,41873.86982129453,-16188.63090141188,-9651.5279592905
15981.49728554455,41887.12440575653,-16189.033232812077,-9649.851578456351
15972.8695121848,41878.63074286351,-16191.693090402256,-9638.04985738395
15968.287404571463,41863.14098395598,-16192.073070057995,-9636.708752716631
15970.120247616798,41861.15167869946,-16193.704747403235,-9641.29086032997
15981.519637289006,41873.71335908334,-16193.034195069577,-9641.00028765205
15987.688718758667,41886.900888311975,-16195.090555559464,-9629.33267704638
15974.098858129842,41876.060292251146,-16203.271294030106,-9635.81468293842
15961.73834344606,41856.077832708106,-16208.009863854631,-9639.48036902909
15957.647974210737,41848.65705354895,-16208.747471421657,-9640.419142296212
15965.24756732554,41862.73865255578,-16200.074994572997,-9634.697095715654
15981.474933800097,41883.10109175457,-16190.977834579688,-9622.515394987511
15974.25532034103,41872.46166139384,-16198.39861373885,-9623.09654034335
15957.893843399746,41845.438402347376,-16200.030291084087,-9627.276316556492
15955.278689298477,41835.55893129813,-16194.73292764818,-9629.444435768655
15963.034744624469,41840.76688775622,-16189.949654334743,-9622.470691498602
15963.034744624469,41847.740632026274,-16196.275198015595,-9631.791368936463
15954.87635789828,41835.53657955368,-16203.49481147466,-9635.300592815947
15948.819035150893,41813.22953858728,-16200.007939339632,-9632.506624759037
15942.806415892412,41808.62507922949,-16200.142049806364,-9646.43176155469
15944.080465326366,41813.85538743203,-16201.21493354022,-9644.241290598073
15960.576052734385,41825.50064629324,-16203.8747911304,-9648.19754936666
15960.576052734385,41819.82330320159,-16207.138145820874,-9640.48619752958
15947.790854905948,41800.01965761419,-16206.713462676224,-9633.132473603782
15934.424511721672,41791.03425634316,-16208.9262853773,-9636.038200382973
15944.527500215472,41796.018695356695,-16209.909762133331,-9643.14605511976
15947.67909618367,41805.00409662773,-16216.21295406973,-9647.951680177652
15941.331200758365,41800.24317505875,-16217.665817459325,-9641.179101607691
15938.20195653462,41781.17713703837,-16211.183811567284,-9634.04889512645
15944.97453510458,41774.85159335752,-16204.880619630889,-9626.941040389662
15949.713104929104,41780.35012249352,-16200.231456784184,-9621.174290320194
15955.658668954216,41796.37632326798,-16199.58325619498,-9630.226746824592
15958.050305610932,41794.99051511175,-16196.744584649156,-9623.253002554537
15949.958974118112,41770.51535493319,-16199.784421895078,-9615.742816417554
15945.466273482594,41759.0042065387,-16204.746509164155,-9619.207336808126
15947.477930483572,41757.12666000446,-16203.24894228565,-9620.011999608518
15948.997849106534,41761.84287808453,-16206.199372553752,-9626.538708989468
15946.226232794075,41756.81373558209,-16209.01569235512,-9618.6708949412
15935.206822777607,41734.149066704405,-16211.832012156488,-9617.28508678497
15928.702465141114,41719.64278455291,-16210.692073189268,-9618.447377496646
15939.34189550184,41720.40274386439,-16209.082747588487,-9625.354066533337
15950.45071249613,41733.03147948164,-16208.25573304364,-9627.991572379062
15944.751017660024,41724.80603752209,-16217.576410481504,-9631.299630558447
15931.071750053376,41700.15206338788,-16220.906820405344,-9631.94783114765
15928.255430252007,41687.366865559445,-16217.710520948234,-9627.008095623029
15935.139767544242,41690.25024059418,-16210.24503830016,-9619.564964719411
15936.994962334033,41699.48151105422,-16212.703730190246,-9623.409464765724
15932.949296587623,41692.2395458507,-16215.676512202805,-9622.269525798503
15931.183508775654,41672.25708630765,-16212.793137168068,-9614.066435583403
15933.619848921282,41668.52434498362,-16209.954465622242,-9610.780729148477
15940.146558302233,41675.1404613424,-16201.058471329032,-9612.591220449356
15938.984267590557,41681.82363293453,-16204.768860908613,-9615.452243739635
15936.257354767007,41675.29692355358,-16215.564753480525,-9619.050874596938
15929.708293641605,41655.13565005489,-16216.905858147844,-9620.056703097429
15930.602363419815,41645.636158661386,-16209.529782477592,-9607.09269131335
15929.842404108334,41645.05501330555,-16207.629884198892,-9602.242362766548
15937.799625134425,41657.594341944976,-16204.366529508416,-9607.204450035626
15946.49445372754,41664.61278970394,-16197.616302682914,-9604.768109889998
15939.028971079466,41653.593379687474,-16194.710575903724,-9598.934304587165
15935.586802433349,41640.94229232577,-16192.96713983621,-9594.575714418375
15938.604287934815,41638.5283039246,-16194.10707880343,-9600.700092399133
15945.0639420824,41650.754708141656,-16196.386956737872,-9610.266639026004
15946.025067093977,41654.39804248787,-16205.21589579772,-9610.490156470556
15935.765616388991,41635.53317016759,-16211.183811567284,-9610.08782507036
15927.987209318544,41622.54680663905,-16213.39663426836,-9607.383263991269
15934.178642532665,41624.35729793993,-16212.390805767873,-9613.865269883308
15946.673267683182,41641.32227198152,-16207.138145820874,-9610.311342514917
15938.894860612734,41643.06570804903,-16215.743567436168,-9615.206374550626
15922.28751448244,41621.36216418292,-16227.947619908766,-9620.347275775346
15922.332217971352,41611.12506522239,-16229.959276909743,-9624.23647931057
15926.57904941786,41615.79657981356,-16229.86986993192,-9623.163595576716
15933.038703565444,41628.60412938644,-16229.512242020635,-9628.393903779255
15941.219442036088,41640.29409173657,-16223.812547184534,-9624.392941521755
15931.496433198028,41629.43114393129,-16226.226535585707,-9628.080979356882
15925.86379359529,41619.909300793326,-16220.191564582774,-9612.300647771435
15931.25056400902,41622.94913803925,-16213.709558690734,-9606.04215932395
15943.00758159251,41633.610920144434,-16212.9272476348,-9598.219048764591
15942.560546703406,41635.711984123234,-16219.29749480456,-9595.89446734124
15933.86571811029,41619.79754207105,-16224.281933818094,-9600.677740654675
15928.076616296366,41607.28056517608,-16226.897087919366,-9606.600952935332
15931.518784942484,41604.1736726968,-16226.427701285804,-9609.104348314328
15941.778235647467,41619.81989381551,-16223.92430590681,-9616.435720495669
15943.365209503796,41632.60509164394,-16224.34898905146,-9617.061569340416
15931.96581983159,41617.65177460334,-16232.686189733293,-9612.814737893908
15921.996941804522,41599.65862031682,-16233.110872877942,-9615.7204646731
15922.533383671447,41601.69262906225,-16231.479195532704,-9616.636886195764
15942.046456580932,41619.30580369304,-16224.84072742948,-9614.848746639342
15948.751979917524,41634.102658522446,-16220.996227383164,-9620.794310664452
15940.235965280051,41625.296071207056,-16219.945695393766,-9608.65731342522
15934.379808232765,41612.846149545454,-16217.129375592396,-9604.61164767881
15940.884165869256,41616.84711180295,-16216.034140114089,-9605.773938390486
15947.522633972483,41631.48750442118,-16216.816451170023,-9612.702979171632
15946.181529305164,41636.74016436817,-16222.091462861476,-9612.971200105096
15938.850157123825,41618.59054787047,-16229.9816286542,-9609.216107036604
15937.665514667691,41608.08522797647,-16228.685227475791,-9609.350217503335
15929.663590152692,41608.91224252132,-16231.635657743893,-9615.407540250724
15934.82684312187,41623.03854501707,-16234.429625800803,-9607.7185401581
15946.069770582888,41631.46515267672,-16237.111835135442,-9611.563040204412
15935.25152626652,41617.875292047895,-16238.721160736224,-9615.832223395377
15930.28943899744,41606.3194401645,-16237.268297346627,-9611.764205904508
15931.049398308922,41604.821873286,-16233.937887422788,-9606.824470379886
15936.816148378392,41615.573062369,-16231.099215876964,-9604.030502322972
15940.05715132441,41624.91609155132,-16233.557907767048,-9605.975104090585
15933.10575879881,41610.5215681221,-16233.87083218942,-9603.60581917832
15923.852136594312,41593.10955919141,-16236.55304152406,-9604.835165123364
15924.567392416882,41591.27671614608,-16234.429625800803,-9600.834202865864
15934.022180321475,41604.1736726968,-16228.126433864409,-9594.262789996004
15936.078540811366,41616.131855980384,-16228.037026886586,-9598.107290042317
15933.306924498907,41604.12896920788,-16227.567640253024,-9598.531973186968
15929.730645386058,41591.522585335086,-16222.091462861476,-9592.876981839774
15936.302058255918,41594.87534700338,-16214.022483113107,-9586.014996291997
15942.851119381325,41605.60418434193,-16215.430643013791,-9591.737042872554
15941.219442036088,41613.78492281258,-16225.488928018682,-9596.296798741436
15930.1106250418,41597.19992842674,-16238.028256658108,-9597.32497898638
15925.260296494997,41579.51969856259,-16240.308134592551,-9596.721481886088
15929.618886663782,41576.39045433885,-16240.531652037103,-9602.063548810906
15930.736473886547,41585.28644863206,-16244.286745105595,-9608.120871558294
15935.989133833544,41599.837434272464,-16244.532614294603,-9596.810888863907
15923.136880771744,41587.14164342185,-16248.198300385273,-9592.228781250573
15917.81716559138,41577.23982062815,-16242.833881716,-9591.178249261173
15920.365264459286,41575.27286711608,-16241.31396309304,-9590.619455649789
15921.460499937595,41579.22912588467,-16243.035047416097,-9587.646673637231
15935.407988477707,41596.39526562634,-16241.31396309304,-9586.797307347932
15926.266124995484,41587.3651608664,-16249.807625986055,-9594.843935351842
15914.57616264536,41570.17666938027,-16246.968954440232,-9591.513525428
15916.2078399906,41566.89096294534,-16239.726989236711,-9593.055795795415
15927.00373256251,41579.34088460694,-16234.340218822985,-9600.454223210125
15932.815186120892,41591.9696202242,-16236.530689779604,-9597.883772597765
15923.002770305013,41578.46916657319,-16246.8348439735,-9589.255999238016
15916.878392324255,41565.39339606684,-16246.231346873206,-9590.597103905331
15917.23602023554,41563.53820127704,-16246.566623040037,-9590.932380072163
15927.227250007065,41577.48568981716,-16243.21386137174,-9589.367757960292
15939.476005968572,41600.64209707286,-16238.78821596959,-9591.535877172457
15931.898764598223,41601.84909127344,-16242.945640438276,-9593.52518242898
15923.785081360948,41590.13677717886,-16244.487910805692,-9593.23460975106
15923.360398216297,41587.119291677394,-16248.06418991854,-9604.119909300794
15932.97164833208,41596.97641098218,-16241.939811937787,-9607.986761091564
15938.023142578975,41614.120198979406,-16243.571489283026,-9609.66314192571
15925.081482539355,41606.25238493113,-16250.008791686154,-9603.583467433866
15913.81620333388,41588.97448646718,-16250.299364364071,-9599.828374365376
15917.43718593564,41582.35837010841,-16249.74057075269,-9601.482403455067
15925.77438661747,41590.02501845658,-16246.723085251224,-9609.551383203434
15933.418683221184,41608.8228355435,-16244.510262550148,-9609.216107036604
15933.39633147673,41610.99095475566,-16247.326582351518,-9608.14322330275
15927.115491284789,41601.938498251264,-16245.918422450832,-9593.793403362442
15925.930848828655,41597.736370293664,-16239.347009580972,-9602.71174940011
15922.466328438084,41598.42927437178,-16239.034085158595,-9605.595124434843
15932.032875064957,41613.22612920119,-16239.771692725622,-9609.104348314328
15935.787968133449,41611.34858266695,-16241.559832282048,-9611.495984971045
15927.070787795878,41594.22714641418,-16240.196375870271,-9598.420214464692
15924.947372072624,41589.73444577867,-16240.9339834373,-9599.358987731814
15928.836575607846,41600.59739358394,-16240.64341075938,-9602.488231955556
15934.670380910682,41616.55653912504,-16233.580259511504,-9600.677740654675
15930.334142486352,41612.779094312085,-16237.871794446924,-9607.405615735724
15921.34874121532,41594.98710572566,-16241.582184026503,-9603.5164122005
15916.252543479508,41584.951172465226,-16243.839710216487,-9600.342464487849
15914.732624856548,41589.44387310075,-16243.280916605108,-9607.226801780082
15930.82588086437,41609.58279485498,-16237.044779902077,-9607.89735411374
15931.25056400902,41615.148379224345,-16239.794044470078,-9608.18792679166
15920.454671437106,41599.27864066108,-16243.21386137174,-9607.249153524535
15917.52659291346,41592.37195162439,-16239.078788647508,-9593.90516208472
15915.827860334855,41598.876309260886,-16239.279954347609,-9601.124775543783
15926.422587206673,41618.88112054839,-16242.74447473818,-9609.28316226997
15919.91822957018,41613.09201873446,-16252.422780087329,-9608.366740747302
15911.67043586617,41596.59643132644,-16255.753190011168,-9605.729234901575
15907.28949395293,41591.99197196865,-16255.775541755624,-9604.85751686782
15910.619903876772,41594.316553392,-16257.004887700665,-9609.059644825416
15927.29430524043,41610.40980939983,-16249.69586726378,-9604.745758145542
15925.036779050444,41613.51670187911,-16255.104989421963,-9611.272467526493
15906.797755574911,41594.607126069925,-16271.555873341067,-9618.514432730011
15905.635464863237,41584.16886140929,-16270.46063786276,-9610.17723204818
15913.592685889327,41592.77428302458,-16263.241024403696,-9605.192793034648
15919.158270258698,41606.34179190896,-16262.592823814492,-9603.404653478225
15921.505203426506,41615.26013794662,-16258.837730746,-9600.878906354774
15919.560601658894,41606.63236458688,-16256.110817922452,-9597.637903408757
15922.063997037889,41597.37874238238,-16253.361553354447,-9597.772013875488
15919.784119103448,41598.02694297159,-16254.568547555036,-9601.169479032693
15923.516860427484,41613.42729490129,-16252.333373109506,-9605.215144779104
15917.191316746632,41613.6731640903,-16256.043762689089,-9602.71174940011
15905.233133463042,41592.86369000241,-16260.491759835691,-9595.46978419659
15904.249656707008,41580.25730612961,-16253.7862364991,-9594.4639556961
15914.66556962318,41585.934649221264,-16244.711428250246,-9594.933342329665
15924.38857846124,41599.50215810564,-16241.939811937787,-9592.89933358423
15923.159232516198,41600.03859997256,-16244.68907650579,-9590.37358646078
15906.060148007888,41579.22912588467,-16257.809550501055,-9601.415348221704
15903.690863095626,41574.87053571588,-16250.74639925318,-9601.884734855264
15907.177735230654,41579.5644020515,-16246.901899206863,-9612.121833815794
15919.828822592355,41594.16009118081,-16246.521919551124,-9596.967351075096
15912.609209133294,41594.42831211428,-16259.776504013123,-9606.71271165761
15898.818182804367,41579.83262298496,-16263.710411037257,-9602.08590055536
15905.568409629872,41565.39339606684,-16260.044724946589,-9595.872115596783
15909.703482354103,41568.83556471295,-16253.428608587816,-9596.60972316381
15914.844383578824,41580.90550671882,-16255.909652222355,-9605.28220001247
15912.542153899927,41588.05806494452,-16263.285727892606,-9603.04702556694
15900.449860149609,41570.57900078047,-16267.30904189456,-9600.47657495458
15892.805563545891,41558.77727970806,-16269.723030295734,-9605.013979079004
15901.321578183364,41563.51584953259,-16270.058306462564,-9611.04895008194
15913.972665545069,41582.22425964168,-16262.659879047857,-9600.342464487849
15917.660703380192,41593.78011152508,-16259.374172612926,-9594.195734762638
15907.535363141938,41579.74321600714,-16260.357649368962,-9594.128679529273
15897.588836859328,41564.14169837734,-16262.324602881028,-9596.117984785797
15905.00961601849,41567.40505306781,-16254.769713255137,-9596.363853974804
15904.182601473643,41583.54301256454,-16255.015582444144,-9602.845859866842
15909.01057827599,41591.880213246375,-16261.207015658263,-9609.95371460363
15906.618941619272,41578.46916657319,-16256.244928389184,-9600.431871465667
15903.914380540178,41567.78503272355,-16256.848425489476,-9601.437699966156
15904.473174151562,41569.08143390196,-16254.45678883276,-9589.121888771282
15912.609209133294,41581.44194858574,-16250.880509719913,-9593.055795795415
15915.604342890305,41588.68391378927,-16254.233271388206,-9596.877944097274
15904.026139262456,41574.691721760246,-16261.452884847273,-9600.5659819324
15896.538304869928,41565.34869257792,-16258.88243423491,-9600.364816232302
15892.224418190051,41563.00175941012,-16263.419838359338,-9606.600952935332
15907.490659653027,41582.53718406406,-16261.654050547368,-9603.963447089607
15913.01154053349,41596.03763771506,-16268.471332606236,-9612.747682660542
15906.1048514968,41584.99587595414,-16273.7910477866,-9602.130604044272
15908.38472943124,41579.162070651306,-16262.659879047857,-9597.302627241925
15907.133031741743,41580.972561952185,-16268.136056439407,-9608.702016914132
15911.20104923261,41587.78984401105,-16274.282786164616,-9607.85265062483
15912.743319600026,41597.110521448914,-16279.155466455872,-9600.744795888042
15905.568409629872,41587.34280912195,-16281.658861834869,-9593.212258006604
15898.929941526643,41568.34382633494,-16280.65303333438,-9598.554324931423
15897.030043247943,41562.19709660973,-16278.08258272202,-9601.6165139218
15904.562581129385,41574.1105764044,-16276.719126310243,-9605.349255245836
15913.369168444771,41582.02309394159,-16276.428553632326,-9610.4678047261
15902.752089828504,41570.13196589136,-16281.45769613477,-9611.071301826394
15893.498467624006,41556.2068290957,-16280.876550778932,-9605.304551756924
15899.600493860306,41558.12907911886,-16278.08258272202,-9606.399787235236
15914.844383578824,41568.6120472684,-16277.635547832911,-9615.541650717456
15919.828822592355,41580.190250896245,-16276.02622223213,-9599.001359820528
15908.138860242232,41567.047425156525,-16282.575283357535,-9601.437699966156
15898.304092681898,41547.71316620269,-16277.680251321824,-9601.772976132988
15899.600493860306,41547.98138713615,-16268.046649461588,-9604.969275590096
15903.71321484008,41556.87738142936,-16264.40331511537,-9600.85655461032
15908.250618964508,41572.05421591452,-16266.25850990516,-9608.009112836018
15906.641293363726,41563.94053267724,-16271.913501252357,-9603.18113603367
15906.618941619272,41550.57418949297,-16264.626832559925,-9591.401766705723
15909.0552817649,41545.88032315736,-16266.906710494366,-9601.214182521604
15909.368206187271,41553.70343371671,-16271.086486707509,-9602.063548810906
15914.352645200808,41567.337997834446,-16275.26626292065,-9594.575714418375
15907.91534279768,41557.8608581854,-16285.011623503164,-9600.90125809923
15894.43724089113,41537.87839864235,-16289.549027627592,-9595.648598152233
15892.29147342342,41530.72584041666,-16285.056326992077,-9594.396900462736
15904.249656707008,41541.81230566648,-16280.340108912003,-9603.18113603367
15917.928924313655,41563.40409081031,-16276.115629209951,-9609.350217503335
15911.24575272152,41563.31468383249,-16278.328451911028,-9614.178194305685
15905.344892185318,41546.03678536854,-16278.239044933209,-9609.886659370262
15907.535363141938,41539.80064866551,-16274.729821053725,-9598.934304587165
15917.571296402371,41552.33997730494,-16273.008736730664,-9597.056758052917
15917.48188942455,41562.5100210321,-16280.02718448963,-9610.80308089293
15904.741395085026,41550.23891332614,-16288.9455305273,-9615.966333862109
15897.655892092693,41531.70931717269,-16286.88917003741,-9607.226801780082
15902.707386339593,41527.95422410419,-16283.290539180103,-9606.176269790682
15904.450822407109,41537.67723294225,-16278.350803655483,-9610.311342514917
15917.325427213364,41556.49740177362,-16272.204073930274,-9610.512508215012
15913.43622367814,41551.64707322682,-16278.641376333402,-9608.411444236212
15903.24382820652,41536.447886997215,-16281.07771647903,-9609.32786575888
15898.885238037736,41532.804552651,-16278.596672844493,-9607.740891902553
15907.848287564311,41540.58295972145,-16276.450905376782,-9602.398824977736
15917.705406869103,41552.8093639385,-16278.194341444296,-9600.655388910222
15910.441089921129,41544.56157023449,-16289.057289249577,-9602.37647323328
15900.181639216144,41527.73070665964,-16293.08060325153,-9605.6174761793
15898.01352000398,41521.51692170107,-16291.31481543956,-9605.103386056828
15901.969778772567,41530.25645378309,-16288.967882271754,-9601.99649357754
15905.81427881888,41546.05913711299,-16292.499457895692,-9612.121833815794
15907.423604419662,41546.97555863566,-16296.679234108837,-9619.699075186143
15900.0028252605,41529.18357004924,-16296.545123642103,-9603.359949989312
15895.845400791814,41522.679212412746,-16294.689928852313,-9589.390109704747
15903.735566584535,41531.77637240605,-16292.521809640148,-9596.073281296884
15910.418738176671,41548.22725632516,-16294.93579804132,-9603.80698487842
15905.546057885416,41548.71899470317,-16300.03199577713,-9597.704958642122
15896.560656614383,41532.49162822862,-16301.70837661128,-9598.04023480895
15892.157362956688,41522.14277054582,-16301.194286488806,-9602.04119706645
15892.29147342342,41523.48387521313,-16300.07669926604,-9606.71271165761
15902.43916540613,41536.157314319295,-16296.008681775176,-9609.059644825416
15904.09319449582,41536.51494223058,-16297.059213764574,-9607.986761091564
15895.130144969244,41519.66172691128,-16294.824039319044,-9597.95082783113
15897.47707813705,41509.8493110954,-16287.716184582256,-9594.08397604036
15903.467345651074,41517.27009025456,-16288.923178782845,-9605.840993623851
15914.509107411994,41533.296291029015,-16289.437268905314,-9605.505717457025
15914.173831245163,41541.342919032926,-16291.538332884114,-9599.314284242902
15905.166078229677,41530.23410203864,-16297.12626899794,-9595.983874319065
15898.058223492888,41524.46735196917,-16299.540257399114,-9593.52518242898
15895.085441480333,41524.53440720253,-16303.831792334531,-9599.336635987358
15909.234095720542,41545.47799175716,-16302.401280689392,-9603.18113603367
15909.256447464995,41547.02026212457,-16305.239952235215,-9593.70399638462
15895.04073799142,41532.6033869509,-16304.524696412647,-9585.210333491605
15901.43333690564,41531.84342763942,-16298.445021920805,-9584.85270558032
15913.413871933684,41540.135924832335,-16295.181667230328,-9584.85270558032
15917.81716559138,41557.12325061837,-16293.147658484895,-9585.076223024873
15915.1573080012,41563.87347744387,-16302.714205111768,-9596.09563304134
15904.786098573935,41549.4566022702,-16309.956170315289,-9593.726348129076
15904.651988107204,41543.555741734,-16303.94355105681,-9580.360004944803
15910.597552132316,41549.88128541485,-16301.887190566922,-9587.55726665941
15923.986247061044,41572.03186417006,-16301.015472533163,-9594.843935351842
15929.194203519131,41586.67225678829,-16302.289521967115,-9587.46785968159
15920.320560970376,41576.97159969468,-16311.297274982606,-9583.645711379731
15915.045549278922,41569.9084484468,-16302.602446389492,-9581.052909022916
15909.479964909551,41571.80834672551,-16301.171934744352,-9584.51742941349
15916.073729523869,41579.40793984031,-16300.680196366337,-9585.433850936157
15915.67139812367,41582.26896313059,-16303.965902801265,-9589.546571915937
15904.428470662651,41562.97940766566,-16313.375987216948,-9589.837144593852
15901.343929927818,41550.61889298188,-16310.604370904492,-9585.187981747147
15902.43916540613,41549.18838133674,-16306.51400166917,-9589.94890331613
15908.0047497755,41563.784070466056,-16300.7472515997,-9585.23268523606
15904.428470662651,41568.388529823846,-16304.390585945916,-9585.635016636255
15893.52081936846,41550.95416914871,-16305.84344933551,-9583.198676490629
15885.116563453266,41538.59365446492,-16305.284655724128,-9576.873132809777
15893.654929835193,41538.03486085354,-16303.183591745328,-9572.112211240794
15908.205915475595,41555.08924187294,-16299.786126588122,-9572.827467063364
15909.167040487177,41561.83946869844,-16304.36823420146,-9574.190923475138
15894.772517057958,41546.95320689121,-16307.095147025007,-9564.84789429282
15891.598569345304,41537.76663992008,-16302.691853367312,-9564.13263847025
15892.492639123517,41540.426497510256,-16305.374062701949,-9567.530103627456
15896.873581036758,41557.23500934065,-16306.268132480162,-9568.111248983294
15904.517877640472,41565.75102397812,-16312.124289527452,-9574.74971708652
15901.634502605735,41553.41286103879,-16319.969751831264,-9566.70308908261
15899.466383393574,41545.88032315736,-16319.880344853444,-9563.730307070056
15896.493601381017,41548.62958772536,-16318.025150063651,-9574.83912406434
15908.80941257589,41567.11448038989,-16312.571324416558,-9568.044193749927
15912.72096785557,41580.36906485189,-16315.36529247347,-9569.78762981744
15902.774441572958,41569.84139321344,-16320.774414631656,-9583.913932313197
15901.321578183364,41565.03576815555,-16312.303103483096,-9585.567961402889
15902.394461917218,41564.72284373317,-16303.56357140107,-9574.41444091969
15906.082499752343,41573.70824500421,-16297.349786442492,-9570.6593478512
15902.57327587286,41580.70434101872,-16305.463469679771,-9580.002377033516
15894.750165313502,41564.99106466664,-16313.241876750217,-9587.400804448223
15895.130144969244,41552.78701219404,-16303.429460934338,-9579.220065977584
15895.711290325082,41548.92016040327,-16298.757946343178,-9577.968368288084
15907.110679997288,41571.09309090294,-16298.6461876209,-9581.008205534006
15909.904648054202,41585.24174514315,-16303.787088845622,-9577.655443865711
15895.53247636944,41573.44002407075,-16315.342940729017,-9575.308510697903
15891.375051900752,41560.72188147568,-16317.198135518807,-9576.94018804314
15898.304092681898,41563.02411115457,-16314.515926184167,-9578.594217132832
15907.468307908572,41578.06683517299,-16310.537315671125,-9566.144295471227
15918.308903969397,41602.94432675175,-16306.13402201343,-9559.84110353483
15912.81037483339,41599.74802729464,-16309.285617981628,-9564.22204544807
15901.701557839104,41589.95796322322,-16312.66073139438,-9567.172475716172
15901.366281672274,41592.79663476904,-16312.61602790547,-9564.423211148169
15919.38178770325,41608.73342856568,-16307.922161569852,-9566.07724023786
15926.57904941786,41627.307728208034,-16303.183591745328,-9564.065583236885
15911.62573237726,41611.66150708933,-16309.375024959449,-9568.155952472203
15907.356549186296,41602.45258837374,-16306.670463880357,-9569.631167606256
15911.178697488154,41609.56044311053,-16302.714205111768,-9568.401821661211
15914.643217878727,41620.4233909158,-16304.27882722364,-9571.955749029608
15917.191316746632,41629.341736953465,-16309.665597637368,-9578.638920621745
15909.591723631827,41616.28831819157,-16317.913391341375,-9584.226856735571
15903.914380540178,41605.98416399767,-16316.237010507228,-9574.168571730685
15907.043624763925,41608.10757972093,-16312.66073139438,-9575.532028142456
15917.928924313655,41624.75962934013,-16315.052368051098,-9589.591275404844
15930.356494230808,41649.30184475206,-16315.454699451291,-9592.139374272749
15921.86283133779,41645.61380691693,-16317.578115174549,-9578.482458410555
15912.698616111114,41628.31355670853,-16317.51105994118,-9578.907141555208
15911.357511443795,41625.78780958508,-16311.61019940498,-9583.533952657455
15920.38761620374,41644.94325458328,-16306.446946435804,-9585.635016636255
15926.511994184497,41662.37761525841,-16305.70933886878,-9589.054833537915
15914.017369033978,41655.53798145509,-16313.621856405958,-9584.763298602498
15903.333235184342,41642.9315975823,-16316.7511006297,-9568.915911783686
15906.685996852637,41644.27270224961,-16314.13594652843,-9569.161780972694
15919.962933059089,41660.88004837991,-16309.687949381823,-9570.525237384469
15931.384674475752,41686.96453415925,-16304.725862112746,-9569.161780972694
15927.696636640623,41689.467929538245,-16308.07862378104,-9567.261882693992
15916.63252313525,41675.45338576477,-16312.034882549631,-9565.18317045965
15917.23602023554,41669.93250488431,-16308.27978948114,-9568.871208294777
15917.10190976881,41676.2356968207,-16310.157336015383,-9575.08499325335
15921.281685981952,41689.44557779379,-16316.169955273865,-9583.019862534984
15906.998921275012,41680.951914900776,-16327.502289712704,-9581.298778211923
15906.685996852637,41665.97624611572,-16325.84826062301,-9570.681699595654
15905.680168352148,41660.835344891,-16327.99402809072,-9577.364871187792
15904.853153807302,41665.79743216008,-16327.099958312509,-9577.70014735462
15910.128165498754,41679.72256895573,-16315.342940729017,-9567.954786772108
15904.003787518,41671.60888571845,-16316.61699016297,-9567.507751883
15896.538304869928,41654.17452504332,-16316.125251784952,-9563.059754736394
15895.95715951409,41646.84315286198,-16315.074719795552,-9574.637958364245
15902.57327587286,41650.84411511947,-16312.884248838933,-9580.605874133813
15908.742357342526,41664.232810048205,-16310.425556948849,-9576.828429320864
15900.606322360794,41655.694443666274,-16316.728748885243,-9578.884789810752
15891.173886200651,41640.65171964785,-16322.853126866,-9580.784688089454
15890.81625828937,41636.114315523424,-16321.780243132143,-9585.635016636255
15897.924113026156,41642.082231293,-16320.32737974255,-9586.193810247638
15904.316711940375,41656.70027216677,-16322.94253384382,-9592.765223117498
15897.700595581604,41649.52536219661,-16326.384702489937,-9593.636941151257
15885.8988745092,41626.23484447418,-16328.865746124477,-9580.874095067276
15888.648139077204,41622.65856536133,-16321.623780920958,-9577.968368288084
15895.890104280725,41632.40392594384,-16317.980446574742,-9589.94890331613
15901.589799116828,41642.88689409338,-16313.957132572788,-9585.120926513782
15891.486810623028,41636.53899866808,-16321.064987309575,-9585.009167791506
15880.802676773392,41616.26596644712,-16326.250592023203,-9589.90419982722
15888.67049082166,41607.70524832073,-16323.434272221835,-9585.076223024873
15899.399328160209,41615.41660015781,-16323.23310652174,-9591.155897516715
15910.86577306578,41636.58370215699,-16319.813289620077,-9592.139374272749
15909.211743976086,41641.32227198152,-16319.455661708793,-9583.310435212905
15896.627711847748,41622.50210315015,-16320.886173353932,-9580.94115030064
15885.362432642274,41612.37676291189,-16322.584905932536,-9591.04413879444
15896.739470570026,41616.131855980384,-16322.607257676991,-9583.75747010201
15911.066938765878,41632.94036781077,-16324.28363851114,-9585.590313147344
15906.350720685808,41635.62257714541,-16331.682065925845,-9591.021787049984
15894.057261235388,41619.39521067086,-16336.510042728192,-9583.064566023895
15890.212761189076,41612.93555652328,-16338.722865429268,-9583.601007890822
15893.856095535291,41613.51670187911,-16340.108673585495,-9589.367757960292
15906.551886385903,41630.14639975386,-16337.761740417687,-9600.811851121409
15902.930903784145,41630.99576604316,-16346.814196922089,-9610.512508215012
15895.86775253627,41615.39424841336,-16348.222356822773,-9590.03831029395
15896.650063592204,41611.34858266695,-16339.95221137431,-9584.85270558032
15901.209819461086,41618.36703042592,-16335.593621205524,-9585.299740469423
15909.01057827599,41631.82278058801,-16335.794786905622,-9587.154935259216
15909.837592820835,41642.059879548535,-16340.511004985692,-9592.362891717305
15905.14372648522,41630.325213709504,-16336.934725872845,-9587.244342237038
15897.81235430388,41621.36216418292,-16333.358446759994,-9584.38331894676
15901.835668305835,41625.96662354072,-16334.56544096058,-9593.256961495515
15911.446918421618,41642.350452226456,-16335.7053799278,-9593.972217318083
15912.34098819983,41642.61867315992,-16337.47116773977,-9590.395938205236
15900.0028252605,41624.71492585122,-16343.752007931713,-9594.03927255145
15899.511086882483,41618.031754259086,-16341.338019530538,-9590.84297309434
15901.165115972177,41622.50210315015,-16344.780188176655,-9596.833240608365
15906.261313707986,41637.76834461312,-16345.540147488136,-9605.192793034648
15906.86481080828,41643.95977782724,-16349.04937136762,-9600.655388910222
15895.018386246968,41626.346603196456,-16353.22914758076,-9593.815755106898
15891.375051900752,41615.95304202474,-16348.870557411976,-9591.647635894731
15898.304092681898,41625.49723690716,-16344.444912009823,-9592.5640574174
15910.262275965486,41641.0316993036,-16343.52849048716,-9599.627208665275
15915.38082544575,41651.98405408669,-16343.841414909532,-9591.75939461701
15907.691825353126,41639.48942893618,-16345.361333532494,-9589.099537026828
15905.076671251854,41629.31938520901,-16342.701475942313,-9589.32305447138
15905.81427881888,41631.04046953207,-16342.276792797662,-9598.889601098252
15903.690863095626,41640.4282022033,-16345.741313188231,-9590.887676583252
15902.461517150585,41640.875237092405,-16350.323420801573,-9587.46785968159
15897.834706048336,41626.19014098527,-16356.358391804504,-9591.602932405822
15892.224418190051,41610.9238995223,-16358.928842416864,-9592.206429506115
15895.644235091717,41610.47686463319,-16355.084342370552,-9594.307493484914
15904.227304962553,41627.464190419225,-16352.446836524829,-9598.643731909244
15899.913418282678,41636.136667267885,-16358.213586594296,-9594.642769651744
15880.467400606562,41616.78005656959,-16366.215511109294,-9599.09076679835
15873.404249358684,41606.05121923104,-16363.33213607456,-9598.643731909244
15882.277891907444,41609.85101578844,-16359.487636028249,-9599.493098198544
15894.9513310136,41623.3738211839,-16355.57608074857,-9593.413423706705
15896.493601381017,41633.87914107789,-16355.844301682033,-9591.580580661366
15886.52472335395,41618.81406531502,-16362.907452929909,-9587.356100959314
15880.24388316201,41604.75481805263,-16360.09113312854,-9592.18407776166
15883.90956925268,41607.70524832073,-16357.498330771725,-9587.08788002585
15898.706424082093,41630.10169626495,-16354.816121437088,-9586.909066070208
15905.09902299631,41647.804277873554,-16362.080438385065,-9585.94794105863
15899.712252582582,41639.198856258256,-16362.996859907733,-9567.932435027653
15897.52178162596,41629.87817882039,-16357.252461582715,-9568.26771119448
15890.726851311549,41625.72075435171,-16358.705324972312,-9567.75362107201
15892.403232145696,41637.12014402392,-16361.320479073584,-9576.046118264929
15894.19137170212,41646.48552495069,-16362.862749441,-9579.42123167768
15890.90566526719,41632.00159454365,-16362.750990718723,-9572.156914729703
15888.312862910374,41620.64690836035,-16357.788903449644,-9564.445562892624
15890.324519911352,41619.59637637095,-16359.912319172898,-9568.088897238838
15893.09613622381,41629.92288230931,-16361.074609884574,-9574.526199641969
15895.62188334726,41638.08126903549,-16358.8617871835,-9573.073336252372
15893.185543201633,41624.31259445103,-16361.454589540315,-9571.665176351687
15880.66856630666,41608.19698669875,-16365.835531453557,-9565.31728092638
15875.572368570847,41609.73925706616,-16365.924938431375,-9574.36973743078
15890.19040944462,41624.55846364003,-16362.080438385065,-9572.380432174255
15903.914380540178,41641.2775684926,-16356.604260993512,-9553.739077298533
15901.120412483266,41634.7285073672,-16361.678106984868,-9558.142370956228
15895.130144969244,41624.53611189558,-16363.600357008025,-9562.053926235903
15896.09126998082,41622.05506826104,-16359.7111534728,-9556.197769188617
15902.036834005934,41630.99576604316,-16359.778208706166,-9555.862493021788
15908.988226531534,41646.59728367296,-16361.387534306949,-9565.294929181926
15896.515953125472,41634.23676898918,-16370.015307666696,-9565.741964071032
15889.47515362205,41618.232919959184,-16369.009479166209,-9565.071411737372
15890.883313522734,41617.91999553681,-16368.048354154633,-9565.406687904202
15899.689900838126,41629.38644044238,-16363.354487819017,-9560.690469824132
15906.23896196353,41640.47290569221,-16361.700458729323,-9563.350327414311
15889.273987921952,41628.64883287536,-16371.088191400551,-9566.211350704592
15877.919301738655,41608.28639367657,-16371.512874545202,-9567.865379794286
15876.175865671144,41602.7208093072,-16373.926862946377,-9561.092801224328
15885.451839620097,41612.30970767853,-16373.14455189044,-9557.091838966828
15891.03977573392,41626.95010029675,-16374.6644705134,-9555.549568599412
15878.321633138852,41617.07062924751,-16383.806333995622,-9564.579673359356
15864.910586465669,41600.23976567266,-16387.069688686097,-9565.049059992918
15878.031060460931,41602.49729186264,-16379.648909526935,-9563.372679158769
15891.66562457867,41613.15907396783,-16373.47982805727,-9561.22691169106
15905.121374740766,41634.95202481175,-16363.890929685944,-9555.147237199217
15901.969778772567,41633.275643977606,-16364.360316319504,-9552.062696464383
15894.52664786895,41620.04341126006,-16367.310746587606,-9552.84500752032
15889.788078044425,41612.51087337863,-16370.060011155609,-9559.774048301464
15894.48194438004,41620.266928704616,-16367.266043098694,-9566.07724023786
15902.349758428309,41635.30965272304,-16367.601319265525,-9566.79249606043
15897.253560692498,41633.70032712226,-16374.262139113203,-9566.636033849243
15885.921226253657,41616.10950423593,-16369.925900688875,-9554.901368010209
15885.563598342373,41612.75674256763,-16362.259252340706,-9545.871263250265
15893.699633324104,41621.38451592738,-16354.972583648276,-9555.03547847694
15903.62380786226,41639.46707719172,-16351.508063257705,-9552.17445518666
15895.063089735875,41628.47001891971,-16359.599394750525,-9551.861530764289
15889.028118732944,41609.068704732505,-16358.973545905776,-9544.396048116214
15884.04367971941,41604.24072793016,-16361.476941284767,-9547.234719662038
15888.58108384384,41613.94138502376,-16363.198025607828,-9555.527216854956
15904.853153807302,41636.91897832382,-16356.224281337772,-9552.107399953296
15898.326444426351,41631.95689105474,-16361.923976173875,-9552.442676120125
15889.81042978888,41611.99678325615,-16363.399191307926,-9547.905271995696
15898.90758978219,41608.46520763221,-16357.833606938557,-9537.84698699081
15904.495525896016,41616.04244900256,-16356.17957784886,-9546.810036517389
15908.38472943124,41628.73823985318,-16361.342830818036,-9554.722554054566
15901.120412483266,41629.85582707594,-16362.058086640607,-9537.958745713086
15896.650063592204,41612.823797801,-16356.425447037873,-9533.801321244398
15902.57327587286,41610.40980939983,-16352.066856869083,-9537.489359079524
15906.57423813036,41614.27666119059,-16352.536243502647,-9545.446580105612
15907.28949395293,41625.13960899587,-16356.693667971334,-9543.189053915628
15903.780270073446,41624.40200142885,-16359.442932539338,-9538.383428857736
15892.872618779258,41605.715943064206,-16360.985202906752,-9540.752713769998
15881.495580851506,41588.99683821164,-16362.214548851794,-9546.56416732838
15879.774496528447,41588.1698236668,-16363.198025607828,-9550.207501674591
15888.916360010668,41606.20768144223,-16352.08920861354,-9550.36396388578
15883.082554707831,41606.56530935351,-16312.66073139438,-9548.12878944025
15877.069935449355,41592.70722779122,-16266.973765727733,-9540.015106202973
15881.8979122517,41588.75096902263,-16246.45486431776,-9531.588498543322
15882.255540162989,41595.05416095903,-16244.823186972522,-9531.499091565502
15892.604397845793,41607.79465529855,-16248.533576552103,-9547.569995828868
15887.351737898796,41606.65471633133,-16258.323640623528,-9536.014143945473
15877.226397660545,41584.2135648982,-16266.906710494366,-9531.387332843226
15874.38772611472,41575.04934967153,-16268.7395535397,-9535.388295100724
15882.680223307638,41580.36906485189,-16266.392620371891,-9544.530158582946
15888.111697210275,41592.46135860221,-16269.74538204019,-9546.69827779511
15883.395479130208,41598.89866100534,-16275.40037338738,-9542.049114948406
15871.90668248018,41586.60520155492,-16272.293480908094,-9531.499091565502
15866.05052543289,41576.88219271686,-16270.08065820702,-9532.594327043813
15872.867807491755,41577.73155900616,-16268.963070984251,-9538.495187580012
15882.434354118628,41596.68583830426,-16262.771637770134,-9540.484492836536
15883.350775641296,41606.23003318668,-16262.324602881028,-9539.813940502876
15876.578197071338,41590.3155911345,-16265.74441978269,-9531.946126454608
15870.833798746324,41575.563439794,-16269.41010587336,-9535.36594335627
15873.605415058782,41579.34088460694,-16266.638489560904,-9540.439789347623
15885.027156475444,41596.75289353763,-16265.11857093794,-9528.83923397532
15887.53055185444,41609.4710361327,-16269.812437273556,-9535.544757311913
15885.51889485346,41603.95015525224,-16268.180759928318,-9525.374713584748
15881.80850527388,41594.07068420299,-16270.37123088494,-9525.397065329202
15884.133086697231,41596.842300515455,-16273.165198941851,-9524.994733929008
15888.648139077204,41615.10367573544,-16272.002908230175,-9525.441768818113
15888.178752443642,41623.7761525841,-16274.729821053725,-9523.22894611704
15879.662737806171,41612.04148674506,-16277.814361788556,-9521.820786216353
15864.999993443487,41604.598355841445,-16284.45282989178,-9534.181300900138
15876.622900560247,41614.20960595723,-16275.467428620748,-9531.87907122124
15895.398365902707,41634.01325154463,-16272.9416814973,-9533.30958286638
15895.57717985835,41648.09485055147,-16272.22642567473,-9533.108417166284
15887.642310576715,41638.34948996896,-16277.859065277466,-9541.22210040356
15881.786153529423,41629.632309631386,-16279.647204833893,-9535.88003347874
15885.38478438673,41639.02004230262,-16278.529617611126,-9532.92960321064
15898.661720593182,41658.5331152121,-16271.622928574436,-9538.092856179815
15897.991168259525,41665.126879826414,-16277.03205073262,-9536.237661390029
15880.489752351015,41646.50787669514,-16285.905693281376,-9538.696353280113
15866.408153344171,41635.04143178957,-16288.766716571656,-9545.759504527989
15873.180731914132,41633.20858874424,-16292.342995684505,-9553.917891254174
15884.401307630696,41645.211475516735,-16286.308024681572,-9536.774103256954
15885.965929742568,41655.20270528826,-16290.59955961699,-9539.299850380405
15877.695784294105,41643.22217026021,-16295.472239908248,-9539.590423058322
15868.643327789703,41628.76059159763,-16297.327434698038,-9541.758542270489
15872.8454557473,41630.79460034306,-16295.002853274687,-9539.88099573624
15883.484886108028,41645.39028947238,-16299.719071354755,-9546.407705117192
15882.680223307638,41657.34847275597,-16318.919219841866,-9539.7021817806
15867.659851033672,41643.06570804903,-16353.698534214323,-9537.019972445962
15865.581138799327,41628.80529508654,-16370.775266978178,-9528.36984734176
15878.81337151687,41631.53220791009,-16371.021136167186,-9524.88297520673
15890.14570595571,41649.99474883017,-16375.469133313793,-9536.37177185676
15897.09709848131,41668.36788277244,-16377.592549037046,-9536.572937556855
15890.14570595571,41659.7848129016,-16378.732488004269,-9539.188091658129
15880.869732006757,41644.56327492753,-16383.672223528887,-9548.039382462428
15879.103944194789,41646.418469717326,-16384.655700284922,-9545.781856272442
15885.965929742568,41661.26002803565,-16384.521589818192,-9546.02772546145
15888.648139077204,41672.65941770785,-16388.880179986976,-9546.765333028476
15878.52279883895,41661.26002803565,-16396.211552168315,-9544.150178927204
15868.866845234255,41644.94325458328,-16397.038566713163,-9550.162798185684
15873.650118547694,41639.69059463628,-16390.288339887662,-9547.324126639858
15886.301205909396,41650.97822558621,-16383.985147951264,-9547.324126639858
15894.236075191033,41662.82465014752,-16384.543941562646,-9549.6040045743
15883.95427274159,41649.92769359681,-16393.998729467243,-9552.21915867557
15870.699688279592,41633.16388525532,-16395.853924257033,-9553.426152876158
15873.292490636408,41633.00742304414,-16396.211552168315,-9554.297870909915
15883.507237852484,41645.97143482821,-16393.998729467243,-9554.99077498803
15886.681185565138,41656.81203088904,-16390.847133499043,-9557.22594943356
15876.064106948868,41643.535094682586,-16395.608055068024,-9559.215254690082
15871.794923757903,41630.83930383198,-16391.897665488443,-9539.523367824955
15874.924167981646,41631.42044918781,-16391.472982343792,-9540.819769003365
15875.415906359662,41640.316443481024,-16396.59153182406,-9551.526254597457
15876.8464180048,41649.23478951869,-16401.66537781541,-9562.053926235903
15871.95138596909,41641.0316993036,-16403.408813882925,-9554.633147076744
15868.039830689411,41626.95010029675,-16399.273741158693,-9535.701219523098
15866.609319044272,41622.09977174995,-16401.419508626404,-9544.686620794131
15874.700650537092,41635.62257714541,-16398.58083708058,-9547.301774895404
15884.200141930598,41653.83924887649,-16399.85488651453,-9546.005373716996
15879.32746163934,41646.39611797287,-16399.25138941424,-9546.69827779511
15876.354679626786,41630.92871080979,-16395.67511030139,-9552.286213908936
15871.392592357708,41624.8266845735,-16395.54099983466,-9556.041306977428
15873.963042970068,41632.31451896602,-16394.825744012087,-9561.092801224328
15873.627766803238,41643.84801910496,-16397.8208777691,-9567.932435027653
15865.402324843684,41634.21441724472,-16404.5711045946,-9568.93826352814
15856.774551483935,41612.89085303436,-16412.01423549822,-9573.520371141478
15867.23516788902,41608.08522797647,-16403.185296438372,-9564.803190803908
15879.729793039536,41622.770324083605,-16397.53030509118,-9563.730307070056
15881.964967485068,41637.075440535,-16401.73243304878,-9564.825542548364
15871.034964446422,41628.022984030606,-16411.902476775944,-9560.51165586849
15861.222548630543,41614.947213524254,-16412.237752942772,-9558.477647123056
15864.374144598742,41616.33302168048,-16408.996749996753,-9562.523312869467
15871.034964446422,41626.123085751904,-16402.09006096006,-9546.184187672638
15874.968871470555,41640.74112662568,-16401.799488282144,-9542.250280648504
15873.001917958489,41636.91897832382,-16403.364110394014,-9539.769237013965
15863.882406220724,41622.21153047223,-16403.81114528312,-9536.662344534678
15867.861016733768,41620.55750138253,-16400.458383614827,-9541.177396914649
15878.209874416576,41629.74406835366,-16400.972473737296,-9537.84698699081
15879.372165128252,41641.501085937154,-16408.81793604111,-9544.93248998314
15865.961118455069,41632.94036781077,-16415.210534955328,-9544.46310334958
15860.70845850807,41620.40103917135,-16413.780023310188,-9546.675926050655
15867.27987137793,41619.66343160432,-16405.15224995044,-9541.55737657039
15877.785191271923,41627.866521819415,-16394.937502734363,-9535.634164289731
15883.551941341397,41647.98309182919,-16392.05412769963,-9540.484492836536
15875.505313337484,41650.84411511947,-16394.91515098991,-9539.07633293585
15861.513121308462,41635.26494923412,-16400.167810936906,-9538.137559668728
15860.730810252526,41631.04046953207,-16400.30192140364,-9542.02676320395
15874.119505181254,41637.50012367965,-16401.71008130432,-9546.251242906004
15881.741450040514,41656.409699488846,-16400.637197570468,-9548.21819641807
15874.56654007036,41653.392213987376,-16404.7722702947,-9544.284289393938
15860.261423618964,41635.1755422563,-16407.789755796166,-9550.4533708636
15858.629746273728,41626.74893459665,-16406.403947639938,-9548.50876909599
15866.05052543289,41633.543864911066,-16402.358281893525,-9551.07921970835
15867.637499289216,41642.328100482,-16410.427261641893,-9559.7069930681
15865.022345187945,41639.80235335855,-16417.266895445217,-9560.109324468294
15861.244900374995,41628.24650147516,-16418.071558245607,-9553.806132531898
15861.08843816381,41620.80337057154,-16417.848040801055,-9551.347440641814
15867.793961500403,41627.91122530833,-16416.082252989087,-9558.097667467317
15876.8464180048,41642.26104524863,-16412.21540119832,-9560.7575250575
15870.76674351296,41641.4787341927,-16411.366034909017,-9552.84500752032
15862.004859686478,41617.85294030344,-16415.25523844424,-9556.197769188617
15866.072877177345,41612.64498384536,-16408.81793604111,-9557.963557000585
15871.146723168698,41614.85780654643,-16405.15224995044,-9560.154027957204
15878.433391861128,41627.464190419225,-16403.81114528312,-9562.255091936004
15875.52766508194,41630.36991719841,-16409.66730233041,-9560.981042502051
15862.0942666643,41612.55557686753,-16415.366997166515,-9545.64774580571
15869.47034233455,41604.4195418858,-16413.332988421083,-9547.905271995696
15870.498522579495,41609.8733675329,-16412.930657020886,-9552.375620886758
15879.70744129508,41627.48654216368,-16411.7236628203,-9556.84596977782
15875.95234822659,41631.018117787615,-16415.903439033442,-9557.6059290893
15865.84935973279,41617.33885018097,-16414.472927388302,-9547.07825745085
15862.13897015321,41608.2193384432,-16407.767404051712,-9541.6020800593
15868.643327789703,41614.27666119059,-16408.28149417418,-9540.88682423673
15879.036888961422,41633.99089980017,-16403.185296438372,-9541.266803892471
15880.735621540023,41644.451516205256,-16406.82863078459,-9544.910138238683
15875.348851126297,41633.76738235562,-16412.39421515396,-9546.899443495207
15871.772572013448,41625.69840260725,-16408.192087196363,-9537.869338735263
15872.532531324929,41624.8266845735,-16409.197915696852,-9545.804208016898
15876.444086604606,41638.9753388137,-16407.119203462506,-9554.454333121104
15868.308051622877,41642.70808013775,-16413.57885761009,-9562.769182058477
15863.167150398154,41624.89373980686,-16421.133747235985,-9559.729344812557
15856.685144506117,41613.76257106812,-16416.171659966905,-9541.93735622613
15868.71038302307,41622.68091710579,-16402.850020271544,-9537.93639396863
15882.680223307638,41635.89079807887,-16397.351491135538,-9540.529196325446
15879.573330828349,41641.165809770326,-16404.14642144995,-9546.921795239665
15866.877539977737,41625.005498529135,-16410.71783431981,-9545.670097550166
15860.820217230346,41614.14255072386,-16409.175563952394,-9538.070504435362
15853.533548537916,41614.47782689069,-16409.197915696852,-9547.972327229065
15866.56461555536,41625.653699118346,-16410.20374419734,-9549.112266196284
15869.291528378908,41633.14153351087,-16416.797508811655,-9555.7060308106
15853.578252026828,41618.81406531502,-16426.185241482883,-9558.254129678504
15847.789150212902,41607.63819308737,-16424.374750182003,-9551.03451621944
15856.79690322839,41614.120198979406,-16410.11433721952,-9542.540853326424
15863.770647498448,41627.41948693031,-16411.678959331388,-9542.809074259889
15870.744391768503,41638.99769055816,-16418.093909990064,-9546.966498728574
15866.18463589962,41630.258158476136,-16422.653665858947,-9548.151141184706
15856.171054383643,41614.947213524254,-16425.760558338232,-9559.483475623543
15850.717228736548,41613.114370478914,-16424.665322859924,-9552.353269142302
15864.172978898643,41629.43114393129,-16415.545811122156,-9542.74201902652
15876.645252304705,41648.94421684077,-16410.71783431981,-9544.105475438297
15868.062182433869,41637.58953065748,-16415.836383800077,-9543.88195799374
15858.76385674046,41626.86069331893,-16415.47875588879,-9540.618603303266
15861.0437346749,41634.30382422255,-16412.751843065245,-9539.478664336046
15875.058278448378,41648.69834765176,-16410.78488955318,-9541.378562614747
15875.795886015405,41654.75567039915,-16413.15417446544,-9541.959707970584
15862.742467253503,41639.28826323608,-16415.165831466416,-9534.494225322513
15857.981545684524,41629.22997823119,-16410.471965130804,-9533.957783455586
15862.988336442511,41631.66631837682,-16408.43795638537,-9526.73816999652
15872.063144691369,41643.62450166041,-16406.605113340036,-9528.92864095314
15868.911548723168,41655.33681575499,-16410.471965130804,-9532.773140999454
15860.574348041338,41639.93646382528,-16414.383520410483,-9528.45925431958
15851.790112470402,41623.32911769499,-16420.731415835788,-9531.163815398671
15858.294470106895,41625.05020201805,-16419.412662912924,-9537.042324190415
15866.832836488824,41642.99865281566,-16410.494316875258,-9532.348457854803
15873.001917958489,41662.15409781386,-16408.035624985176,-9522.781911227932
15865.84935973279,41655.24740877717,-16409.73435756378,-9525.352361840292
15860.261423618964,41644.13859178288,-16415.09877623305,-9537.578766057344
15864.217682387554,41648.81010637404,-16413.936485521375,-9522.670152505654
15866.341098110808,41659.87421987942,-16411.924828520398,-9529.330972353337
15864.172978898643,41666.95972287175,-16413.377691909995,-9531.990829943516
15851.790112470402,41651.20174303076,-16424.464157159826,-9541.043286447915
15845.173996111633,41639.91411208083,-16427.21342172783,-9543.949013227108
15850.42665605863,41642.7304318822,-16417.244543700763,-9540.46214109208
15854.22645261603,41654.10746980995,-16416.976322767296,-9533.17547239965
15861.468417819551,41664.25516179266,-16420.127918735496,-9528.7498269975
15857.914490451158,41654.62155993242,-16427.794567083667,-9535.187129400629
15848.124426379733,41638.95298706925,-16431.035570029686,-9532.057885176884
15846.112769378757,41636.85192309045,-16426.744035094267,-9532.817844488363
15861.736638753016,41648.363071484935,-16424.55356413765,-9535.88003347874
15868.732734767524,41662.37761525841,-16428.532174650692,-9536.908213723686
15856.215757872556,41650.754708141656,-16438.456349188848,-9537.623469546255
15851.61129851476,41633.18623699978,-16436.7799683547,-9539.009277702484
15848.817330457849,41626.056030518535,-16437.04818928816,-9542.31733588187
15863.547130053894,41642.43985920428,-16431.594363641067,-9542.36203937078
15877.204045916087,41667.33970252749,-16421.759596080734,-9527.699295008098
15872.532531324929,41666.26681879364,-16423.994770526264,-9521.083178649327
15865.692897521603,41654.64391167688,-16428.845099073067,-9519.31739083736
15867.861016733768,41653.45926922074,-16426.073482760607,-9521.7984344719
15866.251691132986,41661.10356582446,-16427.079311261095,-9522.156062383185
15872.8454557473,41675.47573750922,-16422.474851903302,-9518.825652459342
15871.929034224637,41666.62444670492,-16423.637142614978,-9508.588553498812
15862.89892946469,41648.363071484935,-16428.06278801713,-9510.153175610683
15865.737601010514,41648.87716160741,-16428.62158162851,-9515.562297768867
15874.85711274828,41660.09773732397,-16425.268819960216,-9515.964629169062
15880.109772695278,41674.20168807527,-16426.16288973843,-9517.7974722144
15868.397458600695,41666.84796414947,-16435.707084620844,-9523.251297861492
15859.9932026855,41650.24061801918,-16434.611849142533,-9514.958800668574
15860.082609663325,41649.88299010789,-16429.403892684448,-9509.795547699398
15869.202121401087,41663.3834437589,-16416.14930822245,-9500.608980728268
15878.38868837222,41675.565144487045,-16417.132784978483,-9503.73822495201
15870.498522579495,41669.57487697302,-16425.984075782788,-9504.989922641507
15859.367353840751,41646.99961507316,-16429.739168851276,-9508.856774432275
15861.75899049747,41642.082231293,-16420.127918735496,-9504.989922641507
15868.822141745346,41653.99571108767,-16416.7751570672,-9509.92965816613
15873.85128424779,41669.53017348411,-16419.747939079756,-9510.331989566326
15867.413981844662,41665.350397270966,-16428.19689848386,-9509.25910583247
15855.925185194636,41647.71487089573,-16435.327104965105,-9513.68475123462
15857.646269517694,41643.400984215856,-16439.126901522508,-9519.160928626172
15865.067048676856,41656.4320512333,-16436.958782310343,-9521.038475160418
15874.343022625808,41682.11420561245,-16433.516613664226,-9517.618658258756
15875.080630192831,41689.0432463936,-16432.935468308387,-9510.063768632865
15873.67247029215,41675.02870262012,-16433.941296808876,-9503.02296912944
15871.794923757903,41668.47964149471,-16431.9296398079,-9504.185259841115
15876.198217415598,41677.375635787925,-16427.7275118503,-9510.73432096652
15879.70744129508,41688.77502546013,-16426.14053799397,-9516.232850102526
15869.827970245837,41684.19291784679,-16430.767349096222,-9521.865489705264
15864.28473762092,41671.89945839637,-16429.336837451083,-9517.842175703308
15864.016516687456,41667.27264729412,-16430.05209327365,-9519.719722237554
15864.687069021114,41673.62054271943,-16428.331008950594,-9521.105530393785
15876.980528471537,41691.09960688348,-16425.35822693804,-9520.054998404385
15878.299281394397,41695.01116216316,-16428.666285117422,-9520.993771671509
15870.833798746324,41677.4873945102,-16431.750825852254,-9523.586574028324
15868.531569067429,41668.47964149471,-16429.8285758291,-9522.916021694664
15874.968871470555,41674.17933633082,-16426.811090327632,-9526.000562429495
15878.321633138852,41691.636048750406,-16429.895631062464,-9534.762446255976
15879.975662228546,41703.12484540044,-16428.666285117422,-9524.12301589525
15874.678298792638,41694.45236855178,-16422.519555392213,-9522.73720773902
15875.058278448378,41687.97036265974,-16418.742110579267,-9512.477757034036
15873.784229014424,41692.95480167327,-16423.234811214785,-9521.418454816156
15875.594720315305,41707.08110416903,-16427.660456616934,-9521.88784144972
15882.166133185165,41710.3444588595,-16433.874241575508,-9516.389312313711
15872.42077260265,41697.00046741968,-16435.975305554308,-9511.6954459781
15871.839627246813,41688.52915627112,-16431.86258457453,-9512.142480867204
15873.694822036605,41685.623429491934,-16431.370846196514,-9515.271725090948
15879.550979083897,41703.99656343419,-16437.428168943905,-9518.333914081326
15875.90764473768,41706.52231055765,-16440.691523634378,-9514.958800668574
15862.720115509048,41685.10933936946,-16446.50297719276,-9511.427225044636
15860.775513741435,41677.91207765485,-16445.45244520336,-9514.869393690751
15864.32944110983,41680.05784512256,-16442.725532379813,-9509.862602932764
15872.733697025024,41695.52525228563,-16436.847023588067,-9514.087082634816
15872.219606902554,41700.308525599066,-16441.518538179225,-9515.897573935696
15865.111752165763,41686.42809229232,-16440.624468401013,-9510.510803521967
15858.428580573627,41670.513650240144,-16441.295020734673,-9517.015161158462
15861.826045730835,41671.832403163,-16442.83729110209,-9522.31252459437
15873.918339481155,41687.43392079281,-16438.031666044197,-9527.140501396716
15877.76283952747,41695.03351390761,-16435.282401476194,-9533.22017588856
15867.659851033672,41679.16377534435,-16441.76440736823,-9535.097722422806
15856.260461361464,41665.86448739344,-16441.429131201403,-9523.608925772778
15862.384839342218,41670.22307756222,-16432.689599119378,-9520.79260597141
15877.13699068272,41686.02576089213,-16424.82178507111,-9516.948105925096
15876.801714515892,41687.83625219301,-16432.86841307502,-9520.88201294923
15861.826045730835,41668.52434498362,-16439.842157345076,-9523.497167050502
15858.585042784816,41653.57102794302,-16437.53992766618,-9520.993771671509
15855.858129961269,41656.18618204429,-16436.82467184361,-9509.348512810291
15862.85422597578,41669.64193220639,-16436.82467184361,-9509.415568043658
15871.19142665761,41672.34649328548,-16440.803282356654,-9511.82955644483
15856.595737528294,41652.207571531246,-16445.31833473663,-9512.991847156509
15850.784283969911,41641.14345802587,-16444.26780274723,-9519.987943171018
15856.863958461758,41649.03362381859,-16438.523404422212,-9514.221193101548
15862.004859686478,41662.37761525841,-16438.6798666334,-9516.07638789134
15865.692897521603,41667.40675776086,-16441.093855034575,-9513.952972168085
15849.823158958336,41649.10067905196,-16450.63804991699,-9515.048207646396
15850.493711291994,41642.28339699309,-16447.17352952642,-9512.790681456408
15854.740542738504,41648.45247846276,-16441.898517834965,-9510.376693055236
15862.0942666643,41665.64096994889,-16438.076369533108,-9515.718759980056
15866.251691132986,41672.05592060756,-16436.44469218787,-9523.541870539411
15856.729847995026,41656.90143786687,-16438.34459046657,-9524.011257172971
15849.75610372497,41643.35628072695,-16443.44078820238,-9530.26974562046
15855.880481705724,41646.7313941397,-16446.72649463731,-9532.79549274391
15867.123409166745,41664.83630714849,-16442.658477146444,-9520.88201294923
15870.006784201478,41671.25125780717,-16446.413570214936,-9527.967515941562
15862.206025386577,41656.18618204429,-16453.141445295983,-9526.961687441077
15855.388743327709,41644.67503364981,-16456.047172075174,-9533.711914266576
15856.349868339286,41647.69251915128,-16456.002468586263,-9535.902385223197
15870.47617083504,41667.31735078304,-16447.821730115622,-9521.999600171996
15886.748240798504,41691.34547607249,-16439.082198033597,-9521.999600171996
15881.003842473488,41684.61760099144,-16441.92086957942,-9520.434978060124
15870.342060368308,41669.15019382837,-16444.11134053604,-9522.40193157219
15876.041755204413,41668.85962115045,-16442.479663190803,-9528.682771764132
15877.33815638282,41680.48252826721,-16441.496186434768,-9525.665286262669
15877.584025571829,41695.65936275236,-16446.63708765949,-9533.778969499945
15872.800752258392,41689.37852256042,-16449.185186527397,-9534.337763111324
15865.71524926606,41676.593324731984,-16451.576823184114,-9535.053018933895
15865.692897521603,41675.25222006467,-16449.40870397195,-9525.017085673462
15875.840589504312,41692.06073189506,-16445.586555670092,-9517.730416981032
15884.28954890842,41707.72930475823,-16449.8333871166,-9519.138576881716
15878.656909305682,41699.99560117669,-16453.700238907368,-9519.898536193195
15866.229339388532,41683.12003411294,-16458.05882907615,-9519.876184448742
15870.342060368308,41686.741016714695,-16450.280422005704,-9508.521498265443
15875.393554615208,41703.34836284499,-16448.380523727003,-9516.25520184698
15889.273987921952,41727.71176430128,-16443.552546924657,-9517.104568136285
15884.513066352973,41725.99067997822,-16451.353305739558,-9522.446635061102
15879.483923850528,41709.38333384792,-16455.644840674977,-9522.893669950208
15878.612205816771,41706.70112451329,-16450.01220107224,-9509.527326765934
15878.969833728055,41714.56893856156,-16453.566128440634,-9525.106492651284
15884.222493675054,41727.71176430128,-16453.49907320727,-9526.157024640685
15877.651080805192,41718.145217674406,-16457.20946278685,-9524.145367639703
15869.13506616772,41699.16858663185,-16457.00829708675,-9524.07831240634
15872.71134528057,41701.60492677748,-16450.950974339365,-9527.073446163353
15882.993147730012,41712.11024667147,-16443.19491901337,-9526.40289382969
15888.223455932552,41722.1461799319,-16451.86739586203,-9536.17060615666
15875.259444148476,41709.20451989228,-16462.73034366731,-9537.98109745754
15866.408153344171,41694.80999646306,-16467.223044302827,-9535.142425911716
15862.608356786772,41693.02185690664,-16468.228872803316,-9540.260975391982
15869.917377223655,41710.63503153742,-16463.669116934434,-9535.500053823002
15872.510179580471,41726.77299103415,-16469.637032704002,-9531.230870632038
15872.353717369286,41722.23558690972,-16476.275500807227,-9523.83244321733
15871.347888868797,41710.38916234841,-16473.50388449477,-9519.473853048548
15874.454781348084,41704.35419134548,-16464.317317523637,-9516.45636754708
15879.662737806171,41712.66904028285,-16465.233739046304,-9514.60117275729
15884.557769841884,41725.32012764456,-16470.262881548748,-9522.960725183571
15872.107848180278,41719.37456361944,-16476.677832207424,-9525.017085673462
15861.446066075096,41703.08014191152,-16477.191922329894,-9516.45636754708
15866.296394621895,41698.11805464245,-16471.335765282605,-9515.227021602035
15871.28083363543,41710.00918269267,-16467.223044302827,-9517.30573383638
15877.226397660545,41725.85656951148,-16472.11807633854,-9522.424283316646
15868.66567953416,41715.68652578432,-16477.50484675227,-9524.45829206208
15855.746371238993,41694.36296157396,-16478.35421304157,-9517.819823958853
15856.774551483935,41686.78572020361,-16471.805151916167,-9513.707102979077
15868.173941156145,41698.49803429819,-16464.183207056907,-9513.237716345517
15878.701612794594,41715.820636251054,-16461.54570121118,-9517.283382091926
15867.302223122386,41709.338630359016,-16470.329936782116,-9518.69154199261
15856.014592172456,41692.01602840615,-16470.821675160132,-9519.071521648351
15857.199234628588,41689.06559813805,-16466.150160568974,-9525.21825137356
15868.218644645054,41697.022819164136,-16461.858625633555,-9526.984039185529
15878.0981156943,41715.41830485086,-16459.422285487926,-9527.967515941562
15878.545150583406,41722.95084273229,-16460.29400352168,-9522.40193157219
15868.129237667232,41709.38333384792,-16460.87514887752,-9519.853832704286
15862.831874231324,41697.715723242254,-16458.371753498526,-9525.50882405148
15864.217682387554,41703.25895586717,-16462.52917796721,-9534.158949155682
15875.751182526492,41723.62139506595,-16464.20555880136,-9528.995696186506
15875.102981937289,41722.68262179883,-16470.844026904586,-9528.481606064037
15865.894063221702,41707.7963599916,-16475.962576384853,-9532.415513088168
15868.062182433869,41702.49899655569,-16471.715744938345,-9529.88976596472
15869.090362678811,41712.80315074958,-16473.50388449477,-9533.331934610836
15870.319708623852,41721.52033108716,-16481.036422376208,-9542.004411459497
15857.690973006604,41715.44065659531,-16490.06652713615,-9542.093818437315
15845.933955423112,41702.40958957787,-16490.044175391697,-9542.160873670682
15847.967964168543,41698.27451685364,-16479.874131664532,-9535.36594335627
15849.733751980517,41705.53883380161,-16481.483457265313,-9544.060771949384
15861.490769564009,41723.241415410215,-16482.623396232535,-9552.84500752032
15867.481037078029,41733.63497658193,-16479.60591073107,-9544.619565560766
15861.379010841729,41722.28029039864,-16476.54372174069,-9536.237661390029
15857.13217939522,41714.45717983928,-16477.72836419682,-9526.782873485432
15863.323612609342,41722.16853167636,-16472.274538549726,-9525.240603118016
15872.018441202456,41737.7029940728,-16469.815846659643,-9532.12494041025
15867.369278355753,41738.21708419527,-16480.45527702037,-9536.908213723686
15854.897004949691,41719.68748804182,-16487.02668989023,-9530.873242720752
15851.387781070209,41708.77983674763,-16480.187056086907,-9519.093873392803
15855.768722983448,41714.94891821729,-16473.660346705958,-9522.26782110546
15865.223510888043,41732.29387191461,-16472.609814716558,-9530.157986898184
15858.249766617986,41736.250130683205,-16481.662271220957,-9537.467007335068
15845.79984495638,41721.65444155389,-16486.40084104548,-9525.88880370722
15846.380990312218,41714.47953158373,-16478.264806063748,-9519.071521648351
15843.765836210949,41714.79245600611,-16475.157913584462,-9524.100664150794
15848.973792669034,41728.270557912656,-16478.421268274935,-9530.35915259828
15845.621031000735,41739.78170630714,-16482.86926542154,-9531.946126454608
15843.318801321842,41724.850741011,-16484.031556133217,-9521.038475160418
15843.005876899468,41714.63599379493,-16483.338652055103,-9515.003504157485
15842.491786776996,41712.177301904834,-16482.35517529907,-9517.842175703308
15851.208967114564,41724.87309275545,-16480.969367142843,-9523.36305658377
15847.47622579053,41729.56695909106,-16484.97032940034,-9526.69346650761
15835.383932040208,41713.27253738315,-16488.479553279823,-9526.469949063056
15837.50734776346,41701.71668549976,-16488.01016664626,-9524.83827171782
15845.643382745193,41703.68363901182,-16488.367794557547,-9524.927678695642
15848.90673743567,41713.36194436096,-16488.01016664626,-9534.203652644594
15849.689048491604,41719.17339791935,-16488.07722187963,-9534.181300900138
15842.156510610166,41701.80609247757,-16493.039309148706,-9531.096760165306
15838.490824519497,41691.61369700595,-16496.83910570611,-9532.236699132529
15847.073894390332,41696.598136019486,-16491.87701843703,-9527.31931535236
15858.920318951648,41715.03832519511,-16484.456239277868,-9517.909230936675
15860.28377536342,41726.28125265613,-16483.31630031065,-9518.088044892316
15850.04667640289,41711.32793561553,-16485.573826500633,-9518.93741118162
15842.13415886571,41697.6933714978,-16489.328919569125,-9524.704161251087
15847.766798468449,41698.87801395393,-16486.087916623106,-9513.55064076789
15865.245862632495,41721.140351431415,-16481.036422376208,-9510.35434131078
15870.610281301771,41739.73700281823,-16484.456239277868,-9512.477757034036
15867.23516788902,41732.36092714798,-16484.50094276678,-9503.760576696466
15861.982507942022,41716.312374629066,-16482.93632065491,-9501.078367361828
15860.32847885233,41715.93239497333,-16483.91979741094,-9507.001579642483
15859.367353840751,41723.33082238804,-16488.92658816893,-9506.040454630907
15864.776475998937,41732.182113192335,-16496.526181283734,-9511.337818066817
15856.394571828196,41716.178264162336,-16501.912951697464,-9513.21536460106
15850.292545591898,41699.19093837631,-16501.108288897074,-9510.667265733156
15851.723057237035,41697.93924068681,-16497.21908536185,-9511.427225044636
15857.378048584227,41712.13259841593,-16495.140373127506,-9517.953934425585
15855.94753693909,41720.04511595311,-16497.353195828582,-9516.210498358072
15853.846472960293,41708.891595469904,-16495.252131849782,-9512.50010877849
15848.012667657456,41695.81582496355,-16491.69820448139,-9513.282419834426
15850.024324658434,41695.68171449682,-16489.55243701368,-9518.825652459342
15862.943632953602,41713.38429610543,-16482.35517529907,-9513.394178556702
15868.062182433869,41729.11992420196,-16483.673928221935,-9514.109434379272
15857.467455562051,41717.02763045164,-16489.97712015833,-9503.581762740823
15846.582156012317,41701.26965061064,-16491.16176261446,-9503.291190062904
15847.364467068252,41699.25799360967,-16484.88092242252,-9509.013236643465
15855.880481705724,41713.40664784988,-16483.87509392203,-9516.568126269356
15867.61514754476,41736.250130683205,-16488.390146302005,-9525.709989751576
15860.864920719256,41731.891540514414,-16496.861457450566,-9513.304771578882
15853.108865393266,41718.145217674406,-16495.16272487196,-9500.40781502817
15860.551996296885,41725.40953462238,-16486.64671023449,-9494.372844025236
15869.537397567916,41744.699090087306,-16483.763335199754,-9498.954951638574
15876.734659282523,41758.825392583065,-16485.41736428945,-9500.296056305891
15869.13506616772,41747.38129942195,-16489.59714050259,-9495.043396358897
15859.970850941045,41734.08201147104,-16488.345442813094,-9495.445727759092
15854.628784016228,41732.96442424828,-16488.144277112995,-9508.20857384307
15874.410077859173,41746.9566162773,-16476.11903859604,-9512.254239589482
15880.892083751212,41763.22868624076,-16476.476666507326,-9506.845117431298
15873.739525525514,41759.94297980583,-16481.394050287494,-9499.73726269451
15863.725944009537,41748.6553488559,-16483.808038688665,-9503.984094141018
15858.719153251548,41744.54262787612,-16483.98685264431,-9508.566201754356
15862.608356786772,41749.61647386748,-16482.86926542154,-9516.746940225
15869.71621152356,41764.54743916362,-16481.25993982076,-9515.428187302135
15863.770647498448,41758.26659897168,-16484.344480555592,-9503.201783085082
15860.864920719256,41747.02367151066,-16482.891617166,-9500.519573750444
15859.032077673925,41743.93913077583,-16479.7400211978,-9503.559410996368
15862.56365329786,41750.287026201135,-16474.465009506348,-9505.995751141996
15868.688031278614,41764.10040427451,-16475.224968817827,-9519.540908281911
15861.736638753016,41756.97019779327,-16480.768201442745,-9511.78485295592
15851.544243281394,41741.01105225218,-16483.31630031065,-9500.810146428365
15844.749312966982,41732.96442424828,-16485.752640456278,-9513.371826812248
15854.9417084386,41742.84389529752,-16488.25603583527,-9519.496204793002
15868.464513834062,41764.50273567471,-16484.29977706668,-9517.417492558658
15869.515045823462,41767.609628154,-16481.997547387786,-9509.661437232666
15857.467455562051,41749.392956422926,-16487.339614312605,-9514.154137868183
15855.858129961269,41747.22483721076,-16486.445544534392,-9512.768329711957
15860.775513741435,41753.97506403626,-16487.36196605706,-9504.5428877524
15865.84935973279,41766.5590961646,-16484.7915154447,-9507.60507674278
15859.255595118477,41764.43568044135,-16490.06652713615,-9505.034626130418
15859.255595118477,41750.91287504589,-16491.5417422702,-9504.49818426349
15861.177845141632,41748.78945932263,-16493.73221322682,-9506.576896497834
15862.317784108853,41754.08682275854,-16489.105402124573,-9514.243544846004
15865.178807399132,41768.34723572103,-16485.953806156376,-9516.724588480543
15851.164263625657,41761.66406412888,-16496.28031209473,-9527.252260118992
15851.56659502585,41746.1519534769,-16495.22978010533,-9527.073446163353
15851.857167703767,41743.11211623098,-16487.853704435078,-9527.45342581909
15858.272118362442,41750.30937794559,-16485.104439867075,-9529.040399675418
15869.939728968113,41772.81758461209,-16485.283253822716,-9525.061789162371
15866.698726022092,41776.55032593612,-16489.30656782467,-9525.575879284845
15859.65792651867,41760.09944201702,-16484.098611366586,-9514.444710546102
15855.858129961269,41749.37060467847,-16479.047117119684,-9514.578821012834
15860.75316199698,41755.383223936944,-16480.276463064725,-9519.78677747092
15863.368316098253,41771.14120377794,-16484.97032940034,-9530.560318298378
15858.18271138462,41768.30253223211,-16487.630186990522,-9516.389312313711
15849.08555139131,41750.13056398995,-16489.865361436052,-9514.668227990654
15849.599641513783,41743.514447631176,-16488.747774213287,-9512.701274478588
15858.026249173434,41751.82929656856,-16488.859532935563,-9516.746940225
15860.015554429956,41764.99447405273,-16496.369719072547,-9529.8003589869
15856.66279276166,41764.56979090808,-16500.147163885496,-9524.950030440095
15848.236185102009,41745.324938932055,-16501.823544719642,-9526.22407987405
15842.827062943825,41737.05479348359,-16504.014015676265,-9529.085103164329
15847.364467068252,41746.375470921455,-16498.627245262534,-9520.636143760225
15862.76481899796,41764.480383930255,-16492.905198681976,-9519.295039092904
15864.66471727666,41769.44247119933,-16491.251169592284,-9518.31156233687
15857.914490451158,41759.02655828316,-16495.40859406097,-9524.301829850892
15859.90379570768,41750.17526747886,-16499.722480740846,-9525.106492651284
15865.536435310416,41757.19371523782,-16496.68264349492,-9523.31835309486
15865.536435310416,41769.509526432696,-16494.626283005033,-9528.705123508587
15864.66471727666,41775.72331139127,-16494.514524282757,-9529.88976596472
15854.718190994048,41755.09265125902,-16500.057756907674,-9521.55256528289
15851.320725836842,41744.92260753186,-16500.303626096684,-9528.25808861948
15861.982507942022,41747.38129942195,-16493.329881826627,-9523.541870539411
15872.95721446958,41763.92159031888,-16490.200637602884,-9522.714855994564
15868.486865578518,41767.98960780974,-16494.492172538303,-9528.97334444205
15850.381952569718,41750.97993027925,-16502.672911008944,-9531.655553776687
15848.929089180125,41743.514447631176,-16495.430945805427,-9526.626411274245
15855.791074727902,41748.81181106709,-16489.4406782914,-9527.565184541369
15860.306127107877,41769.28600898814,-16493.21812310435,-9530.69442876511
15864.351792854286,41782.60764868351,-16494.916855682954,-9529.26391711997
15859.367353840751,41772.68347414535,-16496.615588261557,-9527.162853141172
15859.881443963224,41766.24617174223,-16494.291006838204,-9521.820786216353
15863.301260864886,41767.16259326489,-16493.888675438007,-9521.194937371603
15867.57044405585,41780.52893644916,-16493.59810276009,-9520.83730946032
15865.022345187945,41787.14505280794,-16502.158820886474,-9524.324181595348
15854.85230146078,41776.2597532582,-16506.025672677242,-9518.445672803602
15855.388743327709,41769.68834038834,-16502.114117397563,-9507.582724998323
15859.009725929467,41771.65529390041,-16498.761355729264,-9509.192050599106
15865.33526961032,41785.58043069606,-16496.25796035027,-9528.302792108392
15864.999993443487,41789.84961388703,-16501.443565063902,-9515.942277424609
15851.208967114564,41771.476479944766,-16506.673873266445,-9513.438882045612
15844.65990598916,41759.42888968335,-16501.667082508455,-9519.65266700419
15844.36933331124,41756.76903209317,-16503.678739509432,-9525.620582773756
15855.992240428,41773.10815729,-16506.4950593108,-9526.961687441077
15858.205063129077,41784.686360917854,-16510.048986679198,-9528.36984734176
15852.32655433733,41772.92934333436,-16511.50185006879,-9521.150233882694
15852.304202592875,41759.67475887237,-16508.439661078413,-9518.31156233687
15857.892138706702,41766.1567647644,-16504.88573371002,-9526.000562429495
15867.257519633476,41778.85255561502,-16498.13550688452,-9522.625449016745
15867.078705677834,41783.85934637301,-16497.93434118442,-9511.248411088993
15853.958231682567,41768.83897409904,-16502.27057960875,-9512.947143667596
15843.542318766396,41755.539686148135,-16506.673873266445,-9516.79164371391
15845.285754833909,41756.992549537725,-16506.964445944363,-9522.22311761655
15856.61808927275,41772.07997704506,-16501.644730764,-9525.665286262669
15857.914490451158,41778.83020387056,-16502.82937322013,-9526.514652551969
15850.270193847442,41766.872020586976,-16507.99262618931,-9526.157024640685
15847.94561242409,41756.657273370896,-16507.634998278023,-9520.189108871116
15855.813426472358,41760.83704958404,-16505.377472088036,-9520.300867593392
15862.18367364212,41773.35402647901,-16509.82546923464,-9521.574917027345
15864.016516687456,41783.59112543954,-16515.12283267055,-9520.680847249132
15856.774551483935,41780.93126784936,-16518.07326293865,-9524.435940317624
15844.36933331124,41768.90602933241,-16517.536821071724,-9516.322257080348
15846.336286823307,41766.17911650886,-16512.664140780467,-9510.130823866228
15853.667659004648,41775.47744220227,-16513.424100091946,-9523.11718739476
15857.42275207314,41784.88752661795,-16516.083957682127,-9537.467007335068
15846.47039729004,41768.63780839894,-16522.11892868506,-9526.537004296422
15837.909679163657,41753.90800880289,-16519.570829817156,-9519.764425726466
15839.586059997806,41754.93618904784,-16514.809908248175,-9521.93254493863
15844.637554244704,41766.13441301995,-16511.479498324337,-9524.614754273269
15858.987374185012,41775.92447709137,-16512.373568102546,-9528.436902575124
15844.436388544607,41756.657273370896,-16522.275390896248,-9532.147292154705
15838.60258324177,41742.68743308633,-16525.494042097813,-9540.79741725891
15839.027266386423,41739.84876154051,-16522.342446129616,-9525.732341496032
15850.247842102986,41750.37643317896,-16515.50281232629,-9520.5467367824
15851.499539792483,41762.28991297363,-16520.30843738418,-9524.45829206208
15839.966039653546,41752.43279366884,-16529.919687499965,-9527.78870198592
15834.243993072989,41737.21125569478,-16525.27052465326,-9522.714855994564
15836.613277985249,41735.53487486064,-16521.716597284867,-9517.439844303111
15844.168167611144,41745.63786335443,-16515.636922793023,-9517.059864647374
15856.640441017204,41762.20050599581,-16510.093690168105,-9517.573954769843
15848.1914816131,41757.88661931594,-16517.939152471918,-9517.618658258756
15839.921336164634,41742.68743308633,-16520.777824017743,-9517.21632685856
15843.363504810752,41740.4522586408,-16518.31913212766,-9516.098739635794
15848.124426379733,41744.18499996483,-16514.60874254808,-9510.98019015553
15851.834815959312,41756.2549419707,-16518.117966427562,-9517.417492558658
15846.179824612122,41747.82833431105,-16522.722425785356,-9509.236754088017
15836.054484373866,41727.26472941217,-16522.02952170724,-9507.11333836476
15835.026304128922,41722.95084273229,-16522.834184507632,-9522.200765872094
15839.541356508897,41728.60583407949,-16523.527088585746,-9516.523422780445
15835.294525062389,41738.23943593972,-16524.55526883069,-9518.26685884796
15829.125443592722,41727.1976741788,-16529.718521799867,-9516.948105925096
15833.104054105766,41711.03736293762,-16526.87985025404,-9512.365998311758
15834.400455284174,41709.71861001475,-16523.325922885648,-9512.88008843423
15842.380028054718,41717.228796151736,-16521.157803673483,-9511.494280278002
15846.51510077895,41730.349270147,-16522.02952170724,-9520.300867593392
15840.27896407592,41727.10826720098,-16526.7010362984,-9523.899498450695
15834.333400050808,41712.199653649295,-16533.27244916826,-9527.02874267444
15832.74642619448,41708.57867104753,-16526.857498509587,-9528.727475253045
15840.524833264928,41720.31333688657,-16515.256943137283,-9514.69057973511
15852.61712701525,41739.37937490695,-16516.93332397143,-9523.586574028324
15845.50927227846,41729.87988351344,-16526.924553742952,-9525.240603118016
15833.70755120606,41709.78566524812,-16530.03144622224,-9523.765387983964
15830.108920348755,41703.102493655984,-16527.528050843244,-9529.532138053435
15833.193461083589,41708.26574662516,-16526.83514676513,-9525.709989751576
15849.353772324774,41728.78464803513,-16522.230687407337,-9517.30573383638
15852.639478759704,41733.21029343728,-16520.33078912864,-9515.472890791048
15835.94272565159,41715.820636251054,-16527.483347354337,-9513.751806467988
15834.89219366219,41710.21034839277,-16529.495004355314,-9519.22798385954
15840.882461176214,41719.26280489717,-16531.17138518946,-9523.65362926169
15850.51606303645,41737.97121500626,-16528.93621074393,-9523.564222283869
15841.262440831952,41730.21515968027,-16540.201489949406,-9531.946126454608
15829.572478481829,41715.03832519511,-16541.050856238708,-9531.07440842085
15827.650228458671,41712.73609551622,-16539.732103315844,-9534.561280555878
15836.345057051783,41718.45814209678,-16538.703923070898,-9533.98013520004
15840.010743142457,41731.84683702551,-16538.12277771506,-9522.22311761655
15841.70947572106,41734.17141844886,-16542.45901613939,-9521.373751327248
15839.071969875333,41719.55337757509,-16545.36474291858,-9521.485510049524
15839.049618130875,41717.58642406302,-16542.861347539587,-9527.185204885627
15845.732789723015,41727.37648813445,-16537.18400444794,-9517.775120469943
15849.823158958336,41743.82737205355,-16541.09555972762,-9522.044303660909
15846.604507756772,41742.73213657524,-16548.6057458646,-9528.705123508587
15831.874708160723,41724.40370612189,-16550.617402865577,-9526.469949063056
15829.863051159748,41721.07329619805,-16542.481367883847,-9523.273649605948
15841.821234443336,41726.77299103415,-16537.586335848133,-9526.69346650761
15855.90283345018,41744.81084880958,-16535.999361991806,-9528.146329897205
15856.61808927275,41752.58925588003,-16541.341428916625,-9526.559356040878
15844.436388544607,41735.803095794094,-16544.023638251263,-9529.085103164329
15839.474301275528,41726.9965084787,-16539.866213782574,-9519.809129215377
15840.547185009384,41733.00912773718,-16544.22480395136,-9525.97821068504
15850.024324658434,41753.66213961389,-16546.102350485606,-9527.296963607903
15846.738618223504,41756.32199720407,-16554.46190291189,-9527.989867686018
15836.03213262941,41738.10532547299,-16561.03331578175,-9531.543795054413
15831.204155827065,41727.220025923256,-16560.720391359377,-9528.481606064037
15839.071969875333,41733.03147948164,-16555.13245524555,-9524.950030440095
15845.643382745193,41752.36573843548,-16554.148978489517,-9539.143388169216
15839.183728597607,41754.891485558925,-16561.457998926402,-9540.439789347623
15834.579269239815,41742.26274994168,-16562.575586149167,-9536.818806745863
15830.310086048852,41733.90319751539,-16563.67082162748,-9536.79645500141
15840.547185009384,41740.0499272406,-16560.38511519255,-9540.775065514454
15846.85037694578,41757.59604663802,-16561.167426248485,-9549.291080151928
15846.179824612122,41768.682511887855,-16562.732048360354,-9543.390219615723
15830.019513370931,41754.31034020309,-16570.04106879724,-9544.999545216508
15828.052559858868,41744.0508894981,-16570.130475775062,-9548.531120840446
15836.076836118322,41749.169438978366,-16563.693173371932,-9544.641917305222
15837.261478574454,41764.74860486372,-16558.7087343584,-9559.818751790375
15829.773644181923,41764.70390137481,-16567.671783884976,-9559.684641323644
15820.587077210794,41748.40947966689,-16571.739801375843,-9538.539891068924
15818.687178932094,41739.22291269576,-16568.94583331893,-9532.773140999454
15824.766853423936,41743.17917146435,-16570.823379853176,-9536.707048023589
15828.36548428124,41756.67962511535,-16577.126571789573,-9547.12296093976
15829.304257548363,41766.1567647644,-16580.211112524405,-9545.692449294622
15819.067158587834,41748.677700600354,-16579.384097979557,-9539.322202124858
15816.452004486562,41736.49599987221,-16573.57264442118,-9535.343591611814
15818.217792298532,41744.09559298702,-16571.315118231192,-9540.12686492525
15832.098225605278,41765.17328800837,-16567.157693762507,-9539.724533525054
15841.977696654523,41779.12077654848,-16564.497836172322,-9529.666248520169
15835.830966929314,41774.02457881267,-16565.07898152816,-9524.726512995545
15837.50734776346,41764.0557007856,-16562.7096966159,-9526.179376385138
15836.479167518515,41768.4589944433,-16559.647507625523,-9529.30862060888
15845.688086234104,41783.16644229489,-16559.7592663478,-9522.379579827735
15850.985449670012,41789.82726214257,-16561.61446113759,-9528.816882230863
15835.406283784663,41772.862288100994,-16564.251966983316,-9519.74207398201
15828.23137381451,41760.52412516167,-16557.725257602367,-9516.188146613616
15835.629801229215,41762.1558025069,-16551.220899965872,-9520.07735014884
15845.464568789552,41775.879773602464,-16548.359876675593,-9520.524385037945
15844.928126922625,41785.64748592943,-16552.450245910914,-9516.299905335893
15831.539431993897,41774.1586892794,-16555.870062812577,-9520.36792282676
15831.047693615878,41765.75443336421,-16552.00321102181,-9521.93254493863
15835.629801229215,41767.05083454261,-16551.734990088342,-9519.563260026369
15845.08458913381,41785.78159639616,-16549.209242964895,-9520.770254226954
15845.442217045096,41800.10906459201,-16555.154806990005,-9521.239640860516
15836.903850663168,41788.530860964165,-16560.273356470272,-9517.97628617004
15835.920373907134,41778.31611374809,-16558.820493080675,-9514.400007057193
15835.473339018028,41780.75245389372,-16556.428856423958,-9511.941315167109
15837.440292530096,41788.84378538654,-16554.41719942298,-9503.335893551814
15846.00101065648,41801.76309368171,-16552.651411611012,-9514.400007057193
15835.51804250694,41788.10617781952,-16559.871025070075,-9508.476794776536
15837.395589041183,41779.07607305957,-16550.550347632212,-9490.6401027012
15844.525795522428,41782.54059345014,-16549.432760409447,-9501.078367361828
15856.79690322839,41798.49973899123,-16545.78942606323,-9500.765442939452
15858.495635806996,41812.313117064616,-16547.935193530942,-9502.307713306873
15840.860109431758,41800.04200935865,-16557.32292620217,-9511.091948877804
15838.55787975286,41783.926401606375,-16559.111065758596,-9515.674056491143
15842.782359454914,41783.97110509528,-16556.071228512672,-9517.752768725488
15846.55980426786,41794.31996277809,-16551.019734265774,-9516.83634720282
15856.461627061562,41808.84859667404,-16546.504681885803,-9509.661437232666
15853.108865393266,41802.791273926654,-16547.398751664015,-9508.11916686525
15840.748350709482,41785.75924465171,-16548.69515284242,-9504.49818426349
15840.524833264928,41785.60278244052,-16544.51537662928,-9505.5934197418
15852.773589226435,41794.7669976672,-16543.777769062253,-9511.40487330018
