 EXG Channel 0, EXG Channel 1, EXG Channel 2, EXG Channel 3
8272.805306053795,-9229.30350652975,-60136.96612560346,-3775.880190835022
7891.998635768728,-9193.116032256608,-60093.93901752699,-4158.6314628877
7799.350655001481,-9170.965453501398,-60057.3268601092,-4299.827432611875
7997.1859451754035,-9187.751613587334,-60077.71165105244,-4142.24763420196
8286.998663782915,-9221.413340737026,-60117.67657013852,-3834.419409563471
8288.295064961323,-9235.673753699512,-60138.41898899305,-3771.611007644058
7914.037455801661,-9192.020796778295,-60093.71550008244,-4146.114485992728
7808.984256861718,-9173.357090158115,-60063.47358983441,-4301.1685372791935
7999.979913232317,-9192.937218300964,-60080.37150864262,-4147.187369726583
8287.535105649842,-9223.06736982672,-60110.03227353481,-3841.639023022536
8318.156995553612,-9232.186881564485,-60130.93115460053,-3759.31754819364
7938.3114502801245,-9204.671884140002,-60092.240284948384,-4137.062029488329
7814.147509830894,-9193.697177612446,-60059.91966246601,-4314.691342674654
7997.655331808965,-9201.743805616356,-60078.71747955293,-4172.2660270054375
8289.300893461812,-9230.711666430434,-60112.64742763608,-3866.047127967731
8324.59429795674,-9240.568785735224,-60143.22461405095,-3761.910350550456
7954.583520243588,-9186.790488575756,-60103.438508920495,-4127.33902065027
7813.186384819315,-9171.971282001889,-60062.33365086719,-4315.898336875241
7985.33952061409,-9201.073253282697,-60078.85159001966,-4181.586704443301
8273.006471753892,-9237.037210111286,-60108.98174154541,-3878.944084518443
8332.88679514966,-9242.49103575838,-60134.21686103546,-3756.478876647816
7969.223912861814,-9190.500878155335,-60098.1858489735,-4114.017380954907
7808.380759761425,-9159.476656851371,-60059.91966246601,-4317.686476431665
7971.704956496354,-9182.588360618158,-60077.37637488561,-4189.633332447211
8259.707183802984,-9206.884706841076,-60104.31022695425,-3888.6670933565015
8338.497083007942,-9217.233564523884,-60130.23825052241,-3747.69464107688
7976.644692020976,-9191.238485722362,-60100.0857472522,-4099.28758135886
7799.216544534749,-9172.19479944644,-60064.97115671291,-4319.966354366106
7963.278348836702,-9183.258912951816,-60072.74956378336,-4194.908344138664
8248.53131157533,-9205.230677751384,-60097.44824140648,-3898.0548260277305
8344.196777844045,-9210.30452374274,-60123.53272718582,-3739.938585750888
7996.425985863922,-9178.050956493733,-60092.75437507086,-4072.197267079028
7795.528506699623,-9155.989784716345,-60053.14708389605,-4311.964429851107
7952.035421375683,-9167.165656943997,-60068.36862187012,-4203.960800643063
8239.38944809311,-9187.14811648704,-60093.447279148975,-3911.957611078932
8359.641833262664,-9202.995503305854,-60122.41513996305,-3726.97457396681
8009.34529415909,-9176.77690705978,-60102.678549609016,-4052.594787191724
7792.131041542416,-9161.7118312969,-60059.49497932136,-4310.019828083495
7932.432941488379,-9165.735145298857,-60059.91966246601,-4215.74016997101
8209.259296567358,-9186.030529264275,-60088.060508735245,-3935.784570668289
8350.008231402426,-9197.787546847769,-60119.10708178367,-3731.914309491433
8027.718428101352,-9171.85952327961,-60095.123659983125,-4031.830016592743
7796.176707288827,-9155.073363193676,-60047.69325824896,-4297.458147699613
7916.496147691745,-9157.085020194652,-60054.04115367427,-4217.8188822053535
8197.301113283767,-9153.508741081803,-60072.97308122792,-3941.5066172488473
8360.200626874046,-9177.648625093536,-60115.32963697072,-3724.270012887718
8053.914672602973,-9160.415430118494,-60107.39476768908,-4010.327638426738
7811.062969096061,-9134.465054805882,-60061.21606364442,-4292.004322052518
7923.1122640505155,-9145.86444447809,-60063.875921234605,-4224.88203345323
8184.784136388796,-9173.62531109158,-60091.8826570371,-3955.588216255691
8358.010155917425,-9197.29580846975,-60127.46663420995,-3721.140768663975
8062.810666896185,-9162.918825497489,-60107.73004385592,-3990.2110684169616
7805.273867282137,-9124.540880267725,-60054.28702286328,-4283.801231837419
7903.42037718539,-9144.14336015503,-60059.94201421047,-4227.251318365493
8169.47319143691,-9173.692366324944,-60090.8321250477,-3971.927341452521
8363.531036797885,-9195.8205933357,-60132.13814880111,-3726.371076866517
8083.284864817246,-9173.513552369304,-60123.30920974127,-3979.258713633861
7815.913297642863,-9139.829473475156,-60062.31129912273,-4283.533010903956
7910.483528433268,-9148.61370904609,-60062.84774098966,-4234.515635313468
8173.675319394508,-9177.179238459974,-60095.81656406124,-3979.705748522967
8373.365804358222,-9194.926523557488,-60131.825224378736,-3722.012486697732
8114.599658799131,-9163.14234294204,-60120.53759342881,-3953.733021465901
7835.873405441453,-9134.576813528158,-60063.80886600124,-4269.764336319487
7915.333856980069,-9139.76241824179,-60058.35504035415,-4230.157045144683
8167.2380169913795,-9161.175389429976,-60080.21504643143,-3984.176097414029
8379.311368383333,-9192.62429387859,-60117.18483176051,-3717.743303506768
8136.996106743349,-9172.105392468618,-60111.30632296876,-3933.5493962227583
7846.535187546634,-9132.609860016091,-60059.60673804364,-4261.047155981917
7913.031627301172,-9144.255118877309,-60061.70780202244,-4233.062771923873
8167.394479202567,-9163.209398175406,-60084.10424996666,-3991.820394017744
8390.71075805554,-9185.00234901933,-60121.9904568184,-3721.3866378529833
8163.371165200611,-9158.314366139695,-60112.42391019153,-3916.58442218118
7856.369955106968,-9119.109406365083,-60056.54454905326,-4252.88876925573
7918.686618648365,-9118.483557520338,-60048.05088616024,-4234.068600424362
8167.059203035737,-9137.750761240812,-60074.89533125107,-4000.202298188484
8403.227734950511,-9166.226883676873,-60115.955485815466,-3712.8259197266007
8183.957121843949,-9154.29105213774,-60121.833994607216,-3893.29390445875
7857.88987372993,-9118.371798798062,-60074.02361321731,-4248.9325104871405
7905.2085167418145,-9117.365970297573,-60061.05960143323,-4243.948071473607
8144.685106835975,-9141.99759268732,-60085.93709301199,-4022.50933915488
8392.14126970068,-9168.372651144582,-60125.94671558699,-3731.422571113416
8202.039683108293,-9151.944118969932,-60122.258677751866,-3883.883820043066
7874.69838556032,-9121.322229066162,-60072.03430796079,-4244.372754618258
7910.260010988714,-9113.052083617698,-60061.17136015551,-4256.710917557588
8149.803656316239,-9117.656542975492,-60081.19852318746,-4037.3956009621143
8401.238429693989,-9152.52526432577,-60123.21980276344,-3738.686888061391
8219.943430416994,-9153.24052014834,-60129.3441807442,-3872.350319904128
7876.978263494762,-9114.728464451846,-60075.81175277373,-4239.723591771554
7897.094833504539,-9114.907278407489,-60067.07222069171,-4262.567074604878
8132.503406107832,-9134.085075150142,-60088.26167443534,-4053.9805953479527
8408.614505364241,-9145.015078188788,-60109.7864043458,-3745.079486975609
8253.515750588866,-9122.976258155852,-60110.81458459075,-3853.306633628206
7913.478662190279,-9090.677987417936,-60061.10430492215,-4224.83732996432
7923.000505328239,-9095.237743286818,-60050.33076409469,-4261.114211215283
8148.149627226548,-9123.624458745058,-60076.035270218286,-4060.37319426217
8407.809842563849,-9150.893586980532,-60109.5405351568,-3751.449734145372
8273.051175242803,-9135.247365861818,-60111.86511658015,-3836.833397964645
7916.406740713924,-9097.85289738809,-60060.567863055214,-4216.0530943933845
7908.695388876843,-9096.578847954135,-60045.3239733367,-4269.630225852755
8128.971830483893,-9116.158976096984,-60071.54256958277,-4072.063156612296
8400.14319421568,-9144.47863632186,-60108.71352061195,-3756.0988969920754
8277.58857936723,-9137.124912396064,-60122.86217485216,-3824.361124558583
7917.61373491451,-9088.532219950226,-60063.63005204559,-4202.195012831094
7897.22894397127,-9073.735365120812,-60037.61262149962,-4265.2492839395145
8104.831946472163,-9113.7002842069,-60067.94393872547,-4081.80851719481
8377.94791197156,-9141.930537453954,-60107.90885781156,-3771.678062877425
8281.231913713445,-9131.648735004514,-60124.96323883096,-3815.331019798639
7911.467005189301,-9099.194002055408,-60080.01388073133,-4201.747977941987
7874.206647182304,-9098.165821810464,-60057.95270895395,-4282.951865548118
8083.620140984076,-9124.227955845352,-60073.867151006125,-4099.712264503511
8363.665147264617,-9146.04325843373,-60109.92051481253,-3785.93847583991
8279.890809046126,-9138.890700208032,-60130.05943656677,-3810.4583395073823
7913.411606956913,-9103.7984614132,-60087.12173546812,-4192.851983648776
7849.753838748198,-9096.981179354332,-60064.74763926836,-4291.825508096875
8049.667841156464,-9117.61183948658,-60086.60764534565,-4118.823006012798
8348.756533712929,-9131.022886159764,-60114.547325914784,-3798.388397501517
8289.658521373096,-9126.306668079696,-60134.619192435646,-3798.097824823597
7918.463101203812,-9092.823754885643,-60091.79325005928,-4180.536172453902
7857.576949307555,-9087.347577494094,-60065.28408113529,-4290.886734829752
8058.317966260668,-9114.124967351552,-60085.043023233775,-4125.774398538399
8351.662260492118,-9141.125874653564,-60116.24605849339,-3811.106540096586
8326.896527635638,-9131.04523790422,-60131.57935518973,-3783.70330139438
7956.930453411395,-9089.22512402834,-60094.16253497155,-4167.505105436457
7880.800411796619,-9085.626493171036,-60072.36958412762,-4290.909086574207
8074.2547600573025,-9120.8528424326,-60093.17905821551,-4129.596546840256
8357.317251839311,-9148.211377645895,-60124.87383185313,-3818.482615766837
8338.295917307845,-9140.38826708654,-60145.9962303634,-3777.5565716691694
7962.563093014132,-9091.03561532922,-60097.783517573305,-4159.324366965815
7872.820839026075,-9078.7421558788,-60065.954633468944,-4295.915877332196
8070.633777455542,-9108.492327748816,-60086.96527325694,-4135.9891457544745
8354.41152506012,-9145.417409588985,-60125.90201209808,-3827.847996693611
8345.22495808899,-9132.296935593717,-60156.27803281284,-3772.661539633458
7961.2666918357245,-9085.671196659949,-60115.12847127062,-4157.8268000873095
7848.837417225531,-9085.93941759341,-60079.07510746421,-4315.3171915194025
8043.431704453434,-9109.811080671678,-60094.09547973818,-4157.11154426474
8341.693382465051,-9127.312496580184,-60125.70084639798,-3842.4213340784713
8368.962510700525,-9130.508796037291,-60155.0486868678,-3762.089164506098
8000.449299865878,-9092.734347907824,-60111.70865436896,-4135.9891457544745
7873.89372275993,-9077.758679122768,-60076.79522952977,-4311.360932750814
8055.680460414942,-9093.114327563564,-60091.81560180373,-4167.438050203091
8344.710867966518,-9123.400941300504,-60121.09638704019,-3862.046165710231
8387.827383020805,-9133.347467583117,-60147.29263154181,-3760.166914482941
8018.934192530417,-9094.142507808509,-60110.92634331303,-4127.29431716136
7868.909283746396,-9080.932626835422,-60072.5260463388,-4320.413389255213
8032.881681070528,-9101.496231734303,-60086.29472092327,-4192.44965224858
8321.889736877649,-9125.256136090296,-60114.74849161488,-3887.773023578289
8382.082984695791,-9127.312496580184,-60143.38107626213,-3759.876341805022
8018.665971596954,-9091.9967403408,-60109.40642469006,-4114.307953632826
7855.878216728952,-9091.817926385156,-60070.179113171,-4319.496967732545
8011.178137204425,-9117.097749364108,-60085.31124416724,-4200.049245363384
8301.504945934408,-9131.782845471243,-60115.64256139309,-3903.776872608289
8393.057691223346,-9129.368857070072,-60144.65512569608,-3755.987138269799
8034.915689815962,-9101.742100923311,-60117.38599746061,-4105.7025320175335
7856.213492895782,-9085.13475479302,-60078.73983129738,-4333.064476616916
8011.379302904524,-9093.091975819108,-60088.060508735245,-4221.976306674041
8300.521469178375,-9118.774130198257,-60121.476366695926,-3929.235509542884
8395.114051713235,-9130.84407220412,-60151.31594554376,-3767.855914575567
8047.16444577747,-9096.623551443046,-60118.190660261,-4101.388645337659
7852.346641105014,-9070.717879619346,-60072.30252889425,-4334.919671406708
8001.522183599733,-9086.252342015783,-60079.79036328678,-4225.373771831247
8277.990910767427,-9121.433987788438,-60111.46278517995,-3940.545492237269
8390.241371421978,-9130.508796037291,-60143.29166928431,-3766.760679097257
8047.700887644397,-9100.736272422824,-60118.682398639015,-4095.308970845815
7836.096922886005,-9083.503077447782,-60078.181037686,-4350.342375080869
7984.065471180138,-9100.870382889556,-60088.99928200237,-4244.372754618258
8267.3514804067,-9134.129778639051,-60128.248945265885,-3957.9798529124087
8390.911923755637,-9155.699212038424,-60171.54427427582,-3771.923932066433
8051.657146412987,-9112.694455706413,-60139.98361110492,-4088.33522657576
7828.854957682486,-9087.481687960826,-60087.65817733505,-4351.929348937196
7964.775915715208,-9116.203679585897,-60101.04687226378,-4258.230836180548
8252.733439532929,-9110.70515044989,-60120.60464866217,-3975.928303710021
8398.645627337173,-9118.550612753705,-60147.31498328626,-3772.505077422271
8062.475390729355,-9101.98797011232,-60128.89714585509,-4083.686063729056
7816.539146487612,-9084.531257692726,-60083.07606972171,-4371.129497424305
7956.5281220112,-9099.305760777685,-60088.32872966871,-4277.274522456471
8243.904500473083,-9108.917010893469,-60115.28493348181,-3994.994341730397
8405.105281484757,-9122.462168033382,-60149.796026920805,-3774.360272212061
8073.986539123838,-9107.732368437337,-60139.447169238,-4073.80659267981
7811.934687129818,-9077.356347722573,-60088.59695060217,-4372.24708464707
7936.456255490334,-9088.822792628143,-60084.283063922296,-4292.160784263705
8216.81418619325,-9116.807176686189,-60106.67951186652,-4018.374266430648
8388.922618499115,-9138.33190659665,-60142.97874486193,-3783.055100805176
8073.986539123838,-9111.599220228103,-60124.47150045294,-4065.3352815312487
7793.852125865475,-9081.80434486918,-60075.58823532918,-4382.841811518885
7914.439787201856,-9097.85289738809,-60083.18782844399,-4311.47269147309
8194.842421393683,-9132.699266993914,-60115.93313407101,-4039.7201823854666
8379.020795705414,-9155.565101571692,-60153.61817522266,-3791.682874164924
8076.489934502832,-9132.81102571619,-60139.31305877127,-4056.6404529381343
7784.06206179405,-9108.380569026538,-60083.32193891072,-4383.15473594126
7885.851906043519,-9112.068606861663,-60086.451183134464,-4327.364781780813
8168.400307703056,-9119.824662187655,-60115.48609918191,-4058.160371561095
8378.193781160568,-9133.570985027667,-60146.10798908568,-3792.219316031852
8109.883440719062,-9113.52147025126,-60133.12162555714,-4026.5997083902016
7808.224297550238,-9092.734347907824,-60085.043023233775,-4367.217942144625
7897.161888737904,-9090.298007762196,-60072.21312191643,-4324.660220701721
8165.606339646142,-9119.779958698746,-60100.01869201884,-4075.3041595583154
8383.625255063207,-9157.107371939108,-60140.65416343858,-3803.909278381977
8132.5481095967425,-9135.582642028648,-60135.37915174713,-4017.815472819266
7822.149434345893,-9081.156144279974,-60078.67277606401,-4364.535732809989
7897.675978860377,-9092.667292674458,-60071.74373528287,-4336.528997007489
8150.720077838908,-9125.054970390198,-60100.66689260804,-4099.1311191476725
8378.1267259272,-9150.357145113603,-60137.18964304801,-3817.94617389991
8148.529606882287,-9124.339714567628,-60133.635715679615,-4003.800929045788
7826.373914047946,-9090.588580440117,-60080.03623247579,-4355.840904216874
7888.444708400334,-9094.455432230883,-60068.614491059125,-4338.76417145302
8136.347906154145,-9123.400941300504,-60096.46476465044,-4106.551898306835
8378.305539882844,-9143.025772932264,-60130.26060226686,-3816.0239238767535
8164.667566379019,-9123.915031422976,-60133.09927381269,-3986.657141048568
7831.626573994944,-9097.897600877,-60089.84864829167,-4350.677651247698
7884.331987420558,-9098.210525299372,-60072.928377739,-4347.257834346036
8132.816330530207,-9122.998609900307,-60096.0847849947,-4116.654886800634
8379.579589316796,-9149.708944524402,-60130.52882320033,-3818.124987855552
8180.693767153474,-9136.923746695966,-60132.65223892358,-3969.6027600291686
7837.594489764511,-9101.764452667769,-60081.1314679541,-4342.139284865772
7876.263007672192,-9079.70328089038,-60064.47941833489,-4351.370555325813
8118.421807100989,-9092.220257785351,-60086.78645930129,-4126.489654360968
8374.572798558807,-9126.507833779791,-60125.879660353625,-3829.1220461275634
8212.813223935751,-9121.61280174408,-60132.27225926784,-3954.4482772884703
7856.593472551522,-9087.70520540538,-60085.31124416724,-4335.701982462643
7869.713946546787,-9085.85001061559,-60074.8282760177,-4363.865180476329
8115.046693688238,-9102.859688146078,-60101.09157575269,-4146.874445304209
8368.98486244498,-9131.939307682433,-60135.46855872495,-3841.3484503446166
8209.058130867259,-9123.84797618961,-60140.87768088313,-3946.6698702180233
7843.852978211997,-9085.246513515296,-60089.35690991365,-4332.013944627517
7856.258196384692,-9079.099783790089,-60068.77095327032,-4366.368575855324
8093.432556799956,-9103.9996271133,-60091.45797389245,-4154.429334930102
8364.581568787286,-9131.782845471243,-60126.729026642926,-3843.874197468066
8225.643125253097,-9134.085075150142,-60140.7435704164,-3928.7661229093214
7849.105638158994,-9092.332016507627,-60092.15087797057,-4323.90026139024
7840.366106076969,-9081.871400102544,-60075.431773118,-4380.62898881781
8073.159524578992,-9116.494252263816,-60097.068261750734,-4174.098870050772
8347.549539512342,-9144.299822366218,-60136.787311647815,-3859.6321773090576
8232.974497434438,-9127.088979135631,-60155.38396303463,-3917.053808814741
7854.26889112817,-9092.399071740994,-60105.94190429949,-4311.919726362196
7834.018210651662,-9079.524466934738,-60078.87394176411,-4385.367558642335
8068.286844287735,-9105.117214336064,-60102.99147403139,-4185.051224833873
8352.399868059143,-9126.686647735434,-60132.49577671239,-3861.800296521223
8255.259186656378,-9118.796481942712,-60143.42577975104,-3900.647628384546
7867.277606401159,-9091.70616766288,-60105.56192464375,-4301.302647745925
7823.088207613016,-9090.23095252883,-60085.06537497824,-4390.82138428943
8039.721314873853,-9115.08609236313,-60103.55026764277,-4201.680922708621
8338.430027774577,-9132.833377460644,-60136.31792501425,-3878.631160096069
8264.87043677216,-9129.301801836706,-60153.59582347821,-3889.739977090356
7880.0851559740495,-9098.791670655211,-60106.92538105552,-4283.376548692769
7818.819024422053,-9088.666330416958,-60080.97500574291,-4391.357826156357
8028.478387412833,-9102.457356745885,-60096.84474430618,-4216.298963582392
8324.996629356936,-9126.932516924444,-60125.52203244234,-3892.310427702717
8283.288274203334,-9125.367894812573,-60141.16825356105,-3872.551485604225
7902.056920773616,-9088.196943783396,-60095.548343127775,-4260.577769348356
7823.132911101928,-9079.36800472355,-60071.18494167149,-4383.311198152447
8024.0750937551375,-9097.338807265616,-60093.648444849074,-4216.567184515856
8318.02288508688,-9124.27265933426,-60127.53368944332,-3899.530041161781
8302.130794779157,-9120.003476143298,-60149.170178076056,-3860.6156540650913
7921.61469717201,-9085.291217004207,-60106.232476977406,-4248.619586064767
7831.157187361382,-9081.379661724528,-60074.761220784334,-4388.96618949964
8030.266526969258,-9098.054063088186,-60095.21306696094,-4227.40778057668
8320.056893832314,-9124.362066312084,-60133.43454997952,-3916.316201247717
8321.442701988542,-9128.161862869483,-60160.63662298163,-3859.453363353415
7950.694316708365,-9092.153202551986,-60114.92730557053,-4238.740115015521
7846.714001502276,-9074.338862221106,-60077.644595819074,-4389.01089298855
8043.632870153531,-9093.762528152767,-60096.71063383945,-4235.052077180395
8330.98689687096,-9125.23378434584,-60131.534651700815,-3926.620355441613
8343.593280743753,-9121.27752557725,-60148.14199783111,-3847.04814518072
7961.490209280278,-9084.88888560401,-60106.85832582216,-4222.6915624966105
7832.811216451075,-9075.255283743774,-60077.06345046323,-4391.514288367544
8011.669875582443,-9096.55649620968,-60096.10713673916,-4247.144370930716
8295.984065053948,-9125.658467490492,-60128.78538713281,-3944.367640539127
8336.619536473696,-9127.67012449147,-60149.57250947625,-3841.884892211544
7961.020822646717,-9096.51179272077,-60112.73683461391,-4208.49820476749
7814.773358675642,-9078.205714011874,-60075.94586324047,-4396.565782614444
7996.1354131860035,-9076.864609344557,-60082.29375866578,-4251.681775055144
8289.904390562104,-9098.143470066008,-60109.42877643452,-3946.178131840007
8346.923690667592,-9111.308647550184,-60135.98264884742,-3829.613784505581
7982.322035112624,-9077.915141333957,-60099.392843174086,-4193.209611560061
7834.509949029679,-9059.966690536345,-60059.56203455473,-4392.475413379123
8007.53480285821,-9085.22416177084,-60081.04206097628,-4262.0753362268615
8300.16384126709,-9115.913106907978,-60111.529840413314,-3961.712594236445
8380.004272461447,-9126.798406457712,-60140.81062564977,-3821.723618712857
8020.096483242093,-9080.351481479584,-60106.92538105552,-4168.242713003482
7839.829664210041,-9068.527408662729,-60068.94976722596,-4385.00993073105
7993.341445129091,-9087.593446683102,-60084.9312645115,-4262.008280993496
8286.529277149353,-9093.85193513059,-60107.73004385592,-3961.5337802808026
8376.472696837509,-9095.193039797909,-60132.29461101229,-3805.0268656047424
8020.409407664467,-9069.577940652123,-60106.880677566616,-4144.840436558776
7816.852070909986,-9053.931719533412,-60072.88367425009,-4383.15473594126
7972.420212318923,-9070.360251708062,-60082.65138657706,-4267.171533962672
8260.668308814564,-9097.674083432446,-60114.70378812597,-3972.240265874895
8371.488257823976,-9097.763490410269,-60144.34220127371,-3800.176537057941
8027.204337978881,-9066.113420261552,-60113.20622124746,-4127.942517750564
7815.600373220489,-9046.846216541078,-60071.74373528287,-4378.840849261385
7959.299738323658,-9058.64793761348,-60082.87490402161,-4277.945074790129
8244.642108040109,-9084.307740248172,-60113.83207009221,-3990.5016410948806
8377.724394527006,-9094.298970019696,-60142.5987652062,-3797.091996323109
8047.544425433211,-9062.358327193062,-60116.84955559368,-4111.737503020466
7826.932707659329,-9042.331164161107,-60070.67085154902,-4376.67273004922
7963.032479647694,-9054.17758872242,-60075.76704928483,-4284.874115571274
8248.218387152958,-9080.17266752394,-60108.51235491185,-4000.9175540110537
8397.729205814507,-9104.13373758003,-60148.879605398135,-3794.141566055008
8082.234332827847,-9070.293196474697,-60125.7902533758,-4092.4032440666256
7853.531283561145,-9041.258280427252,-60076.2811394073,-4364.62513978781
7971.257921607247,-9052.992946266288,-60080.68443306499,-4281.476650414068
8241.15523590508,-9086.162935037964,-60111.17221250203,-4011.959315771975
8404.56883961783,-9106.324208536653,-60142.12937857263,-3789.805327630678
8097.2100016129025,-9080.440888457404,-60123.66683765255,-4074.5889037357456
7847.831588725042,-9055.496341645285,-60078.35985164164,-4367.352052611358
7964.552398270655,-9060.12315274753,-60080.84089527618,-4297.145223277238
8234.96380269096,-9081.84904835809,-60104.7349100989,-4034.8475020942096
8408.838022808794,-9118.32709530915,-60141.72704717244,-3801.6964556809016
8112.856222731617,-9101.98797011232,-60128.740683643904,-4065.938778631542
7845.663469512877,-9064.213521982852,-60077.3316713967,-4371.91180848024
7953.95767139884,-9059.31848994714,-60076.43760161848,-4312.1432438067495
8223.25148859638,-9075.121173277044,-60100.89041005259,-4053.7570779034
8421.37735144822,-9089.247475772796,-60127.42193072104,-3799.304819024184
8152.307051695235,-9066.69456561739,-60114.45791893696,-4038.5355399293353
7868.015213968184,-9051.294213687685,-60075.00708997335,-4353.561026282433
7952.817732431618,-9066.135772006008,-60079.47743886441,-4307.337618748858
8211.96385764645,-9078.809211112168,-60104.24317172089,-4054.762906403888
8420.48328167001,-9095.03657758672,-60140.0953698272,-3789.6041619305806
8166.90274082455,-9077.669272144947,-60131.42289297854,-4009.8135483042656
7869.959815735796,-9051.31656543214,-60088.552247113264,-4336.104313862838
7944.569938727611,-9047.159140963451,-60084.32776741121,-4301.324999490381
8200.095081340682,-9066.493399917294,-60100.66689260804,-4054.382926748148
8413.71070310005,-9090.387414740017,-60132.36166624566,-3781.065795548653
8179.084441552693,-9075.858780844066,-60126.77373013184,-3980.935094468009
7866.942330234329,-9040.140693204488,-60080.84089527618,-4315.093674074849
7928.0967030640495,-9039.514844359735,-60077.77870628581,-4295.13356627626
8178.056261307748,-9066.381641195016,-60102.92441879802,-4056.483990726947
8410.201479220566,-9087.839315872112,-60136.38498024762,-3771.611007644058
8182.772479387818,-9066.135772006008,-60131.26643076736,-3962.606664014657
7865.042431955628,-9028.74130353228,-60079.2315696754,-4313.193775796149
7916.049112802639,-9044.991021751288,-60076.2811394073,-4304.498947203034
8164.309938467734,-9070.717879619346,-60096.934151284,-4069.202133322017
8403.205383206056,-9098.523449721748,-60131.534651700815,-3779.098842036586
8189.880334124606,-9080.932626835422,-60130.66293366706,-3949.329727808205
7861.689670287332,-9028.942469232376,-60076.81758127423,-4308.723426905087
7909.2541824882255,-9031.535271589191,-60071.58727307168,-4310.220993783592
8154.51987439631,-9051.227158454318,-60096.39770941708,-4085.608313752212
8396.231638936,-9081.893751847,-60134.03804707981,-3791.772281142745
8196.921133628028,-9069.55558890767,-60132.71929415695,-3941.216044570928
7853.039545183128,-9043.918138017432,-60089.7815930583,-4312.679685673676
7887.75180432222,-9049.64018459799,-60079.79036328678,-4324.995496868551
8136.683182320975,-9071.567245908647,-60100.286912952295,-4096.7171307465
8398.913848270637,-9091.907333362977,-60132.49577671239,-3789.782975886223
8228.548852032287,-9071.74605986429,-60138.41898899305,-3914.840986113666
7874.69838556032,-9038.754885048256,-60086.13825871209,-4291.579638907867
7896.156060237416,-9039.06780947063,-60073.35306088365,-4315.585412452867
8138.024286988293,-9065.755792350268,-60099.0352152628,-4097.767662735899
8398.220944192522,-9087.012301327266,-60134.57448894674,-3786.564324684659
8244.753866762385,-9065.576978394623,-60140.00596284938,-3890.634046868569
7887.215362455293,-9030.708257044347,-60091.74854657037,-4273.385318921247
7895.194935225837,-9032.07171345612,-60075.543531840274,-4310.265697272504
8122.489824591855,-9053.484684644303,-60095.0342530053,-4102.975619193986
8380.317196883821,-9076.574036666636,-60131.71346565646,-3797.047292834198
8240.909366716072,-9073.534199420716,-60144.72218092945,-3879.972264763387
7876.687690816843,-9048.768466564235,-60095.41423266104,-4257.26971116897
7872.753783792709,-9027.623716309514,-60069.396802115065,-4304.297781502936
8095.667731245486,-9037.21261468084,-60089.80394480276,-4108.161223907617
8362.994594930959,-9067.11924876204,-60126.192584776,-3803.864574893066
8253.851026755694,-9055.250472456271,-60131.8922796121,-3863.7672500332897
7893.8761823029745,-9025.16502441943,-60077.1305056966,-4246.518522085968
7873.536094848645,-9024.382713363497,-60056.14221765307,-4318.267621787503
8089.878629431561,-9045.84038804059,-60078.56101734174,-4133.083418975284
8372.874065980204,-9061.240739970295,-60118.52593642783,-3821.0307146347423
8292.184268496547,-9054.60227186707,-60131.93698310101,-3852.4125638499936
7927.135578052471,-9017.386617348984,-60083.99249124438,-4237.1307894147385
7884.153173464915,-9019.55473656115,-60070.24616840437,-4329.66701145971
8092.560838766199,-9044.231062439809,-60089.96040701395,-4152.104753506751
8371.018871190414,-9073.109516276065,-60128.83009062173,-3839.292089854728
8300.11913777818,-9063.565321393648,-60144.61042220717,-3854.401869106516
7932.745865910753,-9022.505166829247,-60093.42492740452,-4238.471894082057
7877.961740250796,-9015.73258825929,-60068.86036024814,-4340.798180198452
8076.154658336003,-9034.373943135017,-60086.65234883456,-4174.881181106708
8357.071382650302,-9064.66055687196,-60118.95061957248,-3864.5272093447697
8313.954867596016,-9059.74317309179,-60138.75426515988,-3849.775058004267
7941.843025904063,-9019.800605750155,-60094.20723846045,-4227.765408487965
7866.070612200572,-9012.536288802185,-60066.89340673607,-4345.581453511889
8066.252835542302,-9039.60425133756,-60084.64069183359,-4178.837439875298
8358.79246697336,-9056.74803933478,-60112.245096235885,-3859.855694753611
8332.976202127482,-9051.517731132237,-60139.17894830453,-3829.837301950133
7960.014994146228,-9009.407044578438,-60090.96623551443,-4211.381579802225
7879.347548407024,-8995.750128716247,-60055.91870020852,-4338.2053778416375
8085.274170073769,-9019.241812138776,-60068.34627012567,-4166.6333874027005
8375.735089270484,-9051.160103220953,-60096.88944779509,-3850.020927193276
8351.058763391824,-9060.927815547922,-60113.83207009221,-3805.8985836385
7965.893502937974,-9016.000809192754,-60068.45802884794,-4189.566277213845
7879.1463827069265,-8990.810393191623,-60027.08494986117,-4328.370610281302
8072.734841434341,-9016.179623148397,-60046.955650681935,-4167.706271136555
8370.840057234771,-9052.79178056619,-60084.148953455566,-3852.9937092058312
8376.115068926223,-9057.373888179529,-60108.78057584532,-3786.407862473472
7985.630093292009,-9024.78504476369,-60072.30252889425,-4171.439012460592
7868.328138390558,-9012.64804752446,-60039.6242785006,-4337.847749930353
8062.274225029258,-9030.820015766623,-60056.45514207544,-4182.883105621709
8352.064591892313,-9052.612966610548,-60090.07216573622,-3868.8634477690994
8368.291958366866,-9055.339879434096,-60124.40444521957,-3785.3126269951617
7981.986758945794,-9028.048399454165,-60092.97789251541,-4167.7509746254655
7847.049277669106,-9017.721893515813,-60058.26563337632,-4352.868122204319
8032.144073503504,-9034.172777434918,-60073.48717135038,-4208.140576856205
8323.811986900806,-9064.727612105324,-60106.3889391886,-3899.574744650691
8370.393022345665,-9072.327205220128,-60131.73581740091,-3787.1901735294073
7985.719500269831,-9051.74124857679,-60098.74464258488,-4162.498314678468
7827.715018715266,-9044.991021751288,-60064.63588054608,-4366.05565143295
8009.032369736716,-9043.716972317336,-60071.0284794603,-4226.6478212652
8310.73621639445,-9065.97930979482,-60098.25290420686,-3915.310372747228
8377.567932315818,-9079.680929145925,-60131.35583774518,-3787.659560162969
8006.73014005782,-9054.423457911427,-60098.74464258488,-4149.355488938748
7845.819931724064,-9040.766542049234,-60055.58342404168,-4355.885607705785
8014.933230272917,-9045.92979501841,-60063.20536890094,-4226.424303820647
8298.375701710665,-9053.685850344402,-60088.30637792425,-3932.387105511082
8386.508630097942,-9062.380678937518,-60115.64256139309,-3787.9277810964327
8037.240271239313,-9033.41281812344,-60087.52406686832,-4127.450779372547
7852.011364938184,-9019.420626094416,-60049.10141814964,-4352.532846037489
8011.602820349076,-9037.50318735876,-60056.58925254217,-4232.749847501498
8298.97919881096,-9068.058022029163,-60089.1333924691,-3937.4162480135274
8402.445423894576,-9076.88696108901,-60118.972971316936,-3771.4768971773274
8056.082791815137,-9042.688792072391,-60090.92153202552,-4101.343941848748
7856.5040655737,-9021.722855773312,-60053.19178738497,-4338.965337153118
8001.052796966172,-9038.240794925783,-60067.96629046992,-4235.521463813957
8281.500134646909,-9060.190207980895,-60095.682453594505,-3953.218931343428
8402.221906450022,-9072.88599883151,-60123.510375441365,-3771.543952410692
8066.632815198042,-9042.755847305758,-60099.61636061864,-4087.5976190087354
7853.754801005698,-9023.890974985476,-60053.21413912942,-4340.284090075981
7989.608703805055,-9032.429341367406,-60064.50177007936,-4247.971385475563
8263.864608271671,-9046.399181651972,-60100.04104376329,-3976.956483954965
8408.14511873068,-9053.641146855492,-60135.669724425046,-3778.405937958472
8094.259571344802,-9021.946373217866,-60112.20039274698,-4079.685101471556
7867.545827334622,-9009.250582367253,-60065.88757823558,-4351.14703788126
7995.040177707694,-9035.31271640214,-60071.36375562713,-4265.361042661792
8273.341747920722,-9049.729591575811,-60099.77282282983,-3989.8981439945874
8427.814653851348,-9058.759696335756,-60135.446206980494,-3777.713033880357
8111.582173297665,-9020.87348948401,-60109.47347992343,-4070.632644967157
7865.377708122458,-8985.065994866609,-60056.0751624197,-4359.774811241008
7975.795325731675,-8998.946428173354,-60062.69127877847,-4286.326978960869
8254.2980616448,-9028.853062254557,-60088.84281979118,-4013.5015861393913
8431.703857386572,-9048.07556248612,-60123.82329986374,-3783.1221560385416
8129.620031073097,-9017.967762704822,-60111.976875302425,-4061.714298929489
7862.851960999008,-8984.820125677601,-60058.93618570998,-4365.429802588201
7979.192790888881,-8995.526611271693,-60058.7797234988,-4292.786633108453
8255.482704100932,-9018.83948073858,-60086.89821802357,-4021.905842054587
8444.556110448375,-9038.777236792712,-60122.77276787434,-3776.751908868779
8147.233205703879,-9017.565431304623,-60115.66491313755,-4041.776542875355
7864.416583110879,-8988.329349557085,-60064.702935779445,-4358.523113551511
7967.189904116381,-8999.907553184934,-60065.17232241301,-4298.709845389109
8243.189244650514,-9031.289402400183,-60091.52502912582,-4032.947603815509
8441.33745924681,-9054.848141056078,-60128.80773887727,-3776.729557124324
8161.09128726617,-9040.095989715575,-60120.06820679525,-4022.1070077546847
7863.120181932471,-9011.776329490702,-60075.2306074179,-4357.517285051023
7968.396898316968,-8992.330311814585,-60071.74373528287,-4308.499909460534
8246.474951085444,-9019.934716216889,-60101.18098273051,-4047.587996433735
8461.141104834212,-9050.757771820758,-60142.08467508372,-3781.334016482117
8189.410947491044,-9026.55083257566,-60134.73095115792,-4015.423836162548
7878.788754795642,-8986.384747789472,-60078.203389430455,-4354.678613505199
7975.258883864747,-8983.546076243649,-60065.64170904657,-4308.790482138453
8234.852043968684,-9010.479928312294,-60093.24611344888,-4057.2663017828822
8454.524988475441,-9031.535271589191,-60127.77955863233,-3784.977350828332
8209.952200645472,-9009.11647190052,-60117.74362537189,-3993.854402763177
7894.189106725348,-8977.846381407546,-60061.46193283343,-4343.748610466553
7971.4814390518,-8975.365337773006,-60049.36963908311,-4312.724389162587
8225.576070019732,-9006.009579421232,-60079.65625282005,-4074.8794764136646
8453.653270441684,-9031.825844267112,-60117.40834920506,-3795.817946889156
8228.235927609912,-9012.625695780003,-60118.28006723882,-3978.766975255845
7902.928638807373,-8976.72879418478,-60063.18301715649,-4334.539691750967
7957.690412722875,-8980.617997720003,-60050.39781932805,-4321.352162522336
8202.240848808391,-8996.241867094262,-60074.53770333978,-4088.670502742589
8440.935127846615,-9024.382713363497,-60114.346160214685,-3801.852917892089
8239.165930648558,-9011.105777157043,-60117.207183504965,-3963.1207541371296
7906.66138013141,-8949.727886882769,-60061.17136015551,-4325.643697457755
7952.705973709342,-8949.325555482574,-60052.00714492884,-4327.968278881107
8207.761729688851,-8980.595645975549,-60071.45316260495,-4099.958133692519
8459.710593189073,-9010.479928312294,-60108.15472700057,-3802.076435336642
8268.87139902966,-9004.690826498369,-60123.510375441365,-3942.355983538149
7926.174453040893,-8971.565541215605,-60077.286967907785,-4315.47365373059
7948.615604474021,-8969.084497581065,-60062.73598226738,-4337.534825507978
8196.675264439018,-8990.497468769248,-60085.08772672269,-4117.280735645382
8449.205273295078,-9028.316620387628,-60122.34808472969,-3815.062798865176
8283.914123048082,-9018.459501082838,-60131.73581740091,-3926.665058930524
7931.538871710167,-8964.547093456638,-60075.8788080071,-4300.050950056428
7943.899386393951,-8954.757029385213,-60056.052810675246,-4335.0984853623495
8176.961025829438,-8976.952311629333,-60073.57657832821,-4128.0095729839295
8446.076029071335,-9003.126204386497,-60103.25969496485,-3814.973391887354
8310.467995460987,-8995.526611271693,-60112.31215146925,-3901.742863862856
7948.14621784046,-8968.369241758495,-60063.07125843421,-4286.37168244978
7947.1180375955155,-8962.15545679992,-60044.20638611393,-4336.819569685408
8181.699595653963,-8983.456669265828,-60067.38514511409,-4132.122293963706
8463.44333451311,-8988.999901890744,-60097.18002047301,-3815.934516898933
8343.235652832467,-8973.48779123876,-60105.114889754645,-3882.140383975552
7970.453258806856,-8949.951404327323,-60061.841912489166,-4270.770164819975
7958.76329645673,-8959.562654443103,-60050.68839200597,-4334.606746984333
8191.891991125583,-8978.852209908035,-60073.7330405394,-4132.636384086178
8465.186770580623,-9000.39929156295,-60106.54540139978,-3820.13664485653
8361.765248985917,-8991.793869947656,-60119.77763411732,-3872.171505948485
7989.765166016241,-8957.171017786386,-60074.60475857315,-4262.790592049431
7953.130656853993,-8960.948462599334,-60051.60481352864,-4346.520226779011
8178.57035143022,-8985.580084989082,-60069.91089223754,-4150.920111050619
8454.43558149762,-9006.993056177265,-60102.96912228694,-3832.363049073583
8352.198702359045,-9001.136899129975,-60125.09734929769,-3868.461116368904
7954.04707837666,-8965.39645974594,-60080.50561910935,-4270.725461331065
7901.520478906689,-8963.697727167337,-60055.494017063866,-4367.128535166805
8132.726923552385,-8983.523724499193,-60076.43760161848,-4169.472058948524
8427.099398028779,-9001.427471807894,-60109.49583166788,-3845.371764346572
8351.706963981029,-8998.611152006526,-60129.41123597756,-3862.828476766167
7961.28904358018,-8953.527683440172,-60078.15868594154,-4266.232760695549
7906.437862686856,-8946.173959514375,-60046.64272625956,-4371.15184916876
8136.549071854243,-8974.895951139444,-60065.03821194628,-4178.300998008371
8426.115921272745,-8999.907553184934,-60095.257770449854,-3861.040337209742
8377.545580571363,-8993.090271126064,-60112.31215146925,-3848.121028914575
7983.640788035487,-8956.053430563621,-60070.5814445712,-4243.724554029054
7906.057883031116,-8933.187595985843,-60040.0713133897,-4366.994424700073
8117.572440811688,-8949.325555482574,-60060.00906944383,-4192.337893526304
8406.222868707522,-8975.097116839543,-60093.5366861268,-3877.6700350844894
8382.37355737371,-8979.522762241693,-60115.06141603726,-3840.968470688876
7998.080014953615,-8937.881462321457,-60069.73207828189,-4229.93352770013
7904.56031615261,-8927.376142427462,-60043.24526110236,-4372.649416047266
8102.775585982274,-8953.728849140269,-60066.871054991614,-4212.610925747267
8389.794336532872,-8977.131125584976,-60093.04494774878,-3897.3395702051607
8396.18693544709,-8973.644253449947,-60114.547325914784,-3829.099694383108
8017.68249484092,-8937.277965221163,-60072.950729483455,-4205.860698921764
7899.195897483337,-8933.791093086134,-60052.4765315624,-4369.475468334612
8086.369405552078,-8952.700668895324,-60075.27531090681,-4221.305754340381
8376.51740032642,-8972.30314878263,-60103.50556415386,-3915.10920704713
8403.406548906154,-8974.20304706133,-60133.47925346843,-3824.450531536405
8026.980820534328,-8934.931032053355,-60096.80004081727,-4192.539059226401
7896.826612571074,-8920.58121211305,-60061.3278223667,-4365.183933399193
8076.780507180752,-8935.534529153649,-60074.60475857315,-4218.7576554724765
8363.151057142146,-8967.63163419147,-60106.27718046632,-3911.644686656557
8408.011008263948,-8976.549980229138,-60124.9408870865,-3802.121138825552
8041.732971874831,-8937.322668710074,-60083.07606972171,-4158.899683821164
7891.283379946159,-8917.38491265594,-60045.92747043699,-4350.923520436707
8062.900073874006,-8929.499558150716,-60056.67865952,-4218.489434539012
8347.303670323334,-8964.860017879011,-60089.7815930583,-3920.8983088610544
8409.530926886908,-8973.085459838565,-60116.93896257151,-3798.4778044793375
8050.517207445766,-8941.904776323412,-60089.55807561375,-4151.009518028441
7883.862600786996,-8920.469453390771,-60052.9235664515,-4359.484238563089
8048.25968125578,-8938.261441977196,-60064.63588054608,-4231.989888190018
8339.145283597147,-8964.860017879011,-60092.15087797057,-3928.900233376054
8417.130520001712,-8972.750183671735,-60119.6882271395,-3785.692606650902
8068.510361732288,-8924.58217437055,-60084.75245055586,-4129.10480846224
7874.720737304776,-8906.410206128385,-60048.006182671335,-4360.24419787457
8033.01579153726,-8923.978677270256,-60050.91190945052,-4246.183245919138
8329.444626503542,-8952.588910173048,-60073.3307091392,-3950.357908053149
8437.939994089604,-8968.39159350295,-60107.01478803335,-3788.419519474449
8084.760079951297,-8927.174976727365,-60083.79132554428,-4129.618898584712
7884.734318820753,-8913.227488187253,-60043.960516924926,-4374.996349215073
8043.92344283145,-8922.078778991554,-60051.49305480637,-4263.304682171904
8336.50777775142,-8952.72302063978,-60082.49492436587,-3969.870980962632
8458.10126758829,-8976.39351801795,-60114.27910498132,-3788.687740407913
8115.717246021896,-8936.853282076512,-60082.91960751052,-4114.57617456629
7896.379577681969,-8910.567630597072,-60036.98677265487,-4374.929293981707
8041.442399196911,-8927.376142427462,-60047.93912743797,-4269.719632830576
8322.64969618913,-8946.53158742566,-60073.88950275058,-3980.421004345537
8451.663965185162,-8959.29443350964,-60108.60176188967,-3784.731481639324
8108.408225585012,-8930.751255840214,-60089.84864829167,-4102.439177327058
7883.348510664525,-8909.181822440842,-60036.09270287665,-4370.77186951302
8036.882643328028,-8923.33047668105,-60039.49016803386,-4264.914007772685
8323.02967584487,-8928.985468028244,-60071.6319765606,-3973.447260075481
8455.95550012058,-8931.24299421823,-60104.936075799,-3768.034728531209
8115.538432066254,-8905.38202588344,-60083.81367728874,-4076.935836903553
7867.054088956605,-8875.52009529115,-60037.43380754397,-4366.480334577601
7995.509564341255,-8891.948627465801,-60049.257880360834,-4282.951865548118
8275.152239221601,-8934.48399716425,-60088.552247113264,-4007.623077347646
8442.276232513932,-8953.639442162448,-60122.035160307314,-3783.524487438737
8135.632650331575,-8906.656075317393,-60096.21889546143,-4065.5364472313454
7876.665339072388,-8878.76109823717,-60051.80597922874,-4364.669843276721
7991.977988717317,-8897.693025790813,-60053.19178738497,-4293.390130208746
8260.578901836741,-8919.105996978999,-60072.57074982772,-4031.762961359377
8435.682467899618,-8933.34405819703,-60106.21012523295,-3797.382569001028
8140.3712201561,-8915.462662632783,-60094.81073556075,-4057.7580401608993
7862.919016232374,-8889.087604175522,-60043.82640645819,-4367.597921800366
7969.112154139538,-8898.587095569026,-60044.25108960284,-4307.449377471135
8238.651840526085,-8924.626877859459,-60074.157723684046,-4050.873702868665
8437.00122082248,-8951.851302606023,-60110.41225319055,-3800.623571947047
8165.874560579606,-8945.324593225074,-60101.40450017506,-4042.6929643980234
7879.973397251773,-8910.47822361925,-60052.2753658623,-4366.234465388592
7977.024671676716,-8887.858258230479,-60046.88859544857,-4321.016886355506
8245.849102240694,-8917.496671378216,-60073.1295434391,-4068.263360054894
8460.135276333724,-8942.15064551242,-60105.5842763882,-3803.216374303863
8201.48088949691,-8916.692008577826,-60088.10521222415,-4025.280955467338
7898.9276765498735,-8880.638644771416,-60036.58444125467,-4362.993462442572
7979.595122289076,-8886.517153563162,-60035.0198191428,-4329.957584137629
8230.046418910792,-8911.126424208454,-60061.41722934452,-4089.050482398329
8446.500712215986,-8935.981564042755,-60101.35979668615,-3817.879118666544
8208.85696516716,-8916.848470789013,-60093.89431403808,-4015.580298373735
7892.356263680013,-8885.824249485046,-60044.854586703135,-4363.48520082059
7958.092744123071,-8890.674578031847,-60037.724380221895,-4347.883683190785
8218.937601916505,-8917.317857422573,-60068.0780491922,-4110.083473930773
8456.134314076224,-8939.714305366791,-60106.54540139978,-3826.6410024930246
8236.349610847188,-8914.568592854572,-60101.58331413071,-4008.539498870313
7908.5165749212,-8883.969054695255,-60053.41530482952,-4369.229599145603
7962.71955522532,-8890.85339198749,-60042.84292970216,-4362.479372320101
8216.881241426616,-8915.775587055157,-60066.49107533587,-4127.115503205718
8464.046831613401,-8930.728904095758,-60098.14114548459,-3834.5535200302033
8262.009413481881,-8902.744520037713,-60101.963293786444,-3997.6989028094895
7920.944144838351,-8872.882589445424,-60050.1743018835,-4368.179067156204
7957.913930167429,-8878.023490670144,-60038.10435987763,-4375.577494570911
8205.772424432329,-8900.777566525647,-60062.15483691154,-4146.092134248273
8464.695032202606,-8924.626877859459,-60102.387976931095,-3839.828531721656
8277.499172389409,-8911.551107353105,-60108.60176188967,-3981.292722379294
7929.929546109384,-8879.297540104097,-60056.65630777554,-4355.885607705785
7965.4911715377775,-8894.742595522714,-60045.16751112551,-4372.269436391525
8216.3895030486,-8907.997179984712,-60070.22381665991,-4147.38853542668
8469.746526449506,-8915.462662632783,-60110.367549701645,-3844.030659679253
8292.273675474367,-8901.179897925842,-60114.70378812597,-3968.351062339671
7928.476682719789,-8871.04974640009,-60064.05473519024,-4349.694174491665
7945.553415483644,-8876.034185413622,-60048.31910709371,-4375.398680615268
8194.641255693587,-8902.677464804348,-60073.93420623949,-4149.310785449838
8458.078915843835,-8933.992258786233,-60105.89720081058,-3841.013174177787
8300.901448834116,-8921.832909802546,-60109.67464562353,-3948.010974885342
7938.490264235767,-8861.617310239948,-60053.5717670407,-4336.327831307392
7949.688488207876,-8858.622176482937,-60037.5232145218,-4378.706738794654
8199.603342962664,-8884.729014006736,-60059.472627576906,-4164.219399001527
8474.574503251852,-8909.025360229654,-60097.627055362114,-3854.1559999175074
8339.905242908626,-8898.207115913287,-60106.29953221077,-3935.4045910125487
7968.709822739342,-8855.314118303551,-60055.71753450842,-4323.028543356484
7961.2666918357245,-8850.866121156945,-60036.87501393259,-4382.506535352056
8195.222401049425,-8869.887455688413,-60054.55524379674,-4179.597399186779
8473.3004538179,-8890.831040243034,-60084.70774706695,-3864.594264578136
8357.518417539408,-8895.793127512114,-60100.286912952295,-3922.529986206292
7974.521276297722,-8864.500685274683,-60055.24814787485,-4310.533918205967
7950.202578330348,-8852.9895368802,-60030.28124931828,-4382.618294074332
8180.269084008823,-8870.535656277616,-60048.34145883816,-4192.159079570661
8457.140142576713,-8905.650246816904,-60088.26167443534,-3884.867296799099
8360.89353095216,-8902.18572642633,-60105.9866077884,-3916.852643114644
7978.991625188783,-8861.818475940046,-60060.29964212176,-4307.807005382419
7927.962592597318,-8861.483199773216,-60042.26178434632,-4404.120672240338
8143.902795780039,-8877.978787181233,-60067.94393872547,-4220.054056650884
8430.899194586182,-8894.966112967268,-60095.61539836114,-3900.7593871068234
8372.494086324465,-8887.657092530382,-60103.0361775203,-3900.960552806921
7987.082956681605,-8854.755324692169,-60058.913833965526,-4297.100519788328
7920.742979138253,-8852.274281057631,-60038.43963604447,-4407.741654842098
8125.306144393224,-8882.337377350019,-60065.194674157465,-4233.778027746443
8413.420130422131,-8905.180860183342,-60098.63288386261,-3917.1208640481073
8375.735089270484,-8894.004987955688,-60112.0886340247,-3895.171450992996
7994.280218396213,-8859.739763705702,-60069.329746881696,-4282.862458570296
7914.596249413044,-8846.440475754795,-60044.76517972531,-4409.909774054262
8117.885365234061,-8850.977879879223,-60059.427924088,-4242.919891228663
8411.788453076893,-8879.588112782016,-60088.59695060217,-3932.409457255537
8403.09362448378,-8884.66195877337,-60103.41615717604,-3887.616561367102
8021.616401865054,-8853.905958402867,-60063.250072389856,-4268.89261828573
7919.401874470935,-8849.837940912003,-60033.00816214182,-4411.787320588508
8108.564687796198,-8876.861199958468,-60052.23066237339,-4252.553493088901
8388.743804543472,-8912.623991086959,-60091.74854657037,-3944.0100126278417
8381.770060273417,-8901.783395026136,-60116.17900326002,-3882.4980118868366
8001.388073133001,-8847.491007744195,-60067.27338639181,-4260.823638537364
7886.008368254706,-8834.437588982295,-60030.661228974015,-4421.555032915478
8075.841733913629,-8857.28107181562,-60049.30258384974,-4268.870266541275
8369.2754351229,-8888.104127419487,-60083.433697632994,-3954.604739499657
8379.713699783528,-8891.680406532336,-60114.88260208161,-3879.7934508077446
7998.974084731828,-8847.89333914439,-60071.85549400515,-4258.722574558566
7881.113336218994,-8830.101350557965,-60028.31429580621,-4426.427713206735
8073.137172834537,-8851.782542679613,-60045.99452567036,-4274.301740443914
8362.949891442047,-8873.016699912156,-60077.93516849699,-3970.139201896096
8399.80791804885,-8880.70570000478,-60102.544439142286,-3870.4727733698815
8024.678590855431,-8851.804894424069,-60062.08778167818,-4238.293080126415
7881.873295530474,-8837.388019250397,-60029.1189586066,-4426.07008529545
8066.275187286757,-8839.153807062365,-60042.97704016889,-4279.442641668635
8359.910054196127,-8873.262569101164,-60075.65529056255,-3969.7145187514448
8412.257839710455,-8887.880609974934,-60105.1372414991,-3854.4689243398816
8033.284012470724,-8850.262624056653,-60068.16745617002,-4220.389332817714
7874.497219860223,-8820.64656265337,-60031.53294700777,-4424.840739350408
8054.741687147819,-8839.310269273552,-60048.766141982815,-4286.058758027406
8349.427086046588,-8873.016699912156,-60081.51144760984,-3979.2140101449504
8417.912831057649,-8881.778583738636,-60105.80779383276,-3845.371764346572
8040.235404996325,-8845.233481554209,-60072.4813428499,-4208.520556511946
7854.64887078391,-8832.045952325578,-60036.42797904349,-4430.719248142153
8021.72816058733,-8851.670783957337,-60047.872072204606,-4304.8118716254085
8309.037483815848,-8870.356842321973,-60077.77870628581,-4010.282934937827
8398.064481981335,-8874.067231901554,-60105.87484906613,-3859.945101731432
8040.5036259297885,-8840.047876840577,-60076.99639522987,-4206.419492533147
7855.006498695195,-8814.32101897252,-60035.82448194319,-4434.899024355295
8010.77580580423,-8829.94488834678,-60048.74379023836,-4319.675781688187
8288.45152717251,-8858.823342183035,-60078.44925861946,-4032.9029003265982
8390.487240610986,-8878.42582207034,-60114.90495382607,-3866.203590178918
8038.8048933511855,-8850.910824645856,-60087.83699129069,-4196.517669739445
7829.369047804957,-8817.629077151905,-60044.38520006958,-4447.125428572349
7975.258883864747,-8825.385132477895,-60053.7729327408,-4348.464828546623
8263.931663505038,-8854.397696780885,-60081.62320633212,-4059.277958783861
8406.289923940889,-8870.267435344153,-60108.95938980096,-3860.839171509644
8071.818419911674,-8841.500740230173,-60082.85255227716,-4176.289341007393
7844.411771823379,-8821.294763242575,-60037.67967673298,-4441.358678502879
7980.57859904511,-8843.199472808776,-60048.98965942737,-4350.834113458885
8251.571148821253,-8866.400583553384,-60086.00414824536,-4074.655958969112
8402.37836866121,-8874.067231901554,-60118.03419804981,-3864.169581433485
8085.765908451785,-8843.937080375801,-60093.24611344888,-4159.2349599879935
7844.612937523478,-8833.94585060428,-60049.95078443895,-4440.486960469122
7968.19573261687,-8855.783504937113,-60056.96923219791,-4361.317081608425
8245.53617781832,-8861.729068962226,-60084.55128485576,-4091.956209177519
8411.252011209966,-8873.173162123343,-60113.653256136575,-3868.1258402020735
8109.838737230151,-8849.882644400912,-60091.14504947008,-4143.924015036108
7852.816027738575,-8816.131510273399,-60039.53487152277,-4439.883463368829
7966.854627949551,-8813.069321283021,-60042.1723773685,-4370.302482879458
8243.569224306253,-8836.471597727728,-60069.396802115065,-4101.679218015578
8424.506595671965,-8861.863179428958,-60110.00992179036,-3860.794468020734
8128.234222916869,-8838.170330306331,-60098.45406990696,-4121.371104880704
7852.748972505209,-8814.611591650439,-60052.00714492884,-4428.595832418899
7954.739982454776,-8828.17910053481,-60054.15291239655,-4371.48712533559
8220.77044496184,-8866.110010875465,-60082.91960751052,-4113.413883854614
8410.38029317621,-8900.397586869907,-60123.37626497463,-3864.951892489421
8127.563670583209,-8869.529827777127,-60106.74656709988,-4112.989200709963
7836.879233941941,-8825.340428988986,-60053.92939495199,-4432.395628976301
7931.740037410264,-8825.765112133637,-60049.70491524994,-4374.214038159137
8201.592648219186,-8850.37438277893,-60076.63876731858,-4115.380837366681
8400.187897704589,-8873.888417945913,-60113.92147707004,-3859.565122075692
8132.056371218726,-8858.488066016205,-60106.72421535543,-4092.671465000089
7813.946344130796,-8843.132417575409,-60067.31808988072,-4429.333439985924
7900.313484706103,-8825.899222600368,-60054.97992694139,-4387.736843554598
8175.61992116212,-8834.996382593677,-60070.40263061555,-4129.596546840256
8396.052824980357,-8859.158618349866,-60102.76795658684,-3857.0617266966974
8142.494635879355,-8841.858368141457,-60092.21793320393,-4072.8231159237766
7830.106655371983,-8815.326847473008,-60043.31231633572,-4418.045809035994
7908.2036504988255,-8816.869117840424,-60040.13836862307,-4389.524983111022
8174.323519983712,-8841.277222785619,-60071.20729341594,-4142.180578968594
8399.405586648654,-8863.628967240926,-60109.94286655699,-3865.331872145161
8156.509179652832,-8846.194606565787,-60110.3899014461,-4063.7483076749218
7828.139701859916,-8818.0314085521,-60058.93618570998,-4417.621125891344
7889.785813067653,-8826.636830167394,-60050.1743018835,-4397.281038437014
8145.646231847553,-8850.955528134768,-60079.2315696754,-4155.122239008217
8378.506705582942,-8875.721260991248,-60113.51914566984,-3867.611750079602
8154.989261029871,-8865.99825215319,-60119.8893928396,-4040.435438208037
7825.278678569637,-8825.340428988986,-60060.4784560774,-4391.760157556553
7876.263007672192,-8824.066379555034,-60045.25691810333,-4383.445308619179
8126.13315893807,-8845.680516443315,-60069.62031955962,-4156.843323331275
8365.788562987873,-8862.354917806973,-60103.75143334287,-3867.7905640352446
8163.974662300905,-8845.814626910047,-60103.61732287614,-4015.200318717995
7820.137777344916,-8810.767091604124,-60049.77197048331,-4380.025491717517
7847.652774769399,-8812.756396860648,-60041.23360410138,-4396.051692491972
8083.21780958388,-8843.959432120257,-60071.54256958277,-4180.983207343007
8332.573870727287,-8870.558008022072,-60109.20525898997,-3882.1627357200073
8164.734621612385,-8854.151827591877,-60112.602724147175,-3998.257696420872
7812.135852829916,-8821.719446387226,-60061.66309853353,-4371.688291035687
7822.462358768268,-8825.720408644725,-60046.55331928174,-4408.2333932201145
8055.501646459299,-8851.737839190702,-60064.72528752391,-4197.635256962211
8314.983047840959,-8872.56966502305,-60105.15959324355,-3890.5669916352026
8162.56650240022,-8859.56094975006,-60114.30145672578,-3989.629923061124
7798.21071603426,-8833.342353503986,-60068.4803805924,-4367.508514822544
7795.729672399721,-8832.94002210379,-60054.95757519693,-4414.2236607341365
8027.092579256604,-8859.315080561051,-60072.950729483455,-4208.07352162284
8293.503021419408,-8883.052633172589,-60106.36658744414,-3896.3113899602167
8159.258444220834,-8850.866121156945,-60115.01671254834,-3970.854457718666
7795.841431121998,-8807.21316423573,-60062.959499711935,-4346.989613412573
7782.96682631574,-8820.445396953273,-60043.91581343601,-4402.6007536173765
8002.885640011506,-8848.65329845587,-60062.87009273411,-4206.531251255423
8276.58275086674,-8871.742650478203,-60095.61539836114,-3894.970285292898
8172.200104260458,-8857.70575496027,-60100.89041005259,-3945.7310969509
7791.818117120042,-8818.925478330311,-60051.33659259517,-4333.086828361372
7759.475142893213,-8819.12664403041,-60032.896403419545,-4404.724169340631
7979.304549611158,-8839.645545440382,-60051.001316428345,-4208.2523355784815
8254.432172111532,-8863.89718817439,-60085.37829940061,-3890.634046868569
8151.27887145029,-8859.471542772239,-60107.37241594463,-3924.899271118554
7768.594654630978,-8832.850615125968,-60060.54551131076,-4312.523223462489
7715.866889460909,-8840.874891385423,-60041.770045968304,-4402.377236172823
7928.85666237553,-8844.451170498272,-60059.91966246601,-4212.230946091527
8206.711197699451,-8867.652281242881,-60090.22862794741,-3894.366788192605
8131.542281096254,-8866.691156231303,-60104.5337443988,-3906.257916242828
7746.041744475573,-8830.078998813511,-60057.66213627603,-4296.072339543383
7681.646368699833,-8824.915745844335,-60034.30456332024,-4399.9632477716505
7887.505935133212,-8852.22957756872,-60056.7233630089,-4218.958821172574
8169.920226326017,-8880.593941282505,-60084.99831974487,-3901.429939440482
8112.967981453894,-8883.499668061695,-60105.31605545474,-3897.898363816543
7729.47910183419,-8844.987612365201,-60062.177188656,-4290.015016795996
7662.490923701635,-8820.758321375648,-60035.31039182072,-4407.071102508438
7875.100716960516,-8830.682495913803,-60054.04115367427,-4233.330992857336
8164.265234978824,-8859.091563116499,-60085.17713370051,-3919.065465815719
8128.077760705682,-8863.51720851865,-60113.27327648083,-3892.980980036376
7739.403276372347,-8829.40844647985,-60074.71651729543,-4283.063624270395
7656.455952698702,-8817.60672540745,-60041.010086656825,-4413.955439800673
7856.41465859588,-8846.75340017717,-60061.1266566666,-4245.959728474585
8144.148664969047,-8870.021566155145,-60088.552247113264,-3933.1470648225622
8128.167167683503,-8877.844676714501,-60114.61438114815,-3889.62821836808
7747.516959609624,-8844.719391431736,-60071.18494167149,-4269.6078741083
7643.827217081454,-8841.165464063342,-60039.15489186703,-4417.576422402432
7837.88506244243,-8856.051725870577,-60059.2267583879,-4259.951920503607
8125.552013582232,-8876.011833669167,-60086.87586627912,-3951.7660679538335
8125.149682182036,-8886.76302275217,-60115.21787824844,-3880.620465352591
7742.309003151537,-8861.03616488411,-60086.451183134464,-4254.341632645325
7618.122710957851,-8852.542501991094,-60050.84485421716,-4418.068160780449
7804.916239370852,-8873.843714457002,-60061.75250551135,-4268.087955485339
8093.298446333224,-8904.197383427309,-60098.63288386261,-3962.181980870007
8127.630725816575,-8900.509345592183,-60129.47829121093,-3862.023813965776
7761.710317338743,-8859.002156138678,-60089.28985468029,-4221.5963270183
7626.594022106412,-8844.920557131834,-60049.83902571667,-4396.923410525729
7793.785070632109,-8864.768906208146,-60060.67962177749,-4259.169609447671
8074.411222268489,-8901.269304903664,-60094.184886716,-3954.06829763273
8117.505385578322,-8907.460738117783,-60127.01959932085,-3835.5146450417815
7740.431456617291,-8872.770830723148,-60097.22472396192,-4188.560448713356
7584.081004152418,-8857.146961348888,-60059.11499966562,-4385.72518655362
7742.845445018464,-8870.490952788705,-60069.06152594824,-4260.331900159347
8018.77773031923,-8892.730938521736,-60097.60470361766,-3959.119791879629
8089.498649775822,-8895.368444367463,-60127.06430280976,-3818.61672623357
7736.117569937417,-8860.522074761639,-60097.31413093974,-4158.6314628877
7560.835189918899,-8841.567795463538,-60052.0742001622,-4373.7222997811205
7714.436377815769,-8850.79906592358,-60055.29285136377,-4255.928606501652
7998.527049842722,-8879.006967426178,-60084.57363660022,-3962.092573892185
8099.512231291799,-8897.491860090717,-60121.00698006237,-3798.611914946069
7751.58497710049,-8862.019641640145,-60097.26942745083,-4128.188386939572
7558.868236406832,-8837.41037099485,-60054.80111298575,-4363.351090353857
7698.790156697054,-8855.403525281374,-60057.43861883148,-4262.835295538342
7979.773936244719,-8887.768851252658,-60080.12563945361,-3974.564847298247
8099.579286525165,-8898.005950213188,-60111.37337820213,-3794.8344701331225
7768.795820331075,-8879.074022659543,-60089.46866863593,-4114.263250143916
7575.430879048215,-8858.80099043858,-60046.86624370411,-4354.05276466045
7716.246869116649,-8854.911786903356,-60054.48818856337,-4255.280405912448
7988.692282282386,-8886.628912285438,-60084.97596800041,-3977.35881535516
8116.611315800109,-8912.28871492013,-60116.82720384922,-3789.9394380974095
7789.11355604095,-8882.069156416555,-60092.9331890265,-4100.092244159251
7574.536809270002,-8850.307327545563,-60042.73117097988,-4356.332642594891
7712.290610348059,-8867.205246353775,-60052.16360714002,-4258.432001880647
7987.038253192694,-8904.085624705032,-60081.332633654194,-3978.230533388917
8119.785263512763,-8914.792110299124,-60116.96131431596,-3778.048310047187
7794.567381688044,-8885.75719425168,-60097.291779195286,-4081.47324102798
7562.01983237503,-8866.735859720215,-60049.61550827212,-4355.729145494598
7694.766842695099,-8887.388871596917,-60055.09168566367,-4268.713804330087
7971.772011729719,-8917.362560911484,-60085.333595911696,-3994.346141141193
8125.283792648768,-8930.393627928928,-60121.1410905291,-3781.8257548601337
7810.995913862695,-8906.14198519492,-60108.78057584532,-4070.0514996113184
7563.472695764625,-8874.581322024027,-60060.23258688839,-4354.030412915995
7683.881543145364,-8874.84954295749,-60056.41043858653,-4274.41349916619
7952.594214987066,-8897.245990901709,-60082.15964819904,-4003.17508020104
8115.538432066254,-8922.86109004749,-60125.723198142434,-3777.824792602634
7808.581925461523,-8910.589982341526,-60122.79511961879,-4054.740554659433
7546.865349634332,-8882.672653516847,-60073.80009577276,-4352.532846037489
7670.246979027627,-8883.030281428133,-60062.55716831174,-4281.700167858621
7944.011145116227,-8910.791148041624,-60087.38995640159,-4021.615269376668
8122.489824591855,-8944.609337402504,-60128.80773887727,-3784.597371172592
7841.617803766466,-8923.978677270256,-60122.68336089652,-4034.1993015050057
7566.490181266092,-8889.221714642254,-60074.67181380652,-4345.983784912084
7660.792191123032,-8875.274226102141,-60062.84774098966,-4297.882830844264
7925.213328029315,-8898.877668246945,-60079.29862490876,-4046.1798365330505
8125.596717071143,-8927.264383705186,-60119.77763411732,-3792.711054409868
7862.047298198617,-8906.834889273036,-60116.69309338249,-4015.55794662928
7569.194742345184,-8877.129420891932,-60065.55230206875,-4342.519264521511
7642.642574625323,-8887.433575085828,-60065.194674157465,-4313.618458940799
7898.681807360865,-8916.915526022378,-60090.00511050285,-4072.2643223123937
8114.331437865668,-8945.77162811418,-60129.25477376638,-3807.3514470280943
7868.238731412737,-8920.38004641295,-60123.0409888078,-4015.736760584922
7564.836152176399,-8881.175086638343,-60063.49594157886,-4346.609633756832
7630.304411685993,-8889.199362897798,-60056.2763281198,-4322.134473578271
7876.978263494762,-8909.628857329948,-60073.62128181712,-4085.2953893298377
8093.7454812223295,-8942.798846101625,-60113.1391660141,-3810.793615674212
7860.437972597835,-8924.090435992532,-60116.49192768239,-4000.5599260997687
7545.971279856119,-8882.069156416555,-60064.79234275727,-4344.083886633383
7600.889515982809,-8890.786336754125,-60054.26467111882,-4332.751552194543
7846.222263124259,-8918.390741156429,-60078.181037686,-4104.584944794768
8082.435498527944,-8943.648212390926,-60118.749453872384,-3819.331982056139
7873.781964037653,-8914.657999832392,-60118.16830851654,-3981.1809636570174
7542.998497843564,-8884.639607028916,-60072.190770171976,-4337.356011552335
7580.705890739667,-8894.0496914446,-60059.00324094335,-4341.312270320925
7816.360332531969,-8919.15070046791,-60071.40845911604,-4118.286564145871
8062.140114562526,-8944.29641298013,-60104.44433742099,-3819.577851245148
7867.36701337898,-8939.803712344612,-60115.15082301508,-3963.0536989037632
7532.336715738383,-8908.24304917372,-60065.82052300221,-4323.207357312126
7560.20934107415,-8902.655113059893,-60055.15874089703,-4342.854540688341
7793.986236332207,-8914.456834132294,-60074.53770333978,-4132.256404430438
8050.964242334872,-8938.931994310857,-60108.11002351165,-3833.8382642076335
7884.197876953826,-8930.907718051401,-60113.47444218093,-3956.079954633708
7534.68364890619,-8912.266363175675,-60075.25295916235,-4326.783636424975
7552.609747959345,-8913.562764354083,-60061.46193283343,-4352.935177437685
7783.525619927123,-8927.219680216274,-60074.87297950661,-4145.242767958971
8045.398657965501,-8947.67152639288,-60106.232476977406,-3846.198778891418
7901.185202739859,-8934.260479719696,-60114.92730557053,-3945.194655083973
7555.359012527349,-8907.416034628874,-60067.83218000319,-4311.897374617741
7557.415373017237,-8916.133214966443,-60057.3268601092,-4350.364726825324
7775.277826223115,-8942.374162956972,-60079.49979060886,-4149.467247661024
8040.078942785138,-8961.239035277253,-60111.41808169104,-3846.310537613695
7909.120072021494,-8947.20213975932,-60126.81843362075,-3930.3307450211937
7546.753590912055,-8922.212889458286,-60081.757316798845,-4305.750644892531
7538.148169296762,-8926.660886604892,-60060.38904909958,-4357.114953650827
7759.609253359945,-8947.850340348523,-60080.46091562044,-4163.101811778762
8034.692172371409,-8961.507256210716,-60110.92634331303,-3855.497104584826
7921.190014027359,-8960.568482943592,-60126.01377082036,-3918.9313553489874
7546.507721723047,-8938.23909023274,-60082.807848788245,-4304.342484991847
7521.384360955282,-8927.890232549935,-60063.13831366758,-4370.034261945994
7747.069924720517,-8939.557843155604,-60080.75148829836,-4171.126088038217
8021.325829187135,-8972.30314878263,-60113.429738692015,-3862.917883743988
7927.180281541381,-8966.759916157713,-60127.623096421135,-3904.2686109863057
7563.807971931455,-8931.757084340703,-60084.32776741121,-4287.779842350465
7533.789579127977,-8929.566613384082,-60061.17136015551,-4369.900151479263
7750.065058477528,-8946.419828703383,-60075.49882835136,-4185.453556234069
8028.25486996828,-8970.805581904124,-60104.10906125415,-3872.9538170044207
7951.0519446196495,-8972.459610993816,-60122.48219519642,-3890.298770701739
7588.797222232488,-8938.104979766009,-60069.82148525972,-4265.629263595255
7540.58450944239,-8922.52581388066,-60040.04896164525,-4364.692195021176
7745.259433419637,-8938.082628021553,-60063.36183111213,-4199.557506985368
8027.137282745515,-8964.748259156735,-60099.459898407455,-3890.7011021019343
7982.187924645892,-8966.670509179892,-60124.9408870865,-3882.319197931194
7613.473548111147,-8929.276040706163,-60089.91570352503,-4259.79545829242
7539.936308853186,-8922.19053771383,-60060.2772903773,-4372.425898602713
7739.693849050266,-8940.72013386728,-60074.80592427325,-4209.280515823426
8023.762169332764,-8973.688956938859,-60108.7358723564,-3900.513517917814
8001.321017899635,-8977.622863962992,-60133.59101219071,-3865.488334356348
7619.12853945834,-8948.431485704361,-60090.362738414144,-4245.132713929738
7538.997535586064,-8931.57827038506,-60050.509578050325,-4372.291788135981
7717.789139484065,-8954.086477051555,-60071.45316260495,-4222.915079941164
7996.649503308476,-8985.133050099976,-60100.48807865239,-3914.4163029690153
7990.05573869416,-8989.312826313118,-60127.51133769886,-3858.224017408373
7614.635838822823,-8950.532549683161,-60088.2840261798,-4229.5982515333
7502.698302590645,-8934.193424486331,-60050.08489490568,-4377.745613783075
7676.907798875309,-8959.71911665429,-60067.094572436166,-4233.085123668328
7959.85853193504,-8989.223419335296,-60098.342311184686,-3928.520253720314
7974.744793742275,-8984.037814621666,-60122.593953918695,-3852.47961908336
7610.187841676216,-8945.592814158537,-60087.300549423766,-4214.600231003789
7492.841183285855,-8935.24395647573,-60061.17136015551,-4374.683424792698
7662.893255101831,-8951.180750272364,-60075.2306074179,-4240.528254571946
7943.005316615739,-8979.947445386344,-60102.00799727536,-3943.428867272004
7977.538761799188,-8987.479983267784,-60129.00890457736,-3846.33288935815
7615.976943490142,-8962.870712622489,-60097.69411059548,-4203.916097154152
7479.363081379304,-8947.760933370702,-60058.48915082088,-4381.746576040576
7644.184844992739,-8962.937767855856,-60068.614491059125,-4247.859626753286
7938.020877602205,-8987.077651867587,-60093.91666578253,-3942.110114349141
7995.286046896702,-8997.515916528215,-60124.71736964195,-3832.743028729323
7633.634821609834,-8963.429506233872,-60093.96136927145,-4190.393291758692
7483.654616314723,-8953.930014840367,-60057.59508104266,-4383.825288274919
7653.997260808619,-8978.405175018928,-60068.9274154815,-4250.094801198817
7929.326049009092,-9017.028989437698,-60105.07018626574,-3956.057602889253
7992.112099184049,-9027.534309331691,-60135.26739302486,-3831.3572205730943
7633.768932076566,-8995.839535694067,-60101.9856455309,-4179.39623348668
7471.964653964598,-8982.763765187712,-60062.22189214491,-4380.874858006819
7640.161530990784,-9000.131070629486,-60072.79426727227,-4250.743001788021
7921.078255305083,-9030.797664022168,-60112.82624159173,-3960.773820969322
7996.403634119468,-9047.248547941274,-60147.8961286421,-3823.1988338469073
7632.539586131524,-9016.224326637308,-60114.32380847023,-4172.042509560884
7457.368964835283,-8980.72975644228,-60071.006127715846,-4392.117785467838
7623.88946102732,-8985.423622777895,-60079.47743886441,-4270.8819235422525
7908.538926665656,-9011.821032979611,-60106.8359740777,-3980.197486900984
8003.757358045264,-9028.674248298914,-60136.027352336336,-3823.981144902843
7651.337403218437,-9005.629599765492,-60114.59202940369,-4164.666433890633
7456.966633435087,-8981.91439889841,-60073.01778471682,-4406.378198430324
7615.038170223019,-8987.479983267784,-60080.72913655391,-4293.859516842308
7902.101624262527,-9015.889050470478,-60112.96035205846,-4004.65029533509
8011.401654648978,-9029.92594598841,-60149.30428854279,-3831.692496739924
7671.275159272571,-9001.78509971918,-60124.762073130856,-4154.183465741095
7463.493342816037,-8976.862904651513,-60077.62224407461,-4405.841756563396
7608.176184675239,-8989.625750735493,-60081.064412720734,-4308.410502482713
7889.964627023295,-9014.883221969989,-60107.30536071127,-4027.449074679503
8018.151881474481,-9036.162082691442,-60141.9952681059,-3832.13953162903
7691.861115915909,-9006.478966054794,-60123.82329986374,-4132.122293963706
7458.7994764804225,-8986.854134423034,-60082.249055176864,-4402.086663494904
7583.209286118661,-9003.148556130953,-60084.73009881141,-4318.602897954333
7858.672184785865,-9030.417684366428,-60107.2383054779,-4048.280900511849
8017.414273907456,-9044.521635117726,-60135.82618663624,-3833.011249662787
7708.133185879373,-9029.098931443565,-60118.57063991674,-4116.833700756276
7459.537084047447,-9003.193259619864,-60074.04596496177,-4403.651285606777
7579.163620372251,-8991.25742808073,-60073.1295434391,-4333.757380695031
7858.672184785865,-9005.584896276581,-60098.36466292914,-4063.301272785816
8031.071189769649,-9023.68980928538,-60131.91463135656,-3831.290165339728
7732.228366402193,-9007.842422466569,-60121.02933180682,-4099.332284847771
7470.914121975198,-8986.87648616749,-60077.86811326363,-4395.112919224849
7579.431841305714,-8981.534419242671,-60071.40845911604,-4331.410447527224
7847.116332902472,-9000.756919474235,-60091.435622148,-4071.794935678832
8027.1819862344255,-9033.949259990366,-60132.0934453122,-3833.033601407242
7746.421724131314,-9014.525594058705,-60121.52107018484,-4081.674406728078
7477.172610422685,-8978.338119785562,-60070.35792712664,-4385.836945275896
7572.748669713577,-8984.194276832852,-60070.76025852684,-4334.472636517601
7834.577004263045,-9019.73355051679,-60100.353968185664,-4083.641360240145
8034.11102701557,-9040.74419030478,-60130.841747622704,-3827.71388622688
7761.263282449638,-9021.856966240044,-60120.17996551752,-4059.188551806039
7475.183305166162,-8998.119413628508,-60069.17328467051,-4380.830154517907
7565.97609114362,-9004.534364287181,-60064.702935779445,-4339.390020297768
7827.893832670908,-9037.905518758957,-60093.84961054917,-4093.029092911374
8034.245137482302,-9069.98027205232,-60133.769826146345,-3834.978203174854
7777.423593690824,-9051.02599275422,-60126.23728826491,-4057.42276399407
7482.715843047601,-9007.283628855184,-60068.94976722596,-4386.261628420547
7566.780753944011,-9010.63639052348,-60062.177188656,-4344.106238377838
7827.200928592793,-9044.543986862182,-60087.76993605733,-4093.6549417561223
8032.792274092708,-9068.12507726253,-60128.76303538836,-3829.882005439044
7777.155372757361,-9038.911347259444,-60123.17509927453,-4045.151656288106
7467.829581240366,-8999.192297362364,-60064.16649391252,-4389.927314511217
7542.059724576441,-9015.419663836916,-60059.427924088,-4363.865180476329
7799.752986401676,-9044.476931628817,-60080.68443306499,-4121.14758743615
8024.25390771078,-9068.817981340646,-60118.36947421664,-3844.701212012913
7802.904582369874,-9045.818036296134,-60119.442357950495,-4029.147807258106
7484.839258770855,-9001.092195641064,-60064.54647356826,-4378.505573094556
7545.613651944835,-9008.669437011416,-60052.40947632903,-4362.188799642182
7789.627646163422,-9046.35447816306,-60083.92543601101,-4133.15047420865
8022.823396065641,-9070.829638341624,-60118.682398639015,-3849.752706259812
7808.358408016969,-9053.261167199753,-60121.87869809612,-4019.022467019852
7464.946206205632,-9015.754940003746,-60069.240339903874,-4382.707701052153
7517.24928823105,-9013.765634747224,-60054.68935426347,-4378.349110883369
7772.39445118838,-9043.851082784067,-60083.590159844185,-4149.8472273167645
8023.672762354942,-9062.850065571078,-60115.30728522626,-3857.5087615858033
7833.5488240181,-9047.896748530478,-60118.92826782802,-4005.812586046766
7495.232819942573,-9013.340951602571,-60066.69224103597,-4376.650378304766
7535.39890472876,-9014.436187080884,-60051.96244143992,-4389.636741833298
7775.546047156578,-9043.873434528525,-60078.3822033861,-4171.39430897168
8025.259736211269,-9071.142562763996,-60121.65518065157,-3871.411546637005
7856.213492895782,-9046.332126418609,-60123.42096846354,-3987.640617804601
7501.088976989863,-9010.994018434763,-60071.16258992703,-4359.014851929528
7510.096730005352,-9017.967762704822,-60056.54454905326,-4391.424881389723
7741.750209540154,-9044.633393840002,-60079.320976653216,-4181.87727712122
8012.496890127289,-9059.474952158327,-60110.792232846296,-3871.9926919928425
7871.658548314399,-9043.448751383872,-60121.38695971811,-3966.8534954611655
7508.107424748829,-9022.415759851428,-60074.67181380652,-4348.397773313257
7504.620552613802,-9025.343838375073,-60051.51540655082,-4390.910791267252
7722.259488375126,-9046.577995607617,-60077.26461616333,-4189.655684191666
7993.810831762652,-9068.817981340646,-60112.04393053579,-3881.112203730608
7871.815010525586,-9050.9365857764,-60120.85051785118,-3950.40261154206
7507.369817181804,-9014.458538825338,-60076.05762196275,-4333.489159761567
7496.305703676428,-9014.0785591696,-60054.89051996357,-4393.436538390701
7720.650162774345,-9041.302983916165,-60079.61154933114,-4197.8587744067645
7988.3793578600125,-9068.192132495897,-60122.90687834107,-3891.3493026911374
7887.885914788952,-9046.019201996232,-60131.37818948963,-3940.2772713038057
7519.328000465393,-9008.334160844584,-60082.47257262142,-4326.716581191609
7491.298912918439,-9009.898782956456,-60059.91966246601,-4401.170241972237
7710.815395214009,-9041.45944612735,-60082.249055176864,-4212.543870513901
7983.886657224496,-9071.03080404172,-60119.308247483765,-3904.402721453038
7896.938371293351,-9057.396239923984,-60133.65806742407,-3934.868149145621
7521.362009210827,-9025.12032093052,-60088.88752328009,-4321.128645077783
7480.748889535534,-9020.001771450254,-60057.03628743128,-4410.2897537100025
7698.924267163786,-9031.714085544836,-60076.37054638512,-4228.748885243998
7979.662177522443,-9059.31848994714,-60117.54245967179,-3918.7748931378
7912.271667989692,-9048.589652608593,-60137.480215725926,-3934.331707278694
7540.517454209024,-9007.574201533103,-60093.581389615705,-4322.402694511735
7495.881020531777,-8990.564524002615,-60063.18301715649,-4415.810634590463
7713.855232459931,-9010.792852734668,-60079.20921793094,-4230.045286422406
7989.564000316143,-9046.063905485142,-60118.749453872384,-3921.770026894812
7932.812921144119,-9044.78985605119,-60139.96125936047,-3914.326895991194
7547.513550223536,-9006.143689887964,-60095.77186057233,-4301.682627401666
7469.125982418774,-8999.952256673843,-60063.16066541203,-4418.291678225002
7672.035118584052,-9024.06978894112,-60082.13729645459,-4243.054001695395
7958.986813901283,-9059.184379480408,-60119.39765446159,-3930.286041532283
7932.5223484662,-9060.190207980895,-60144.118683829154,-3895.707892859923
7552.274471792516,-9017.83365223809,-60105.00313103237,-4276.603970122811
7462.465162571092,-9005.987227676776,-60077.10815395215,-4409.239221720603
7658.624071910867,-9035.558585591149,-60098.72229084043,-4245.22212090756
7948.660307962931,-9067.007490039765,-60130.97585808944,-3935.4939979903697
7946.0004503727505,-9057.12801899052,-60149.52780598734,-3881.3133694307057
7569.105335367362,-9013.542117302672,-60106.165421744045,-4262.947054260619
7466.890807973244,-8998.789965962169,-60074.94003473998,-4414.4918816676
7668.548246449023,-9012.603344035548,-60096.174191972525,-4254.900426256708
7958.852703434552,-9033.658687312449,-60123.33156148572,-3947.474533018415
7966.541703527178,-9043.35934440605,-60148.56668097576,-3874.160811205007
7584.751556486078,-9011.239887623777,-60109.1382037566,-4249.0442692094175
7463.739212005045,-8999.572277018104,-60072.950729483455,-4416.235317735114
7652.052659041007,-9016.35843710404,-60086.13825871209,-4266.009243250996
7935.830406645586,-9031.64703031147,-60114.32380847023,-3956.772858711822
7972.375508830012,-9038.106684459051,-60138.91072737107,-3856.949967974421
7593.31227461246,-9008.803547478146,-60107.95356130047,-4224.725571242043
7457.90540670221,-8991.68211122538,-60071.6319765606,-4408.523965898034
7628.963307018675,-9011.977495190798,-60089.17809595801,-4278.503868401512
7900.648760872932,-9046.019201996232,-60126.93019234303,-3986.232457903917
7955.365831299524,-9055.831617812111,-60157.90971015808,-3867.7905640352446
7593.111108912362,-9013.408006835938,-60122.32573298523,-4222.043361907407
7439.420514037671,-8989.916323413412,-60075.74469754037,-4420.25863173707
7607.080949196929,-8994.833707193578,-60083.18782844399,-4294.619476153788
7896.223115470781,-9016.02316093721,-60115.77667185983,-3999.710559810467
7979.43866007789,-9030.462387855338,-60145.12451232965,-3862.6720145549793
7627.398684906803,-8994.051396137644,-60113.02740729183,-4212.610925747267
7458.575959035869,-8975.052413350631,-60072.36958412762,-4428.327611485435
7619.396760391804,-8992.486774025772,-60079.253921419855,-4308.432854227168
7906.057883031116,-9016.112567915032,-60108.55705840076,-4015.200318717995
7996.984779475306,-9027.713123287336,-60142.88933788411,-3863.387270377549
7644.60952813739,-8987.211762334318,-60117.11777652714,-4204.161966343161
7460.922892203676,-8962.088401566554,-60073.64363356157,-4435.524873200045
7615.932240001231,-8974.001881361233,-60078.896293508566,-4321.128645077783
7894.479679403267,-9003.617942764515,-60105.20429673247,-4031.18181600354
8002.326846400124,-9017.364265604529,-60135.78148314732,-3859.319252886683
7660.27810100056,-8992.598532748048,-60112.96035205846,-4185.721777167532
7455.781990978956,-8980.238018064263,-60075.94586324047,-4433.580271432433
7600.420129349248,-8990.408061791428,-60082.62903483261,-4332.23746207207
7880.755708307709,-9015.665533025924,-60103.81848857624,-4049.666708668078
7997.0741864531265,-9027.109626187044,-60131.84757612319,-3863.521380844281
7660.881598100853,-8986.652968722936,-60108.15472700057,-4175.484678207002
7437.9676506480755,-8963.876541122978,-60065.30643287974,-4435.279004011036
7574.581512758913,-8973.73366042777,-60074.87297950661,-4336.774866196498
7850.714963759776,-8993.045567637155,-60103.304398453765,-4058.0486128388175
7985.585389803099,-9018.370094105016,-60141.92821287253,-3859.006328464309
7668.011804582096,-8987.278817567685,-60116.76014861586,-4151.143628495172
7433.698467457112,-8955.91932009689,-60070.89436899357,-4422.247936993592
7563.293881808982,-8968.548055714138,-60076.23643591839,-4333.220938828104
7835.1805013633375,-8997.337102572574,-60099.54930538527,-4060.127325073162
7979.326901355613,-9009.004713178245,-60133.88158486862,-3850.356203360105
7664.480228958158,-8972.817238905101,-60115.97783755992,-4136.413828899125
7413.648952680702,-8949.34790722703,-60068.68154629249,-4422.940841071706
7540.875082120309,-8965.597625446037,-60076.9293399965,-4341.401677298746
7817.433216265824,-8987.122355356498,-60104.31022695425,-4073.895999657632
7987.15001191497,-9000.198125862853,-60139.87185238265,-3843.4718660678714
7682.920418133786,-8976.102945340032,-60125.61143942016,-4115.6714100446
7417.091121326819,-8954.645270662937,-60079.09745920866,-4422.538509671511
7533.63311691679,-8957.707459653313,-60071.92254923852,-4352.689308248676
7806.883192882919,-8986.317692556107,-60096.06243325024,-4089.2739998428815
7992.000340461772,-9002.9250386864,-60127.84661386569,-3845.908206213499
7692.911647905308,-8976.952311629333,-60116.22370674893,-4104.38377909467
7408.999789833998,-8935.24395647573,-60069.06152594824,-4421.197405004193
7515.885831819276,-8929.208985472796,-60063.47358983441,-4361.317081608425
7781.156335014861,-8961.06022132161,-60090.11686922513,-4102.372122093692
7979.10338391106,-8974.53832322816,-60123.86800335265,-3845.505874813304
7707.797909712543,-8951.180750272364,-60114.32380847023,-4077.986368892952
7410.720874157057,-8923.062255747587,-60060.59021479968,-4406.333494941413
7491.187154196162,-8935.087494264542,-60054.93522345248,-4368.134363667294
7752.054363734051,-8963.9659481008,-60079.16451444203,-4119.113578690717
7962.160761613937,-8984.194276832852,-60114.72613987043,-3850.6691277824793
7714.995171427152,-8950.0631630496,-60109.60759039016,-4056.081659326752
7411.592592190814,-8910.567630597072,-60056.03045893079,-4391.849564534374
7486.046252971441,-8915.172089954864,-60049.10141814964,-4366.122706666316
7749.7744857996095,-8935.48982566474,-60074.80592427325,-4123.986258981974
7978.589293788588,-8967.698689424837,-60119.79998586178,-3846.556406802703
7746.3099654090365,-8958.668584664892,-60126.147881287085,-4036.032144550341
7425.450673753104,-8925.185671470843,-60077.04109871878,-4385.993407487084
7486.135659949263,-8922.838738303035,-60064.993508457366,-4369.900151479263
7730.306116379037,-8933.701686108314,-60084.59598834467,-4138.894872533664
7975.4824013093,-8957.081610808566,-60118.30241898327,-3849.663299281991
7762.514980139134,-8945.615165902993,-60122.97393357444,-4016.384961174126
7419.37099926126,-8913.76393005418,-60075.16355218453,-4375.353977126358
7463.448639327126,-8912.512232364683,-60055.0246304303,-4371.934160224696
7709.831918457976,-8934.171072741876,-60078.3822033861,-4144.840436558776
7955.991680144272,-8954.48880845175,-60116.04489279329,-3853.7983720062234
7763.632567361899,-8940.764837356191,-60125.36557023115,-4005.678475580034
7431.195072078118,-8910.992313741723,-60071.45316260495,-4367.419107844724
7465.057964927908,-8918.569555112072,-60064.39001135708,-4377.544448082977
7701.025331142585,-8949.996107816232,-60091.59208435918,-4158.877332076709
7947.565072484622,-8982.87552390999,-60126.61726792065,-3864.169581433485
7765.063079007039,-8974.091288339054,-60134.842709880206,-3993.78734752981
7424.310734785883,-8928.046694761122,-60075.72234579591,-4355.617386772321
7448.897653686721,-8918.211927200786,-60062.75833401184,-4378.192648672181
7687.726043191677,-8931.15358724041,-60080.34915689816,-4161.425430944613
7942.915909637918,-8962.848360878035,-60112.87094508064,-3861.509723843304
7781.513962926146,-8941.52479666767,-60118.21301200546,-3969.7145187514448
7418.454577738593,-8902.38689212643,-60071.900197494055,-4349.33654658038
7430.144540088719,-8895.457851345283,-60049.45904606093,-4382.327721396413
7669.241150527138,-8917.943706267322,-60066.66988929152,-4169.963797326541
7932.991735099761,-8944.586985658048,-60105.02548277682,-3866.4718111123816
7789.270018252137,-8940.474264678272,-60122.526898685326,-3955.409402300048
7419.32629577235,-8907.393682884418,-60075.65529056255,-4341.915767421218
7409.022141578454,-8897.469508346261,-60053.50471180734,-4394.576477357921
7639.915661801775,-8911.595810842015,-60072.63780506108,-4196.137690083706
7912.651647645432,-8935.91450880939,-60107.685340367,-3889.516459645803
7794.813250877053,-8931.712380851792,-60123.37626497463,-3951.699012720468
7428.624621465758,-8902.14102293742,-60076.41524987403,-4334.360877795324
7409.737397401023,-8896.173107167853,-60058.35504035415,-4400.857317549863
7634.752408832599,-8909.830023030047,-60076.79522952977,-4206.419492533147
7907.242525487248,-8943.62586064647,-60113.31797996974,-3898.211288238918
7809.833623151019,-8940.8095408451,-60129.45593946648,-3938.39972476956
7441.029839638453,-8895.837831001023,-60080.34915689816,-4320.5698514664
7405.602324676791,-8897.201287412798,-60054.15291239655,-4404.657114107265
7624.314144171971,-8906.074929961555,-60069.48620909289,-4221.059885151373
7902.123976006982,-8927.979639527755,-60099.61636061864,-3911.622334912102
7837.16980661986,-8926.81734881608,-60117.65421839407,-3924.742808907367
7465.437944583648,-8898.363578124474,-60074.06831670622,-4311.696208917643
7403.881240353733,-8894.362615866974,-60050.95661293944,-4418.604602647377
7617.921545257753,-8901.492822348217,-60064.79234275727,-4241.511731327979
7904.582667897066,-8927.823177316568,-60094.76603207184,-3925.994506596865
7850.893777715419,-8939.557843155604,-60119.934096328514,-3920.183053038485
7473.283406887461,-8902.85627875999,-60076.50465685185,-4305.325961747881
7406.161118288174,-8880.951569193789,-60045.07810414769,-4418.805768347474
7599.459004337669,-8900.352883380996,-60061.149008411056,-4249.379545376247
7875.659510571899,-8938.596718144026,-60091.27915993681,-3940.389030026082
7844.9258619458515,-8944.542282169137,-60114.70378812597,-3908.336628477172
7471.987005709053,-8901.13519443693,-60075.49882835136,-4287.511621417001
7390.246676235995,-8883.700833761792,-60041.9712116684,-4418.626954391832
7586.539696042502,-8907.706607306793,-60061.1266566666,-4259.661347825689
7872.8655425149855,-8940.496616422728,-60093.648444849074,-3952.950710409965
7862.069649943072,-8934.595755886527,-60118.972971316936,-3904.1792040084847
7484.43692737066,-8899.592924069515,-60084.9312645115,-4286.192868494138
7386.98332154552,-8889.534639064626,-60053.5717670407,-4430.808655119974
7578.649530249779,-8899.727034536247,-60065.3287846242,-4272.51360088749
7864.930673233352,-8927.376142427462,-60094.36370067164,-3964.953597182464
7874.944254749329,-8934.23812797524,-60120.492889939895,-3895.5067271598255
7508.375645682293,-8894.787299011625,-60084.43952613349,-4269.719632830576
7398.852097851289,-8880.526886049138,-60048.67673500499,-4428.282907996525
7575.475582537125,-8898.028301957644,-60060.97019445541,-4283.287141714948
7848.815065481075,-8934.998087286722,-60096.84474430618,-3986.634789304113
7877.17942919486,-8947.448008948328,-60124.27033475285,-3895.8196515822
7512.331904450883,-8890.898095476401,-60085.71357556744,-4257.292062913426
7374.801620817378,-8871.608540011472,-60047.648554760046,-4434.675506910742
7539.757494897544,-8898.721206035758,-60059.51733106582,-4299.022769811484
7810.817099907053,-8929.0078197727,-60088.50754362435,-4002.102196467185
7858.046335941117,-8933.411113430395,-60109.85345957917,-3891.282247457773
7489.980159995575,-8900.151717680897,-60076.50465685185,-4252.195865177616
7342.59275705728,-8884.393737839906,-60040.96538316791,-4443.795018648508
7510.543764894458,-8900.889325247923,-60059.2267583879,-4311.0927118173495
7793.516849698645,-8923.844566803524,-60086.27236917882,-4009.679437837534
7857.3087283740915,-8933.589927386038,-60114.72613987043,-3880.2404856968506
7482.224104669583,-8908.220697429264,-60083.41134588854,-4238.762466759976
7310.316838063817,-8892.105089676987,-60039.71368547842,-4447.326594272447
7474.088069687852,-8904.42090087186,-60049.660211761024,-4319.742836921553
7760.72684058271,-8918.547203367616,-60080.147991198064,-4020.564737387269
7842.690687500321,-8928.314915694586,-60116.82720384922,-3871.746822803834
7489.62253208429,-8888.19353439731,-60086.40647964555,-4208.766425700954
7318.475224790004,-8867.652281242881,-60039.55722326723,-4427.679410896231
7482.782898280967,-8880.549237793593,-60045.07810414769,-4302.42023496869
7763.96784352873,-8905.247915416709,-60070.33557538219,-4006.192565702506
7869.915112246885,-8915.596773099514,-60107.685340367,-3837.168674131474
7518.791558598466,-8875.587150524516,-60085.64652033407,-4168.175657770116
7316.35180906675,-8859.270377072142,-60041.47947329038,-4409.820367076441
7462.666328271191,-8879.878685459935,-60050.8225024727,-4302.867269857797
7741.996078729163,-8906.589020084026,-60079.29862490876,-4015.6250018626456
7852.9054347163965,-8922.86109004749,-60116.156651515565,-3830.977240917354
7508.48740440457,-8903.683293304837,-60101.00216877487,-4153.378802940703
7288.747404664446,-8872.726127234237,-60058.66796477652,-4412.30141071098
7425.763598175478,-8885.354862851485,-60066.33461312469,-4319.944002621652
7713.117624892906,-8903.862107260478,-60087.8816947796,-4035.741571872422
7860.057992942095,-8914.43448238784,-60119.79998586178,-3831.7372002288334
7542.998497843564,-8896.597790312504,-60106.590104888695,-4132.323459663804
7318.207003856541,-8863.383098051918,-60050.733095494885,-4399.180936715715
7449.076467642363,-8866.08765913101,-60050.30841235024,-4314.534880463467
7727.333334366481,-8887.321816363552,-60078.51631385283,-4045.129304543651
7881.493315874733,-8909.695912563315,-60115.44139569299,-3831.468979295371
7572.458097035658,-8882.404432583384,-60095.749508827874,-4112.76568326541
7322.342076580772,-8859.113914860955,-60049.3249355942,-4395.939933769695
7440.068714626875,-8865.215941097253,-60051.11307515062,-4321.016886355506
7709.183717868772,-8882.76206049467,-60078.31514815273,-4055.455810482003
7868.059917457094,-8899.324703136052,-60118.749453872384,-3833.502988040804
7573.016890647041,-8876.66003425837,-60103.28204670931,-4102.394473838148
7321.425655058105,-8853.615385724948,-60047.98383092688,-4397.862183792851
7428.356400532294,-8862.42197304034,-60041.18890061247,-4334.696153962154
7688.28483680306,-8879.699871504292,-60066.66988929152,-4077.4275752815697
7866.048260456117,-8887.321816363552,-60103.17028798704,-3836.386363075538
7573.419222047237,-8872.234388856219,-60093.9837210159,-4088.04465389784
7299.990332125465,-8850.0391066121,-60042.55235702424,-4396.118747725338
7396.371054216749,-8852.877778157923,-60038.23847034437,-4345.223825600604
7654.645461397823,-8884.840772729012,-60069.21798815942,-4096.113633646207
7845.663469512877,-8915.350903910507,-60110.188735746,-3845.371764346572
7580.549428528479,-8885.801897740592,-60098.20820071796,-4071.102031600718
7287.428651741583,-8856.23053982622,-60049.347287338656,-4393.39183490179
7369.995995759487,-8857.549292749083,-60041.61358375712,-4349.917691936218
7629.164472718772,-8875.47539180224,-60059.00324094335,-4100.226354625983
7836.1192746304605,-8902.655113059893,-60093.24611344888,-3839.828531721656
7586.047957664485,-8885.33251110703,-60091.212104703445,-4051.61131043569
7282.421860983594,-8854.129475847421,-60045.43573205898,-4382.819459774431
7354.305071151862,-8862.064345129054,-60043.46877854691,-4354.723316994109
7609.673751553745,-8886.874781474446,-60069.10622943714,-4115.425540855592
7830.1290071164385,-8909.67356081886,-60102.455032164464,-3842.264871867284
7593.982826946119,-8894.072043189055,-60103.10323275367,-4037.1497317731055
7288.032148841876,-8859.762115450158,-60056.41043858653,-4376.717433538131
7357.702536309068,-8859.806818939069,-60046.821540215205,-4354.05276466045
7610.0090277205745,-8892.95445596629,-60073.5318748393,-4119.895889746653
7837.013344408673,-8926.415017415884,-60110.65812237956,-3836.743990986823
7615.105225456385,-8908.377159640451,-60110.90399156857,-4010.88643203812
7285.416994740605,-8867.361708564962,-60060.23258688839,-4363.708718265142
7350.16999842763,-8861.46084802876,-60049.83902571667,-4350.856465203341
7596.97796070313,-8892.32860712154,-60076.97404348541,-4124.030962470885
7831.336001317025,-8921.341171424529,-60116.84955559368,-3839.336793343639
7631.17612971975,-8896.083700190033,-60118.34712247219,-3992.423891118037
7301.800823426345,-8864.768906208146,-60062.80303750075,-4350.543540780966
7344.537358824892,-8877.196476125298,-60056.49984556435,-4358.277244362503
7585.444460564192,-8896.530735079139,-60081.10911620964,-4137.084381232784
7836.141626374916,-8909.070063718566,-60108.065320022746,-3836.386363075538
7657.327670732459,-8896.150755423398,-60111.10515726866,-3966.227646616417
7315.100111377253,-8852.31898454654,-60057.50567406484,-4333.287994061469
7335.194329642574,-8854.934138647812,-60045.99452567036,-4356.9361396951845
7563.964434142642,-8877.978787181233,-60070.6261480601,-4146.941500537575
7821.411826778869,-8900.576400825548,-60105.5842763882,-3849.193912648429
7667.900045859819,-8887.388871596917,-60114.61438114815,-3957.9798529124087
7315.904774177644,-8852.587205480004,-60068.65919454804,-4332.416276027712
7330.411056329139,-8846.641641454893,-60046.91094719303,-4365.094526421372
7559.672899207223,-8877.978787181233,-60066.35696486914,-4161.53718966689
7820.204832578282,-8908.33245615154,-60103.48321240941,-3857.441706352437
7678.51712447609,-8890.249894887196,-60116.0895962822,-3941.4172102710254
7318.139948623175,-8832.22476628122,-60060.23258688839,-4319.832243899375
7308.528698507393,-8811.41529219333,-60037.21029009942,-4373.230561403103
7534.34837273936,-8835.51047271615,-60063.74181076787,-4175.104698551261
7802.859878880964,-8865.059478886065,-60100.9351135415,-3866.4494593679274
7680.417022754792,-8865.28299633062,-60117.9894945609,-3929.7943031542654
7306.807614184334,-8838.013868095144,-60072.950729483455,-4316.770054908998
7283.137116806164,-8826.41331272284,-60047.11211289312,-4389.659093577754
7504.017055513508,-8847.870987399934,-60066.60283405815,-4199.378693029725
7778.16120125785,-8874.76013597967,-60102.09740425317,-3886.811898566711
7686.228476313171,-8857.191664837797,-60114.346160214685,-3923.7593321513336
7319.63751550168,-8806.721425857715,-60062.13248516709,-4304.498947203034
7270.977767822477,-8814.008094550145,-60043.98286866938,-4396.454023892167
7478.983101723565,-8834.236423282198,-60067.00516545834,-4215.270783337448
7762.939663283785,-8858.8903974164,-60100.77865133032,-3898.524212661292
7696.085595617962,-8859.248025327686,-60122.16927077405,-3913.7233988909006
7326.968887683021,-8825.519242944627,-60080.88559876509,-4295.871173843286
7269.994291066443,-8821.071245798023,-60053.05767691824,-4399.471509393634
7476.680872044668,-8838.147978561876,-60068.23451140339,-4223.965611930563
7772.193285488282,-8853.905958402867,-60096.04008150579,-3900.178241750985
7721.276011619093,-8859.717411961248,-60122.1916225185,-3891.5951718801466
7332.892099963677,-8829.65431566886,-60077.55518884125,-4281.27548471397
7251.084715257253,-8811.594106148972,-60046.665078004015,-4405.148852485282
7444.248490840017,-8827.307382501052,-60058.86913047661,-4237.309603370381
7736.810474015531,-8867.048784142587,-60100.80100307477,-3913.544584935258
7707.95437192373,-8856.968147393245,-60123.21980276344,-3877.6700350844894
7318.184652112085,-8821.920612087324,-60077.3316713967,-4269.317301430381
7210.6280577931475,-8825.251022011164,-60050.66604026152,-4420.30333522598
7409.379769489738,-8826.83799586749,-60063.07125843421,-4262.388260649235
7719.24200287366,-8849.435609511806,-60093.80490706026,-3934.7787421678
7718.236174373171,-8853.950661891779,-60120.62700040663,-3879.301712429728
7331.618050529725,-8817.31615272953,-60077.35402314115,-4269.429060152657
7214.606668306193,-8807.548440402561,-60042.7758744688,-4429.244033008103
7403.590667675814,-8832.001248836666,-60059.182054898985,-4276.112231744794
7710.860098702919,-8860.209150339264,-60090.87682853662,-3943.764143438833
7724.181738398282,-8865.193589352797,-60116.89425908259,-3859.05103195322
7327.2594603609405,-8831.218937780732,-60079.27627316431,-4247.591405819822
7185.169420858553,-8815.952696317756,-60040.78656921227,-4429.020515563549
7371.739431827001,-8828.69319065728,-60050.28606060577,-4281.65546436971
7695.750319451132,-8858.644528227393,-60086.69705232347,-3944.1217713501183
7759.318680682026,-8863.360746307462,-60120.69405563999,-3816.09097911012
7357.881350264711,-8827.396789478873,-60080.79619178727,-4193.120204582239
7173.23358931942,-8810.32005671502,-60038.484339533374,-4413.620163633843
7340.335230867295,-8836.22572853872,-60057.3268601092,-4291.691397630143
7650.353926462403,-8878.247008114697,-60093.5366861268,-3963.9924721708862
7731.311944879526,-8880.392775582406,-60127.39957897658,-3820.762493701279
7349.633556560702,-8832.783559892603,-60093.04494774878,-4189.655684191666
7162.929435125522,-8802.36283568893,-60039.13254012258,-4418.246974736092
7319.324591079306,-8830.36957149143,-60057.61743278712,-4306.108272803816
7637.501673400602,-8874.581322024027,-60096.68828209499,-3982.2091439019614
7747.226386931705,-8878.448173814795,-60122.99628531889,-3812.939383141921
7372.991129516498,-8829.31903950203,-60086.07120347872,-4171.036681060396
7167.8915223946005,-8795.277332696598,-60039.043133144754,-4417.710532869164
7312.6414194871695,-8815.796234106569,-60048.699086749446,-4322.872081145297
7628.784493063033,-8852.050763613077,-60074.917682995525,-4007.533670369824
7752.635509089889,-8868.747516721192,-60116.06724453774,-3817.901470411
7385.485754667015,-8830.235461024698,-60091.2344564479,-4156.776268097909
7152.4017634870725,-8815.84093759548,-60043.98286866938,-4423.656096894276
7279.985520837966,-8836.829225639012,-60046.77683672629,-4341.692249976665
7594.7427862576,-8877.062365658567,-60079.41038363104,-4032.5005689264026
7750.020354988618,-8890.987502454222,-60115.26258173736,-3818.907298911488
7403.188336275618,-8851.804894424069,-60090.07216573622,-4140.5712533678125
7158.012051345355,-8829.564908691038,-60040.40658955653,-4416.503538668578
7275.693985902547,-8838.058571584055,-60046.64272625956,-4342.899244177252
7582.985768674108,-8863.383098051918,-60074.49299985088,-4039.384906218637
7748.031049732095,-8876.257702858175,-60114.68143638152,-3810.1007115960974
7410.452653223593,-8845.456998998761,-60093.26846519333,-4116.274907144893
7145.830350617212,-8821.093597542476,-60045.21221461442,-4407.674599608731
7252.828151324767,-8821.518280687127,-60047.04505765976,-4341.871063932307
7547.82647464591,-8848.094504844488,-60070.73790678238,-4051.343089502226
7730.172005912305,-8874.022528412645,-60111.77570960233,-3809.60897321808
7412.598420691303,-8842.260699541654,-60096.26359895034,-4101.969790693497
7140.242414503386,-8809.1801177478,-60044.00522041384,-4411.474396166133
7241.540520374838,-8818.679609141303,-60044.22873785839,-4360.847694974863
7546.932404867698,-8851.268452557142,-60071.900197494055,-4069.336243788749
7752.121418967416,-8880.459830815773,-60122.437491707504,-3812.559403486181
7447.42243855267,-8857.772810193635,-60106.50069791087,-4086.435328297058
7157.766182156347,-8829.855481368957,-60049.01201117182,-4404.746521085086
7249.989479778944,-8827.396789478873,-60044.094627391656,-4362.032337430995
7540.49510246457,-8860.052688128077,-60073.442467861474,-4083.842525940243
7751.272052678115,-8889.914618720368,-60114.21204974796,-3812.201775574896
7458.866531713788,-8863.740725963204,-60101.80683157526,-4072.644301968134
7147.149103540076,-8839.46673148474,-60049.99548792786,-4410.356808943368
7208.974028703455,-8844.339411775996,-60047.246223359856,-4384.898172008774
7497.199773454639,-8864.053650385576,-60072.66015680554,-4112.00572395393
7723.555889553534,-8889.154659408887,-60117.74362537189,-3826.9315751709432
7441.119246616274,-8874.670729001848,-60108.84763107868,-4071.28084555636
7124.417379429028,-8836.873929127923,-60045.52513903679,-4416.2800212240245
7188.008092404377,-8837.23155703921,-60039.51251977832,-4397.72807332612
7473.819848754389,-8858.912749160856,-60066.044040446766,-4133.195177697561
7725.500491321146,-8884.572551795549,-60108.51235491185,-3833.458284551893
7468.678947529668,-8864.724202719237,-60098.85640130716,-4052.415973236081
7139.84008310319,-8832.9847255927,-60044.00522041384,-4411.139119999304
7191.629075006137,-8840.919594874335,-60039.60192675614,-4404.902983296273
7471.115287675297,-8865.528865519627,-60067.228682902896,-4142.337041179781
7725.232270387683,-8891.211019898776,-60105.22664847692,-3835.04525840822
7473.037537698453,-8871.317967333553,-60098.52112514033,-4037.015621306375
7126.138463752087,-8843.490045486695,-60046.91094719303,-4403.5395268845
7168.942054384,-8851.60372872397,-60037.63497324407,-4403.673637351231
7442.125075116763,-8874.201342368287,-60059.2267583879,-4151.031869772896
7721.007790685629,-8897.33539787953,-60096.26359895034,-3829.367915316572
7505.894602047754,-8874.827191213035,-60087.74758431287,-4006.259620935872
7148.154932040565,-8843.60180420897,-60029.1189586066,-4383.422956874723
7175.714632953958,-8861.103220117477,-60021.34055153615,-4402.153718728271
7438.504092515003,-8875.676557502336,-60047.80501697124,-4165.135820524195
7732.608346057934,-8888.081775675033,-60087.434659890496,-3833.4135810629823
7529.051009303452,-8881.08567966052,-60095.10130823866,-3990.613399817157
7152.088839064699,-8848.340374033496,-60041.94885992395,-4380.271360906525
7167.824467161235,-8846.976917621723,-60023.50867074832,-4410.915602554751
7422.321429529361,-8870.267435344153,-60044.13933088056,-4184.44772773358
7710.547174280546,-8901.33636013703,-60085.49005812289,-3854.491276084337
7526.391151713271,-8896.977769968244,-60093.447279148975,-3986.903010237576
7148.51255995185,-8860.253853828175,-60035.82448194319,-4375.823363759919
7139.057772047255,-8859.985632894712,-60017.20547881192,-4426.651230651287
7380.858943564766,-8871.675595244837,-60034.59513599815,-4211.649800735689
7684.038005356551,-8892.105089676987,-60075.09649695117,-3869.4669448693926
7527.352276724849,-8886.85242972999,-60086.384127901096,-3975.615379287646
7152.4017634870725,-8849.077981600522,-60030.61652548511,-4366.43563108869
7129.60298414266,-8851.402563023874,-60018.47952824587,-4433.826140621441
7362.016422988942,-8889.311121620074,-60046.03922915927,-4228.1453881437055
7668.056508071007,-8930.460683162295,-60088.932226769,-3885.001407265831
7535.711829151133,-8908.33245615154,-60098.23055246241,-3966.764088483345
7158.190865300998,-8847.17808332182,-60042.46295004642,-4360.534770552489
7123.12097825062,-8842.484216986206,-60020.7147026914,-4438.743524401609
7353.567463584836,-8872.726127234237,-60046.41920881501,-4242.964594717574
7663.921435346775,-8910.43352013034,-60087.65817733505,-3894.5008986593366
7547.647660690268,-8906.231392172742,-60095.92832278351,-3945.5299312508023
7159.755487412869,-8868.635757998914,-60045.055752403234,-4342.139284865772
7099.338722150174,-8860.700888717281,-60026.01206612731,-4434.11671329936
7318.944611423566,-8873.70960399027,-60041.59123201266,-4242.830484250842
7638.753371090099,-8907.505441606694,-60085.11007846714,-3891.48341315787
7553.727335182111,-8904.085624705032,-60099.07991875171,-3924.0946083181634
7154.458123976961,-8864.858313185969,-60044.40755181403,-4331.633964971777
7090.867411001613,-8857.504589260172,-60022.59224922565,-4439.302318012991
7306.047654872854,-8886.159525651876,-60048.296755349256,-4257.090897213328
7625.230565694638,-8921.229412702252,-60083.65721507755,-3904.2686109863057
7549.435800246692,-8921.38587491344,-60105.02548277682,-3917.277326259295
7140.823559859224,-8874.223694112741,-60060.74667701086,-4324.101427090339
7064.000614166333,-8855.627042725926,-60026.54850799424,-4442.275100025547
7277.638587670159,-8880.817458727057,-60042.23943260186,-4263.170571705171
7606.745673030099,-8914.054502732099,-60085.55711335625,-3912.337590734672
7562.824495175421,-8914.43448238784,-60106.94773279998,-3905.67677088699
7156.536836211305,-8875.162467379865,-60053.75058099635,-4318.066456087406
7066.705175245425,-8870.982691166722,-60022.72635969238,-4455.3732222763565
7275.068137057798,-8907.013703228677,-60038.68550523347,-4287.153993505716
7603.392911361803,-8942.016535045688,-60073.08483995019,-3934.264652045328
7574.693271481189,-8911.9534387533,-60095.525991383314,-3905.609715653624
7174.5299904978265,-8865.618272497448,-60044.988697169865,-4311.271525772992
7068.023928168289,-8850.37438277893,-60012.80218515423,-4459.441239767223
7271.715375389502,-8876.592979025005,-60033.879880175584,-4296.072339543383
7604.085815439918,-8909.315932907573,-60069.64267130407,-3947.6086434851454
7603.795242761999,-8910.455871874794,-60090.20627620295,-3892.332779447172
7191.651426750592,-8881.108031404976,-60052.29771760675,-4299.84978435633
7066.25814035632,-8875.050708657589,-60028.67192371749,-4464.760954947586
7258.818418838789,-8897.693025790813,-60052.5212350513,-4314.467825230101
7589.378367588326,-8925.990334271233,-60084.97596800041,-3967.255826861361
7605.02458870704,-8923.86691854798,-60107.79709908928,-3890.1199567460967
7199.13926114312,-8890.272246631652,-60069.70972653744,-4287.221048739082
7056.535131518261,-8876.235351113719,-60032.71758946391,-4467.666681726776
7238.143055217631,-8890.227543142742,-60043.64759250255,-4321.441569500157
7559.717602696133,-8926.057389504598,-60080.17034294252,-3978.096422922185
7595.994483947097,-8949.839645605045,-60107.841802578194,-3873.3114449157056
7200.8826972106335,-8914.970924254767,-60064.79234275727,-4259.2590164254925
7050.67897447097,-8875.117763890954,-60023.28515330377,-4457.876617655351
7230.342296402729,-8889.42288034235,-60036.49503427685,-4325.084903846372
7558.331794539905,-8917.273153933664,-60066.20050265796,-3989.272295149839
7628.516272129568,-8934.461645419795,-60099.48225015191,-3863.4990290998257
7241.428761652561,-8910.947610252812,-60063.07125843421,-4239.276556882448
7057.675070485481,-8881.33154884953,-60022.86047015912,-4456.401402521301
7212.863232238678,-8889.534639064626,-60032.963458652914,-4340.351145309347
7525.96646856862,-8923.24106970323,-60065.3287846242,-4009.545327370802
7609.6961032982,-8937.792055343634,-60097.26942745083,-3860.9509302319207
7229.984668491444,-8901.76104328168,-60062.065429933726,-4223.831501463831
7030.942384116935,-8885.488973318217,-60019.37359802409,-4454.5015042426
7171.08782185171,-8909.04771197411,-60029.27542081779,-4352.130514637293
7489.309607661916,-8935.735694853747,-60061.3278223667,-4024.453940922492
7594.295751368493,-8949.079686293566,-60107.059491522254,-3855.653566796013
7217.6688572965695,-8914.032150987643,-60072.74956378336,-4211.560393757867
7006.444872193918,-8891.81451699907,-60022.01110386981,-4456.624919965854
7138.007240057856,-8915.015627743678,-60036.02564764329,-4362.658186275743
7450.596386265324,-8936.093322765031,-60072.14606668307,-4046.649223166612
7582.046995406985,-8937.613241387993,-60105.04783452128,-3853.23957839484
7220.261659653385,-8908.131290451443,-60074.98473822889,-4191.242658047993
6994.7325580993365,-8892.350958865996,-60030.77298769629,-4452.176922819248
7125.445559673973,-8919.664790590381,-60038.417284300005,-4363.373442098313
7437.855891925799,-8956.813389875102,-60070.73790678238,-4046.604519677701
7579.096565138885,-8955.807561374613,-60107.01478803335,-3843.136589901041
7213.891412483623,-8915.57442135506,-60079.79036328678,-4178.032777074906
6978.684005580427,-8887.075947174544,-60030.68358071847,-4450.3217280294575
7112.056864745244,-8906.030226472643,-60036.02564764329,-4369.363709612335
7430.077484855353,-8941.278927478663,-60066.3793166136,-4058.875627383665
7586.78556523151,-8959.137971298453,-60111.12750901312,-3841.214339877885
7232.041028981332,-8937.38972394344,-60085.60181684516,-4168.801506614865
6974.928912511935,-8918.502499878705,-60035.46685403191,-4459.418888022768
7096.410643626528,-8928.203156972308,-60041.278307590284,-4382.081852207405
7415.548850959403,-8944.564633913593,-60065.08291543519,-4074.745365946933
7595.5698008024465,-8953.371221228985,-60100.73394784141,-3843.874197468066
7250.525921645871,-8924.246898203719,-60076.95169174096,-4157.692689620578
6981.545028870706,-8907.706607306793,-60032.628182486085,-4464.448030525212
7097.818803527213,-8922.279944691652,-60035.556261009726,-4398.353922170869
7397.667455395157,-8952.521854939683,-60069.82148525972,-4107.155395407128
7585.019777419541,-8979.858038408523,-60106.590104888695,-3863.543732588737
7260.226578739474,-8950.733715383258,-60084.12660171111,-4153.714079107533
6978.639302091516,-8901.314008392574,-60025.34151379365,-4463.21868458017
7088.229905155887,-8903.325665393551,-60028.31429580621,-4399.471509393634
7386.98332154552,-8934.931032053355,-60060.81373224423,-4107.937706463064
7586.584399531413,-8963.518913211694,-60099.54930538527,-3847.942214958932
7270.307215488818,-8938.216738488287,-60079.05275571976,-4123.852148515242
6975.28654042322,-8918.927183023356,-60032.40466504153,-4453.495675742111
7065.92286418949,-8919.709494079292,-60038.46198778892,-4406.936992041707
7363.134010211708,-8947.537415926148,-60069.687374792986,-4127.987221239474
7593.669902523745,-8967.29635802464,-60104.69020661,-3852.949005716921
7307.25464907344,-8947.224491503775,-60087.79228780178,-4109.412921597114
6999.806404090692,-8919.418921401373,-60043.178205868986,-4452.042812352516
7085.860620243624,-8922.123482480465,-60042.23943260186,-4418.984582303117
7374.0416615058975,-8953.594738673537,-60070.13440968209,-4152.372974440214
7607.103300941384,-8984.39544253295,-60107.17125024453,-3866.33770064565
7333.585004041792,-8957.998032331232,-60092.79907855977,-4099.824023225788
7008.47888093935,-8923.218717958775,-60036.80795869922,-4453.473323997656
7078.059861428722,-8932.785264585646,-60028.426054528485,-4433.893195854806
7358.104867709264,-8949.504369438217,-60050.576633283694,-4176.356396240759
7612.020684721552,-8967.564578958105,-60085.42300288952,-3874.652549583024
7362.619920089236,-8951.650136905926,-60075.52118009582,-4083.484898028958
7025.108578814099,-8921.76585456918,-60022.25697305882,-4443.437390737223
7076.741108505858,-8922.19053771383,-60017.47369974539,-4441.045754080505
7357.590777586792,-8934.23812797524,-60042.954688424434,-4187.375806257225
7625.498786628103,-8954.555863685115,-60082.51727611033,-3872.484430370859
7386.826859334334,-8951.359564228007,-60081.53379935429,-4063.413031508092
7029.109541071599,-8916.826119044557,-60032.963458652914,-4436.620108678354
7058.971471663889,-8922.503462136205,-60026.50380450533,-4446.5666349609655
7312.35084680925,-8953.572386929081,-60053.30354610724,-4206.084216366317
7591.390024589304,-8974.471267994793,-60088.39578490207,-3881.045148497242
7383.027062776931,-8958.065087564599,-60082.00318598786,-4041.508321941891
7018.693628155426,-8931.645325618425,-60031.89057491906,-4425.891271339807
7045.135741846054,-8911.506403864194,-60014.34445552164,-4447.952443117195
7312.328495064795,-8925.118616237476,-60032.13644410807,-4209.21346059006
7594.139289157306,-8962.49073296675,-60076.41524987403,-3884.353206676628
7398.270952495451,-8956.992203830743,-60081.064412720734,-4029.237214235928
7025.823834636669,-8919.441273145829,-60026.30263880523,-4422.337343971413
7043.191140078443,-8923.62104935897,-60012.84688864314,-4457.518989744066
7307.187593840074,-8950.510197938705,-60037.29969707725,-4226.759579987476
7603.415263106259,-8971.67729993788,-60080.01388073133,-3894.143270748052
7423.215499307573,-8961.239035277253,-60088.0828604797,-4025.03508627833
7048.644965725537,-8928.449026161317,-60031.287077818764,-4423.521986427544
7060.178465864476,-8935.042790775633,-60013.02570259878,-4468.1137166158815
7329.941669695577,-8949.571424671582,-60040.85362444563,-4239.723591771554
7660.434563211747,-8960.568482943592,-60084.17130520002,-3897.071349271697
7519.082131276386,-8948.051506048621,-60092.463802392944,-4004.5608883572686
7140.130655781109,-8914.300371921108,-60039.4231128005,-4410.155643243271
7141.695277892981,-8913.38395039844,-60023.8662986596,-4468.761917205085
7401.489603697015,-8937.970869299277,-60055.046982174754,-4250.385373876736
7704.892182933353,-8963.183637044864,-60094.54251462728,-3909.007180810831
7561.885721908298,-8950.018459560688,-60099.97398852992,-3997.520088853847
7162.683565936514,-8913.182784698341,-60044.4746070474,-4410.513271154556
7141.091780792687,-8915.686180077337,-60022.94987713693,-4480.340120832935
7383.138821499208,-8939.110808266498,-60049.23552861637,-4271.79834506492
7697.560810752012,-8960.903759110422,-60086.92056976802,-3923.3122972622273
7587.925504198731,-8953.862959607,-60099.63871236309,-3980.085728178708
7188.633941249125,-8925.76681682668,-60049.63786001657,-4392.788337801497
7147.104400051165,-8914.948572510311,-60026.59321148315,-4486.844478469429
7376.142725484697,-8928.940764539333,-60043.58053726918,-4296.765243621498
7687.480174002669,-8962.133105055465,-60076.43760161848,-3956.2140651004393
7590.965341444653,-8953.415924717894,-60087.32290116822,-3996.938943498009
7188.209258104474,-8910.053540474599,-60039.33370582268,-4411.027361277028
7130.765274854336,-8909.897078263411,-60018.83715615716,-4520.953240508227
7350.572329827825,-8942.128293767964,-60042.50765353533,-4337.065438874417
7660.814542867487,-8982.741413443258,-60083.433697632994,-3990.680455050523
7576.97314941563,-8970.246788292741,-60105.22664847692,-3999.017655732353
7163.063545592255,-8906.007874728188,-60047.96147918242,-4402.667808850742
7082.016120197311,-8894.116746677964,-60016.49022298935,-4516.371132894889
7293.396567511149,-8917.38491265594,-60030.54947025174,-4330.963412638118
7603.683484039722,-8962.311919011107,-60071.52021783832,-3983.55024856928
7542.797332143466,-8961.082573066065,-60096.53181988381,-3960.326786080216
7132.240489988386,-8902.610409570982,-60041.859452946126,-4357.4055263287455
7040.084247599155,-8885.42191808485,-60008.644760685536,-4480.675396999764
7242.456941897505,-8907.930124751345,-60027.24141207236,-4305.482423959068
7562.980957386609,-8937.546186154626,-60071.38610737159,-3952.190751098484
7533.342544238872,-8944.207006002309,-60101.80683157526,-3908.4036837105377
7117.778911325802,-8915.440310888329,-60057.93035720949,-4312.009133340017
6999.560534901683,-8892.909752477379,-60023.77689168178,-4463.956292147194
7203.073168167254,-8895.837831001023,-60033.186976097466,-4295.558249420911
7527.218166258117,-8927.554956383105,-60068.905063737046,-3949.016803385831
7527.240518002573,-8946.464532192294,-60101.09157575269,-3888.778852078778
7122.4057224280505,-8906.589020084026,-60064.97115671291,-4294.083034286861
7003.539145414728,-8880.437479071317,-60027.55433649473,-4466.929074159751
7210.940982215522,-8891.658054787882,-60042.909984935526,-4313.149072307238
7544.473712977614,-8923.285773192141,-60076.14702894056,-3969.35689084016
7568.255969078061,-8934.461645419795,-60102.29856995327,-3884.889648543555
7160.448391490983,-8893.580304811037,-60058.04211593177,-4287.109290016805
7008.814157106181,-8867.160542864865,-60021.49701374734,-4479.714271988186
7194.735967485424,-8892.95445596629,-60040.36188606762,-4338.026563885995
7519.037427787474,-8929.499558150716,-60082.047889476766,-4001.342237155704
7566.668995221734,-8924.33630518154,-60104.80196533227,-3896.6690178715016
7169.366737528651,-8882.51619130566,-60058.48915082088,-4292.339598219347
7013.731540886348,-8870.625063255437,-60018.07719684568,-4499.160289664304
7201.687360011025,-8892.909752477379,-60032.73994120836,-4361.428840330701
7531.464997704626,-8913.205136442797,-60065.55230206875,-4022.911670555076
7584.192762874694,-8919.061293490087,-60099.01286351834,-3904.20155575294
7182.822487690746,-8882.560894794571,-60051.40364782854,-4290.774976107476
7004.924953570957,-8862.645490484892,-60009.82940314167,-4504.703522289219
7176.765164943357,-8884.19257213981,-60026.25793531632,-4370.190724157182
7497.892677532754,-8906.544316595116,-60058.26563337632,-4036.6579933950898
7581.219980862139,-8911.349941653007,-60085.37829940061,-3886.588381122158
7180.587313245215,-8882.158563394376,-60049.70491524994,-4265.5398566174335
6982.148525970999,-8856.56581599305,-60007.50482171832,-4495.561658806999
7156.760353655858,-8869.194551610297,-60020.669999202495,-4361.294729863969
7492.572962352391,-8899.1011856915,-60055.270499619306,-4022.419932177059
7595.927428713731,-8913.741578309724,-60090.74271806988,-3853.261930139295
7203.944886201011,-8881.063327916067,-60058.42209558751,-4219.74113222851
6992.542087142717,-8858.912749160856,-60012.51161247631,-4464.738603203131
7150.32305125273,-8885.287807618119,-60031.48824351886,-4344.530921522489
7465.773220750478,-8920.067121990576,-60070.60379631565,-4020.967068787464
7584.751556486078,-8927.756122083203,-60102.52208739783,-3837.883929954044
7209.979857203943,-8903.750348538202,-60075.27531090681,-4189.20864930256
6975.33124391213,-8876.257702858175,-60032.69523771945,-4455.037946109527
7118.270649703819,-8865.730031219726,-60036.9197174215,-4360.847694974863
7434.011391879487,-8882.583246539027,-60063.853569490144,-4051.253682524405
7579.230675605617,-8907.997179984712,-60100.82335481922,-3843.3601073455934
7221.446302109516,-8882.560894794571,-60075.27531090681,-4177.250466018971
6975.733575312326,-8854.867083414447,-60030.92944990748,-4461.83287642394
7109.464062388428,-8864.344223063496,-60037.25499358833,-4375.711605037643
7415.213574792573,-8898.765909524669,-60073.5318748393,-4073.001929879419
7580.325911083926,-8917.250802189208,-60115.396692204085,-3848.121028914575
7238.746552317924,-8874.76013597967,-60085.64652033407,-4160.799582099865
6980.919180025957,-8836.963336105746,-60026.72732194988,-4452.579254219443
7095.360111637129,-8852.542501991094,-60034.90806042052,-4383.713529552642
7399.768519373956,-8886.76302275217,-60065.30643287974,-4088.849316698232
7588.014911176552,-8907.661903817881,-60103.21499147594,-3845.148246902019
7255.219787981486,-8874.626025512938,-60079.253921419855,-4143.164055724627
6969.877418265035,-8841.545443719084,-60032.73994120836,-4454.523855987055
7082.865486486613,-8848.787408922602,-60036.20446159893,-4392.676579079221
7377.774402829934,-8882.493839561206,-60065.93228172449,-4106.90952621812
7574.693271481189,-8908.265400918175,-60108.534706656304,-3848.2551393813055
7257.074982771276,-8881.733880249725,-60093.5366861268,-4125.8414537717645
6958.545083826195,-8836.69511517228,-60039.26665058931,-4451.238149552125
7042.878215656068,-8834.281126771108,-60037.5232145218,-4401.684332094709
7337.161283154641,-8860.32090906154,-60064.769991012814,-4117.548956578846
7558.845884662376,-8875.698909246792,-60097.04591000628,-3842.019002678276
7260.785372350857,-8829.788426135592,-60075.14120044008,-4104.987276194964
6943.658822018961,-8802.943981044767,-60030.72828420738,-4450.0311553515385
7027.768436404281,-8816.667952140326,-60029.83421442917,-4410.803843832475
7322.207966114041,-8841.076057085522,-60058.42209558751,-4131.183520696583
7552.609747959345,-8860.298557317086,-60093.648444849074,-3846.4446480804254
7264.652224141625,-8833.32000175953,-60081.42204063202,-4092.4032440666256
6938.517920794239,-8801.245248466164,-60025.1179963491,-4445.761972160575
7019.252421766809,-8806.855536324447,-60020.2676678023,-4413.441349678201
7314.586021254781,-8825.541594689083,-60048.09558964916,-4135.408000398636
7557.214207317139,-8841.813664652547,-60088.194619201975,-3839.4709038103706
7282.734785405968,-8819.707789386248,-60077.443430118976,-4074.924179902576
6950.632566289016,-8784.034405235578,-60021.65347595853,-4439.59289069091
7022.560479946194,-8797.445451908761,-60019.19478406845,-4414.44717817869
7319.883384690689,-8828.201452279265,-60044.69812449195,-4134.022192242407
7563.338585297894,-8851.42491476833,-60087.568770357226,-3830.239633350329
7278.666767915102,-8816.287972484586,-60079.00805223085,-4062.9212931300754
6924.503377020762,-8781.888637767868,-60019.664170702,-4443.236225037125
7000.521659913262,-8782.961521501724,-60013.606847954616,-4421.040942793005
7291.675483188091,-8802.653408366848,-60051.44835131745,-4148.729640094
7544.92074786672,-8830.74955114717,-60095.92832278351,-3840.8567119666
7289.105032575731,-8810.297704970564,-60086.42883139001,-4046.559816188791
