 EXG Channel 0, EXG Channel 1, EXG Channel 2, EXG Channel 3
-32490.38398151207,-21183.77640053945,-67093.05251753957,-20858.156187314533
-32198.447847181305,-21148.48299604452,-67190.72964080927,-20904.290187870287
-32073.747464865148,-21175.52860683544,-67195.87054203398,-20933.034531239813
-32377.373561546035,-21230.40213947322,-67078.70269759926,-20888.532208029297
-32551.471299108423,-21218.66747363418,-67048.79606351806,-20854.55755645723
-32507.930100909485,-21192.672394832654,-67097.47816294171,-20865.48755949588
-32216.41864972337,-21156.864900215256,-67194.44003038884,-20909.632254795102
-32086.39855222685,-21177.80848476988,-67198.19512345734,-20932.051054483774
-32389.4435035519,-21228.97162782808,-67083.79889533507,-20887.906359184548
-32566.536374871303,-21221.14851726872,-67063.54821485856,-20859.11731232611
-32511.931063166987,-21189.789019797925,-67107.06706131305,-20861.75481817184
-32216.9550915903,-21157.75896999347,-67214.53424865416,-20912.873257741125
-32082.39758996935,-21180.49069410452,-67223.78787085866,-20940.58942086571
-32378.91583191345,-21233.01729357449,-67112.20796253777,-20901.540923302284
-32553.192383431484,-21225.52945918196,-67089.85621808245,-20872.99774563286
-32497.13420833757,-21188.87259827526,-67131.05048311359,-20872.55071074375
-32196.77146634716,-21157.289583359907,-67233.51087969671,-20917.70123454347
-32053.72030183319,-21187.889121519223,-67240.90930711142,-20945.3950459236
-32344.15886928545,-21232.50320345201,-67118.51115447417,-20898.2328651229
-32517.16137136953,-21216.4099474442,-67081.27314821162,-20862.85005365015
-32459.650332886024,-21184.15638019519,-67115.91835211734,-20861.151321071546
-32162.68505605281,-21146.33722857681,-67219.27281847868,-20913.09677518568
-32023.18781890724,-21178.322574892358,-67234.02496981919,-20950.155967492577
-32308.083153734584,-21223.696616136625,-67107.98348283571,-20899.126934901116
-32479.386923240058,-21208.475078162563,-67073.80766556355,-20859.273774537294
-32430.99539649432,-21179.104885948287,-67118.24293354069,-20867.2756990523
-32132.77842197161,-21150.0923216453,-67216.52355391068,-20916.24837115388
-31991.202472591696,-21178.791961525912,-67221.99973130223,-20945.66326685706
-32281.8198539996,-21225.462403948597,-67100.62975890991,-20897.42820232251
-32458.733911363357,-21216.72287186657,-67076.26635745363,-20869.533225242285
-32406.788457249226,-21190.1019442203,-67126.98246562273,-20881.491408525875
-32107.319785037016,-21154.272097858444,-67220.32335046808,-20921.925714245524
-31962.100501310888,-21176.400324869195,-67219.74220511224,-20946.982019779924
-32252.114385618497,-21225.127127781765,-67101.47912519921,-20906.45830708245
-32428.290835415228,-21218.30984572289,-67076.04284000908,-20876.99870789036
-32378.42409353544,-21187.531493607938,-67114.33137826102,-20881.91609167053
-32083.068142303007,-21154.830891469825,-67209.59451312954,-20927.42424338153
-31939.838163833403,-21188.693784319614,-67220.54686791264,-20960.48247343093
-32229.76264116319,-21247.233003048063,-67108.65403516937,-20919.824650266728
-32403.301585114197,-21237.48764246555,-67080.89316855588,-20884.24067309388
-32346.50580245326,-21197.701537335102,-67109.32458750303,-20876.775190445805
-32054.01087451111,-21163.481016574027,-67215.74124285475,-20923.110356701654
-31911.496151864078,-21187.97852849705,-67228.70525463883,-20954.603964639184
-32200.12422801545,-21238.24760177703,-67117.41591899586,-20910.034586195303
-32385.487244783315,-21234.514860452997,-67091.19732274978,-20878.04923987976
-32335.28522673669,-21190.28075817594,-67129.35175053499,-20883.257196337843
-32037.22471442517,-21150.718170490047,-67215.83064983257,-20920.830478767217
-31887.80330274145,-21171.505292833484,-67224.68194063687,-20944.47862440093
-32177.72778007124,-21223.853078347813,-67108.1399450469,-20896.51178079984
-32354.239506034795,-21209.592665385328,-67081.13903774488,-20860.972507115905
-32303.14341820996,-21176.623842313747,-67119.42757599683,-20863.475902494894
-32013.01777518008,-21152.88628970221,-67214.69071086535,-20913.99084496389
-31863.61871524081,-21172.1981969116,-67224.01138830322,-20943.741016833905
-32155.152518171373,-21221.95318006911,-67103.06609905555,-20899.77513549032
-32338.36976747153,-21214.845325332324,-67073.1818167188,-20869.80144617575
-32294.180368683385,-21187.41973488566,-67118.42174749634,-20883.100734126656
-32005.641699509823,-21155.479092059028,-67214.42248993188,-20929.48060387142
-31859.438939027663,-21173.47224634555,-67217.46232717781,-20954.402798939085
-32153.90082048188,-21226.15530802671,-67100.42859320981,-20912.04624319628
-32335.35228197006,-21218.645121889727,-67068.68911608329,-20875.590547989672
-32287.698362791347,-21186.97269999656,-67105.65890141236,-20875.814065434228
-32001.12664712985,-21158.60833628277,-67205.68295784986,-20922.842135768195
-31850.16296507871,-21184.737525551027,-67216.27768472167,-20955.38627569512
-32143.194334887787,-21238.02408433248,-67101.7920496216,-20914.259065897357
-32325.897494065463,-21229.217497017085,-67065.55987185954,-20875.94817590096
-32279.361162109515,-21196.651005345702,-67097.47816294171,-20883.726582971405
-31983.602879476894,-21154.31680134735,-67195.28939667814,-20932.25222018388
-31835.813145138403,-21174.03103995693,-67209.14747824043,-20957.353229207187
-32137.472288307228,-21243.09793032383,-67102.10497404396,-20915.577818820217
-32322.701194608355,-21235.811261631403,-67068.95733701675,-20882.40783004854
-32276.097807419043,-21189.72196456456,-67103.64724441139,-20885.69353648347
-31989.146112101807,-21153.33332459132,-67198.3068821796,-20929.324141660232
-31838.40594749522,-21171.594699811307,-67205.59355087204,-20954.872185572647
-32130.49854403717,-21221.10381377981,-67095.17593326283,-20912.873257741125
-32316.889741049978,-21222.13199402476,-67061.7824270466,-20878.13864685758
-32273.080321917576,-21192.51593262147,-67097.54521817509,-20881.536112014783
-31986.285088811528,-21158.697743260596,-67197.30105367913,-20930.821708538737
-31835.142592804743,-21184.29049066192,-67220.65862663492,-20965.176339766545
-32123.770668956124,-21229.262200506,-67097.92519783083,-20914.080251941712
-32307.30084267865,-21222.53432542495,-67061.8271305355,-20877.982184646396
-32260.74215897825,-21190.817200042868,-67099.78039262061,-20885.492370783373
-31971.287068282018,-21152.10397864628,-67195.98230075625,-20927.42424338153
-31820.43514495315,-21171.52764457794,-67212.32142595308,-20958.761389107876
-32109.26438680463,-21228.81516561689,-67098.72986063121,-20914.48258334191
-32296.90728150693,-21228.97162782808,-67067.8844532829,-20879.81502769173
-32257.27763858767,-21200.003767014,-67108.58697993601,-20883.391306804577
-31964.84976587889,-21155.94847869259,-67197.99395775724,-20919.46702235544
-31811.092115770836,-21175.72977253554,-67217.05999577761,-20949.48541515892
-32099.49667447766,-21225.86473534879,-67103.22256126674,-20906.391251849087
-32282.311592377617,-21215.091194521334,-67069.06909573902,-20867.633326963583
-32243.821888425577,-21189.945482009112,-67108.00583458017,-20872.394248532564
-31960.044140821,-21151.65694375717,-67202.08432699255,-20918.12591768812
-31799.20098772061,-21174.14279867921,-67221.10566152402,-20953.28521171632
-32089.483092961684,-21245.62367744728,-67108.05053806907,-20916.94127523199
-32277.68478127537,-21249.15525307122,-67073.20416846326,-20883.19014110448
-32232.869533642475,-21202.507162392994,-67104.92129384534,-20876.84224567917
-31941.156916756263,-21152.59571702429,-67195.02117574468,-20914.817859508737
-31780.649039822703,-21180.42363887115,-67219.67514987888,-20952.167624493555
-32065.54437465005,-21229.39631097273,-67101.21090426575,-20904.60311229266
-32253.611952497,-21209.99499678552,-67070.81253180654,-20864.45937925093
-32212.574149677057,-21176.13210393573,-67113.88434337192,-20872.08132411019
-31925.778916571013,-21149.84645245629,-67203.24661770424,-20915.51076358685
-31759.61604829026,-21172.153493422687,-67216.52355391068,-20942.84694705569
-32044.39962439533,-21217.19225850013,-67103.02139556664,-20898.85871396765
-32231.23785629724,-21209.413851429683,-67071.41602890682,-20862.80535016124
-32194.312774457077,-21178.76960978146,-67110.59863693698,-20867.387457774577
-31904.947090738668,-21142.0903971303,-67203.7160043378,-20913.677920541515
-31746.361463828263,-21173.248728901,-67225.24073424825,-20953.218156482955
-32032.083813200454,-21225.37299697077,-67103.71429964475,-20908.671129783528
-32219.7043561583,-21213.52657240946,-67067.12449397141,-20872.304841554746
-32180.141768472407,-21180.02130747096,-67105.54714269009,-20879.166827102523
-31888.831482986392,-21138.98350465101,-67189.58970184204,-20917.76828977684
-31726.46841126304,-21172.66758354516,-67217.99876904473,-20959.23077574143
-32005.86521695438,-21227.876392349768,-67103.15550603336,-20919.489374099896
-32188.99305927671,-21219.405081201206,-67065.13518871489,-20887.168751617523
-32149.877506479923,-21187.86676977477,-67100.9873868212,-20892.376708075608
-31861.36118905082,-21151.70164724608,-67196.98812925674,-20931.55931610576
-31689.94566082307,-21175.036868457424,-67219.13870801196,-20960.77304610885
-31970.348295014897,-21224.970665570578,-67107.4917444577,-20921.21045842296
-32159.60051531798,-21215.29236022143,-67068.91263352784,-20882.519588770818
-32116.908683408343,-21184.89398776221,-67112.29736951558,-20887.727545228907
-31827.520647945483,-21156.61903102625,-67210.42152767438,-20937.013141752857
-31658.02736974089,-21175.685069046627,-67225.19603075934,-20970.093723546717
-31937.9382655547,-21226.28941849344,-67113.79493639409,-20927.40189163708
-32125.625863745918,-21225.127127781765,-67082.61425287894,-20895.349490088163
-32079.424807956795,-21186.346851151808,-67113.99610209418,-20896.265911610837
-31786.482845125534,-21146.51604253245,-67203.9618735268,-20934.174470207032
-31615.514351786896,-21172.28760388942,-67229.50991743922,-20970.607813669183
-31896.36402086783,-21225.64121790424,-67113.99610209418,-20928.921810260035
-32087.180863282785,-21207.40219442871,-67077.13807548738,-20888.398097562564
-32049.205249453214,-21177.87554000325,-67119.87461088593,-20890.543865030275
-31759.012551189968,-21146.71720823255,-67217.99876904473,-20931.872240528137
-31583.327839771253,-21170.99120271101,-67245.4243594914,-20966.964479322967
-31867.194994353653,-21222.891953336235,-67126.64718945589,-20919.19880142198
-32057.40833966832,-21214.13006950976,-67088.5821686485,-20877.803370690748
-32014.984728692143,-21187.755011052494,-67128.45768075678,-20882.31842307072
-31730.80464968737,-21166.632612542227,-67227.25239124923,-20925.725510802928
-31555.835194091225,-21181.451819116097,-67250.63231594948,-20959.498996674894
-31829.9122846022,-21213.414813687185,-67130.98342788023,-20913.454403096963
-32016.638757781835,-21196.740412323525,-67086.72697385872,-20873.467132266414
-31981.255946309084,-21177.74142953652,-67132.01160812516,-20883.391306804577
-31699.735724894494,-21152.059275157368,-67231.34276048455,-20933.928601018026
-31518.91011225106,-21167.347868364795,-67253.91802238442,-20960.683639131028
-31794.82004580737,-21234.69367440864,-67138.94064890631,-20913.52145833033
-31983.08878935442,-21224.702444637114,-67105.12245954544,-20875.568196245214
-31937.535934154505,-21184.558711595382,-67141.13111986293,-20879.055068380247
-31643.006997466924,-21143.94559192009,-67228.45938544982,-20923.4903363574
-31464.729483691397,-21170.14183642171,-67258.99186837577,-20964.841063599717
-31741.06410039236,-21225.551810926416,-67143.03101814163,-20924.183240435512
-31928.12584973882,-21215.515877665985,-67102.10497404396,-20883.19014110448
-31887.423323085703,-21186.48096161854,-67140.01353264017,-20885.358260316643
-31599.06346786779,-21154.47326355854,-67236.52836519819,-20926.977208492423
-31419.377794191576,-21175.90858649118,-67261.89759515495,-20962.404723454085
-31694.70658239205,-21227.809337116403,-67144.03684664212,-20924.607923580163
-31887.11039866333,-21222.668435891683,-67105.32362524552,-20890.47680979691
-31849.514764489504,-21198.662662346684,-67147.05433214358,-20895.12597264361
-31567.14517678561,-21172.04173470041,-67245.8713943805,-20940.656476099077
-31386.677192053463,-21187.352679652297,-67260.623545721,-20965.91394733357
-31664.06234074382,-21237.375883743272,-67146.0485036431,-20921.925714245524
-31856.73437794857,-21230.37978772876,-67108.341110747,-20882.18431260399
-31820.457496697607,-21211.11258400829,-67150.63061125643,-20890.499161541364
-31534.33281592522,-21175.90858649118,-67249.85000489355,-20937.57193536424
-31348.053377634693,-21190.19135119812,-67273.18522610489,-20974.34055499322
-31619.67177625558,-21233.777252885968,-67152.64226825742,-20930.95581900547
-31807.225263980064,-21217.035796288943,-67107.58115143552,-20887.52637952881
-31769.80844376188,-21189.543150608915,-67147.52371877716,-20895.50595229935
-31484.75664672335,-21149.689990245104,-67243.14448155696,-20936.36494116365
-31290.96702229584,-21159.72592350553,-67267.10555161304,-20966.606851411685
-31564.06063605078,-21224.456575448105,-67159.03486717163,-20936.074368485733
-31758.453757578583,-21220.41090970169,-67118.84643064099,-20897.89758895607
-31719.06998384833,-21194.19231345562,-67155.01155316968,-20898.702251756466
-31432.16299202001,-21158.071894415843,-67246.877222881,-20938.75657782037
-31242.776661250195,-21177.853188258792,-67269.72070571431,-20968.9984880684
-31512.584568570208,-21234.894840108736,-67159.19132938283,-20929.27943817132
-31704.295480763376,-21233.0619970634,-67120.9921981087,-20897.919940700525
-31664.3752651662,-21202.328348437357,-67157.49259680422,-20902.546751802773
-31379.099950683118,-21165.649135786192,-67250.67701943839,-20939.248316198387
-31194.58630020455,-21181.496522605004,-67273.45344703835,-20968.86437760167
-31466.048236614257,-21237.331180254365,-67154.18453862483,-20920.964589233947
-31662.676532587597,-21239.923982611177,-67121.21571555325,-20884.82181844972
-31628.07603217078,-21212.632502631248,-67163.9522509518,-20891.03560340829
-31348.58981950162,-21172.555824822884,-67255.90732764093,-20932.49808937289
-31165.39492194592,-21186.905644763192,-67280.51659828622,-20968.86437760167
-31435.851029855137,-21234.42545347517,-67158.02903867114,-20929.592362593696
-31628.433660082064,-21227.652874905216,-67113.61612243846,-20887.213455106437
-31595.57659573276,-21193.16413321068,-67157.33613459303,-20890.0297749078
-31311.08359230561,-21152.10397864628,-67242.58568794557,-20928.43007188202
-31129.520372095158,-21186.19038894062,-67284.62931926601,-20972.708877647983
-31404.782105062262,-21229.508069695006,-67173.56350106759,-20927.31248465925
-31601.54451150233,-21215.20295324361,-67129.82113716855,-20884.330080071697
-31568.396874475107,-21182.077667960843,-67164.84632073001,-20884.46419053843
-31291.4364089294,-21148.79592046689,-67261.24939456575,-20928.3406649042
-31105.089915405504,-21161.491711317507,-67285.94807218887,-20963.075275787745
-31378.51880532728,-21213.124241009267,-67164.73456200774,-20916.024853709325
-31582.277307781853,-21212.811316586893,-67121.1933638088,-20872.304841554746
-31555.96930455796,-21185.542188351417,-67156.55382353709,-20876.506969512346
-31283.2333187143,-21148.840623955803,-67243.5244612127,-20922.10452820117
-31100.977194425726,-21170.499464333,-67269.20661559184,-20962.985868809923
-31378.02706694926,-21232.12322379628,-67154.56451828057,-20924.674978813528
-31583.998392104917,-21224.68009289266,-67106.66472991285,-20886.185274861487
-31558.58445865923,-21190.66073783168,-67132.88332615893,-20887.727545228907
-31289.1341792505,-21159.971792694545,-67228.54879242764,-20929.23473468241
-31104.285252605117,-21176.445028358103,-67255.57205147411,-20966.85272060069
-31378.45175009391,-21227.54111618294,-67134.15737559288,-20922.819784023737
-31586.83706365074,-21229.664531906197,-67092.71724137274,-20886.408792306043
-31561.043150549314,-21194.728755322547,-67121.08160508653,-20883.927748671504
-31293.179844996917,-21154.33915309181,-67215.71889111029,-20925.52434510283
-31107.3921450844,-21170.76768526646,-67248.66536243742,-20962.71764787646
-31391.035782222247,-21227.988151072044,-67131.85514591399,-20920.942237489493
-31601.477456268964,-21223.562505669892,-67094.37127046243,-20880.08324862519
-31575.77295014536,-21195.980453012045,-67133.48682325921,-20877.28928056828
-31302.52287417923,-21153.84741471379,-67227.72177788279,-20915.26489439784
-31116.48930507771,-21166.632612542227,-67254.07448459559,-20948.904269803083
-31398.478913125866,-21222.735491125048,-67144.59564025351,-20912.35916761865
-31609.97111916198,-21207.804525828906,-67102.66376765535,-20872.729524699396
-31587.082932839745,-21168.823083498846,-67137.48778551671,-20872.41660027702
-31321.29833952169,-21142.98446690851,-67231.67803665138,-20915.01902520884
-31132.31434015207,-21163.43631308512,-67257.85192940854,-20948.680752358527
-31406.2126167074,-21209.43620317414,-67141.6005064965,-20905.11720241513
-31614.2626540974,-21195.958101267588,-67094.0806977845,-20863.788826917276
-31593.676697454062,-21162.22931888453,-67125.35078827749,-20866.292222296262
-31331.28956929321,-21132.434443525606,-67222.44676619134,-20912.3368158742
-31144.69720658031,-21148.840623955803,-67254.38740901797,-20947.361999435663
-31425.680986127973,-21205.658758361194,-67138.87359367295,-20911.19687690698
-31641.576485821784,-21205.81522057238,-67098.12636353092,-20876.685783467983
-31623.382165835163,-21183.57523483935,-67134.06796861505,-20883.123085871117
-31350.176793357947,-21141.084568629813,-67221.39623420194,-20921.3892723786
-31162.243325977724,-21154.205042625075,-67250.45350199383,-20953.307563460778
-31442.89182935856,-21216.164078255188,-67139.20886983977,-20916.024853709325
-31658.273238929894,-21224.143651025734,-67100.76386937665,-20883.324251571208
-31638.02255845339,-21189.319633164363,-67131.56457323606,-20882.094905626167
-31365.800662732207,-21151.41107456816,-67218.49050742276,-20921.41162412305
-31178.64950640792,-21167.504330575983,-67241.78102514517,-20950.066560514755
-31453.710073674927,-21222.668435891683,-67131.02813136914,-20910.52632457332
-31669.53851813537,-21219.986226557045,-67090.19149424929,-20876.46226602343
-31650.78540453737,-21183.686993561627,-67120.50045973068,-20876.26110032333
-31389.515863599285,-21149.153548378177,-67212.18731548636,-20920.718720044937
-31198.69902118433,-21160.418827583653,-67242.11630131201,-20956.705028617984
-31474.966582651927,-21217.92986606716,-67127.36244527846,-20913.454403096963
-31695.198320770065,-21215.42647068816,-67087.39752619238,-20876.685783467983
-31676.244041471964,-21183.10584820579,-67120.83573589752,-20877.110466612638
-31411.286462698758,-21149.13119663372,-67208.32046369559,-20914.28141764181
-31222.19070460686,-21170.81238875537,-67240.66343792241,-20948.18901398051
-31499.575853297218,-21237.15236629872,-67128.92706739034,-20910.213400150944
-31720.29932979337,-21226.04354930443,-67081.36255518944,-20865.86753915161
-31706.19537904208,-21186.81623778537,-67116.70066317328,-20859.586698959676
-31446.15518404904,-21148.70651348907,-67209.6615683629,-20899.79748723477
-31258.221716668813,-21165.358563108275,-67246.13961531396,-20941.21526971045
-31533.10346998018,-21222.78019461396,-67139.2535733287,-20909.073461183725
-31753.35755984277,-21218.66747363418,-67090.12443901593,-20869.22030081991
-31740.55001026988,-21189.96783375357,-67122.42270975384,-20872.88598691058
-31478.31934432022,-21154.80853972537,-67212.94727479783,-20914.99667346438
-31286.541376893685,-21176.75795278048,-67249.17945255988,-20953.95576404998
-31566.67579015205,-21227.67522664967,-67139.72295996225,-20914.795507764284
-31789.947365516116,-21218.44395618963,-67090.95145356077,-20872.75187644385
-31780.090246211323,-21193.275891932957,-67123.22737255423,-20873.93651889998
-31523.738089053404,-21159.994144439,-67212.74610909773,-20913.81203100825
-31333.10006059409,-21172.265252144964,-67246.22902229178,-20950.60300238169
-31610.418154051087,-21224.031892303454,-67128.72590169024,-20911.33098737371
-31834.87437187128,-21216.097023021823,-67080.82611332252,-20869.22030081991
-31830.649892169225,-21187.129162207744,-67119.56168646357,-20874.584719489183
-31583.216081048977,-21155.076760658834,-67213.59547538703,-20921.29986540077
-31395.707296813405,-21174.03103995693,-67249.67119093791,-20964.90811883308
-31675.17115773811,-21229.217497017085,-67136.66077097187,-20921.23281016741
-31903.293061648976,-21220.23209574605,-67087.24106398119,-20875.4787892674
-31895.91698597872,-21192.940615766125,-67116.25362828418,-20874.294146811266
-31644.63867481216,-21160.68704851712,-67206.15234448342,-20912.582685063207
-31452.99481785236,-21164.77741775244,-67240.46227222231,-20946.177356979533
-31736.28082707892,-21217.81810734488,-67130.6481517134,-20903.19495239198
-31966.883774624323,-21219.002749801013,-67080.02145052212,-20855.87630938009
-31966.81671939096,-21191.10777272079,-67109.9951398367,-20850.333076755174
-31716.588940213795,-21152.95334493558,-67206.88995205045,-20896.46707731093
-31534.735147325417,-21178.657851059183,-67249.29121128217,-20948.5466418918
-31817.39530770723,-21219.49448817903,-67130.98342788023,-20905.22896113741
-32058.414168168805,-21199.24380770252,-67077.00396502066,-20855.496329724352
-32067.53367990657,-21167.48197883153,-67107.7376136467,-20856.166882058013
-31823.34087173234,-21130.780414435914,-67196.09405947854,-20897.3834988336
-31631.920532217093,-21142.939763419603,-67220.23394349027,-20929.726473060426
-31911.518503608528,-21201.76955482597,-67108.65403516937,-20889.068649896224
-32142.79200348759,-21195.86869428977,-67062.85531078045,-20846.153300542035
-32140.154497641863,-21167.32551662034,-67097.14288677489,-20851.80829188923
-31887.31156436343,-21133.060292370355,-67189.23207393075,-20892.95785343145
-31688.157521266643,-21144.124405875733,-67222.62558014698,-20928.273609670832
-31963.08397806692,-21200.76372632548,-67114.17491604983,-20891.147362130567
-32191.36234418897,-21201.657796103693,-67070.79018006207,-20852.635306434076
-32186.400256919893,-21169.13600792122,-67107.33528224651,-20853.395265745552
-31928.729346839114,-21133.060292370355,-67207.82872531757,-20899.350452345665
-31723.22740831702,-21151.81340596836,-67246.9219263699,-20939.181260965022
-31988.54261500152,-21208.13980199573,-67130.75991043568,-20895.79652497727
-32210.830713609543,-21210.330272952357,-67086.54815990308,-20860.950155371447
-32197.374963447448,-21185.58689184033,-67121.55099172008,-20869.555576986742
-31940.44166093369,-21152.171033879644,-67213.52842015367,-20915.175487420023
-31730.447021776086,-21156.48492055952,-67248.77712115968,-20950.938278548518
-31993.459998781684,-21204.76468858298,-67132.01160812516,-20904.893684970582
-32220.91135035889,-21209.838534574337,-67086.63756688089,-20867.633326963583
-32209.891940342422,-21194.97462451156,-67123.20502080978,-20874.0259258778
-31946.61074240336,-21162.050504928888,-67214.40013818743,-20915.778984520315
-31734.872667178235,-21183.463476117075,-67257.04726660816,-20958.649630385597
-31996.879815683344,-21230.692712151136,-67145.33324782053,-20918.75176653287
-32217.715050901777,-21214.77827009896,-67098.05930829755,-20876.104638112145
-32202.26999548316,-21176.93676673612,-67125.55195397759,-20873.22126307741
-31940.26284697805,-21148.14771987769,-67215.58478064356,-20915.19783916448
-31724.1885333286,-21165.515025319462,-67256.33201078558,-20954.872185572647
-31984.049914366,-21217.974569556067,-67137.24191632771,-20914.303769386264
-32206.114495529477,-21215.20295324361,-67080.49083715568,-20871.477827009898
-32190.557681388585,-21185.16220869568,-67109.86102936996,-20866.694553696463
-31928.05879450545,-21148.79592046689,-67202.73252758176,-20904.37959484811
-31708.385849998696,-21152.372199579742,-67241.4681007228,-20940.231792954422
-31965.02857983453,-21213.258351476,-67133.71034070376,-20905.720699515427
-32185.75205633069,-21203.401232171207,-67078.76975283262,-20862.403018761044
-32172.31865791305,-21172.80169401189,-67112.45383172677,-20867.61097521913
-31911.29498616397,-21143.81148145336,-67208.38751892895,-20911.42039435153
-31689.78919861188,-21162.721057262548,-67254.61092646253,-20959.208423996977
-31936.731271354118,-21221.0591102909,-67143.38864605292,-20925.09966195818
-32151.911515225354,-21221.57320041337,-67089.85621808245,-20880.642042236574
-32139.193372630285,-21195.108734978287,-67123.20502080978,-20879.211530591438
-31873.9228694347,-21155.076760658834,-67214.69071086535,-20920.025815966823
-31655.903954017635,-21164.28567937442,-67255.32618228509,-20957.464987929463
-31914.46893387663,-21218.890991078733,-67141.26523032966,-20915.46606009794
-32139.21572437474,-21223.38369171425,-67092.02433729463,-20873.60124273315
-32126.96696841323,-21198.86382804678,-67127.92123888984,-20876.350507301155
-31866.74795946455,-21177.361449880773,-67224.86075459252,-20924.56322009125
-31645.82331726829,-21188.02323198596,-67268.87133942501,-20970.518406691364
-31895.08997143388,-21229.262200506,-67153.73750373573,-20927.58070559272
-32116.17107584132,-21228.41283421669,-67107.2458752687,-20886.855827195148
-32095.54041570907,-21199.24380770252,-67139.07475937305,-20886.27468183931
-31828.92880784617,-21169.0466009434,-67231.38746397346,-20929.05592072677
-31599.644613223627,-21173.38283936773,-67270.50301677025,-20968.797322368304
-31844.373863264784,-21232.279686007463,-67158.23020437124,-20932.47573762843
-32060.11290074741,-21235.386578486752,-67111.02332008163,-20892.42141156452
-32040.778641793568,-21201.0542990034,-67142.67339023035,-20893.27077785382
-31775.88811825372,-21160.061199672367,-67231.09689129554,-20934.509746373864
-31541.686539851016,-21161.111731661767,-67267.3737725465,-20972.954746836996
-31787.57808060385,-21227.25054350502,-67163.21464338478,-20942.28815344431
-32006.89339719932,-21237.9123256102,-67115.22544803923,-20905.05014718177
-31980.294821297502,-21200.33904318083,-67135.52083200465,-20898.14345814508
-31711.38098375571,-21160.03884792791,-67226.2689144932,-20936.85667954167
-31478.27464083131,-21164.352734607783,-67265.98796439028,-20975.569900938262
-31718.242969303486,-21217.19225850013,-67151.03294265663,-20930.53113586082
-31936.440698676197,-21219.96387481259,-67099.17689552032,-20886.006460905846
-31914.89361702128,-21188.760839552982,-67127.4965557452,-20882.251367837354
-31646.315055646308,-21150.874632701238,-67213.19314398685,-20920.42814736702
-31412.404049921523,-21163.72688576304,-67260.37767653199,-20966.49509268941
-31655.65808482863,-21219.382729456756,-67147.56842226606,-20930.687598072007
-31877.11916889181,-21222.891953336235,-67101.47912519921,-20888.71102198494
-31857.203764582133,-21196.807467556893,-67138.58302099502,-20888.3310423292
-31585.63006945015,-21158.831853727326,-67225.08427203707,-20924.85379276917
-31352.05433989219,-21170.38770561072,-67272.46997028231,-20972.127732292145
-31603.355002803208,-21238.985209344057,-67167.64028878693,-20943.40574066708
-31826.559522933905,-21242.315619267894,-67116.90182887338,-20903.217304136437
-31805.392420934728,-21206.19520022812,-67147.0990356325,-20897.025870922316
-31540.39013867261,-21168.353696865284,-67239.61290593301,-20938.39894990909
-31304.936862580405,-21170.454760844084,-67287.04330766718,-20982.454238230497
-31552.19185974501,-21219.650950390216,-67176.44687610232,-20947.42905466903
-31773.42942636364,-21211.29139796393,-67114.33137826102,-20900.46803956843
-31754.69866451009,-21183.038792972424,-67141.77932045214,-20897.78583023379
-31497.787713740792,-21158.362467093764,-67237.6683041654,-20949.887746559118
-31260.65805681444,-21166.118522419754,-67273.54285401617,-20986.00816559889
-31505.1861411555,-21226.647046404727,-67152.19523336831,-20942.936354033514
-31731.74342295449,-21230.737415640047,-67095.66767164084,-20896.42237382202
-31713.90673087916,-21194.21466520008,-67122.0427300981,-20888.82278070721
-31440.83546886867,-21155.81436822586,-67213.8636963205,-20925.658455569563
-31199.45898049581,-21172.57817656734,-67261.69642945485,-20973.06650555927
-31444.16587879251,-21227.317598738384,-67144.39447455341,-20931.04522598329
-31671.61723036972,-21225.23888650404,-67089.40918319335,-20886.65466149505
-31656.485099373476,-21192.270063432465,-67124.05438709908,-20885.71588822793
-31384.464369352387,-21152.75217923548,-67215.07069052108,-20919.690539799994
-31137.164668698868,-21168.845435243304,-67267.19495859086,-20966.91977583406
-31387.03481996475,-21242.807357645917,-67149.15539612238,-20930.553487605277
-31622.801020479325,-21246.45069199213,-67091.66670938334,-20886.27468183931
-31612.83214245226,-21204.585874627337,-67122.62387545394,-20885.827646950205
-31347.561639256677,-21158.965964194056,-67214.51189690971,-20925.725510802928
-31103.3911828269,-21171.170016666656,-67260.10945559853,-20968.70791539048
-31361.129148141048,-21242.06975007889,-67152.39639906841,-20937.68369408652
-31597.07416261127,-21231.787947629447,-67096.56174141905,-20890.879141197103
-31584.758351416396,-21192.672394832654,-67125.8425266555,-20884.71005972744
-31315.509237707764,-21153.601545524783,-67220.88214407947,-20922.596266579185
-31067.740150420686,-21163.056333429377,-67270.83829293709,-20969.937261335526
-31324.002900600783,-21231.56443018489,-67164.82396898555,-20943.942182534003
-31563.43478720603,-21227.697578394127,-67108.31875900255,-20900.021004679325
-31556.595153402708,-21194.05820298889,-67143.03101814163,-20900.42333607952
-31289.7376763508,-21159.61416478326,-67245.80433914713,-20948.658400614077
-31044.226115253703,-21176.065048702367,-67297.61568279454,-20997.74283143793
-31301.5393974232,-21238.940505855146,-67182.23597791624,-20961.465950186965
-31547.430938176032,-21237.10766280981,-67123.13796557642,-20913.722624030423
-31534.75749906987,-21197.81329605738,-67151.47997754574,-20906.570065804728
-31259.875745758505,-21162.67635377364,-67249.80530140463,-20945.75267383488
-31007.211626435717,-21175.975641724544,-67298.71091827285,-20989.159761567087
-31266.268344672724,-21230.20097377312,-67170.94834696631,-20946.870261057647
-31510.885835991605,-21229.239848761543,-67115.11368931696,-20901.09388841318
-31501.76632425384,-21199.10969723579,-67152.35169557949,-20897.96464418944
-31225.40935580842,-21158.988315938517,-67250.22998454928,-20938.488356886908
-30966.196175360223,-21173.606356812285,-67303.5835985641,-20986.566959210275
-31223.4200505519,-21243.1649855572,-67187.26512041868,-20958.09083677421
-31468.104597104146,-21236.05713082041,-67123.31677953205,-20906.726528015915
-31457.88984988807,-21203.04360425992,-67163.88519571844,-20906.90534197156
-31181.71169539829,-21164.308031118875,-67262.03170562169,-20947.272592457844
-30921.17976202724,-21165.313859619364,-67313.08308995761,-20993.071316846766
-31175.90024183992,-21226.378825471264,-67190.10379196452,-20958.023781540847
-31416.98615753486,-21224.2107062591,-67126.33426503353,-20907.061804182747
-31403.95509051741,-21188.02323198596,-67157.53730029313,-20901.250350624367
-31129.63213081743,-21143.09622563079,-67249.55943221562,-20937.59428710869
-30867.669685801236,-21145.577269265326,-67301.01314795174,-20984.73411616494
-31121.697261535795,-21203.91532229368,-67187.68980356333,-20952.72641810494
-31369.131072656048,-21210.68790086364,-67128.88236390143,-20907.128859416112
-31357.083482394635,-21180.66950806016,-67158.2972596046,-20901.675033769017
-31084.39220003989,-21143.90088843118,-67254.52151948471,-20942.4446156555
-30820.596911978355,-21156.976658937536,-67305.2376276538,-20988.91389237808
-31077.329048792013,-21230.066863306387,-67189.83557103104,-20959.14136876361
-31327.467420991357,-21229.35160748382,-67124.74729117719,-20908.537019316795
-31315.553941196675,-21192.18065645464,-67156.19619562582,-20904.938388459494
-31037.677054128297,-21154.115635647257,-67255.63910670747,-20943.85277555618
-30774.820539333887,-21166.14087416421,-67305.4834968428,-20986.455200487995
-31031.95500754774,-21228.05520630541,-67184.49350410623,-20949.5971738812
-31284.216795470336,-21240.035741333457,-67133.82209942605,-20905.541885559785
-31276.84071980008,-21212.140764253232,-67172.37885861145,-20908.26879838333
-31000.439047865755,-21167.45962708707,-67270.95005165935,-20949.217194225454
-30732.911018480187,-21164.553900307885,-67316.97229349283,-20992.40076451311
-30984.94928895823,-21226.021197559978,-67192.96481525479,-20955.63214488413
-31238.507478059237,-21236.14653779823,-67130.13406159093,-20910.034586195303
-31227.46571629831,-21194.594644855817,-67158.2525561157,-20902.99378669188
-30953.723901954163,-21143.990295409,-67255.23677530728,-20944.85860405667
-30691.001497626487,-21152.28279260192,-67311.25024691227,-20996.24526455942
-30948.69475945172,-21224.36716847029,-67193.90358852192,-20963.72347637695
-31204.01873636469,-21225.66356964869,-67132.1904220808,-20915.130783931112
-31196.441494994346,-21189.587854097823,-67165.78509399714,-20910.973359462423
-30921.96207308317,-21149.578231522828,-67265.630336479,-20949.37365643664
-30652.936476819097,-21158.0942461603,-67317.10640395957,-20999.687433205538
-30902.203130984683,-21219.71800562358,-67198.37393741298,-20969.490226446414
-31161.818642833077,-21226.267066748987,-67138.96300065077,-20927.37953989262
-31162.95858180029,-21189.453743631097,-67170.09898067701,-20923.356225890664
-30890.535520379013,-21143.05152214188,-67261.69642945485,-20958.157892007577
-30621.934607259587,-21149.48882454501,-67312.32313064612,-21004.649520474617
-30876.16334869425,-21214.9570840546,-67191.89193152094,-20972.28419450333
-31136.807040787586,-21224.903610337213,-67133.77739593714,-20924.786737535804
-31130.995587229205,-21195.980453012045,-67171.1048091775,-20920.9869409784
-30859.064264185938,-21146.247821598987,-67264.19982483385,-20951.161795993063
-30593.972574946,-21152.193385624098,-67317.26286617076,-20992.33370927974
-30853.54338330548,-21218.22043874508,-67195.04352748914,-20961.71181937597
-31120.17734291284,-21228.54694468343,-67133.66563721486,-20918.61765606614
-31122.30075863609,-21197.366261168278,-67169.04844868761,-20914.348472875176
-30853.923362961217,-21148.68416174461,-67262.47874051079,-20948.77015933635
-30582.57318527379,-21153.154510635675,-67316.74877604828,-20991.52904647935
-30836.39959530826,-21211.26904621948,-67192.04839373213,-20956.9956012959
-31099.85960720296,-21208.43037467365,-67132.81627092556,-20911.062766440245
-31096.372735067933,-21174.366316123764,-67157.89492820442,-20899.79748723477
-30831.683377228183,-21146.001952409977,-67262.1211125995,-20945.28328720132
-30559.729702440465,-21149.37706582273,-67313.79834578017,-20993.25013080241
-30808.839894394863,-21206.21755197257,-67190.59553034253,-20957.62145014065
-31065.99671435317,-21211.33610145284,-67126.40132026689,-20911.822725751725
-31053.85971711394,-21179.551920837395,-67156.53147179264,-20909.252275139366
-30785.214100505604,-21148.48299604452,-67258.05309510864,-20951.184147737524
-30505.66083260308,-21149.19825186709,-67312.72546204632,-20994.837104658734
-30759.554297870916,-21226.53528768245,-67201.57023687009,-20970.00431656889
-31021.986129520672,-21223.24958124752,-67135.36436979346,-20920.36109213365
-31012.53134161608,-21180.87067376026,-67160.06304741658,-20908.916998972534
-30747.037320975945,-21131.47331851403,-67258.09779859755,-20944.411569167565
-30471.88734673111,-21131.920353403137,-67311.89844750147,-20984.64470918712
-30726.00432944349,-21204.51881939397,-67192.62953908797,-20952.502900660384
-30991.67716403928,-21209.81618282988,-67129.68702670181,-20907.46413558294
-30989.643155293845,-21167.63844104272,-67158.52077704917,-20899.596321534675
-30727.188971899628,-21126.399472522677,-67255.01325786272,-20940.32119993224
-30458.11867214664,-21142.2915628304,-67309.19388642239,-20992.91485463558
-30708.36880306826,-21209.23503747404,-67193.2553879327,-20961.823578098247
-30972.6111260189,-21212.587799142337,-67127.07187260054,-20913.029719952312
-30974.42161731978,-21179.9989557265,-67155.52564329215,-20904.021966936823
-30712.79444847041,-21140.65988548516,-67252.28634503917,-20940.835290054714
-30445.467584784936,-21151.142853634698,-67319.25217142727,-20998.77101168287
-30695.36008779527,-21213.9065520652,-67195.44585888933,-20963.63406939913
-30965.927954426763,-21215.06884277688,-67124.54612547709,-20910.61573155114
-30971.27002135158,-21180.155417937687,-67155.90562294789,-20901.406812835558
-30704.50195127749,-21129.863992913248,-67241.98219084527,-20928.586534093207
-30438.04680562577,-21140.39166455169,-67300.78963050719,-20977.648613172605
-30696.96941339605,-21206.843400817324,-67179.12908543696,-20948.323124447244
-30970.77828297356,-21214.91238056569,-67110.17395379233,-20900.400984335065
-30981.88709996785,-21189.252577931,-67144.32741932005,-20896.55648428875
-30725.579646298844,-21137.28477207241,-67233.77910063018,-20929.27943817132
-30457.60458202417,-21131.69683595858,-67287.06565941163,-20971.01014506938
-30709.285224590927,-21200.33904318083,-67168.66846903187,-20942.086987744213
-30976.209756876204,-21206.53047639495,-67105.3906804789,-20892.488466797884
-30979.160187144305,-21168.91249047667,-67137.17486109435,-20883.436010293488
-30717.421259572657,-21119.38102476371,-67222.46911793579,-20912.3368158742
-30441.13134636061,-21115.983559606502,-67276.20271160635,-20955.69920011749
-30689.50393074798,-21182.390592383217,-67164.08636141854,-20927.737167803905
-30962.642247991836,-21197.76859256847,-67094.17010476234,-20878.87625442461
-30972.141739385337,-21168.353696865284,-67126.82600341154,-20875.36703054512
-30718.449439817603,-21127.1370800897,-67225.06192029262,-20914.884914742102
-30443.50063127287,-21126.10889984476,-67281.2318541088,-20958.0461332853
-30695.40479128418,-21192.448877388106,-67160.51008230569,-20927.692464314998
-30973.75106498612,-21195.42165940066,-67087.84456108148,-20876.81989393472
-30989.50904482711,-21163.36925785175,-67120.20988705277,-20874.405905533546
-30740.041224961427,-21116.788222406893,-67209.43805091835,-20909.252275139366
-30473.60843105417,-21117.07879508481,-67266.59146149058,-20953.039342527318
-30731.88283823524,-21185.899816262703,-67150.31768683407,-20919.37761537762
-31019.48273414168,-21201.277816447957,-67084.96118604674,-20873.66829796652
-31040.582780907487,-21167.90666197618,-67120.07577658603,-20874.2270915779
-30796.79230413345,-21127.80763242336,-67217.99876904473,-20911.04041469579
-30537.824992874263,-21136.61421973875,-67277.6779267404,-20957.04030478481
-30800.9720803466,-21205.30113044991,-67156.71028574828,-20925.166717191543
-31090.784798954108,-21207.312787450886,-67086.45875292525,-20871.634289221085
-31108.845008474,-21164.509196818974,-67111.53741020411,-20855.38457100208
-30868.697866046172,-21107.579303691306,-67199.89385603594,-20883.167789360024
-30610.53521758738,-21105.120611801223,-67263.26105156673,-20932.45338588397
-30871.60359282537,-21162.832815984824,-67138.2477448282,-20899.573969790217
-31166.981895802248,-21172.33230737833,-67067.50447362715,-20846.443873219952
-31197.80495140612,-21146.76191172146,-67100.92033158784,-20842.532317940277
-30963.5586695145,-21100.851428610255,-67190.21555068679,-20877.66926022402
-30706.737125723022,-21103.265417011437,-67247.45836823682,-20925.077310213725
-30975.606259775912,-21162.67635377364,-67128.68119820133,-20896.3329668442
-31276.50544363325,-21170.61122305527,-67054.00401997614,-20846.0191900753
-31303.93103407992,-21136.23424008301,-67079.64147086638,-20830.93176256797
-31071.87522314492,-21099.689137898586,-67180.62665231546,-20869.42146652001
-30809.46574323961,-21099.17504777611,-67237.6683041654,-20915.2872461423
-31075.652667957864,-21168.66662128766,-67118.84643064099,-20887.57108301772
-31372.64029653553,-21176.95911848058,-67056.3733048884,-20842.800538873737
-31398.568320103685,-21133.507327259464,-67077.49570339867,-20828.473070677886
-31166.31134346859,-21088.87089358221,-67164.57809979655,-20863.45355075044
-30911.479104933635,-21098.616254164728,-67227.05122554913,-20914.571990319728
-31178.090712796537,-21174.61218531277,-67116.43244223982,-20890.208588863443
-31477.067646630723,-21185.18456044013,-67046.56088907253,-20839.69364639445
-31509.96941446893,-21152.215737368555,-67073.15946497435,-20830.23885848985
-31278.89708028997,-21101.097297799268,-67165.09218991903,-20867.298050796755
-31019.549789375043,-21095.88934134118,-67224.74899587024,-20917.3883101211
-31283.300373947663,-21156.149644392688,-67104.83188686751,-20886.90053068406
-31587.61937470667,-21173.494598090005,-67039.00599944663,-20838.106672538124
-31624.58916003575,-21146.784263465917,-67069.44907539476,-20829.92593406748
-31397.987174747846,-21096.60459716375,-67157.98433518223,-20863.49825423935
-31136.047081476103,-21087.50743717044,-67215.45067017683,-20907.66530128304
-31397.00369799181,-21155.38968508121,-67103.60254092247,-20879.65856548054
-31697.12057079322,-21160.77645549493,-67031.22759237619,-20827.51194566631
-31731.89988516568,-21125.84067891129,-67056.61917407742,-20818.14656473953
-31507.62248130113,-21083.439419679573,-67146.96492516577,-20851.920050611505
-31248.56576306412,-21081.517169656418,-67208.54398114014,-20902.390289591585
-31509.07534469072,-21138.022379639435,-67084.87177906893,-20870.427295020498
-31823.452630454616,-21162.721057262548,-67024.41031031733,-20827.17666949948
-31861.54000300646,-21130.355731291264,-67051.45592110824,-20817.09603275013
-31637.195543908543,-21085.138152258176,-67142.13694836342,-20855.429274490987
-31377.222404148863,-21088.781486604392,-67208.07459450657,-20904.11137391465
-31631.004110694423,-21154.272097858444,-67096.91936933034,-20869.60028047565
-31934.74196609759,-21163.212795640564,-67025.08086265098,-20816.939570538947
-31965.699132168196,-21132.412091781152,-67058.18379618929,-20813.855029804115
-31740.52765852543,-21091.441344194573,-67162.20881488429,-20862.0230391053
-31471.502062261352,-21090.435515694084,-67232.97443782979,-20915.443708353487
-31721.17104782713,-21150.271135600942,-67112.20796253777,-20882.85486493765
-32018.47160082717,-21161.782283995424,-67041.86702273691,-20835.42446320349
-32047.57357210798,-21137.08360637231,-67075.57345337552,-20830.97646605688
-31812.589682649337,-21087.395678448163,-67162.99112594023,-20864.146454828555
-31532.298807179788,-21081.69598361206,-67223.92198132539,-20907.397080349576
-31773.0494467079,-21148.77356872244,-67114.57724745003,-20880.86555968113
-32059.97879028068,-21153.556842035872,-67052.19352867527,-20832.943419568943
-32079.558918423525,-21133.663789470647,-67091.17497100533,-20825.992027043347
-31833.37680499277,-21094.615291907223,-67185.85696051801,-20860.74898967135
-31542.33474044022,-21083.99821329096,-67258.18720557538,-20916.583647320705
-31767.84149024981,-21144.347923320285,-67149.60243101149,-20893.449591809465
-32046.67950232977,-21155.36733333675,-67078.54623538807,-20841.101806295133
-32057.00600826812,-21116.94468461808,-67107.53644794661,-20829.657713134016
-31814.668394883684,-21074.878701553196,-67198.7092135798,-20864.973469373403
-31526.62146408814,-21074.051687008345,-67267.3737725465,-20920.42814736702
-31757.693798267104,-21144.929068676123,-67158.4537218158,-20899.685728512493
-32038.63287432586,-21158.541281049405,-67086.27993896962,-20847.337942998165
-32047.215944196694,-21128.679350457114,-67120.52281147514,-20839.44777720544
-31792.473112639564,-21091.1284197722,-67213.08138526457,-20876.864597423628
-31485.874233946117,-21095.397602963163,-67289.97138619082,-20932.1404614616
-31700.741553394982,-21163.72688576304,-67176.71509703578,-20911.152173418068
-31972.78463516053,-21173.069914945358,-67095.91354082985,-20861.12896932709
-31967.8448996359,-21136.21188833856,-67127.25068655619,-20851.67418142249
-31702.03795457339,-21099.44326870957,-67225.06192029262,-20893.449591809465
-31394.16502644599,-21111.490858970985,-67297.883903728,-20956.81678734026
-31601.29864231332,-21185.318670906865,-67184.73937329523,-20936.52140337484
-31862.00938964002,-21199.93671178064,-67114.93487536132,-20885.917053928024
-31851.571124979397,-21164.017458440954,-67144.48388153123,-20877.78101894629
-31575.61648793417,-21122.10793758725,-67242.74215015676,-20914.504935086363
-31249.795109009163,-21122.487917242997,-67320.50386911677,-20966.405685711587
-31441.41661422451,-21183.217606928065,-67211.27089396368,-20940.075330743235
-31690.99619281247,-21196.449839645607,-67135.67729421584,-20889.87331269661
-31677.160462994638,-21175.372144624253,-67169.09315217652,-20890.16388537453
-31400.423514893475,-21133.84260342629,-67261.69642945485,-20926.06078696976
-31070.310601033045,-21126.399472522677,-67335.21131696836,-20976.620432927662
-31261.59683008157,-21197.09804023481,-67225.19603075934,-20952.614659382663
-31515.4902953494,-21207.044566517423,-67148.93187867783,-20901.496219813376
-31502.414524843043,-21176.53443533593,-67176.64804180241,-20897.338795344687
-31234.305350101637,-21134.200231337574,-67262.38933353298,-20929.94999050498
-30924.06313706197,-21138.13413836171,-67330.87507854404,-20983.86239813118
-31131.77789828514,-21206.57517988386,-67220.05512953462,-20959.72251411945
-31407.08433474116,-21213.705386365105,-67140.19234659581,-20910.436917595496
-31415.242721467344,-21173.449894601097,-67160.1971578833,-20901.87619946912
-31159.985799787737,-21131.070987113835,-67247.79364440366,-20938.62246735364
-30856.40440659576,-21140.928106418625,-67325.26479068575,-20997.832238415747
-31066.600211453464,-21207.469249662077,-67206.12999273896,-20966.09276128921
-31346.198182844902,-21215.560581154896,-67124.76964292164,-20913.879086241614
-31360.1009678961,-21192.80650529939,-67154.65392525839,-20909.408737350557
-31111.12488640844,-21160.418827583653,-67248.50890022622,-20949.060732014263
-30798.82631287889,-21157.222528126546,-67316.61466558155,-20999.553322738808
-31003.568292089494,-21217.52753466696,-67199.91620778039,-20966.07040954476
-31284.86499605954,-21233.799604630425,-67120.36634926395,-20912.35916761865
-31291.123484507025,-21195.86869428977,-67146.11555887647,-20899.4845628124
-31035.061900027027,-21143.27503958643,-67236.30484775364,-20936.990790008404
-30721.623387530257,-21137.75415870597,-67312.6360550685,-20995.664119203582
-30932.623855188354,-21191.13012446524,-67194.08240247755,-20963.544662421307
-31222.95066391834,-21206.70929035059,-67110.86685787045,-20904.714871014938
-31239.15567864844,-21166.364391608764,-67130.06700635755,-20894.634234265595
-31002.67422231129,-21135.04959762688,-67219.09400452304,-20937.549583619784
-30697.863483174264,-21126.51123124495,-67281.96946167582,-20983.34830800871
-30908.26045373207,-21181.72004004956,-67169.83075974355,-20948.9936767809
-31196.106218827517,-21192.87356053276,-67098.21577050874,-20895.237731365887
-31226.70575698683,-21169.247766643497,-67130.60344822449,-20891.66145225304
-30996.683954797263,-21132.14387084769,-67224.59253365904,-20930.374673649632
-30703.85375068829,-21128.47818475702,-67290.73134550231,-20980.62139518516
-30939.5528959695,-21192.493580877017,-67165.18159689684,-20944.18805172301
-31253.773719522207,-21205.14466823872,-67079.82028482202,-20884.441838793977
-31292.375182196523,-21169.94067072161,-67103.8931136004,-20865.97929787389
-31063.53802246309,-21123.85137365477,-67198.1057164795,-20895.01421392133
-30769.031437519963,-21125.818327166835,-67279.28725234118,-20952.68171461603
-30988.167940159798,-21186.12333370725,-67172.13298942245,-20927.37953989262
-31285.42378967092,-21195.980453012045,-67097.85814259746,-20874.18238808899
-31306.99322307029,-21162.00580143998,-67130.20111682429,-20867.2756990523
-31062.308676518045,-21113.524867716416,-67215.3165597101,-20903.2843593698
-30746.12089945327,-21107.04286182438,-67288.27265361222,-20956.1462350066
-30955.42263453277,-21176.020345213456,-67174.5022743347,-20930.15115620508
-31242.39668159445,-21186.23509242953,-67091.5325989166,-20877.28928056828
-31258.28877190218,-21151.008743167968,-67113.90669511637,-20870.65081246505
-31012.687803827263,-21105.4335362236,-67202.84428630404,-20903.664339025538
-30697.25998607397,-21106.0817368128,-67282.4835517983,-20958.895499574603
-30896.63754661531,-21168.823083498846,-67162.40998058439,-20926.843098025693
-31184.08098031056,-21180.42363887115,-67082.39073543438,-20871.187254331977
-31203.50464624222,-21155.23322287002,-67118.86878238544,-20866.962774629927
-30954.08152986545,-21110.239161281486,-67213.57312364258,-20904.826629737214
-30630.40591840815,-21105.99232983498,-67294.3299763596,-20965.981002566936
-30833.829144695897,-21171.23707190002,-67182.72771629426,-20942.86929880015
-31122.278406891637,-21182.815275527868,-67101.74734613269,-20884.620652749614
-31136.963502998773,-21153.355676335774,-67127.89888714539,-20873.98122238889
-30891.541348879506,-21117.838754396293,-67221.21742024629,-20917.053033954267
-30578.505167782925,-21116.385891006696,-67292.85476122556,-20976.128694549643
-30785.92935632817,-21174.992164968517,-67166.18742539734,-20942.981057522426
-31085.398028540378,-21193.38765065523,-67081.74253484518,-20886.721716728414
-31110.499037563688,-21163.39160959621,-67111.85033462648,-20877.78101894629
-30873.436435870703,-21116.52000147343,-67203.5148386377,-20911.2862838848
-30562.6130774752,-21110.775603148413,-67287.15506638946,-20967.210348511977
-30773.971173044585,-21173.74046727901,-67176.46922784677,-20935.87320278564
-31082.55935699456,-21189.587854097823,-67096.24881699668,-20878.205702090945
-31108.397973584888,-21154.741484492,-67115.53837246161,-20862.60418446114
-30862.10410143186,-21114.10601307225,-67207.53815263965,-20894.388365076586
-30554.09706283773,-21117.19055380709,-67301.01314795174,-20957.554394907285
-30769.23260322006,-21178.702554548094,-67192.4060216434,-20934.465042884956
-31073.57395572352,-21181.72004004956,-67104.72012814524,-20877.199873590456
-31104.709935749765,-21149.935859434117,-67131.67633195834,-20866.336925785177
-30872.788235281496,-21119.090452085788,-67227.45355694933,-20907.307673371757
-30557.7627489284,-21115.93885611759,-67304.81294450915,-20964.706953132983
-30767.64562936373,-21178.166112681167,-67192.56248385459,-20938.71187433146
-31070.131787077404,-21189.319633164363,-67108.22935202472,-20883.547769015764
-31098.38439206891,-21146.33722857681,-67133.8444511705,-20871.723696198904
-30861.18767990919,-21106.17114379062,-67225.866583093,-20904.62546403712
-30541.088347564742,-21100.06911755432,-67301.81781075214,-20957.532043162828
-30757.386178658748,-21165.78324625293,-67196.58579785655,-20941.79641506629
-31068.38835100989,-21177.607319069783,-67110.97861659272,-20887.056992895246
-31102.899444448885,-21148.639458255704,-67134.71616920426,-20878.384516046583
-30865.97095322263,-21103.64539666717,-67224.14549876994,-20911.353339118166
-30549.38084475766,-21102.30429199985,-67298.04036593919,-20966.74096187841
-30760.314257182392,-21168.46545558756,-67179.21849241477,-20939.650647598584
-31070.44471149978,-21178.635499314725,-67091.17497100533,-20879.546806758262
-31113.15889515387,-21151.90281294618,-67125.79782316659,-20873.333021799688
-30890.11083723436,-21116.855277640258,-67216.79177484415,-20908.29115012779
-30566.971667643986,-21110.84265838178,-67291.91598795843,-20962.33766822072
-30779.7155713696,-21181.09419120481,-67184.80642852861,-20940.58942086571
-31093.6905257333,-21196.09221173432,-67098.26047399765,-20886.31938532822
-31128.335729639024,-21159.65886827217,-67116.85712538447,-20870.47199850941
-30897.4422094157,-21111.490858970985,-67210.0638997631,-20903.2843593698
-30577.231118348973,-21108.07104206932,-67288.71968850133,-20956.48151117343
-30784.610603405312,-21168.979545710037,-67176.7598005247,-20933.190993451
-31104.53112179412,-21185.0504499734,-67095.39945070738,-20881.625518992605
-31144.518392624665,-21155.166167636653,-67119.80755565257,-20867.74508568586
-30913.08843053441,-21114.128364816712,-67210.33212069656,-20899.998652934868
-30596.09599066925,-21116.631760195705,-67294.5311420597,-20960.258955986377
-30805.978871104584,-21170.208891655075,-67182.21362617178,-20936.588458608207
-31123.99949121469,-21173.78517076793,-67093.76777336214,-20879.0774201247
-31162.064512022083,-21141.308086074365,-67121.48393648672,-20870.56140548723
-30929.338148753424,-21093.967091318023,-67208.94631254034,-20904.06667042573
-30603.941452973064,-21082.76886734592,-67284.76342973273,-20958.2472989854
-30806.09062982686,-21148.862975700256,-67175.73162027975,-20926.396063136588
-31114.768220754653,-21163.481016574027,-67091.0855640275,-20864.772303673304
-31143.49021237972,-21126.51123124495,-67121.75215742018,-20858.111483825625
-30906.561721153463,-21087.395678448163,-67222.9161528249,-20897.36114708914
-30568.89391766714,-21085.8757598252,-67308.61274106655,-20957.5990983962
-30767.511518897,-21153.199214124583,-67199.29035893564,-20933.90624927357
-31075.76442668014,-21171.66175504467,-67113.23614278271,-20875.098809611656
-31108.28621486261,-21149.13119663372,-67146.69670423231,-20877.04341137927
-30868.96608697964,-21109.79212639238,-67243.03272283467,-20917.187144421
-30532.19235327153,-21106.685233913093,-67324.68364532992,-20971.70304914749
-30727.390137599727,-21167.996068954,-67212.90257130892,-20946.982019779924
-31038.61582739542,-21192.33711866583,-67132.5480499921,-20891.32617608621
-31068.67892368781,-21162.788112495917,-67163.01347768468,-20880.82085619221
-30826.49777251456,-21106.37230949072,-67249.29121128217,-20911.71096702945
-30493.12150396365,-21104.96414959004,-67330.3386366771,-20968.55145317929
-30691.8955674047,-21176.355621380284,-67221.46328943531,-20950.62535412614
-31007.70336481373,-21194.9522727671,-67131.78809068061,-20898.009347678348
-31036.33594946098,-21149.511176289463,-67149.60243101149,-20880.03854513628
-30804.23543503707,-21109.210981036544,-67248.5759554596,-20917.00833046536
-30475.28481188832,-21107.802821135858,-67342.16270949396,-20980.330822507243
-30676.316401519347,-21176.601490569294,-67233.53323144118,-20962.67294438755
-30992.347716372937,-21198.260330946487,-67141.33228556302,-20904.737222759395
-31027.48465865668,-21164.68801077461,-67160.66654451688,-20888.778077218303
-30795.18297853267,-21109.479201970007,-67248.55360371513,-20914.86256299765
-30466.813500739758,-21100.09146929878,-67340.35221819309,-20978.74384865092
-30662.190099023595,-21168.353696865284,-67228.07940579408,-20961.33183972023
-30985.77630350308,-21185.51983660696,-67133.15154709239,-20909.654606539563
-31021.31557718701,-21153.91446994716,-67154.00572466919,-20896.22120812192
-30791.89727209774,-21105.61235017924,-67234.24848726374,-20925.36788289164
-30461.7396547484,-21098.16921927562,-67311.40670912346,-20978.900310862104
-30665.185232780605,-21176.37797312474,-67207.60520787301,-20964.841063599717
-30995.47696059668,-21201.56838912587,-67115.58307595052,-20908.961702461445
-31037.721757617208,-21162.542243306907,-67131.7433871917,-20888.82278070721
-30813.801981663943,-21110.97676884851,-67218.64696963393,-20915.01902520884
-30485.208986426474,-21104.09243155628,-67304.41061310895,-20966.67390664505
-30684.83241615682,-21172.824045756348,-67196.76461181219,-20946.15500523508
-31011.167885204304,-21189.185522697637,-67105.86006711246,-20890.94619643047
-31055.31258050353,-21158.206004882577,-67132.03395986963,-20875.67995496749
-30837.67364474221,-21114.731861917004,-67228.54879242764,-20906.748879760373
-30508.164227982077,-21097.632777408693,-67316.16763069245,-20958.82844434124
-30705.17250361115,-21166.0961706753,-67209.32629219607,-20938.91304003156
-31033.072594770503,-21183.754048794992,-67122.80268940958,-20884.553597516253
-31083.05109537257,-21158.317763604853,-67151.32351533456,-20870.60610897614
-30863.780482266007,-21120.85623989776,-67246.85487113653,-20907.732356516404
-30531.834725360244,-21102.639568166684,-67328.46109014287,-20962.896461832104
-30728.574780055857,-21159.48005431653,-67220.99390280174,-20943.361037178165
-31057.257182271147,-21182.88233076124,-67138.47126227275,-20891.97437667541
-31109.426153829834,-21148.348885577787,-67166.56740505308,-20878.429219535497
-30887.11570347735,-21093.65416689565,-67250.56526071612,-20904.9830919484
-30554.32058028228,-21086.45690518104,-67333.66904660095,-20965.198691511
-30746.836155275843,-21156.462568815063,-67230.87337385099,-20948.18901398051
-31071.741112678184,-21177.227339414043,-67138.09128261701,-20891.527341786303
-31122.323110380545,-21150.60641176777,-67159.61601252748,-20880.93261491449
-30901.97961354013,-21100.13617278769,-67243.16683330141,-20906.61476929364
-30571.62083049069,-21099.64443440967,-67334.63017161253,-20968.90908109058
-30769.545527642436,-21183.53053135044,-67235.9695715868,-20960.013086797368
-31100.15017988088,-21195.57812161185,-67136.37019829395,-20902.12206865812
-31142.39497690141,-21146.13606287671,-67150.98823916772,-20882.832513193192
-30922.87849460584,-21102.9301408446,-67235.74605414225,-20912.895609485586
-30589.85985396622,-21097.118687286224,-67322.22495343983,-20973.938223593024
-30778.285059724454,-21153.33332459132,-67214.10956550951,-20954.35809545017
-31106.49807530619,-21167.05729568688,-67117.17004980684,-20895.75182148836
-31152.945000284315,-21134.17787959312,-67142.74044546371,-20886.721716728414
-30937.09420407941,-21096.26932099692,-67236.371902987,-20922.28334215681
-30607.11540068572,-21093.095373284268,-67327.70113083138,-20987.77395341086
-30792.120789542296,-21153.489786802507,-67221.26212373521,-20972.39595322561
-31116.131677166424,-21168.53251082093,-67128.1447563344,-20917.790641521293
-31165.909012068398,-21147.70068498858,-67157.49259680422,-20912.716795529937
-30945.54316348352,-21108.339263002785,-67243.23388853477,-20940.47766214343
-30605.72959252949,-21103.690100156084,-67327.38820640901,-20992.24430230192
-30787.493978440045,-21170.722981777548,-67223.18437375837,-20972.261842758875
-31109.02382242964,-21187.710307563582,-67132.03395986963,-20916.1366124316
-31148.519354882166,-21160.932917706123,-67154.87744270294,-20905.22896113741
-30923.45963996168,-21124.49957424397,-67242.33981875656,-20939.0918539872
-30581.67911549558,-21125.170126577632,-67335.45718615738,-21003.82250592977
-30754.32398966837,-21183.396420883702,-67238.3165047546,-20984.89057837613
-31072.881051645407,-21205.09996474981,-67143.9474396643,-20920.91988574504
-31113.315357365056,-21170.834740499824,-67163.39345734043,-20905.81010649325
-30887.85331104437,-21114.10601307225,-67247.10074032555,-20935.560278363264
-30538.47319346347,-21087.574492403804,-67329.6904360879,-20990.232645300945
-30709.844018202308,-21148.95238267808,-67228.83936510555,-20971.948918336504
-31033.4749261707,-21175.595662068805,-67136.23608782722,-20913.879086241614
-31073.75276967916,-21159.435350827614,-67156.73263749274,-20900.24452212388
-30847.039025668983,-21113.882495627706,-67241.870432123,-20928.51947885984
-30510.42175417206,-21107.71341415804,-67336.1947937244,-20987.528084221853
-30685.570023723845,-21163.659830529672,-67231.23100176228,-20963.544662421307
-31011.301995671038,-21179.82014177086,-67135.11850060445,-20904.960740203947
-31057.99478983817,-21149.399417567187,-67160.48773056123,-20889.247463851865
-30840.95935117714,-21093.184780262087,-67234.15908028593,-20911.979187962912
-30508.208931470985,-21089.56379766033,-67322.91785751794,-20976.665136416574
-30680.876157388237,-21159.52475780544,-67224.92780982588,-20961.018915297856
-31011.27964392658,-21182.994089483516,-67130.26817205765,-20900.80331573526
-31064.81207189704,-21155.166167636653,-67155.72680899224,-20892.309652842243
-30852.716368760637,-21118.062271840845,-67244.35147575755,-20928.43007188202
-30504.85616980269,-21106.864047868738,-67333.33377043412,-20982.141313808123
-30676.361105008255,-21179.484865604027,-67237.75771114322,-20964.326973477244
-31007.94923400274,-21208.2068572291,-67142.98631465272,-20909.587551306195
-31061.61577243993,-21180.311880148874,-67161.6500212729,-20896.55648428875
-30848.71540650313,-21126.48887950049,-67245.13378681347,-20928.787699793305
-30510.309995449785,-21106.95345484656,-67330.137470977,-20980.39787774061
-30692.20849182707,-21172.265252144964,-67227.14063252695,-20962.20355775399
-31026.121202244904,-21196.29337743442,-67132.25747731418,-20905.00544369286
-31085.53213900711,-21173.069914945358,-67150.13887287842,-20890.85678945265
-30880.186662696204,-21124.253705054965,-67234.18143203038,-20920.65166481157
-30538.652007419118,-21100.60555942125,-67318.71572956035,-20971.68069740304
-30709.26287284647,-21161.64817352869,-67219.58574290106,-20951.832348326727
-31035.15130700485,-21170.67827828864,-67122.08743358702,-20889.716850485427
-31083.609888983952,-21139.1399668622,-67144.01449489767,-20874.763533444828
-30868.116720690337,-21099.756193131947,-67233.73439714128,-20904.04431868128
-30518.75895485389,-21089.11676277122,-67325.77888080823,-20961.10832227568
-30675.73525616351,-21149.466472800552,-67220.83744059056,-20942.42226391104
-30996.974527475184,-21181.27300516045,-67132.83862267001,-20897.13762964459
-31035.553638405043,-21159.882385716723,-67156.28560260363,-20885.380612061097
-30812.773801419,-21125.684216700105,-67251.50403398323,-20919.489374099896
-30449.446195297984,-21103.60069317826,-67339.27933445924,-20974.49701720441
-30591.044496422357,-21164.66565903016,-67239.41174023291,-20957.37558095164
-30904.572415896942,-21187.1515139522,-67144.95326816478,-20903.19495239198
-30935.350768011904,-21162.162263651164,-67170.14368416592,-20891.125010386117
-30699.942195408606,-21122.622027709727,-67256.33201078558,-20916.24837115388
-30334.31235960869,-21114.485992727998,-67353.53974742172,-20978.00624108389
-30481.65505905808,-21187.084458718837,-67261.0258771212,-20969.89255784661
-30793.6183564208,-21205.032909516445,-67165.51687306368,-20917.030682209814
-30816.730060187587,-21172.309955633875,-67184.89583550642,-20905.13955415959
-30578.39340906065,-21126.265362055943,-67269.34072605858,-20940.72353133244
-30211.154247659957,-21112.31787351583,-67358.79240736872,-20998.27927330485
-30357.62522907558,-21185.76570579597,-67265.45152252335,-20985.851703387703
-30677.5904509533,-21216.29818872192,-67170.4566085883,-20934.82267079624
-30718.494143306518,-21179.261348159474,-67180.49254184873,-20918.75176653287
-30497.03305924333,-21131.69683595858,-67261.74113294377,-20942.109339488667
-30140.612142159003,-21109.345091503277,-67349.35997120857,-20992.11019183519
-30294.19097831142,-21174.343964379303,-67250.29703978266,-20977.38039223914
-30619.408860136136,-21198.70736583559,-67153.29046884662,-20920.3387403892
-30663.397093224183,-21166.81142649787,-67172.04358244462,-20904.670167526023
-30446.36165456315,-21122.979655621013,-67255.50499624074,-20931.358150405664
-30098.702621305303,-21110.79795489287,-67350.52226192025,-20996.714651192982
-30252.147346990987,-21172.17584516714,-67248.77712115968,-20982.364831252675
-30582.170853873595,-21199.33321468034,-67146.96492516577,-20926.083138714213
-30630.02593875241,-21166.14087416421,-67159.5489572941,-20908.93935071699
-30417.19262804897,-21124.879553899715,-67241.71396991181,-20944.568031378752
-30063.185699365826,-21109.233332781,-67329.98100876583,-21005.834162930747
-30212.27183488272,-21172.131141678237,-67238.00358033224,-20987.550435966303
-30539.791946386333,-21190.32546166485,-67135.31966630455,-20921.45632761196
-30589.502226054938,-21154.048580413888,-67149.75889322268,-20901.09388841318
-30381.273374709297,-21114.84362063928,-67233.19795527434,-20928.81005153776
-30028.540495460096,-21105.99232983498,-67330.42804365493,-20988.93624412253
-30182.25344207924,-21177.80848476988,-67238.33885649906,-20979.548511451307
-30514.355661196198,-21202.01542401498,-67140.66173322937,-20925.74786254738
-30560.89199315214,-21167.07964743133,-67156.91145144838,-20908.24644663888
-30342.269580634784,-21117.972864863023,-67232.14742328494,-20929.815880038248
-29984.909890283336,-21099.733841387493,-67318.9392470049,-20981.06843007427
-30130.28563622065,-21162.162263651164,-67213.23784747576,-20956.705028617984
-30463.97482919393,-21188.71613606407,-67124.7919946661,-20908.827591994715
-30514.757992596387,-21152.930993191123,-67148.93187867783,-20902.412641336043
-30302.505827248795,-21107.780469391404,-67233.80145237464,-20934.129766718124
-29947.73893925416,-21096.828114608303,-67323.32018891814,-20988.131581322144
-30093.204092169297,-21164.95623170808,-67225.08427203707,-20968.19382526801
-30426.155677575556,-21193.00767099949,-67125.73076793323,-20910.36986236213
-30484.292564903804,-21165.269156130453,-67149.91535543387,-20899.4845628124
-30279.50588220428,-21126.667693456136,-67227.5653156716,-20924.45146136897
-29928.002348900125,-21113.34605376077,-67316.52525860372,-20981.91779636357
-30079.122493162453,-21177.652022558694,-67217.93171381137,-20968.19382526801
-30416.83500013769,-21195.533418122937,-67117.03593934012,-20910.034586195303
-30469.205137396475,-21155.032057169923,-67129.93289589083,-20890.521513285817
-30260.819823839647,-21111.692024671083,-67212.47788816427,-20916.449536853976
-29908.221055057176,-21106.864047868738,-67312.52429634622,-20975.167569538065
-30053.954428905778,-21174.03103995693,-67227.07357729359,-20965.86924384466
-30385.78842708927,-21194.169961711166,-67126.35661677798,-20906.503010571363
-30445.914619674044,-21170.56651956636,-67152.32934383504,-20898.79165873428
-30242.446689897384,-21123.60550446576,-67230.7169116398,-20927.088967214702
-29890.87610135986,-21103.488934455985,-67320.03448248321,-20984.242377786923
-30038.15174557588,-21163.928051463132,-67225.44189994835,-20973.133560792638
-30380.379304931084,-21178.43433361463,-67122.84739289849,-20920.00346422237
-30440.55020100477,-21142.872708186234,-67134.2914860596,-20897.80818197825
-30242.9384282754,-21101.81255362184,-67215.65183587692,-20915.51076358685
-29898.118066563376,-21097.722184386515,-67317.06170047066,-20981.6048719412
-30047.539478247105,-21160.441179328107,-67218.93754231186,-20967.277403745346
-30389.05178177974,-21186.19038894062,-67114.68900617231,-20909.073461183725
-30451.055520898764,-21156.32845834833,-67126.96011387827,-20891.41558306403
-30253.33198944712,-21108.47337346952,-67203.58189387106,-20914.14730717508
-29905.87412188937,-21095.75523087445,-67297.12394441653,-20976.3522119942
-30053.1944695943,-21163.5480718074,-67202.53136188166,-20966.450389200498
-30396.83018885019,-21197.321557679363,-67102.90963684436,-20910.12399317312
-30455.8387942122,-21172.98050796753,-67124.74729117719,-20889.448629551964
-30255.45540517037,-21129.975751635524,-67212.94727479783,-20916.360129876157
-29903.482485232653,-21109.233332781,-67314.71476730285,-20980.26376727388
-30042.28681830011,-21169.09130443231,-67226.93946682685,-20974.00527882639
-30376.53480488477,-21186.592720340817,-67124.590828966,-20914.95196997547
-30431.967131133933,-21146.448987299085,-67137.4430820278,-20896.645891266573
-30224.23001816631,-21088.1779895041,-67210.2203619743,-20914.884914742102
-29867.38441793733,-21076.510378898427,-67306.7351945323,-20972.418304970062
-30012.156666774357,-21147.655981499676,-67220.79273710164,-20965.80218861129
-30350.62913306107,-21170.030077699437,-67119.49463123019,-20909.408737350557
-30411.425877979505,-21138.223545339533,-67133.75504419269,-20893.203722620456
-30212.607111049547,-21100.51615244343,-67218.37874870047,-20920.539906089296
-29857.303781187988,-21100.113821043236,-67313.59718008008,-20978.497979461907
-29990.74369558617,-21157.066065915355,-67206.10764099451,-20961.935336820527
-30330.557266540203,-21175.66271730217,-67105.21186652326,-20905.1842576485
-30390.638755636068,-21142.89505993069,-67127.40714876738,-20889.11335338513
-30193.69753524036,-21102.01371932193,-67211.20383873032,-20918.70706304396
-29838.10363270088,-21086.45690518104,-67311.67493005692,-20977.425095728053
-29972.817596533016,-21152.64042051321,-67228.66055114992,-20968.93143283504
-30309.613681985586,-21182.9493859946,-67127.89888714539,-20912.269760640836
-30370.49983388184,-21154.272097858444,-67145.62382049845,-20894.27660635431
-30170.988162873768,-21113.27899852741,-67229.53226918368,-20918.57295257723
-29812.242664366087,-21101.27611175491,-67331.07624424413,-20976.3522119942
-29943.78268048557,-21174.746295779503,-67247.95010661485,-20975.122866049154
-30281.294021760707,-21201.680147848147,-67142.98631465272,-20919.10939444416
-30340.32497886717,-21167.57138580935,-67151.54703277911,-20897.741126744884
-30144.45664220532,-21120.3868532642,-67233.39912097444,-20925.233772424912
-29787.365172787333,-21096.26932099692,-67327.45526164238,-20984.48824697593
-29916.1112208499,-21163.32455436284,-67234.82963261959,-20975.79341838281
-30259.054036027675,-21200.048470502912,-67133.73269244823,-20926.57487709223
-30324.209371114892,-21171.63940330021,-67147.81429145507,-20909.56519956174
-30128.8104210866,-21127.114728345245,-67224.68194063687,-20936.879031286124
-29769.304963267445,-21101.611387921737,-67317.79930803768,-20992.624281957666
-29893.804179883504,-21163.592775296303,-67228.54879242764,-20978.92266260656
-30234.55652410466,-21191.554807609893,-67129.66467495736,-20926.776042792328
-30299.37658302505,-21164.397438096697,-67145.4003030539,-20914.750804275373
-30105.78812429764,-21119.24691429697,-67220.16688825689,-20936.90138303058
-29750.3730357138,-21099.01858556492,-67312.85957251306,-20990.433811001043
-29878.180310509244,-21156.77549323744,-67219.09400452304,-20980.1520085516
-30219.156172174957,-21185.34102265132,-67113.72788116072,-20922.14923169008
-30287.887786375024,-21152.03692341291,-67122.28859928712,-20897.629368022608
-30098.81438002758,-21111.870838626724,-67200.83262930306,-20924.96555149145
-29749.478965935585,-21101.74549838847,-67303.60595030856,-20990.165590067576
-29877.509758175584,-21161.64817352869,-67216.25533297722,-20978.095648061717
-30219.69261404188,-21187.41973488566,-67109.48104971422,-20919.511725844357
-30291.508768976782,-21156.37316183724,-67119.29346553009,-20898.255216867357
-30103.105914963,-21107.825172880315,-67196.69755657883,-20920.42814736702
-29755.4245299607,-21087.283919725887,-67289.79257223518,-20972.463008458973
-29894.385325239346,-21153.71330424706,-67209.72862359627,-20966.584499667228
-30237.484602628305,-21182.994089483516,-67104.87659035642,-20909.453440839465
-30315.02280414377,-21167.03494394242,-67127.16127957837,-20897.294091855776
-30139.98629331425,-21128.746405690483,-67210.24271371875,-20925.859621269658
-29789.37682978831,-21102.37134723322,-67307.89748524399,-20976.91100560558
-29917.228808072665,-21159.48005431653,-67220.21159174581,-20964.282269988333
-30266.452463442383,-21191.219531443065,-67116.43244223982,-20908.447612338976
-30342.023711445778,-21141.084568629813,-67124.23320105473,-20884.933577171996
-30170.295258795653,-21097.722184386515,-67204.5653706271,-20913.744975774884
-29828.917065729747,-21080.466637667017,-67300.36494736254,-20973.200616026
-29955.182070157774,-21139.028208139924,-67208.27576020667,-20962.784703109828
-30304.18220808294,-21167.012592197967,-67110.08454681451,-20909.87812398412
-30384.8720055666,-21140.212850596054,-67125.28373304413,-20889.60509176315
-30207.242692380278,-21095.06232679633,-67193.14362921043,-20909.051109439268
-29862.71290334617,-21072.017678262917,-67284.98694717728,-20961.60006065369
-29991.83893106448,-21133.060292370355,-67196.04935598963,-20951.452368670987
-30344.28123763576,-21164.352734607783,-67094.4383256958,-20897.85288546716
-30424.054613596752,-21134.446100526584,-67109.7939741366,-20877.557501501746
-30254.538983647704,-21096.1799140191,-67192.56248385459,-20905.318368115237
-29912.93727313725,-21079.1255329997,-67293.50296181477,-20968.95378457949
-30040.677492699328,-21142.00099015248,-67208.83455381806,-20960.996563553403
-30392.53865391477,-21174.18750216812,-67107.91642760235,-20901.71973725793
-30474.100169432186,-21143.09622563079,-67119.89696263039,-20879.256234080345
-30300.27065280326,-21094.615291907223,-67193.54596061063,-20901.27270236882
-29960.41237836032,-21073.93992828607,-67288.85379896806,-20953.28521171632
-30084.755132765196,-21134.60256273777,-67207.0687660061,-20943.070464500244
-30437.15273584756,-21168.77838000993,-67105.94947409027,-20890.14153363008
-30521.03883278833,-21146.024304154435,-67127.85418365648,-20875.143513100567
-30352.28316215076,-21113.34605376077,-67209.0133677737,-20902.65851052505
-30012.55899817455,-21096.26932099692,-67311.00437772326,-20962.404723454085
-30137.2146770018,-21157.62485952674,-67228.2135162608,-20951.60883088217
-30488.047657972296,-21182.345888894302,-67114.62195093893,-20885.04533589427
-30575.778254959376,-21146.0913593878,-67125.50725048868,-20862.403018761044
-30412.454058224448,-21088.334451715287,-67198.7092135798,-20886.11821962812
-30074.696847760304,-21065.31215492632,-67298.19682815038,-20945.57385987924
-30200.268948110217,-21133.932010404114,-67215.02598703218,-20941.282324943822
-30552.24186804794,-21160.91056596167,-67100.07096529854,-20885.51472252783
-30635.16683997713,-21128.05350161237,-67108.7881456361,-20863.65471645054
-30476.380047366627,-21090.59197790527,-67187.15336169642,-20891.95202493096
-30138.376967713477,-21068.508454383427,-67278.66140349644,-20951.072389015244
-30258.69640811639,-21132.94853364808,-67201.59258861454,-20952.65936287157
-30613.01626122192,-21169.225414899043,-67100.7415176322,-20903.37376634762
-30696.477675018035,-21142.962115164057,-67116.43244223982,-20886.855827195148
-30525.978568312952,-21098.19157102008,-67187.06395471859,-20905.452478581963
-30188.02019214871,-21075.392791675666,-67284.04817391017,-20953.73224660543
-30309.52427500776,-21134.781376693416,-67206.93465553936,-20945.75267383488
-30664.49232870249,-21170.544167821907,-67109.61516018095,-20894.05308890976
-30744.735091297043,-21141.71041747456,-67124.07673884353,-20875.635251478583
-30578.281650338373,-21110.01564383693,-67206.35351018352,-20903.37376634762
-30233.0366054817,-21100.13617278769,-67310.75850853426,-20962.784703109828
-30335.541705553736,-21157.982487438025,-67230.04635930614,-20951.67588611554
-30676.003477096976,-21184.13402845073,-67129.50821274618,-20894.90245519906
-30750.546544855424,-21158.273060115946,-67148.88717518892,-20881.200835847954
-30572.693714224544,-21118.84458289678,-67225.10662378152,-20904.960740203947
-30215.378727362007,-21095.93404483009,-67327.38820640901,-20962.33766822072
-30313.81580994318,-21156.909603704167,-67247.81599614811,-20957.62145014065
-30650.25426748446,-21176.75795278048,-67139.43238728432,-20897.249388366865
-30719.20939912908,-21143.54326051989,-67155.52564329215,-20879.971489902917
-30536.685053907044,-21097.342204730776,-67220.21159174581,-20894.76834473233
-30178.140721099466,-21077.51620739892,-67318.17928769342,-20953.352266949685
-30282.03162932773,-21141.106920374263,-67248.39714150396,-20964.23756649942
-30625.73440381699,-21172.935804478624,-67138.15833785037,-20907.19591464948
-30707.31827107886,-21149.310010589365,-67150.16122462288,-20887.57108301772
-30535.96979808448,-21112.36257700474,-67225.2183825038,-20918.081214199214
-30188.48957878227,-21100.739669887986,-67326.29297093069,-20982.85656963069
-30290.23471954283,-21174.61218531277,-67252.93454562838,-20985.24820628741
-30632.954017276053,-21204.47411590506,-67146.92022167686,-20929.122975960134
-30709.441686802114,-21169.58304281033,-67153.02224791316,-20905.05014718177
-30536.975626584965,-21127.829984167813,-67220.88214407947,-20921.99276947889
-30180.26413682272,-21099.26445475393,-67309.19388642239,-20965.51161593337
-30278.432998470427,-21158.78715023841,-67229.8675453505,-20958.515519918863
-30624.326243916305,-21199.601435613804,-67137.06310237206,-20913.90143798607
-30704.680765233134,-21176.243862658008,-67154.98920142523,-20902.25617912485
-30533.689920150035,-21138.98350465101,-67223.34083596955,-20926.977208492423
-30180.01826763371,-21125.103071344267,-67325.75652906377,-20986.00816559889
-30270.67694314444,-21183.351717394795,-67254.99090611827,-20982.00720334139
-30604.321432628803,-21209.883238063245,-67141.8016721966,-20924.406757880064
-30674.997648596487,-21174.85805450178,-67150.29533508961,-20904.357243103652
-30502.08455349023,-21138.603524995277,-67238.20474603234,-20934.57680160723
-30139.673368891883,-21124.968960877533,-67341.60391588259,-20995.753526181405
-30215.244616895277,-21170.90179573319,-67260.1765108319,-20988.73507842244
-30545.42458598907,-21197.96975826857,-67153.22341361326,-20932.47573762843
-30616.838409523774,-21167.303164875888,-67161.98529743974,-20910.34751061768
-30436.571590491723,-21136.45775752756,-67243.01037109022,-20935.828499296727
-30071.969934936755,-21115.42476599512,-67346.78952059621,-20991.417287757075
-30148.189383529352,-21158.9436124496,-67266.77027544621,-20982.72245916396
-30476.98354446692,-21184.804580784392,-67163.9969544407,-20932.43103413952
-30545.84926913372,-21162.22931888453,-67182.32538489407,-20921.881010756613
-30363.928421011977,-21127.315894045343,-67252.12988282798,-20942.735188333416
-29989.76021883013,-21102.214885022036,-67345.35900895107,-20991.39493601262
-30062.559850521076,-21163.9951066965,-67281.05304015316,-20994.2559593029
-30392.046915536757,-21200.07082224737,-67173.33998362302,-20943.62925811163
-30454.38593082261,-21170.70063003309,-67177.31859413607,-20921.948065989985
-30267.57005066515,-21129.66282721315,-67253.00160086174,-20944.746845334397
-29892.01604032708,-21109.725071159017,-67354.90320383348,-21001.788497184338
-29961.35115162744,-21171.706458533583,-67285.0316506662,-21000.82737217276
-30286.189053796417,-21209.659720618693,-67179.01732671467,-20944.45627265648
-30352.57373482868,-21187.464438374573,-67193.34479491053,-20929.972342249435
-30168.238898305764,-21148.058312899862,-67270.4806650258,-20956.95089780699
-29791.053210622456,-21125.974789378022,-67371.26468077478,-21014.57369501277
-29855.91797303176,-21189.96783375357,-67298.30858687265,-21019.17815437057
-30179.59358448906,-21217.61694164478,-67187.80156228562,-20962.53883392082
-30242.98313176431,-21194.371127411265,-67206.53232413916,-20948.054903513777
-30060.27997258663,-21157.334286848814,-67281.58948202008,-20975.1005143047
-29681.57436628036,-21120.878591642213,-67377.61257620009,-21027.42594807457
-29744.114547266312,-21177.070877202856,-67309.50681084476,-21027.962389941506
-30067.81251046807,-21213.39246194273,-67200.07266999158,-20968.976136323945
-30130.553857154115,-21188.112638963776,-67210.44387941885,-20949.351304692187
-29942.665093262804,-21136.949495905577,-67274.0345923942,-20966.025706055847
-29563.780673000896,-21112.139059560188,-67373.52220696476,-21018.842878203737
-29626.589074920303,-21171.482941089027,-67297.32511011662,-21014.797212457324
-29951.762253256114,-21206.35166243931,-67180.93957673783,-20955.20746173948
-30018.8845418554,-21186.14568545171,-67193.12127746598,-20937.549583619784
-29840.607028079878,-21148.14771987769,-67270.14538885896,-20965.198691511
-29467.3552474207,-21126.42182426713,-67366.3025935057,-21017.63588400315
-29525.290969048856,-21185.273967417957,-67292.74300250328,-21015.40070955762
-29850.33003691793,-21221.193220757632,-67182.30303314961,-20959.05196178579
-29916.73706969465,-21199.75789782499,-67191.355489654,-20937.259010941867
-29744.38276819977,-21167.45962708707,-67265.58563299009,-20964.9975258109
-29374.05906606425,-21145.53256577642,-67370.81764588566,-21025.23547711796
-29432.575933048243,-21188.157342452687,-67298.44269733939,-21019.04404390384
-29759.93958234067,-21216.745223611026,-67190.32730940907,-20961.48830193142
-29827.82183025144,-21188.537322108423,-67202.28549269265,-20937.66134234206
-29654.66286595617,-21148.013609410955,-67275.71097322834,-20958.649630385597
-29282.48396903085,-21121.862068398248,-67372.58343369764,-21010.43862228854
-29345.627647117097,-21179.41781037066,-67300.61081655155,-21008.605779243208
-29681.104979646803,-21215.739395110537,-67193.79182979964,-20956.168586751057
-29761.817128874914,-21187.57619709685,-67203.5595421266,-20938.46600514245
-29591.295670425377,-21141.62101049674,-67270.5253685147,-20957.979078051936
-29229.68914862742,-21121.75030967597,-67379.04308784522,-21020.765128226893
-29297.77256223829,-21177.13793243622,-67302.39895610798,-21021.905067194115
-29639.776604148938,-21213.660682876194,-67189.74616405323,-20968.439694457014
-29719.080593476367,-21184.62576682875,-67191.28843442064,-20944.411569167565
-29560.047931676854,-21142.62683899723,-67259.10362709804,-20965.86924384466
-29203.202331447883,-21112.02730083791,-67354.65733464448,-21011.623264744678
-29276.180777094454,-21169.493635832507,-67282.21533086483,-21005.476535019465
-29624.264493496958,-21202.305996692896,-67167.7073440203,-20949.641877370104
-29719.572331854382,-21180.24482491551,-67174.41286735689,-20932.43103413952
-29565.635867790686,-21136.23424008301,-67239.3223332551,-20948.211365724965
-29215.674604853943,-21106.95345484656,-67335.21131696836,-20998.27927330485
-29291.98346042436,-21166.319688119853,-67264.2221765783,-20997.273444804367
-29646.37036876325,-21199.10969723579,-67150.11652113397,-20939.650647598584
-29745.567410655905,-21169.00189745449,-67153.78220722463,-20915.51076358685
-29595.318984427333,-21129.48401325751,-67223.51964992519,-20938.8906882871
-29261.361570520592,-21108.94276010308,-67322.89550577349,-20993.741869180427
-29348.086339007183,-21165.939708464117,-67255.88497589648,-20989.87501738966
-29710.54222709444,-21202.775383326458,-67144.59564025351,-20933.101586473174
-29819.28346386951,-21178.92607199265,-67148.37308506646,-20911.86742924064
-29689.39747683972,-21145.35375182077,-67217.75289985572,-20931.849888783683
-29360.15628101305,-21119.35867301925,-67312.5913515796,-20981.8507411302
-29443.1483081756,-21163.078685173838,-67235.09785355304,-20975.79341838281
-29809.582806775907,-21191.01836574297,-67124.94845687729,-20919.62348456663
-29916.02181387208,-21152.88628970221,-67125.55195397759,-20886.83347545069
-29785.509977997543,-21113.4354607386,-67198.64215834644,-20905.296016370776
-29455.151194948103,-21092.581283161795,-67298.06271768364,-20959.34253446371
-29539.953713411534,-21150.65111525668,-67229.39815871694,-20958.49316817441
-29902.96839511018,-21180.49069410452,-67109.23518052521,-20900.780963990805
-30010.547341173573,-21140.77164420744,-67113.88434337192,-20876.21639683442
-29884.997592568117,-21108.22750428051,-67187.06395471859,-20902.837324480693
-29556.695170008563,-21084.8252278358,-67285.05400241066,-20958.984906552425
-29638.36844424825,-21139.922277918136,-67218.44580393384,-20960.19190075301
-30000.42200093532,-21172.66758354516,-67108.40816598036,-20908.000577449868
-30106.2575109312,-21140.99516165199,-67112.96792184925,-20882.474885281907
-29973.130520955387,-21101.924312344112,-67182.70536454981,-20897.78583023379
-29638.01081633697,-21076.1751027316,-67277.4320575514,-20947.272592457844
-29709.290529404945,-21124.723091688527,-67207.38169042846,-20943.785720322816
-30059.832937697523,-21152.32749609083,-67088.47040992623,-20880.843207936672
-30165.377875015485,-21120.36450151974,-67098.2828257421,-20857.530338469787
-30031.401518750376,-21083.439419679573,-67173.22822490075,-20882.586644004183
-29694.337212364346,-21059.9700880015,-67274.66044123894,-20940.075330743235
-29761.727721897096,-21119.090452085788,-67216.21062948831,-20944.746845334397
-30104.849351030512,-21152.729827491024,-67100.29448274309,-20884.173617860517
-30208.65085228096,-21138.51411801745,-67114.75606140567,-20870.13672234258
-30071.72406574775,-21099.800896620854,-67186.01342272919,-20892.555522031253
-29730.435279659665,-21072.017678262917,-67288.49617105677,-20946.311467446267
-29790.717934455628,-21133.060292370355,-67227.3194464826,-20950.55829889277
-30135.13596476745,-21175.84153125781,-67124.56847722155,-20903.10554541416
-30228.521553101727,-21150.38289432322,-67138.06893087256,-20882.251367837354
-30081.849405986,-21098.012757064436,-67200.89968453643,-20892.75668773135
-29738.817183830404,-21075.03516376438,-67300.90138922948,-20942.779891822327
-29791.030858878003,-21139.25172558448,-67239.25527802174,-20949.172490736542
-30124.876514062467,-21172.57817656734,-67129.46350925726,-20901.160943646544
-30220.229055908807,-21134.55785924886,-67134.73852094871,-20877.84807417966
-30074.070998915555,-21086.613367392227,-67199.11154498,-20894.50012379886
-29727.574256369386,-21058.94190775656,-67300.11907817353,-20952.324086704743
-29779.676172694704,-21116.922332873623,-67233.6673419079,-20955.63214488413
-30111.24194994473,-21156.57432753734,-67121.52863997563,-20906.19008614899
-30197.631442264494,-21132.99323713699,-67124.41201501037,-20881.446705036964
-30053.507394016677,-21101.432573966096,-67189.99203324223,-20899.41750757903
-29706.787134025948,-21070.69892534005,-67281.85770295355,-20950.67005761505
-29750.21657350261,-21120.85623989776,-67218.55756265612,-20953.53108090533
-30076.84261522801,-21160.821158983847,-67110.79980263708,-20901.630330280102
-30170.809348918123,-21139.56465000685,-67117.77354690713,-20880.195007347465
-30029.501620471678,-21098.728012887004,-67180.49254184873,-20898.746955245373
-29691.386782096244,-21071.25771895143,-67278.61670000752,-20949.03838026981
-29736.4702506626,-21133.104995859267,-67227.43120520488,-20956.90619431808
-30069.958277935777,-21180.04365921541,-67122.80268940958,-20909.542847817283
-30166.137834326964,-21144.437330298108,-67125.55195397759,-20884.1289143716
-30026.931169859312,-21097.878646597703,-67188.8073907861,-20895.2824348548
-29687.855206472304,-21069.44722765055,-67290.28431061319,-20945.73032209043
-29736.559657640417,-21127.919391145635,-67240.99871408925,-20957.01795304036
-30069.444187813308,-21165.067990430354,-67133.66563721486,-20909.20757165045
-30160.706360424327,-21140.078740129324,-67134.0009133817,-20886.542902772773
-30025.254789025163,-21098.906826842645,-67195.62467284498,-20905.05014718177
-29686.514101804987,-21077.002117276446,-67294.7323077598,-20961.555357164783
-29726.747241824534,-21121.07975734231,-67235.00844657523,-20965.51161593337
-30047.159498591365,-21150.718170490047,-67128.3459220345,-20913.40969960805
-30139.29338923614,-21128.85816441276,-67137.17486109435,-20890.85678945265
-30006.680489382805,-21101.298463499363,-67205.92882703886,-20908.872295483627
-29673.32657257636,-21081.293652211865,-67305.34938637607,-20958.582575152228
-29709.871674760783,-21133.52967900392,-67255.16972007391,-20968.55145317929
-30032.116774572944,-21171.72881027804,-67155.05625665859,-20924.89849625808
-30119.266226204185,-21140.257554084965,-67158.14079739343,-20900.55744654625
-29984.1275792274,-21100.873780354712,-67219.96572255681,-20913.65556879706
-29659.6026014808,-21083.528826657395,-67324.28131392972,-20967.322107234253
-29698.20406415511,-21134.22258308203,-67267.99962139125,-20974.49701720441
-30015.91175984285,-21169.873615488246,-67160.3536200945,-20920.00346422237
-30108.33622316554,-21149.42176931164,-67161.91824220637,-20896.3329668442
-29978.964326258225,-21116.452946240064,-67227.72177788279,-20915.22019090893
-29646.07979608533,-21083.350012701758,-67315.20650568086,-20957.755560607384
-29677.39459006722,-21136.05542612737,-67266.61381323503,-20969.087895046225
-29987.45798915124,-21174.52277833495,-67160.30891660559,-20920.80812702276
-30080.888280974425,-21157.133121148723,-67164.46634107428,-20899.261045367843
-29947.0683869205,-21115.71533867304,-67227.05122554913,-20910.99571120688
-29618.27422598293,-21098.057460553344,-67327.87994478703,-20959.946031564003
-29640.33539776032,-21158.317763604853,-67278.0802581406,-20966.360982222675
-29951.069349178,-21194.43818264463,-67173.38468711195,-20917.76828977684
-30040.722196188235,-21152.66277225766,-67176.5586348246,-20897.450554066963
-29909.405697513303,-21095.844637852268,-67223.05026329163,-20908.537019316795
-29583.96429824404,-21065.89330028216,-67312.72546204632,-20956.414455940063
-29607.299519455377,-21120.252742797464,-67264.51274925623,-20964.75165662189
-29914.524246993573,-21156.75314149298,-67158.18550088233,-20919.265856655344
-30006.524027171617,-21128.03114986791,-67153.64809675791,-20894.76834473233
-29887.500987947107,-21098.638605909186,-67211.60617013052,-20915.46606009794
-29575.69415279557,-21079.3266986998,-67303.76241251975,-20967.81384561227
-29605.9360630436,-21129.573420235327,-67254.74503692926,-20972.954746836996
-29915.507723749608,-21167.86195848727,-67151.65879150138,-20923.84796426868
-30016.247036009678,-21149.53352803392,-67155.34682933651,-20906.011272193347
-29904.510665477595,-21119.51513523044,-67216.47885042177,-20924.16088869105
-29602.113914741745,-21096.202265763557,-67307.27163639924,-20967.88090084564
-29634.85922036877,-21144.63849599821,-67259.3718480315,-20971.725400891948
-29943.067424663,-21177.272042902958,-67152.41875081287,-20917.880048499115
-30045.930152646324,-21161.37995259523,-67158.65488751589,-20899.551618045763
-29935.065500148,-21127.62881846772,-67216.92588531088,-20915.130783931112
-29624.711528386066,-21094.436477951585,-67304.70118578686,-20954.62631638364
-29655.758101434483,-21150.718170490047,-67268.31254581363,-20966.47274094495
-29968.72722729769,-21199.82495305836,-67178.52558833666,-20928.60888583766
-30074.74155124921,-21172.555824822884,-67180.53724533763,-20907.01710069384
-29961.440558605264,-21109.725071159017,-67233.33206574108,-20913.61086530815
-29652.695912444105,-21087.73095461499,-67329.77984306573,-20960.52717691984
-29676.165244122178,-21140.458719785063,-67284.65167101046,-20964.86341534417
-29984.082875738488,-21160.374124094746,-67177.25153890271,-20915.24254265339
-30080.105969918488,-21116.385891006696,-67173.78701851214,-20889.1804086185
-29965.799148774047,-21075.90688179813,-67230.09106279505,-20905.56423730424
-29659.066159613867,-21055.946773999545,-67325.0412732412,-20955.56508965076
-29682.75900873649,-21110.9320653596,-67287.66915651193,-20971.63599391413
-29987.234471706688,-21144.57144076484,-67186.75103029622,-20930.128804460623
-30082.229385641745,-21124.49957424397,-67183.04064071663,-20910.906304229055
-29966.201480174244,-21099.487972198483,-67242.58568794557,-20929.52530736033
-29656.987447379524,-21084.51230341343,-67343.7496833503,-20980.956671351996
-29665.369351550264,-21128.34407429029,-67297.4368688389,-20986.410496999088
-29960.770006271603,-21164.129217163238,-67194.12710596647,-20940.56706912125
-30053.753263205683,-21140.48107152952,-67190.19319894233,-20917.120089187632
-29937.63595076036,-21108.920408358623,-67245.96080135832,-20931.425205639032
-29628.220752265544,-21092.31306222833,-67343.61557288356,-20988.645671444618
-29640.06717682686,-21142.67154248614,-67303.67300554193,-21004.33659605224
-29939.58055252797,-21178.68020280364,-67203.62659735997,-20954.15692975008
-30037.347082775486,-21162.69870551809,-67216.54590565513,-20935.40381615208
-29921.94502615273,-21134.714321460047,-67282.23768260928,-20951.38531343762
-29607.00894677746,-21110.730899659506,-67377.12083782206,-20994.524180236363
-29619.123592272237,-21165.246804386,-67339.86047981506,-21006.638825731137
-29914.97128188268,-21195.62282510076,-67244.46323447982,-20962.33766822072
-30002.8806928254,-21157.73661824901,-67242.18335654537,-20936.47669988593
-29882.717714633676,-21110.239161281486,-67290.86545596903,-20947.13848199111
-29564.965315457022,-21073.291727696866,-67381.59118671312,-20994.524180236363
-29567.580469558296,-21111.60261769326,-67332.46205240035,-20999.285101805344
-29863.33875219092,-21154.272097858444,-67224.03374004767,-20954.51455766136
-29956.724340525197,-21141.263382585454,-67223.58670515857,-20936.63316209712
-29840.607028079878,-21109.45685022555,-67276.381525562,-20948.367827936152
-29523.14520158115,-21081.830094078792,-67364.58150918264,-20990.74673542341
-29518.45133524553,-21125.50540274446,-67317.17345919293,-20993.920683136068
-29807.79466721948,-21164.509196818974,-67209.8180305741,-20943.964534278457
-29900.06266833099,-21153.400379824685,-67215.74124285475,-20926.776042792328
-29782.291326795978,-21121.817364909337,-67268.73722895829,-20936.61081035266
-29461.54379386232,-21090.569626160817,-67357.85363410159,-20977.268633516866
-29459.532136861344,-21132.255629569965,-67318.04517722668,-20984.175322553558
-29749.769538613506,-21167.72784802054,-67215.9647602993,-20939.829461554225
-29847.312551416464,-21152.48395830202,-67218.37874870047,-20921.45632761196
-29732.581047127373,-21125.728920189016,-67275.9344906729,-20934.37563590713
-29427.39032833461,-21110.55208570386,-67372.38226799754,-20987.550435966303
-29425.959816689472,-21144.57144076484,-67326.27061918624,-20991.90902613509
-29720.086421976852,-21184.62576682875,-67227.45355694933,-20946.847909313197
-29816.42244057923,-21175.014516712967,-67229.64402790595,-20928.18420269301
-29706.27304390348,-21135.206059838067,-67283.17645587641,-20941.192917966
-29398.735391942908,-21097.006928563944,-67379.08779133414,-20987.662194688583
-29396.92490064203,-21139.47524302903,-67342.27446821624,-20998.458087260497
-29687.60933728329,-21157.62485952674,-67228.4146819609,-20942.55637437777
-29787.85691116535,-21130.735710947003,-67224.63723714797,-20916.002501964867
-29680.188558124133,-21102.46075421104,-67275.44275229487,-20927.24542942589
-29373.29910675277,-21088.781486604392,-67365.78850338323,-20973.58059568174
-29374.99783933137,-21139.25172558448,-67324.30366567418,-20982.945976608517
-29671.091398130822,-21173.516949834466,-67221.28447547967,-20939.114205731657
-29771.160158057235,-21147.499519288485,-67209.39334742945,-20918.103565943667
-29667.06808412887,-21116.162373562143,-67254.14153982897,-20929.927638760524
-29369.09697879517,-21093.05066979536,-67346.85657582957,-20974.96640383797
-29372.47209220792,-21141.62101049674,-67309.30564514466,-20985.62818594315
-29669.68323823014,-21182.547054594404,-67205.05710900511,-20936.588458608207
-29769.819053389914,-21161.8940427177,-67194.52943736665,-20905.89951347107
-29667.15749110669,-21132.725016203527,-67244.26206877972,-20913.454403096963
-29372.539147441286,-21109.45685022555,-67339.03346527021,-20966.29392698931
-29369.85693810665,-21151.41107456816,-67304.74588927579,-20977.179226539043
-29658.999104380506,-21182.18942668312,-67202.57606537057,-20928.25125792638
-29760.0736928074,-21162.497539818,-67194.9094170224,-20906.011272193347
-29659.11086310278,-21140.43636804061,-67247.03368509217,-20918.975283977423
-29362.346751969668,-21126.958266134057,-67341.26863971575,-20966.606851411685
-29355.5294699108,-21161.223490384044,-67297.0345374387,-20968.70791539048
-29646.146851318703,-21183.66464181717,-67189.58970184204,-20921.81395552325
-29743.93573331067,-21160.552938050383,-67183.68884130583,-20898.16580988953
-29646.77270016345,-21136.88244067221,-67241.1775280449,-20913.23088565241
-29347.929876795995,-21116.408242751157,-67341.91684030496,-20965.48926418892
-29334.89880977855,-21143.83383319781,-67304.36590962004,-20975.48049396044
-29621.224656251037,-21168.10782767628,-67193.27773967717,-20927.84892652618
-29719.79584929894,-21151.008743167968,-67190.28260592015,-20907.866466983138
-29620.75526961747,-21125.75127193347,-67241.80337688964,-20920.51755434484
-29330.4731643764,-21107.378137991207,-67334.4960611458,-20970.428999713546
-29321.353652638634,-21149.242955356,-67294.82171473763,-20975.39108698262
-29615.592016648297,-21192.62769134375,-67194.75295481122,-20929.592362593696
-29719.59468359884,-21169.0466009434,-67190.95315825382,-20905.921865215525
-29619.72708937253,-21131.070987113835,-67238.7188361548,-20911.219228651436
-29324.974635240396,-21109.92623685911,-67329.98100876583,-20954.067522772257
-29313.79876301274,-21145.51021403196,-67284.42815356591,-20957.37558095164
-29608.394754933688,-21188.49261861952,-67188.60622508601,-20917.99180722139
-29712.88916026225,-21171.43823760012,-67184.40409712841,-20893.65075750956
-29618.76596436095,-21142.336266319307,-67234.3155424971,-20905.1842576485
-29330.60727484313,-21118.97869336351,-67327.52231687574,-20957.95672630748
-29327.634492830577,-21160.70940026157,-67294.21821763733,-20973.06650555927
-29619.03418529441,-21188.939653508623,-67183.48767560573,-20927.24542942589
-29728.69184359215,-21169.024249198945,-67177.76562902518,-20906.0336239378
-29641.38592974972,-21147.477167544028,-67232.95208608534,-20924.362054391157
-29352.735501853884,-21113.74838516097,-67324.10249997408,-20971.97127008096
-29343.19130697147,-21140.48107152952,-67282.97529017631,-20973.178264281545
-29637.42967098113,-21181.161246438176,-67179.7102307928,-20920.718720044937
-29749.993056058054,-21169.38187711023,-67175.17282666836,-20899.305748856757
-29659.893174158715,-21134.89313541569,-67227.34179822705,-20915.01902520884
-29367.979391572404,-21104.338300745287,-67317.2405144263,-20957.80026409629
-29355.909449566538,-21134.84843192678,-67275.75567671725,-20963.00822055438
-29657.92622064665,-21176.847359758303,-67178.16796042537,-20924.07148171324
-29765.862794621327,-21156.23905137051,-67171.48478883324,-20896.22120812192
-29670.510252774988,-21116.877629384715,-67218.40110044493,-20902.99378669188
-29380.563423700743,-21087.10510577025,-67301.0354996962,-20945.41739766805
-29372.00270557436,-21131.674484214127,-67268.98309814729,-20954.69337161701
-29667.760988206985,-21171.080609688837,-67173.94348072332,-20912.940312974493
-29785.308812297444,-21157.82602522684,-67172.51296907819,-20897.338795344687
-29699.45576184461,-21127.51705974544,-67216.47885042177,-20908.872295483627
-29414.24750259489,-21100.56085593234,-67312.56899983514,-20957.57674665174
-29401.931691400016,-21132.054463869867,-67274.05694413865,-20960.996563553403
-29695.2089303981,-21175.23803415752,-67171.39538185541,-20918.461193854957
-29805.51478928504,-21165.023286941443,-67165.18159689684,-20898.05405116726
-29714.900817263228,-21124.07489109932,-67209.77332708517,-20903.351414603167
-29426.429203323038,-21091.9777860615,-67301.25901714075,-20945.082121501226
-29410.24654033739,-21127.584114978807,-67273.2299295938,-20957.196766996
-29703.61318631329,-21164.77741775244,-67172.4012103559,-20916.024853709325
-29814.902521956268,-21143.94559192009,-67166.18742539734,-20892.577873775703
-29723.416831900697,-21111.51321071544,-67218.08817602256,-20902.434993080496
-29427.278569612336,-21087.21686449252,-67304.54472357569,-20943.517499389352
-29407.720793213943,-21128.27701905692,-67272.69348772686,-20956.90619431808
-29699.96985196708,-21170.67827828864,-67170.59071905502,-20918.14826943258
-29806.61002476335,-21149.33236233382,-67168.5567103096,-20895.215379621437
-29723.2156662006,-21120.90094338667,-67220.77038535719,-20907.26296988284
-29431.368938847656,-21082.45594292354,-67302.04132819669,-20948.792511080803
-29406.469095524444,-21114.66480668364,-67271.84412143756,-20956.302697217787
-29701.199197912123,-21157.42369382664,-67180.33607963753,-20916.114260687144
-29814.299024855976,-21140.74929246298,-67175.7092685353,-20893.69546099847
-29726.568427868897,-21111.580265948807,-67222.64793189144,-20908.402908850065
-29437.739186017418,-21078.522035899405,-67308.1880579219,-20949.53011864783
-29412.12408687164,-21111.93789386009,-67274.70514472785,-20956.81678734026
-29705.602491569814,-21158.988315938517,-67177.07272494707,-20917.47771709892
-29818.07646966892,-21158.51892930495,-67178.52558833666,-20901.496219813376
-29730.50233489303,-21130.37808303572,-67232.08036805158,-20916.56129557625
-29442.433052353037,-21093.69887038456,-67315.65354056997,-20955.34157220621
-29421.19889512049,-21128.23231556801,-67288.07148791212,-20969.087895046225
-29713.62676782927,-21177.249691158497,-67190.66258557589,-20928.36301664865
-29828.157106418268,-21165.358563108275,-67185.85696051801,-20908.46996408343
-29738.1689832412,-21122.778489920915,-67223.69846388084,-20912.64974029657
-29447.842174511217,-21079.05847776633,-67301.66134854095,-20947.920793047047
-29428.3961568351,-21125.57245797783,-67282.9305866874,-20970.540758435814
-29716.59954984183,-21170.43240909963,-67192.56248385459,-20931.33579866121
-29831.129888430823,-21155.076760658834,-67190.23790243124,-20911.398042607078
-29741.58880014286,-21107.42284148012,-67224.34666447004,-20910.19104840649
-29447.48454659993,-21067.77084681641,-67307.62926431051,-20945.32799069023
-29420.461287553466,-21104.22654202301,-67284.80813322165,-20957.219118740453
-29704.84253225834,-21141.62101049674,-67183.17475118337,-20913.342644374687
-29822.725632515627,-21129.41695802414,-67174.81519875707,-20893.673109254018
-29737.006692529525,-21098.638605909186,-67218.69167312286,-20903.01613843633
-29448.69154080052,-21070.140131728665,-67308.45627885536,-20946.557336635276
-29420.841267209205,-21109.07687056981,-67286.39510707797,-20963.67877288804
-29706.965947981596,-21153.0427519134,-67187.98037624126,-20928.40772013757
-29820.401051092274,-21141.12927211872,-67177.49740809172,-20904.75957450385
-29739.845364075347,-21113.502515971963,-67221.39623420194,-20912.895609485586
-29460.15798570609,-21093.49770468446,-67306.15404917646,-20953.218156482955
-29429.20081963549,-21120.476260242016,-67275.7333249728,-20960.571880408752
-29722.27689293348,-21164.95623170808,-67178.14560868092,-20926.641932325598
-29839.17651643473,-21151.3440193348,-67170.92599522186,-20906.21243789345
-29753.1223002818,-21117.41407125164,-67218.2669899782,-20914.348472875176
-29472.004410267404,-21090.0778877828,-67311.5408195902,-20957.710857118476
-29445.741110532417,-21117.52582997392,-67284.58461577709,-20969.57963342424
-29733.36335818331,-21146.359580321263,-67181.67718430486,-20926.19489743649
-29845.65852232677,-21129.685178957603,-67178.54794008112,-20903.12789715861
-29757.927925339693,-21095.263492496437,-67218.55756265612,-20904.75957450385
-29481.906233061105,-21069.424875906097,-67305.81877300964,-20945.21623196796
-29456.42524438205,-21105.500591456963,-67282.03651690918,-20962.33766822072
-29738.92894255268,-21141.643362241197,-67172.42356210036,-20916.1366124316
-29855.47093814265,-21127.22648706752,-67164.01930618516,-20893.427240065008
-29775.809320903936,-21100.56085593234,-67210.7121003523,-20903.507876814358
-29494.78083786736,-21078.902015555148,-67302.37660436351,-20945.193880223494
-29466.59528810922,-21118.24108579649,-67281.14244713097,-20963.43290369903
-29756.34095148337,-21156.529624048428,-67175.9104342354,-20920.22698166692
-29876.05689478599,-21143.05152214188,-67162.27587011765,-20889.94036792998
-29798.98807990409,-21131.38391153621,-67214.86952482098,-20902.92673145852
-29517.73607942296,-21105.2323705235,-67304.20944740885,-20949.50776690337
-29482.77795109486,-21131.674484214127,-67281.56713027562,-20964.23756649942
-29760.14074804077,-21164.933879963624,-67173.51879757867,-20917.29890314328
-29881.73423787764,-21157.513100804463,-67178.14560868092,-20904.3348913592
-29800.19507410468,-21129.104033601765,-67218.31169346711,-20912.64974029657
-29520.08301259077,-21089.89907382716,-67305.17057242044,-20954.91688906156
-29482.26386097239,-21119.582190463807,-67281.6788889979,-20968.216177012466
-29764.61109693183,-21155.32262984784,-67177.67622204736,-20928.40772013757
-29882.270679744564,-21135.27311507143,-67167.86380623149,-20905.56423730424
-29803.301966583964,-21102.50545769995,-67212.99197828675,-20916.04720545378
-29523.50282949243,-21075.146922486656,-67297.54862756118,-20957.129711762635
-29488.902329075616,-21115.17889680611,-67273.81107494964,-20972.887691603624
-29770.64606793476,-21154.80853972537,-67170.43425684384,-20930.50878411636
-29889.91497634828,-21142.49272853049,-67164.7569137522,-20909.788717006293
-29811.84033296589,-21119.090452085788,-67212.9696265423,-20917.74593803238
-29536.19862034305,-21097.2304460085,-67306.51167708775,-20960.70599087548
-29499.27353850288,-21128.969923135035,-67282.97529017631,-20972.73122939244
-29777.08337033789,-21166.386743353218,-67178.59264357002,-20924.987903235902
-29894.58649093944,-21151.254612356977,-67167.9532132093,-20897.741126744884
-29822.032728437516,-21124.32076028833,-67223.74316736974,-20915.063728697747
-29545.854573947738,-21099.957358832045,-67316.25703767026,-20963.4999589324
-29507.163704295603,-21137.575344750327,-67290.64193852448,-20973.42413347055
-29786.89578615377,-21168.15253116519,-67185.43227737336,-20923.71385380195
-29908.01988935708,-21150.025266411933,-67177.0056697137,-20900.870370968627
-29836.80723152247,-21121.862068398248,-67223.9666848143,-20917.81299326575
-29563.512452067436,-21098.280977997896,-67313.61953182454,-20966.53979617832
-29522.94403588105,-21136.70362671657,-67287.82561872312,-20976.978060838945
-29804.10662938436,-21177.450856858595,-67185.70049830682,-20935.269705685343
-29923.219075586687,-21153.981525180523,-67171.08245743305,-20912.269760640836
-29846.61964733835,-21108.24985602497,-67213.99780678723,-20915.689577542493
-29568.027504447404,-21080.623099878205,-67305.95288347636,-20956.43680768452
-29524.84393415975,-21121.66090269815,-67287.49034255628,-20968.52910143484
-29801.066792138437,-21150.874632701238,-67184.56055933959,-20923.736205546404
-29918.793430184534,-21136.636571483206,-67177.07272494707,-20903.0831936697
-29841.836374024915,-21106.998158335467,-67221.66445513541,-20911.86742924064
-29570.37443761521,-21079.86314056673,-67313.93245624691,-20959.186072252523
-29524.687471948564,-21108.607483936248,-67288.51852280123,-20970.94308983601
-29807.213521863643,-21151.63459201272,-67189.27677741967,-20935.225002196432
-29928.87406693388,-21136.010722638457,-67179.35260288151,-20914.013196708347
-29855.135661975823,-21106.23819902399,-67221.99973130223,-20923.80326077977
-29576.45411210705,-21077.225634721,-67303.7400607753,-20964.125807777145
-29532.734099952475,-21113.90484737216,-67286.2833483557,-20982.49894171941
-29811.013318421046,-21153.62389726924,-67184.69466980633,-20938.35424642017
-29930.192819856744,-21136.8377371833,-67170.16603591037,-20912.314464129744
-29858.57783062194,-21112.65314968266,-67217.32821671107,-20923.84796426868
-29583.47255986602,-21090.97195756101,-67309.4844591003,-20967.14329327861
-29537.472669777,-21125.237181811,-67302.24249389679,-20989.67385168956
-29818.32233885793,-21171.974679467046,-67213.68488236486,-20955.453330928485
-29936.786584471058,-21157.62485952674,-67199.26800719119,-20926.61958058114
-29857.795519566003,-21118.57636196332,-67241.93748735636,-20926.37371139213
-29582.93611799909,-21081.85244582325,-67335.45718615738,-20968.05971480128
-29536.13156510968,-21115.26830378393,-67319.63215108302,-20987.304566777297
-29812.80145797747,-21146.04665589889,-67213.88604806496,-20940.701179587984
-29928.762308211604,-21131.629780725216,-67201.14555372544,-20909.408737350557
-29851.224106696143,-21090.636681394182,-67244.64204843546,-20916.628350809617
-29580.767998786927,-21065.11098922622,-67340.01694202625,-20964.52813917734
-29536.69035872106,-21098.10216404225,-67324.10249997408,-20980.73315390744
-29810.70039399867,-21132.65796097016,-67223.07261503609,-20935.537926618807
-29930.52809602357,-21119.51513523044,-67208.27576020667,-20909.60990305065
-29855.85091779839,-21097.073983797312,-67253.71685668432,-20919.62348456663
-29580.164501686635,-21070.83303580678,-67345.71663686236,-20966.606851411685
-29524.575713226288,-21099.979710576503,-67329.64573259899,-20985.76229640988
-29798.026954892517,-21145.219641354044,-67230.82867036208,-20945.3950459236
-29917.519380750586,-21133.104995859267,-67217.32821671107,-20917.34360663219
-29842.506926358576,-21100.47144895452,-67254.90149914044,-20920.09287120019
-29572.18492891609,-21075.683364353583,-67340.91101180446,-20963.9469938215
-29517.043175344847,-21104.78533563439,-67318.53691560471,-20977.76037189488
-29792.19314958968,-21147.45481579957,-67216.81412658861,-20935.67203708554
-29917.20645632821,-21141.822176196834,-67208.47692590677,-20920.42814736702
-29844.496231615096,-21112.80961189385,-67245.69258042486,-20926.15019394758
-29572.319039382823,-21086.41220169213,-67333.71375008985,-20968.3502874792
-29519.7700881684,-21124.119594588232,-67318.80513653817,-20988.377450511158
-29791.74611470057,-21169.538339321414,-67219.31752196759,-20950.53594714832
-29910.523284736075,-21151.142853634698,-67210.80150733012,-20926.731339303416
-29841.72461530264,-21114.128364816712,-67256.66728695242,-20935.537926618807
-29563.62421078971,-21075.482198653484,-67346.9459828074,-20974.34055499322
-29512.148143309136,-21112.04965258237,-67329.891601788,-20987.05869758829
-29782.961879129634,-21151.85810945727,-67225.24073424825,-20942.4446156555
-29901.023793342567,-21129.819289424337,-67209.616864874,-20915.19783916448
-29828.537086074008,-21098.772716375915,-67254.65562995143,-20921.366920634144
-29554.661161263128,-21073.269375952408,-67346.85657582957,-20963.119979276657
-29497.306584990813,-21103.75715538945,-67330.62920935503,-20981.180188796545
-29765.08048356539,-21139.788167451403,-67220.61392314601,-20929.972342249435
-29891.457246715698,-21135.139004604694,-67220.12218476798,-20913.029719952312
-29818.925835958224,-21104.09243155628,-67263.5292725002,-20920.942237489493
-29547.3744925707,-21081.98655628998,-67349.98582005332,-20965.57867116674
-29487.78474185285,-21120.1856875641,-67340.5980873821,-20985.58348245424
-29755.40217821624,-21160.821158983847,-67236.2154407758,-20942.064635999755
-29873.039409284524,-21142.783301208416,-67217.43997543336,-20912.62738855212
-29804.53131252901,-21115.983559606502,-67263.70808645584,-20921.948065989985
-29534.05285287533,-21090.256701738443,-67350.47755843133,-20962.829406598736
-29474.731323090957,-21119.202210808064,-67338.51937514775,-20983.77299115336
-29747.154384512232,-21168.353696865284,-67244.5749932021,-20949.77598783684
-29872.458263928685,-21161.201138639582,-67233.91321109691,-20925.546696847287
-29805.93947242969,-21133.641437726197,-67275.66626973942,-20930.598191094185
-29531.99649238545,-21098.79506812037,-67358.43477945743,-20968.596156668205
-29469.18809046604,-21120.252742797464,-67344.42023568395,-20984.86822663167
-29742.41581468771,-21165.023286941443,-67245.69258042486,-20945.797377323797
-29864.009304524578,-21147.81244371086,-67230.64985640644,-20913.789679263795
-29798.31752757043,-21111.91554211564,-67272.80524644915,-20920.9869409784
-29534.65634997563,-21093.49770468446,-67355.52905267823,-20967.210348511977
-29475.334820191245,-21126.75710043396,-67339.92753504844,-20987.662194688583
-29743.913381566214,-21148.840623955803,-67228.43703370537,-20940.052978998778
-29869.82075808296,-21131.205097580565,-67211.82968757507,-20909.29697862828
-29808.66638525324,-21102.19253327757,-67256.55552823014,-20918.14826943258
-29540.199582600544,-21070.74362882896,-67345.4484159289,-20963.835235099225
-29474.284288201845,-21094.816457607325,-67332.4397006559,-20980.57669169625
-29739.845364075347,-21130.64630396918,-67225.48660343727,-20932.60984809516
-29869.55253714949,-21124.36546377724,-67212.72375735328,-20902.502048313865
-29801.402068305262,-21091.41899245012,-67248.73241767078,-20902.882027969605
-29532.33176855228,-21065.71448632652,-67343.25794497227,-20948.278420958333
-29469.858642799696,-21104.450059467563,-67338.58643038111,-20976.754543394392
-29741.432337931677,-21148.930030933625,-67239.00940883272,-20939.918868532048
-29863.696380102207,-21131.115690602743,-67215.71889111029,-20907.03945243829
-29798.473989781614,-21106.014681579432,-67255.43794100737,-20913.23088565241
-29531.482402262976,-21072.59882361875,-67338.16174723646,-20954.69337161701
-29464.717741574976,-21103.958321089547,-67323.52135461823,-20972.39595322561
-29734.50329715053,-21147.90185068868,-67227.27474299369,-20937.10254873068
-29864.076359757943,-21139.74346396249,-67222.37971095798,-20919.958760733454
-29799.14454211528,-21106.998158335467,-67263.46221726683,-20924.09383345769
-29529.806021428827,-21066.83207354928,-67336.91004954696,-20956.973249551447
-29462.706084574,-21096.515190185928,-67329.86925004354,-20980.509636462884
-29725.04850924593,-21135.47428077153,-67231.11924304,-20939.47183364294
-29847.29019967201,-21116.430594495607,-67212.29907420863,-20911.2862838848
-29783.90065239676,-21082.83592257928,-67248.28538278167,-20914.2367141529
-29523.212256814517,-21061.06532347981,-67332.21618321135,-20951.05003727079
-29459.755654305896,-21099.867951854223,-67328.93047677643,-20975.92752884955
-29725.20497145712,-21147.857147199767,-67235.99192333125,-20948.39017968061
-29848.11721421685,-21123.538449232397,-67217.19410624434,-20924.3397026467
-29782.961879129634,-21088.1779895041,-67254.54387122917,-20925.345531147188
-29519.434812001564,-21061.64646883565,-67338.78759608121,-20961.510653675872
-29447.73041578894,-21092.20130350605,-67331.88090704453,-20979.906139362596
-29711.03396547246,-21144.59379250929,-67241.33399025607,-20947.69727560249
-29835.35436813288,-21133.61908598174,-67227.3194464826,-20924.406757880064
-29769.886108623283,-21099.15269603165,-67267.19495859086,-20924.630275324616
-29501.821637370784,-21065.69213458206,-67345.09078801761,-20958.984906552425
-29420.863618953663,-21093.74357387347,-67337.78176758073,-20977.067467816767
-29687.139950649733,-21152.70747574657,-67251.72755142779,-20951.832348326727
-29812.220312621637,-21136.88244067221,-67229.04053080565,-20926.41841488104
-29749.63542814677,-21100.1808762766,-67269.0278016362,-20936.67786558603
-29489.952861065016,-21077.091524254265,-67359.32884923564,-20981.06843007427
-29414.02398515034,-21103.10895480025,-67350.99164855381,-20998.14516283812
-29673.3042208319,-21141.75512096347,-67248.46419673732,-20954.51455766136
-29797.021126392025,-21124.164298077143,-67223.38553945847,-20925.99373173639
-29735.59853262884,-21096.448134952563,-67258.94716488685,-20930.598191094185
-29477.860567314696,-21074.297556197354,-67342.81091008316,-20967.2997554898
-29399.852979165677,-21101.432573966096,-67334.02667451224,-20983.638880686627
-29660.07198811436,-21136.21188833856,-67234.02496981919,-20943.942182534003
-29784.32533554141,-21122.152641076165,-67222.80439410263,-20921.746900289883
-29723.88621853426,-21095.621120407715,-67262.14346434397,-20934.28622892931
-29470.953878278004,-21074.65518410864,-67344.73316010632,-20978.363868995177
-29395.583795974708,-21109.233332781,-67338.85465131458,-21000.38033728365
-29656.67452295715,-21152.3945513242,-67238.24944952124,-20963.075275787745
-29784.280632052494,-21139.207022095565,-67215.76359459921,-20935.47087138544
-29720.17582895468,-21108.115745558232,-67256.37671427449,-20939.784758065314
-29459.1521572056,-21074.230500963982,-67338.139395492,-20976.463970716475
-29384.743199913886,-21106.26055076844,-67337.35708443608,-21003.3084158073
-29647.73382517503,-21146.627801254726,-67238.98705708826,-20967.277403745346
-29774.75878891454,-21127.7852806789,-67215.71889111029,-20940.09768248769
-29718.11946846479,-21110.641492681683,-67262.5234439997,-20949.731284347927
-29458.660418827585,-21088.781486604392,-67344.21906998385,-20985.427020243053
-29380.317554511734,-21108.29455951388,-67342.22976472734,-21005.96827339748
-29636.62500818074,-21146.247821598987,-67246.09491182506,-20968.506749690387
-29764.164062042724,-21137.575344750327,-67226.78300461567,-20941.729359832927
-29707.34592763733,-21111.89319037118,-67269.18426384739,-20949.66422911456
-29445.6517035546,-21072.375306174195,-67348.398846197,-20982.945976608517
-29365.140720026586,-21083.193550490567,-67333.78080532323,-20996.91581689308
-29623.23631325201,-21122.599675965277,-67237.8694698655,-20956.839139084717
-29752.45174794814,-21113.14488806068,-67220.88214407947,-20928.81005153776
-29694.381915853253,-21088.915597071125,-67258.85775790903,-20935.58263010772
-29436.286322627824,-21067.301460182844,-67346.34248570711,-20978.65444167309
-29354.031903032293,-21095.844637852268,-67335.45718615738,-20994.702994192005
-29615.21203699256,-21142.42567329713,-67241.49045246726,-20961.980040309438
-29748.00375080153,-21127.89703940118,-67220.97155105729,-20936.09672023019
-29690.671526273672,-21097.90099834216,-67259.19303407587,-20942.75754007787
-29433.06767142626,-21069.737800328472,-67339.7487210928,-20981.560168452284
-29350.880307064093,-21096.671652397115,-67331.72444483334,-20992.40076451311
-29612.507475913462,-21144.59379250929,-67238.22709777679,-20953.68754311652
-29742.616980387807,-21134.49080401549,-67213.90839980941,-20922.95389449047
-29687.16230239419,-21101.477277455007,-67251.1240543275,-20930.08410097171
-29431.86067722567,-21071.74945732945,-67330.0927674881,-20971.166607280567
-29353.830737332195,-21105.85821936825,-67332.1938314669,-21002.0567181178
-29615.52496141493,-21152.349847835285,-67240.39521698895,-20969.89255784661
-29749.568372913407,-21138.33530406181,-67219.1163562675,-20934.733263818416
-29695.61126179829,-21111.1332310597,-67250.85583339403,-20933.123938217635
-29441.53898257482,-21074.096390497256,-67329.6904360879,-20969.78079912434
-29357.80934784524,-21093.162428517637,-67329.57867736563,-20991.171418568065
-29625.136211530717,-21133.61908598174,-67238.69648441035,-20960.86245308667
-29764.65580042074,-21124.432519010606,-67221.91032432442,-20938.35424642017
-29713.291491662443,-21095.3305477298,-67255.48264449628,-20942.53402263332
-29462.43786364053,-21074.40931491963,-67336.68653210241,-20975.79341838281
-29378.30589751076,-21089.586149404782,-67326.80706105317,-20986.455200487995
-29633.98750233501,-21117.79405090738,-67219.60809464552,-20940.209441209965
-29775.4293412482,-21105.545294945878,-67202.95604502631,-20914.571990319728
-29726.38961391325,-21077.06917250981,-67232.8179756186,-20911.442746095985
-29471.825596311763,-21045.709675039016,-67307.65161605497,-20938.0413219978
-29395.784961674806,-21082.344184201265,-67308.90331374446,-20963.835235099225
-29660.295505558912,-21131.406263280664,-67216.00946378821,-20935.89555453009
-29798.1834171037,-21123.31493178784,-67192.94246351034,-20910.92865597352
-29755.916268338715,-21103.667748411623,-67230.38163547298,-20919.154097933068
-29506.135524050656,-21076.130399242687,-67309.73032828931,-20954.559261150276
-29421.802392220783,-21102.19253327757,-67307.87513349952,-20972.28419450333
-29683.67543025916,-21143.319743075343,-67207.87342880647,-20929.078272471223
-29821.63039703732,-21123.94078063259,-67187.80156228562,-20899.46221106794
-29778.692695938676,-21106.21584727953,-67236.28249600918,-20916.06955719824
-29532.33176855228,-21082.478294667995,-67326.62824709753,-20962.874110087647
-29443.08125294224,-21101.186704777087,-67318.76043304926,-20977.82742712825
-29705.960119481104,-21149.80174896738,-67225.41954820389,-20946.132653490626
-29846.083205471423,-21141.777472707927,-67201.52553338117,-20919.86935375564
-29800.932681671704,-21111.64732118217,-67235.54488844215,-20919.35526363317
-29556.98574268648,-21084.75817260244,-67328.12581397603,-20962.114150776168
-29467.757578820896,-21099.84560010977,-67321.73321506182,-20976.1510462941
-29730.18941047065,-21141.933934919118,-67226.49243193775,-20939.605944109677
-29872.81589183997,-21121.862068398248,-67201.77140257019,-20913.3873478636
-29824.20084764968,-21089.675556382605,-67234.60611517503,-20916.874219998623
-29575.023600461915,-21059.478349623485,-67317.21816268185,-20953.68754311652
-29490.332840720755,-21079.773733588903,-67316.21233418136,-20974.29585150431
-29749.59072465786,-21120.56566721984,-67221.82091734659,-20937.95191501998
-29893.178331038755,-21112.56374270484,-67196.31757692309,-20910.25810363985
-29845.502060115585,-21085.45107668055,-67230.4710424508,-20920.271685155836
-29600.28107169641,-21060.55123335734,-67311.51846784574,-20960.370714708653
-29521.379413769177,-21094.36942271822,-67315.69824405888,-20985.650537687605
-29787.6333937208,-21139.43053954012,-67218.66932137839,-20951.564127393263
-29935.043148403543,-21132.56855399234,-67198.97743451326,-20924.674978813528
-29891.83722637144,-21109.233332781,-67233.51087969671,-20929.815880038248
-29648.27026704196,-21080.287823711376,-67318.22399118233,-20971.77010438086
-29558.95269619855,-21097.588073919786,-67311.85374401257,-20986.477552232453
-29816.84712372388,-21137.62004823924,-67211.9637980418,-20946.199708723987
