 EXG Channel 0, EXG Channel 1, EXG Channel 2, EXG Channel 3
12046.852653843482,-112911.87112472906,6801.255858094199,1829.110304011143
12070.120819821455,-112896.6942902439,6824.568727561084,1832.7759901018128
12078.882703647936,-112881.20453133638,6839.633803323961,1829.3114697112403
12062.990613340213,-112893.11801113104,6824.993410705735,1832.306603468252
12053.133494035425,-112912.98871195182,6809.391893075931,1836.1511035145645
12052.57470042404,-112918.68840678791,6807.91667794188,1835.0558680362549
12060.15194179439,-112905.67969151496,6822.177090904366,1833.5359494132936
12063.661165673871,-112892.6039210086,6832.794169520637,1828.8867865665895
12049.557214922574,-112906.1937816374,6817.192651890833,1822.5835946301927
12044.617479397952,-112921.77294752275,6806.620276763472,1827.0539435212545
12051.993555068202,-112923.38227312354,6810.598887276517,1827.2104057324416
12062.029488328635,-112918.151964921,6820.992448448235,1823.7682370863245
12074.01002335668,-112900.0470519122,6837.219814922788,1818.426170161506
12058.81083712707,-112907.51253456029,6828.100303185022,1818.7390945838804
12047.880834088426,-112923.82930801265,6813.996352433724,1823.1870917304864
12044.751589864683,-112936.905078519,6811.336494843543,1824.1258649976091
12056.642717914909,-112926.89149700305,6824.300506627621,1826.0481150207656
12068.176218053844,-112908.51836306076,6840.013782979701,1830.8537400786568
12044.23749974221,-112921.3035608892,6826.848605495526,1826.852777821157
12029.485348401708,-112939.69904657592,6811.716474499282,1826.8080743322464
12036.794368838591,-112944.12469197808,6811.627067521462,1825.0646382647324
12055.10044754749,-112929.61840982658,6825.060465939101,1823.924699297512
12061.962433095268,-112915.96149396438,6837.800960278626,1825.6234318761149
12048.461979444264,-112925.39393012453,6824.412265349897,1831.79251334578
12038.135473505912,-112944.5046716338,6809.816576220582,1842.1860745174972
12046.517377676651,-112947.99154376885,6812.498785555218,1838.632147149104
12067.416258742363,-112933.3511511506,6830.44723635283,1839.8391413496904
12078.68153794784,-112919.62718005505,6843.970041748291,1839.280347738308
12060.710735405772,-112932.6135435836,6827.87678574047,1837.805132604257
12049.62427015594,-112945.5105001343,6815.628029778962,1838.632147149104
12056.15097953689,-112939.87786053156,6818.801977491615,1834.0276877913104
12072.065421589068,-112923.27051440129,6832.794169520637,1832.910100568545
12078.994462370214,-112910.150040406,6843.567710348095,1830.227891233908
12064.264662774163,-112919.13544167703,6830.804864264115,1829.490283666883
12047.791427110604,-112943.63295360006,6811.425901821363,1833.0889145241877
12052.038258557111,-112946.91866003498,6813.571669289073,1827.9033098105565
12062.275357517645,-112935.51927036275,6826.155701417411,1825.7351905983917
12074.43470650133,-112922.46585160088,6835.722248044282,1824.3717341866177
12062.074191817546,-112933.14998545052,6821.663000781894,1824.0811615086989
12049.512511433662,-112955.8593578171,6802.038169150134,1823.298850452763
12057.2462150152,-112958.54156715174,6804.385102317942,1823.4553126639505
12070.143171565913,-112946.96336352389,6817.68439026885,1816.4815683938943
12068.779715154138,-112936.905078519,6823.652306038417,1807.1161874671209
12048.14905502189,-112946.00223851232,6809.68246575385,1805.8868415220788
12038.113121761457,-112964.64359338804,6791.599904489506,1804.679847321492
12047.947889321793,-112969.33745972364,6791.912828911881,1808.1443677120649
12062.700040662294,-112958.58627064063,6804.318047084576,1809.5301758682936
12069.29380527661,-112944.2588024448,6813.079930911056,1809.5525276127487
12059.749610394194,-112950.94197403692,6799.825346449059,1809.3737136571067
12050.116008533956,-112967.59402365614,6781.206343317788,1805.7527310553469
12054.027563813635,-112969.20334925692,6782.256875307188,1808.010257245333
12064.48818021872,-112953.73594209384,6799.624180748961,1811.5641846137269
12074.524113479152,-112935.89925001853,6812.185861132844,1808.88197527909
12056.083924303524,-112946.94101177945,6792.941009156824,1809.731341568392
12039.52128166214,-112969.42686670148,6770.924540868347,1814.6040218596488
12048.23846199971,-112966.4093812,6771.975072857746,1815.4980916378609
12062.074191817546,-112958.02747702927,6782.726261940749,1817.107417238643
12072.087773333524,-112945.08581698964,6795.086776624535,1819.7225713399137
12059.05670631608,-112954.29473570525,6782.256875307188,1824.0141062753328
12053.938156835817,-112967.8175411007,6769.29286352311,1825.3775626871063
12063.370592995954,-112968.0634102897,6772.042128091112,1825.690487109481
12072.91478787837,-112962.29666022024,6780.669901450861,1822.4047806745507
12078.279206547644,-112945.21992745638,6794.1032998685005,1818.6720393505143
12056.66506965936,-112960.4638171749,6778.457078749786,1817.755617827847
12047.009116054667,-112984.58134944216,6759.793372129604,1819.3425916841736
12057.156808037378,-112987.30826226572,6762.922616353348,1820.6166411181264
12068.757363409684,-112975.30537549322,6775.841924648515,1818.1803009724977
12083.710680450284,-112957.98277354037,6791.734014956238,1817.9344317834891
12068.220921542756,-112969.7174393794,6777.183029315834,1819.6108126176373
12054.787523125116,-112988.15762855504,6759.1451715404,1819.4543504064504
12055.592185925509,-112993.41028850204,6756.53001743913,1816.2804026937963
12068.779715154138,-112983.82139013067,6767.705889666783,1815.945126526967
12075.619348957462,-112970.43269520196,6779.597017717007,1819.1637777285312
12058.497912704695,-112980.0662970622,6765.62717743244,1823.745885341869
12045.109217775967,-112998.23826530436,6749.2433487467,1821.3766004296067
12053.37936322443,-112999.48996299386,6751.411467958864,1818.6720393505143
12072.57951171154,-112984.64840467554,6766.856523377482,1819.007315517344
12079.732069937238,-112969.29275623476,6777.183029315834,1812.9723445144111
12066.00809884168,-112975.52889293776,6764.95662509878,1808.3231816677076
12055.05574405858,-112996.02544260328,6751.1432470254,1811.921812525012
12061.604805183984,-112999.3782042716,6752.841979604003,1814.2910974372744
12076.379308268944,-112991.04100358977,6767.191799544311,1818.113245739132
12080.469677504265,-112980.22275927338,6780.021700861657,1817.040362005277
12064.86815987446,-112990.05752683373,6769.806953645582,1819.3872951730843
12057.536787693118,-113008.4753642649,6754.786581371615,1817.196824216464
12061.180122039334,-113010.50937301033,6757.021755817146,1814.9616497709333
12077.809819914082,-112997.99239611535,6772.153886813389,1815.2522224488523
12090.147982853412,-112977.47349470538,6787.889514909925,1815.3192776822184
12069.71848842126,-112987.75529715484,6775.394889759409,1815.7663125713243
12062.185950539822,-113003.5132769958,6762.140305297412,1813.5758416147044
12066.790409897616,-113010.10704161011,6761.201532030289,1811.742998569369
12078.636834458928,-112999.84759090516,6772.869142635959,1810.401893902051
12090.974997398258,-112984.35783199762,6785.520229997663,1812.301792180752
12076.334604780031,-112995.8242769032,6771.751555413193,1813.9334695259893
12063.10237206249,-113014.93501841248,6755.233616260722,1816.1909957159755
12068.10916282048,-113016.05260563524,6759.703965151783,1818.068542250221
12080.424974015354,-113003.08859385116,6778.591189216518,1820.3931236735727
12091.01970088717,-112986.88357912107,6793.723320212761,1821.1530829850533
12080.603787970997,-112993.03030884628,6781.921599140358,1821.2424899628747
12070.701965177292,-113010.84464917716,6767.52707571114,1826.0928185096764
12079.642662959415,-113016.25377133534,6766.342433255009,1827.813902832735
12096.96526491228,-113005.23436131889,6779.932293883836,1828.752676099858
12104.408395815895,-112991.33157626768,6787.397776531909,1820.460178906939
12095.221828844766,-113001.5239717393,6774.38906125892,1820.460178906939
12090.371500297964,-113015.85143993516,6764.777811143138,1825.556376642749
12097.0546718901,-113017.25959983584,6765.403659987886,1824.7070103534477
12105.72714873876,-113008.7212334539,6773.115011824967,1823.7682370863245
12108.49876505122,-112994.30435828023,6784.223828819255,1823.2094434749415
12089.365671797475,-113003.04389036226,6772.042128091112,1827.880958066101
12078.748593181204,-113020.12062312612,6755.166561027356,1829.5126354113384
12091.24321833172,-113023.4286813055,6758.564026184563,1834.4747226804168
12104.2072301158,-113011.33638755516,6773.785564158627,1834.3853157025956
12113.72907325376,-112994.4161170025,6786.682520709339,1834.653536636059
12097.59111375703,-113005.14495434106,6772.220942046755,1835.8828825811008
12089.611540986483,-113022.02052140482,6756.619424416951,1837.9839465599
12097.0546718901,-113024.680378995,6760.039241318613,1840.979080316911
12109.973980185268,-113013.43745153396,6774.701985681294,1838.632147149104
12118.40058784492,-112998.30532053774,6785.833154420037,1834.117094769132
12102.933180681846,-113012.0739951222,6773.3161775250655,1833.334783713196
12099.692177735827,-113028.7260447414,6762.252064019688,1836.776952359313
12104.609561515996,-113035.05158842226,6762.38617448642,1837.7380773708917
12114.287866865145,-113026.08853889568,6775.685462437327,1837.4475046929724
12117.618276788984,-113011.2693323218,6786.079023609045,1830.9654988009331
12098.976921913258,-113017.99720740286,6773.450287991797,1832.910100568545
12089.566837497574,-113033.419911077,6758.362860484464,1837.715725626436
12098.619294001974,-113036.61621053414,6760.508627952174,1838.1851122599976
12113.907887209403,-113029.21778311944,6774.701985681294,1837.8274843487127
12119.652285534416,-113021.66289349351,6784.849677664003,1835.145275014076
12109.884573207448,-113035.5880302892,6768.644662933906,1832.150141257065
12103.983712671246,-113054.60936482064,6752.551406926085,1835.3464407141732
12112.991465686737,-113054.05057120929,6756.0606308055685,1838.6768506380145
12125.553146070615,-113038.06907392372,6771.550389713096,1831.9042720680563
12135.58907933105,-113023.56279177224,6784.96143638628,1830.786684845291
12115.047826176624,-113040.34895185816,6767.370613499954,1832.530120912805
12103.313160337588,-113061.51605385734,6753.400773215387,1836.8440075926792
12112.544430797629,-113066.5451963598,6757.513494195163,1835.1005715251647
12128.0118379607,-113055.97282123244,6773.33852926952,1832.6418796350813
12133.2644979077,-113045.44514959396,6786.570761987062,1831.07725752321
12120.658114034906,-113057.26922241085,6773.2044188027885,1827.79155108828
12117.864145977992,-113072.06607724023,6761.849732619493,1826.651612121059
12126.044884448636,-113075.37413541962,6764.062555320568,1826.0481150207656
12137.846605521036,-113068.7356673164,6775.1490205704,1825.2211004759197
12144.730942813272,-113054.02821946482,6789.431785277341,1825.6681353650256
12129.64351530594,-113065.51701611484,6775.86427639297,1826.6069086321484
12124.323800125576,-113084.51599890186,6762.520284953152,1829.937318555989
12136.997239231736,-113082.81726632324,6768.8011251450935,1829.110304011143
12145.334439913564,-113074.74828657488,6780.915770639869,1826.763370843336
12153.671640595394,-113055.41402762104,6798.908924926392,1832.686583123992
12137.69014330985,-113068.2439289384,6783.374462529953,1832.6418796350813
12131.006971717712,-113086.25943496935,6764.621348931951,1830.3396499561848
12140.59587008904,-113089.96982454894,6764.91192160987,1828.17153074402
12158.87959705348,-113076.4470191535,6778.255913049688,1828.7750278443127
12165.383954689974,-113063.0806759692,6788.336549799032,1822.9188707970227
12150.050657993634,-113075.17296971954,6772.667976935862,1819.9013852955563
12141.668753822894,-113092.0932402722,6754.00427031568,1826.495149909872
12143.50159686823,-113095.82598159624,6752.886683092915,1828.976193544411
12151.950556272335,-113090.37215594914,6763.347299497998,1827.366867943629
12165.227492478787,-113070.81437955076,6779.842886906014,1826.8974813100676
12152.934033028369,-113078.70454534348,6763.950796598291,1825.712838853936
12140.0147247332,-113103.15735377758,6743.387191699409,1829.3785249446064
12147.591966103551,-113104.43140321154,6744.393020199897,1826.137521998587
12162.79115233316,-113091.82501933874,6759.771020385149,1827.657440621548
12170.83778033707,-113079.21863546596,6768.287035022621,1823.879995808601
12156.957347030324,-113092.7414408614,6750.651508647384,1820.9295655405008
12144.015686990702,-113116.41193823956,6729.0597235035575,1816.2804026937963
12152.129370227978,-113117.97656035144,6733.485368905708,1816.1462922270648
12162.612338377518,-113106.06308055676,6746.4940841786965,1813.307620681241
12167.753239602238,-113093.90373157308,6756.0606308055685,1811.2512601913525
12158.03023076418,-113104.63256891163,6741.397886442886,1809.2843066792852
12149.2683469377,-113124.9503046215,6726.668086846839,1814.492263137372
12152.464646394808,-113134.62860997063,6725.461092646253,1814.1793387149976
12162.075896510589,-113126.53727847784,6737.508682907664,1806.5126903668277
12166.658004123929,-113114.75790914988,6748.461037690764,1804.3222194102077
12155.392724918453,-113124.5032697324,6735.273508462133,1809.4184171460172
12152.196425461343,-113139.76951119537,6721.437778644297,1808.703161323448
12159.93012904288,-113141.26707807388,6724.924650779325,1809.910155524034
12171.55303615964,-113134.94153439305,6734.558252639563,1807.943202011967
12183.757088632236,-113121.66459818656,6748.170465012845,1805.7750827998025
12168.088515769066,-113135.27681055984,6734.938232295302,1801.617658331115
12155.236262707263,-113154.70047649152,6716.252173930666,1799.5836495856822
12159.997184276246,-113164.28937486284,6715.112234963445,1797.884917007079
12179.711422885826,-113151.37006656767,6732.300726449576,1798.108434451632
12184.494696199265,-113134.449796015,6744.281261477621,1797.7061030514365
12167.59677739105,-113151.88415669015,6724.499967634674,1800.8353472751794
12160.175998231887,-113172.06778193328,6708.607877326951,1802.7128938094247
12164.802809334136,-113178.30391863632,6709.859575016449,1798.5331175962829
12186.059318311134,-113164.60229928522,6728.053895003069,1797.080254206688
12197.70457717235,-113150.453645045,6742.828398088026,1796.2979431507522
12185.36641423302,-113163.14943589564,6728.165653725345,1799.0919112076654
12174.45876293883,-113181.8131425158,6712.988819240191,1803.495204865361
12177.431544951383,-113188.74218329696,6715.715732063739,1806.2891729222745
12192.451917225351,-113176.20285465752,6733.552424139074,1807.6749810785036
12199.895048128968,-113162.2553661174,6745.443552189297,1812.3911991585733
12190.909646857936,-113175.68876453504,6734.71471485075,1817.107417238643
12187.445126467364,-113195.00067174443,6720.029618743613,1819.3425916841736
12197.123431816512,-113196.69940432304,6724.388208912398,1820.5048823958496
12208.455766255353,-113186.55171234033,6738.067476519046,1817.2191759609195
12216.100062859066,-113171.97837495546,6748.639851646406,1810.1560247130424
12195.31294051563,-113191.55850309832,6726.489272891196,1806.4009316445508
12186.528704944696,-113207.3611864282,6713.905240762859,1805.6409723330703
12191.60255093605,-113211.74212834146,6714.084054718502,1804.3892746435731
12208.36635927753,-113201.46032589204,6727.942136280792,1804.9033647660451
12219.765748949738,-113188.13868619666,6742.493121921197,1806.2221176889084
12204.70067318686,-113202.2202852035,6728.612688614451,1805.037475232777
12198.486888228284,-113219.34172145628,6715.447511130275,1805.2609926773305
12210.266257556232,-113220.59341914576,6718.0850169760015,1802.332914153685
12225.241926341288,-113207.40588991714,6736.100523006979,1799.9412774969671
12228.862908943049,-113195.09007872223,6750.450342947286,1797.080254206688
12210.601533723062,-113211.69742485257,6736.435799173809,1798.6001728296487
12205.013597609235,-113232.35043672923,6725.930479279814,1801.3494373976514
12209.774519178214,-113234.8761838527,6731.920746793837,1801.59530658666
12223.967876907334,-113220.57106740132,6749.0198313021465,1805.59626884416
12231.61217351105,-113203.18141021508,6762.497933208697,1804.523385110305
12215.518917503228,-113216.0783667658,6744.996517300191,1803.3163909097184
12208.27695229971,-113231.79164311787,6730.534938637607,1802.8246525317015
12212.948466890868,-113230.96462857304,6731.741932838194,1801.818824031213
12225.331333319107,-113219.18525924507,6743.186025999311,1798.3096001517297
12234.18262412341,-113210.60218937424,6753.914863337858,1797.7731582848023
12222.090330373088,-113224.08029128078,6736.793427085094,1795.3815216280846
12217.262353570744,-113240.19589903306,6722.085979233501,1797.3261233956962
12222.671475728926,-113250.18712880458,6721.683647833306,1791.8052425152357
12240.84344397109,-113240.62058217773,6735.787598584605,1789.234791902875
12246.654897529472,-113222.78389010238,6750.070363291546,1790.9558762259337
12228.438225798396,-113233.5797826743,6734.267679961644,1794.3086378942298
12217.172946592922,-113250.16477706013,6719.068493732035,1800.5671263417155
12227.499452531274,-113254.97040211802,6720.56606061054,1804.657495577037
12243.860929472556,-113239.7712158884,6738.3356974525095,1804.590440343671
12253.650993543984,-113221.5768959018,6752.238482503711,1807.3173531672185
12236.395446824485,-113231.50107043996,6736.838130574004,1808.3902369010727
12222.738530962291,-113251.483529983,6716.878022775415,1809.686638079481
12229.0864263876,-113256.37856201873,6716.051008230568,1809.21725144592
12243.078618416625,-113245.20268979104,6728.545633381085,1806.6915043224697
12251.058191187169,-113234.4291489636,6740.704982364772,1802.1764519424976
12235.501377046274,-113250.18712880458,6727.003363013669,1804.1881089434755
12224.437263540896,-113267.50973075745,6712.362970395443,1803.07052172071
12238.451807314374,-113264.91692840063,6716.766264053138,1801.4164926310175
12259.037763957713,-113249.74009391548,6733.708886350261,1799.7177600524142
12265.13979019401,-113233.98211407448,6747.343450467998,1800.6341815750816
12245.0902754176,-113248.980134604,6730.087903748501,1797.8402135181682
12234.80847296816,-113269.3425738028,6715.045179730079,1795.6497425615482
12245.716124262348,-113269.05200112487,6718.643810587384,1795.06859720571
12259.462447102362,-113253.33872477278,6736.1675782403445,1793.6827890494812
12262.636394815016,-113244.71095141304,6746.650546389884,1794.7109692944252
12251.572281309638,-113259.28428879788,6731.786636327105,1793.3922163715622
12247.258394629764,-113277.3444983178,6720.208432699255,1791.9617047264226
12253.71804877735,-113279.02087915194,6727.450397902775,1794.8003762722465
12273.47699087584,-113263.97815513352,6747.924595823836,1799.226021674397
12283.691738091917,-113251.23766079398,6762.252064019688,1802.0870449646768
12265.38565938302,-113265.3863150342,6747.2540434901775,1800.1871466859754
12257.227272656832,-113279.0879343853,6735.497025906686,1803.361094398629
12267.151447194989,-113281.233701853,6740.86144457596,1808.457292134439
12281.47891539084,-113269.78960869188,6758.072287806545,1806.847966533657
12287.782107327235,-113261.05007660988,6770.432802490331,1804.210460687931
12274.795743798702,-113273.1423703602,6758.184046528822,1804.8586612771344
12267.531426850728,-113292.96836769204,6745.711773122761,1813.0170480033216
12277.343842666609,-113297.50577181648,6750.472694691742,1816.682734093992
12295.828735331146,-113281.56897801984,6771.192761801811,1817.59915561666
12302.19898250091,-113273.0306116379,6784.603808474995,1819.8566818066456
12293.05711901869,-113282.10541988676,6774.38906125892,1820.460178906939
12287.044499760212,-113295.91879796014,6761.62621517494,1819.0296672617997
12296.946322553911,-113291.31433860236,6767.951758855791,1818.9179085395228
12310.089148293631,-113274.72934421652,6784.1791253303445,1816.593327116171
12311.854936105605,-113261.25124230995,6794.684445224339,1813.5311381257936
12292.878305063046,-113274.99756514998,6779.395852016909,1815.3416294266735
12289.413784672472,-113290.2414548685,6767.236503033221,1822.293021952274
12293.951188796902,-113290.97906243552,6768.354090255987,1821.913042296534
12305.216468002376,-113284.60881526576,6779.999349117202,1820.1249027401093
12316.213526274389,-113268.9402424026,6795.48910802473,1822.3153736967292
12300.72376736686,-113278.4397337961,6781.72043344026,1820.5048823958496
12297.326302209653,-113291.67196651363,6768.734069911728,1819.141425984076
12302.176630756454,-113294.33182410382,6771.304520524088,1819.3202399397185
12319.365122242583,-113281.1442948752,6784.290884052621,1820.6389928625813
12329.982200858856,-113265.7886464344,6795.377349302453,1819.2531847063524
12314.53714544024,-113276.65159423968,6780.267570050665,1818.3367631836848
12306.512869180784,-113294.0412514259,6764.174314042844,1818.9179085395228
12316.124119296566,-113295.18119039312,6767.571779200051,1816.034533504788
12337.15711082901,-113275.37754480571,6788.4036050323975,1813.4864346368831
12345.404904533018,-113255.0821608403,6800.540602271629,1809.26195493483
12327.121177568575,-113264.15696908916,6786.414299775875,1810.915984024523
12317.286410008242,-113282.86537919824,6771.997424602202,1817.2191759609195
12323.656657178004,-113279.75848671896,6774.6125787034725,1815.4757398934053
12333.603183460616,-113268.04617262438,6784.24618056371,1814.4699113929169
12344.220262076888,-113252.84698639475,6792.2034015898,1814.1569869705424
12334.564308472194,-113257.20557656356,6778.971168872258,1819.364943428629
12322.092035066133,-113273.0306116379,6763.43670647582,1822.1812632299975
12325.042465334232,-113274.99756514998,6764.57664544304,1816.1239404826092
12342.990916131845,-113258.88195739772,6782.05570960709,1815.140463726576
12350.478750524371,-113242.34166650075,6795.8020324471045,1809.9325072684892
12332.843224149135,-113252.01997184992,6780.915770639869,1811.6312398470927
12326.092997323633,-113261.36300103224,6769.896360623403,1810.5360043687824
12330.093959581132,-113262.99467837748,6770.186933301322,1812.2123852029308
12343.616764976594,-113251.81880614982,6780.804011917593,1815.945126526967
12355.642003493547,-113234.78677687488,6792.650436478906,1814.201690459453
12341.806273675713,-113245.49326246895,6774.76904091466,1812.6370683475816
12337.179462573466,-113256.89265214118,6762.363822741964,1815.6098503601372
12350.076419124178,-113255.19391956256,6767.616482688962,1820.4825306513944
12361.721677985392,-113239.54769844386,6785.564933486573,1824.4834929088945
12365.677936753982,-113223.14151801368,6799.713587726783,1826.316335954229
12354.63617499306,-113231.56812567332,6784.782622430637,1827.3221644547184
12348.578852245671,-113248.8236723928,6766.610654188473,1827.165702243531
12359.598262262138,-113244.5768409463,6769.874008878948,1827.813902832735
12372.651681024035,-113232.01516056244,6780.804011917593,1823.79058883078
12379.178390404986,-113215.29605570986,6792.2034015898,1819.7002195954583
12359.195930861944,-113225.98018955949,6774.657282192384,1817.845024805668
12352.803331947724,-113238.81009087684,6760.486276207719,1822.650649863559
12361.609919263115,-113240.35236124424,6763.168485542356,1822.427132419006
12373.702213013436,-113226.36016921524,6778.904113638892,1819.0296672617997
12382.173524162,-113207.1153172392,6792.002235889702,1813.1511584700536
12368.9189397,-113214.15611674264,6777.808878160582,1813.59819335916
12360.87231169609,-113228.7741576164,6761.268587263655,1815.0957602376648
12368.248387366342,-113227.83538434928,6762.162657041867,1812.3241439252072
12381.25710263933,-113214.55844814282,6777.071270593557,1810.2230799464085
12387.180314919988,-113198.24167469043,6787.978921887747,1808.2114229454307
12368.0695734107,-113211.11627949672,6769.494029223208,1804.076350221199
12361.900491941034,-113223.85677383625,6755.166561027356,1804.9927717438663
12366.214378620907,-113220.57106740132,6755.881816849926,1805.7527310553469
12378.127858415588,-113208.05409050634,6769.762250156671,1808.2561264343412
12386.59916956415,-113182.10371519372,6786.682520709339,1812.234736947386
12367.73429724387,-113190.17269494208,6771.997424602202,1815.2522224488523
12365.946157687446,-113200.3650904137,6761.156828541378,1819.1861294729863
12378.26196888232,-113192.83255253229,6767.728241411239,1815.4757398934053
12387.180314919988,-113183.78009602788,6777.563008971573,1813.6652485925256
12390.846001010656,-113173.6100523007,6784.737918941727,1816.392161416073
12382.933483473478,-113181.70138379352,6771.952721113292,1819.6108126176373
12382.06176543972,-113193.14547695464,6759.726316896238,1822.9635742859332
12393.394099878562,-113183.75774428342,6765.381308243431,1824.0811615086989
12402.8265360387,-113165.4069620856,6778.680596194339,1821.1530829850533
12404.748786061858,-113152.37589506817,6788.984750388236,1814.9840015153889
12388.700233542948,-113166.34573535272,6772.332700769031,1813.1288067255985
12382.06176543972,-113181.27670064889,6759.256930262677,1813.821710803713
12389.415489365518,-113182.37193612718,6761.380345985931,1810.1560247130424
12404.614675595129,-113164.13291265164,6778.747651427705,1811.78770205828
12410.02379775331,-113146.8550141877,6792.315160312076,1814.1793387149976
12392.052995211245,-113154.83458695824,6778.188857816322,1811.07244623571
12380.363032861118,-113170.88313947716,6760.57568318554,1810.1336729685872
12385.615692808116,-113174.52647382337,6761.246235519199,1806.6468008335592
12398.490297614371,-113162.2553661174,6777.026567104646,1804.6351438325817
12406.179297706998,-113147.97260141048,6787.911866654381,1805.9538967554447
12391.78477427778,-113160.48957830544,6771.595093202007,1808.747864812358
12386.755631775335,-113174.213549401,6755.837113361015,1808.8596235346347
12395.919847002013,-113174.45941859,6757.915825595359,1808.88197527909
12410.515536131328,-113157.69561024851,6774.947854870303,1805.59626884416
12413.30950418824,-113140.3506565512,6788.023625376657,1805.328047910696
12395.07048071271,-113152.33119157926,6772.109183324478,1811.9665160139225
12385.526285830294,-113167.37391559768,6758.854598862481,1814.648725348559
12396.590399335671,-113166.3680870972,6764.1966657873,1817.710914338936
12413.577725121704,-113149.7607409669,6780.647549706406,1817.554452127749
12418.808033324249,-113135.0979966042,6789.320026555065,1811.78770205828
12396.925675502502,-113148.73256072195,6770.2092850457775,1813.5311381257936
12390.555428332738,-113162.07655216176,6757.267625006155,1813.397027659062
12402.446556382962,-113157.58385152624,6763.593168687006,1810.871280535612
12415.857603056143,-113146.27386883186,6775.976035115246,1807.1832427004867
12423.524251404317,-113131.2534965579,6786.079023609045,1807.496167122861
12409.062672741731,-113140.7529879514,6771.528037968641,1813.307620681241
12399.227905181397,-113157.98618292644,6757.513494195163,1813.687600336981
12405.911076773536,-113162.99297368444,6758.519322695652,1811.519481124816
12418.159832735042,-113142.45172053,6774.72433742575,1806.9373735114784
12419.70210310246,-113124.9503046215,6784.268532308166,1807.6079258451373
12403.40768139454,-113134.56155473729,6769.270511778655,1811.6312398470927
12397.730338302892,-113147.81613919928,6755.457133705275,1814.9616497709333
12403.698254072458,-113149.33605782223,6758.720488395749,1811.228908446897
12414.44944315546,-113136.01441812688,6775.618407203961,1811.4747776359056
12422.585478137193,-113120.18938305252,6786.3472445425095,1808.1443677120649
12410.001446008857,-113128.12425233416,6770.298692023599,1810.4689491354168
12406.201649451454,-113139.2554210729,6757.558197684074,1811.5641846137269
12409.487355886384,-113147.6596769881,6755.211264516266,1802.7352455538803
12421.803167081258,-113137.7578541944,6769.359918756476,1802.6905420649696
12429.760388107346,-113120.39054875262,6785.386119530931,1803.428149631995
12416.908135045544,-113131.18644132452,6771.885665879926,1805.819786288713
12410.26966694232,-113148.15141536613,6758.541674440107,1806.110358966632
12417.198707723464,-113150.02896190036,6761.380345985931,1802.5117281093276
12433.046094542276,-113133.958057637,6778.725299683249,1801.7070653089363
12438.388161467095,-113122.87159238716,6788.2918463101205,1797.2143646734196
12420.998504280866,-113132.72871169196,6773.33852926952,1792.3416843821628
12409.040320997276,-113147.68202873255,6759.636909918418,1791.4699663484057
12412.773062321314,-113148.79961595531,6762.207360530778,1790.173565169998
12434.677771887516,-113132.1028628472,6779.619369461462,1788.3407221246628
12441.495053946384,-113120.07762433024,6788.157735843389,1785.1891261564645
12423.256030470851,-113135.23210707094,6767.48237222223,1784.3174081227075
12418.204536223951,-113151.77239796788,6753.378421470931,1790.6429518035593
12431.481472430403,-113148.7102089775,6761.022718074646,1797.370826884607
12445.406609226062,-113130.51588899088,6778.792354916615,1799.136614696576
12446.725362148924,-113117.41776674008,6787.017796876168,1800.6118298306264
12434.99069630989,-113129.24183955693,6770.633968190428,1806.6020973446489
12432.532004419803,-113139.36717979515,6759.301633751587,1807.3173531672185
12440.042190556787,-113141.78116819636,6762.095601808501,1806.1550624555423
12445.428960970516,-113134.7627204374,6773.874971136448,1801.9529344979449
12447.552376693771,-113118.87063012966,6784.782622430637,1803.6293153320928
12426.541736905783,-113135.0532931153,6764.375479742942,1798.0637309627214
12420.059731013744,-113148.08436013277,6750.606805158473,1796.3873501285734
12428.84396658468,-113146.8550141877,6755.05480230508,1801.0812164641875
12443.573766180729,-113137.57904023876,6767.571779200051,1797.884917007079
12451.866263373646,-113125.91142963308,6775.618407203961,1795.7615012838248
12438.812844611746,-113133.73454019244,6760.866255863459,1797.6166960736152
12435.50478643236,-113146.96677290996,6746.695249878794,1799.9189257525118
12442.523234191329,-113145.82683394276,6746.270566734143,1802.914059509523
12454.302603519274,-113132.72871169196,6755.881816849926,1800.0530362192435
12458.884711132612,-113118.31183651827,6764.464886720763,1792.364036126618
12444.199615025474,-113128.81715641227,6747.365802212454,1795.9403152394673
12441.740923135392,-113142.98816239694,6734.71471485075,1802.9811147428888
12447.194748782487,-113148.9113746776,6738.916842808348,1802.2882106647744
12455.12961806412,-113139.43423502854,6753.333717982021,1796.4097018730286
12458.504731476873,-113123.60919995418,6766.856523377482,1790.2182686589083
12439.304582989764,-113136.19323208251,6751.322060981043,1787.1560796685314
12435.482434687903,-113148.88902293312,6740.436761431309,1789.8159372587131
12442.456178957962,-113146.83266244324,6743.387191699409,1786.3737686125958
12450.480455217416,-113138.4060547836,6752.104372036979,1785.6361610455706
12455.308432019763,-113125.88907788864,6761.67091866385,1785.814975001213
12440.913908590544,-113135.20975532648,6746.091752778501,1787.7148732799142
12442.344420235684,-113148.3078775773,6735.787598584605,1792.140518682065
12450.882786617613,-113150.63245900066,6739.833264331015,1791.4476146039506
12465.366717024652,-113135.5003280044,6757.692308150806,1785.8373267456684
12466.305490291774,-113122.51396447587,6764.509590209675,1784.1162424226095
12448.737019149905,-113136.41674952708,6746.628194645428,1790.2853238922744
12450.346344750686,-113150.34188632273,6734.155921239367,1796.722626295403
12461.835141400712,-113151.16890086756,6736.23463347371,1796.432053617484
12475.782629940824,-113139.63540072864,6749.735087124716,1795.292114650263
12481.638786988116,-113125.48674648844,6761.156828541378,1796.87908850659
12463.913853635057,-113139.99302863992,6746.359973711965,1797.3261233956962
12459.443504743997,-113156.86859570368,6734.602956128473,1799.4718908634056
12468.0936298482,-113155.12515963615,6739.2744707196325,1799.6060013301376
12482.979891655434,-113139.9036216621,6756.507665694674,1799.226021674397
12491.22768535944,-113122.35750226468,6771.975072857746,1800.8576990196348
12471.602853727682,-113137.37787453864,6752.439648203808,1800.3883123860733
12463.645632701591,-113153.6052410132,6736.1675782403445,1800.6118298306264
12478.710708464469,-113152.06297064578,6742.940156810303,1801.6623618200256
12502.023577931355,-113134.4050925261,6761.045069819102,1806.557393855738
12506.449223333506,-113117.17189755106,6774.634930447928,1806.3785799000957
12483.85160968919,-113127.6548657006,6756.105334294479,1800.3212571527074
12472.005185127877,-113143.9045839196,6739.900319564381,1802.8023007872464
12483.069298633254,-113140.3059530623,6742.04608703209,1804.0316467322884
12495.273351105852,-113127.27488604483,6755.792409872104,1805.3056961662408
12499.743699996914,-113112.76860389336,6768.868180378459,1804.232812432386
12481.348214310196,-113126.13494707763,6749.623328402439,1803.539908354272
12471.401688027585,-113144.84335718672,6732.345429938488,1802.3105624092295
12480.498848020894,-113141.20002284052,6738.156883496868,1800.8353472751794
12498.04496741831,-113123.8550691432,6754.853636604981,1801.6847135644807
12506.896258222612,-113106.04072881232,6767.728241411239,1800.4106641305286
12490.914760937068,-113116.81426963976,6749.623328402439,1796.9237919955008
12485.438583545516,-113127.74427267842,6738.00042128568,1797.4155303735174
12491.294740592808,-113123.11746157616,6745.33179346702,1800.7459402973582
12501.978874442444,-113112.2545137709,6757.468790706253,1802.243507175864
12503.498793065404,-113099.96105432046,6763.883741364925,1798.6672280630146
12489.350138825195,-113109.97463583644,6747.186988256811,1801.6847135644807
12484.432755045029,-113122.49161273142,6735.318211951043,1804.9704199994112
12490.266560347864,-113123.67625518754,6739.028601530624,1804.1881089434755
12503.699958765505,-113110.3546154922,6754.898340093892,1804.9927717438663
12506.940961711522,-113100.85512409869,6763.570816942552,1803.6293153320928
12493.70872899398,-113116.7472144064,6746.38232545642,1804.7916060437688
12490.981816170432,-113131.87934540265,6735.09469450649,1810.5360043687824
12497.106194151189,-113133.13104309214,6741.241424231699,1812.1900334584757
12509.28789487933,-113122.60337145368,6757.111162794968,1806.3785799000957
12513.847650748212,-113109.84052536971,6767.974110600247,1803.7410740543692
12498.112022651676,-113119.45177548548,6755.81476161656,1806.199765944453
12489.953635925487,-113134.4050925261,6743.700116121783,1807.3173531672185
12492.367624326662,-113130.47118550196,6747.008174301169,1804.6351438325817
12501.531839553338,-113112.43332772653,6763.503761709186,1804.4786816213943
12504.258752376883,-113099.73753687592,6773.584398458529,1802.1764519424976
12487.561999268772,-113114.95907484998,6757.513494195163,1801.6400100755704
12481.728193965935,-113131.0970343467,6747.2540434901775,1802.5787833426932
12490.937112681522,-113125.44204299952,6756.708831394772,1804.053998476744
12508.349121612207,-113106.37600497916,6774.344357770009,1804.366922899118
12514.272333892864,-113091.42268793854,6782.972131129758,1797.7955100292577
12491.406499315084,-113111.0475195703,6765.493066965708,1800.6118298306264
12491.741775481913,-113124.1009383322,6755.434781960819,1803.852832776646
12503.096461665207,-113121.50813597538,6760.016889574157,1805.417454888517
12514.94288622652,-113105.45958345648,6777.29478803811,1804.9927717438663
12517.848613005712,-113093.36728970616,6786.593113731517,1802.2882106647744
12498.022615673855,-113107.8512201132,6767.3929652444085,1806.9150217670228
12488.500772535894,-113123.18451680952,6751.478523192231,1807.429111889495
12499.408423830084,-113121.82106039776,6753.713697637761,1807.2279461893968
12512.61830480317,-113105.437231712,6766.945930355303,1807.8537950341456
12518.943848484025,-113083.86779831264,6780.714604939772,1808.8372717901796
12498.961388940976,-113097.68117638605,6762.2297122752325,1809.7983968017572
12490.66889174806,-113112.58978993772,6749.466866191253,1811.139501469076
12494.401633072095,-113112.65684517108,6751.970261570247,1809.9325072684892
12511.165441413576,-113097.5917694082,6765.917750110359,1811.139501469076
12519.726159539958,-113080.0903534997,6777.33949152702,1809.59723110166
12505.979836699944,-113090.66272862708,6761.648566919394,1810.3348386686848
12498.894333707613,-113109.3487869917,6747.119933023445,1815.8333678046904
12509.690226279525,-113110.1534497921,6752.082020292523,1817.1744724720088
12525.33644739824,-113093.27788272832,6770.633968190428,1814.939298026478
12521.760168285393,-113082.75021108988,6776.914808382369,1809.239603190375
12504.19169714352,-113095.96009206296,6758.899302351392,1808.434940389984
12490.847705703702,-113118.35654000718,6741.375534698432,1808.3231816677076
12496.61445577317,-113119.83175514123,6743.364839954954,1803.40579788754
12514.652313548602,-113106.957150335,6757.62525291744,1800.276553663797
12523.391845630627,-113090.81919083824,6767.52707571114,1801.5282513532936
12502.023577931355,-113104.61021716717,6748.684555135317,1805.1045304661432
12496.167420884063,-113118.200077796,6735.385267184409,1810.2230799464085
12503.81171748778,-113117.28365627331,6735.921709051337,1809.8207485462128
12520.687284551535,-113100.96688282095,6750.293880736099,1809.8878037795787
12522.810700274793,-113090.86389432717,6755.09950579399,1805.6633240775257
12504.66108377708,-113101.45862119898,6736.94988929628,1804.232812432386
12496.480345306438,-113115.942551606,6724.231746701211,1808.054960734244
12506.09159542222,-113110.6451881701,6733.261851461155,1809.910155524034
12519.390883373128,-113098.41878395304,6750.852674347481,1808.5243473678047
12520.240249662427,-113091.690908872,6758.1169912954565,1798.6001728296487
12501.978874442444,-113107.22537126845,6742.381363198921,1799.270725163308
12500.14603139711,-113121.32932201974,6732.591299127495,1805.2833444217856
12511.47836583595,-113123.13981332062,6735.944060795791,1805.037475232777
12530.43264513405,-113107.13596429062,6753.981918571225,1801.3494373976514
12531.170252701077,-113095.51305717388,6761.67091866385,1793.0792919491878
12510.651351291102,-113110.57813293676,6744.1471510108895,1790.3076756367298
12504.90695296609,-113124.41386275458,6729.551461881574,1787.4913558353612
12508.99732220141,-113127.11842383369,6729.305592692565,1790.7323587813803
12524.017694475377,-113111.7404236484,6746.71760162325,1791.2911523927633
12526.655200321104,-113098.70935663098,6756.90999709487,1788.87716399159
12507.030368689344,-113112.67919691556,6740.459113175763,1787.3795971130846
12498.112022651676,-113131.2982000468,6724.298801934577,1783.6021523001375
12506.784499500334,-113129.77828142385,6728.52328163663,1786.8655069906124
12518.116833939175,-113113.9979498384,6746.941119067803,1790.4194343590063
12519.18971767303,-113103.78320262232,6755.546540683096,1789.59241981416
12503.498793065404,-113120.32349351926,6737.799255585583,1785.680864534481
12495.94390343951,-113136.7520256939,6725.930479279814,1784.2280011448863
12505.845726233212,-113133.6004297257,6734.826473573026,1784.205649400431
12519.99438047342,-113117.41776674008,6751.746744125694,1787.8936872355566
12522.363665385685,-113102.196228766,6759.458095962775,1786.217306401409
12506.225705888952,-113112.36627249316,6744.057744033068,1786.5302308237829
12499.386072085628,-113124.1009383322,6730.914918293348,1785.4796988343835
12501.777708742346,-113120.949342364,6731.898395049381,1784.6973877784478
12506.29276112232,-113111.91923760406,6742.582528899018,1780.8528877321348
12516.731025782949,-113099.87164734265,6752.082020292523,1778.3941958420512
12508.013845445375,-113110.86870561466,6740.14618875339,1781.232867387875
12505.689264022025,-113125.06206334378,6728.791502570093,1784.9209052230008
12511.299551880307,-113122.69277843152,6735.2288049732215,1785.3232366231964
12516.865136249678,-113112.92506610457,6749.533921424619,1784.2280011448863
12524.554136342304,-113105.5042869454,6759.86042736297,1786.753748268336
12509.936095468533,-113118.71416791849,6748.304575479577,1787.8936872355566
12498.939037196522,-113140.03773212884,6733.485368905708,1788.3407221246628
12508.773804756858,-113140.44006352904,6736.413447429353,1785.7702715123023
12518.943848484025,-113128.52658373436,6748.125761523934,1780.8081842432243
12525.403502631603,-113111.94158934851,6758.809895373571,1781.4787365768834
12509.064377434775,-113122.26809528688,6739.565043397552,1779.8917627205567
12505.66691227757,-113134.51685124838,6727.293935691588,1780.6740737764924
12510.137261168633,-113135.5003280044,6729.260889203655,1778.148326653043
12518.899144995112,-113128.25836280089,6739.341525952998,1772.850963217135
12528.510395110894,-113111.18163003704,6751.478523192231,1774.214419628909
12511.076034435751,-113124.57032496577,6730.646697359884,1777.366015597107
12503.722310509958,-113141.53529900734,6715.80513904156,1781.9928266993556
12509.757281512891,-113144.1504531086,6721.124854221923,1778.8859342200678
12520.352008384709,-113130.94057213551,6734.558252639563,1770.794602727247
12524.71059855349,-113113.03682482682,6747.611671401462,1766.8606957031127
12497.821449973757,-113134.49449950393,6728.500929892174,1764.6478730020374
12489.819525458755,-113152.04061890132,6716.252173930666,1766.7712887252917
12506.76214775588,-113151.2583078454,6723.270621689632,1768.402966070529
12520.016732217877,-113140.32830480675,6740.280299220121,1766.234846858364
12523.302438652809,-113125.66556044407,6754.33954648251,1765.2513701023306
12501.397729086606,-113139.8589181732,6736.614613129451,1767.263027103308
12492.23351385993,-113160.89190970564,6720.677819332817,1773.722681250892
12502.403557587097,-113159.48374980496,6729.864386303948,1774.460288817917
12521.022560718366,-113142.98816239694,6752.730220881727,1775.0861376626656
12525.33644739824,-113135.07564485975,6762.38617448642,1776.1590213965203
12509.489060579428,-113152.80057821282,6747.969299312747,1779.1765068979869
12505.42104308856,-113165.92105220808,6739.47563641973,1778.0589196752214
12511.657179791591,-113167.15039815311,6741.420238187342,1771.8898382055568
12527.884546266145,-113154.43225555806,6755.703002894284,1768.1570968815206
12529.069188722277,-113144.84335718672,6761.536808197118,1761.071593889188
12514.182926915042,-113156.68978174803,6747.186988256811,1761.563332267205
12509.42200534606,-113168.960889454,6733.127740994423,1763.1503061235317
12513.91470598158,-113167.59743304225,6734.960584039758,1765.0055009133223
12526.43168287655,-113151.16890086756,6749.735087124716,1765.3631288246072
12526.56579334328,-113138.4507582725,6756.999404072691,1765.273721846786
12510.51724082437,-113149.85014794471,6742.269604476644,1767.0842131476657
12501.464784319973,-113168.22328188698,6728.1880054698,1765.0055009133223
12511.456014091496,-113167.4186190866,6733.641831116895,1762.9938439123446
12524.66589506458,-113153.94051718005,6748.416334201853,1764.3125968352076
12517.468633349972,-113151.07949388976,6750.807970858571,1760.1328206220653
12497.955560440489,-113166.97158419748,6734.513549150652,1762.7703264677914
12496.61445577317,-113179.9132442371,6726.511624635652,1769.364091082107
12505.756319255392,-113179.80148551482,6732.099560749479,1767.7100619924145
12520.48611885144,-113164.46818881849,6750.360935969465,1768.49237304835
12523.14597644162,-113151.77239796788,6760.754497141183,1773.4097568285176
12497.866153462668,-113172.17954065556,6737.240461974199,1775.1308411515763
12489.32778708074,-113192.27375892088,6722.33184842251,1774.3485300956406
12496.815621473268,-113194.4195263886,6726.109293235457,1770.7275474938808
12510.249019890907,-113182.23782566046,6740.950851553781,1770.2134573714088
12517.133357183142,-113171.73250576646,6749.399810957887,1770.9957684273445
12500.458955819484,-113190.15034319765,6729.640868859395,1771.912189950012
12492.904066193589,-113207.09296549475,6717.3250576645205,1771.822782972191
12497.441470318015,-113207.65175910614,6719.224955943222,1771.8451347166465
12507.991493700922,-113193.43604963255,6734.155921239367,1771.465155060906
12511.47836583595,-113183.80244777232,6742.359011454465,1767.5535997812271
12498.961388940976,-113195.62652058918,6726.019886257635,1766.0336811582663
12489.484249291929,-113220.3699017012,6710.932458750303,1769.20762887092
12503.47644132095,-113215.40781443212,6721.705999577761,1764.916093935501
12519.167365928575,-113201.84030554775,6736.480502662719,1761.3621665671071
12519.815566517778,-113193.07842172128,6746.00234580068,1762.524457278783
12500.928342453044,-113208.3670149287,6730.222014215233,1761.4515735449284
12490.445374303506,-113225.57785815927,6720.029618743613,1763.820858457191
12494.89337145011,-113224.46027093651,6726.310458935554,1761.3845183115625
12508.326769867752,-113212.79266033086,6739.565043397552,1762.0550706452216
12511.590124558226,-113203.5613898708,6748.103409779479,1759.8645996886016
12492.904066193589,-113219.6769976231,6731.630174115918,1760.6469107445373
12483.762202711368,-113235.43497746409,6719.783749554605,1765.139611380054
12491.80883071528,-113235.36792223073,6723.85176704547,1765.8772189470792
12504.258752376883,-113222.09098602428,6739.565043397552,1766.1901433694534
12505.91278146658,-113209.84223006276,6750.2491772471885,1767.6430067590484
12489.886580692122,-113224.86260233673,6732.747761338683,1768.402966070529
12485.9973771569,-113237.89366935416,6722.823586800527,1769.6993672489366
12496.703862750992,-113232.93158208508,6731.80898807156,1772.426280072484
12507.365644856172,-113218.60411388925,6749.422162702342,1769.8111259712132
12505.488098321926,-113208.59053237326,6756.999404072691,1764.2231898573864
12483.628092244637,-113228.66239889411,6736.055819518068,1757.9199979209898
12482.532856766327,-113243.30279151235,6725.796368813082,1761.5186287782942
12493.261694104876,-113241.06761706682,6732.591299127495,1767.2853788477637
12504.750490754905,-113228.05890179383,6748.773962113138,1769.0958701486434
12508.885563479134,-113215.7654423434,6758.407563973376,1769.2746841042858
12493.7981359718,-113228.43888144958,6743.47659867723,1772.1580591390205
12483.695147478003,-113249.04718983737,6731.42900841582,1772.3145213502075
12492.457031304482,-113250.6788671826,6736.771075340638,1772.11335565011
12512.931229225544,-113235.21146001952,6752.9537383262805,1770.6157887716042
12515.501679837906,-113226.76250061544,6758.921654095848,1764.1337828795652
12501.420080831062,-113237.04430306486,6745.398848700386,1768.0006346703333
12491.674720248548,-113253.45048349506,6732.837168316504,1769.431146315473
12495.318054594763,-113252.7799311614,6736.435799173809,1766.5254195362832
12501.822412231257,-113239.6818089106,6750.360935969465,1761.9433119229452
12507.924438467557,-113228.81886110532,6759.592206429506,1764.8713904465903
12490.110098136676,-113246.1861665471,6740.1908922423,1765.9219224359897
12481.728193965935,-113268.60496623575,6723.270621689632,1768.201800370431
12493.641673760614,-113269.61079473625,6726.668086846839,1770.8393062161574
12507.700921023004,-113258.21140506404,6740.347354453487,1765.6984049914367
12510.405482102096,-113250.52240497142,6746.069401034046,1760.758669466814
12496.94973194,-113264.31343130034,6729.886738048404,1761.406870056018
12493.775784227346,-113279.17734136312,6717.2356506867,1764.2678933462971
12501.867115720168,-113282.01601290896,6721.258964688655,1762.5021055343277
12518.452110106004,-113262.54764348836,6739.185063741811,1759.5516752662272
12515.9040112381,-113254.25514629546,6744.348316710987,1757.6070734986156
12490.959464425978,-113274.81875119434,6724.097636234479,1756.690651975948
12479.940054409512,-113290.75554499096,6712.51943260663,1763.172657867987
12482.868132933156,-113291.739021747,6716.721560564228,1761.9209601784898
12496.94973194,-113279.22204485204,6731.719581093738,1761.5186287782942
12503.968179698966,-113269.96842264754,6742.403714943375,1765.9666259249004
12491.8982376931,-113288.74388799,6725.550499624074,1773.0968324061434
12486.936150424022,-113302.0878794298,6715.179290196811,1771.7110242499143
12494.602798772192,-113303.80896375288,6719.135548965401,1775.0190824292995
12506.203354144496,-113295.11413515976,6733.708886350261,1769.744070737847
12506.404519844597,-113284.6311670102,6743.230729488222,1765.296073591241
12488.992510913911,-113298.6904142726,6728.232708958711,1763.1279543790763
12480.007109642876,-113316.72827204804,6716.386284397398,1765.5642945247048
12488.925455680544,-113320.93040000564,6720.9013367773705,1770.5487335382384
12503.52114480986,-113307.8993329882,6736.1675782403445,1771.3533963386294
12506.739796011423,-113298.55630380588,6741.017906787147,1770.4369748159618
12489.350138825195,-113314.71661504706,6722.063627489046,1768.9394079374565
12486.869095190656,-113329.75933906548,6711.580659339507,1775.3096551072188
12493.932246438531,-113331.48042338854,6717.436816386798,1776.7625184968138
12505.890429722123,-113321.80211803938,6732.747761338683,1775.2873033627634
12510.785461757834,-113313.62137956877,6736.771075340638,1768.3806143260736
12489.730118480937,-113335.39197866822,6713.458205873752,1768.402966070529
12483.739850966913,-113356.26850798949,6699.957752222747,1769.9228846934898
12490.132449881132,-113356.33556322283,6707.155013937356,1769.1629253820092
12496.770917984357,-113343.37155143876,6722.577717611518,1766.0560329027217
12499.542534296816,-113331.03338849945,6732.434836916308,1764.849038702135
12490.42302255905,-113339.9517345371,6717.168595453334,1770.3922713270513
12482.75637421088,-113357.69901963462,6698.259019644144,1770.8616579606123
12491.451202803995,-113356.89435683422,6703.958714480247,1771.2416376163528
12503.0517581763,-113342.87981306076,6723.337676922999,1768.9841114263668
12508.729101267949,-113333.93911527864,6732.636002616407,1767.4865445478613
12490.959464425978,-113351.64169688722,6715.089883218991,1766.4807160473724
12484.768031211855,-113365.11979879378,6703.332865635499,1774.594399284649
12492.993473171411,-113365.96916508308,6705.2327639142,1776.4719458188947
12507.76797625637,-113354.48036843304,6722.220089700233,1771.688672505459
12510.0031507019,-113340.3093624484,6736.391095684898,1772.8286114726798
12490.110098136676,-113357.2072812566,6721.013095499647,1776.8295737301796
12483.963368411469,-113370.97595584107,6711.535955850596,1778.7294720088807
12491.026519659345,-113373.34524075332,6712.698246562272,1776.6284080300818
12503.81171748778,-113361.43176095866,6725.505796135163,1775.3767103405846
12507.276237878352,-113349.49592941951,6735.184101484311,1774.460288817917
12489.596008014203,-113367.69024940614,6716.989781497691,1776.4272423299842
12482.018766643854,-113381.88360713526,6707.780862782105,1778.1036231641322
12494.915723194566,-113379.22374954508,6716.85567103096,1777.142498152554
12504.99635994391,-113369.12076105128,6731.317249693543,1770.3252160936852
12503.85642097669,-113358.9060138352,6740.280299220121,1767.1289166365764
12484.030423644832,-113374.55223495392,6724.052932745569,1769.721718993392
12479.157743353577,-113390.86900840628,6713.480557618208,1770.68284400497
12493.61932201616,-113388.27620604949,6721.683647833306,1771.107527149621
12510.204316401998,-113376.519188466,6737.441627674298,1768.4476695594394
12507.387996600628,-113370.08188606284,6742.76134285466,1761.2280561003754
12484.119830622654,-113385.30342403692,6726.668086846839,1764.469059046395
12476.52023750785,-113400.30144456644,6713.8605372739485,1766.6818817474702
12479.694185220504,-113404.79414520194,6713.435854129298,1760.624559000082
12493.03817666032,-113390.89136015077,6732.14426423839,1762.8597334456126
12497.217952873463,-113377.88264487775,6742.940156810303,1762.591512512149
12480.990586398912,-113392.07600260687,6725.729313579716,1766.324253836185
12471.84872291669,-113411.3208545829,6711.066569217035,1764.6031695131269
12479.694185220504,-113406.0681946359,6717.593278597985,1761.9656636674003
12488.411365558071,-113398.6697672212,6726.265755446644,1757.2941490762412
12487.874923691144,-113386.64452870424,6734.424142172831,1752.2873583182525
12473.390993284109,-113401.2178660891,6719.560232110051,1755.975396153378
12471.245225816398,-113418.4734128086,6708.294952904577,1754.6789949749702
12479.80594394278,-113420.48506980955,6713.8605372739485,1750.499218761828
12496.726214495447,-113402.82719168988,6732.971278783236,1752.5108757628057
12497.821449973757,-113391.58426422886,6739.140360252901,1754.4107740415066
12479.023632886843,-113403.74361321254,6723.158862967356,1754.2990153192302
12472.22870257243,-113420.1721453872,6713.771130296127,1758.501143276828
12482.309339321771,-113421.6697122657,6721.460130388753,1762.233884600864
12491.339444081716,-113411.18674411616,6735.787598584605,1759.909303177512
12493.28404584933,-113400.23438933308,6743.655412632873,1759.1940473549423
12472.921606650543,-113413.91365693972,6724.812892057049,1761.8315532006686
12463.735039679414,-113433.96317171612,6708.227897671211,1759.596378755138
12473.368641539651,-113432.73382577108,6714.262868674144,1759.4175647994955
12493.9993016719,-113415.38887207376,6734.670011361839,1761.9880154118557
12500.011920930378,-113402.04488063394,6743.767171355149,1760.4457450444395
12476.721403207946,-113422.38496808828,6720.364894910443,1761.2280561003754
12471.55815023877,-113436.37716011728,6708.004380226658,1756.2659688312972
12479.8953509206,-113437.8747269958,6711.133624450401,1750.655680973015
12490.512429536871,-113428.97873270258,6722.756531567161,1744.9336343924565
12492.121755137654,-113416.26059010751,6731.563118882552,1738.8316081561577
12475.17913284053,-113432.13032867078,6714.9781244967135,1739.1892360674426
12470.686432205011,-113444.73671254358,6703.891659246881,1743.6372332140486
12480.208275342977,-113443.5744218319,6706.551516837063,1745.9394628929454
12492.054699904287,-113431.45977633711,6717.95090650927,1747.0123466268
12491.8982376931,-113424.35192160032,6725.2375752017,1749.1357623500542
12471.356984538674,-113443.86499450984,6705.590391825484,1745.4253727704731
12466.439600758506,-113457.49955862756,6694.526278320108,1744.598358225627
12480.454144531985,-113457.11957897182,6701.030635956602,1745.8053524262134
12497.821449973757,-113441.76393053104,6720.856633288459,1748.3758030385738
12497.24030461792,-113432.24208739308,6730.914918293348,1746.6547187155152
12477.771935197346,-113447.3295149004,6715.872194274926,1750.1639425949984
12473.078068861732,-113455.37614290432,6712.13945295089,1754.2543118303197
12482.018766643854,-113452.64923008076,6722.37655191142,1754.8578089306127
12494.200467371997,-113444.15556718774,6737.553386396574,1757.0929833761436
12494.982778427931,-113435.34897987236,6744.370668455443,1752.8685036740906
12478.218970086453,-113457.56661386092,6720.9013367773705,1749.783962939258
12474.977967140434,-113471.29058495648,6711.200679683767,1748.174637338476
12478.151914853086,-113476.36443094784,6713.301743662566,1747.1464570935318
12486.08678413472,-113467.08845699888,6724.90229903487,1743.816047169691
12496.078013906244,-113448.35769514534,6738.648621874884,1751.1027158621212
12477.593121241704,-113468.89894829976,6720.186080954801,1756.981224653867
12469.23356881542,-113489.99899506556,6708.004380226658,1756.8024106982243
12481.079993376732,-113488.94846307616,6716.296877419577,1757.6070734986156
12495.13924063912,-113478.35373620436,6733.820645072537,1754.3437188081407
12493.015824915869,-113469.10011399988,6741.152017253879,1747.660547216004
12476.207313085475,-113482.30999497297,6725.103464734968,1751.2815298177636
12468.540664737304,-113500.8395911264,6714.75460705216,1755.1930850974425
12480.141220109608,-113502.42656498271,6722.756531567161,1756.4224310424845
12495.09453715021,-113492.90472184477,6734.915880550848,1756.48948627585
12496.994435428913,-113483.11465777336,6742.582528899018,1754.2990153192302
12484.745679467402,-113497.39742248028,6731.47371190473,1756.6459484870377
12478.397784042096,-113512.41779475423,6723.717656578739,1757.3835560540624
12484.320996322753,-113515.43528025573,6726.936307780303,1759.7975444552358
12502.38120584264,-113499.83376262592,6744.0353922886125,1761.8315532006686
12503.588200043228,-113492.70355614468,6749.645680146895,1759.171695610487
12484.410403300571,-113509.2885505305,6730.37847642642,1757.6964804764368
12478.621301486648,-113523.1466320928,6719.783749554605,1756.9588729094116
12482.577560255237,-113527.30405656148,6722.533014122608,1755.1260298640764
12503.834069232234,-113508.10390807438,6743.297784721588,1755.1483816085315
12511.76893851387,-113494.9387305902,6754.674822649339,1754.4107740415066
12487.986682413422,-113516.06112910046,6734.960584039758,1754.075497874677
12479.716536964956,-113531.86381243035,6723.538842623097,1755.4836577753615
12490.400670814595,-113529.98626589612,6729.126778736923,1758.5681985101935
12503.588200043228,-113517.17871632324,6745.28708997811,1760.3786898110736
12504.90695296609,-113510.22732379763,6751.1432470254,1756.9141694205011
12484.544513767303,-113533.67430373124,6726.221051957733,1756.2436170868418
12479.828295687235,-113551.6004027844,6711.625362828418,1754.7907536972468
12487.204371357486,-113549.3428765944,6718.04031348709,1752.6673379739927
12498.581409285238,-113536.06594038795,6730.981973526714,1749.694555961437
12500.257790119384,-113527.12524260583,6734.37943868392,1746.9676431378894
12479.448316031494,-113545.2078038702,6714.9781244967135,1745.2912623037414
12471.80401942778,-113562.7539232676,6701.924705734815,1743.078439602666
12482.152877110586,-113564.98909771311,6708.227897671211,1742.3855355245514
12492.680548749036,-113556.33897260892,6724.254098445666,1742.3184802911856
12491.697071993003,-113549.18641438324,6731.585470627007,1743.7713436807803
12481.124696865643,-113559.5576238105,6718.3755896539205,1745.91711114849
12477.727231708435,-113571.85108326092,6707.669104059828,1744.3301372921633
12486.444412046005,-113571.53815883854,6709.4572436162525,1744.620709970082
12498.313188351774,-113558.28357437656,6723.583546112007,1748.9122449055012
12502.157688398089,-113547.13005389334,6731.183139226811,1749.2922245612413
12481.728193965935,-113568.2524524036,6710.396016883376,1747.884064660557
12476.050850874288,-113582.89284502184,6701.477670845708,1747.9287681494675
12481.191752099008,-113585.8656270344,6704.830432514004,1744.173675080976
12496.055662161789,-113568.90065299282,6723.1365112229005,1739.5692157231829
12496.27917960634,-113561.39046685582,6730.758456082161,1735.5682534656828
12478.308377064272,-113583.09401072194,6710.552479094563,1740.373878523574
12472.653385717082,-113601.82477257548,6702.125871434912,1747.4146780269955
12483.13635386662,-113596.52740913955,6710.2172029277335,1745.2242070703755
12491.942941182013,-113580.18828394274,6725.796368813082,1740.4856372458505
12490.624188259148,-113571.26993790508,6735.2288049732215,1742.8325704136575
12470.46291476046,-113589.03957474705,6716.408636141853,1743.816047169691
12462.952728623475,-113609.08908952343,6703.019941213124,1743.793695425236
12477.593121241704,-113610.13962151283,6708.741987793683,1741.6479279575262
12499.453127318997,-113591.54297012604,6727.115121735946,1738.7645529227916
12510.964275713475,-113584.34570841143,6733.954755539269,1736.2835092882526
12496.27917960634,-113606.60804588892,6715.045179730079,1737.2446342998308
12498.335540096228,-113619.52735418409,6707.780862782105,1742.4525907579173
12513.959409470488,-113614.94524657074,6715.42515938582,1744.0619163586996
12529.62798233366,-113594.89573179431,6731.1160839934455,1743.0560878582107
12528.979781744454,-113589.9112927808,6729.573813626029,1743.9278058919676
12511.344255369218,-113608.08326102296,6708.093787204479,1744.1289715920657
12506.493926822415,-113620.89081059584,6697.99079871068,1744.1513233365208
12513.937057726032,-113623.68477865277,6701.701188290262,1740.172712823476
12527.81749103278,-113611.2125052467,6719.962563510248,1739.7703814232805
12530.075017222764,-113603.83642957646,6728.322115936532,1744.732468692359
12508.90791522359,-113620.2649617511,6713.748778551671,1745.2912623037414
12506.538630311326,-113634.07833982448,6709.144319193879,1750.8568466731128
12517.938019983534,-113635.73236891418,6716.386284397398,1750.4545152729172
12530.365589900684,-113624.10946179742,6735.117046250945,1746.565311737694
12529.270354422371,-113613.0677000365,6744.795351600093,1747.9734716383782
12503.252923876396,-113630.83733687848,6725.885775790904,1746.2970908042305
12494.580447027738,-113645.56713647452,6717.213298942244,1749.560445494705
12508.9526187125,-113645.99181961916,6725.9528310242695,1748.152285594021
12524.107101453195,-113637.81108114852,6739.810912586559,1745.850055915124
12529.091540466732,-113629.98797058917,6745.577662656029,1744.5089512478055
12507.008016944888,-113649.14341558736,6726.936307780303,1744.218378569887
12500.168383141565,-113662.80033144956,6718.576755354018,1741.8043901687136
12506.493926822415,-113662.01802039362,6721.169557710834,1739.8374366566466
12520.061435706788,-113650.66333421032,6735.765246840149,1742.564349480194
12521.916630496578,-113644.13662482938,6741.241424231699,1739.7703814232805
12504.526973310349,-113663.02384889412,6724.745836823683,1744.4865995033504
12494.42398481655,-113681.9781281922,6713.659371573851,1751.5273990067722
12502.29179886482,-113680.14528514688,6724.097636234479,1754.2766635747748
12515.211107159988,-113666.80129370706,6745.041220789101,1750.5886257396492
12517.401578116604,-113655.96069764624,6755.077154049534,1746.0959251041324
12494.08870864972,-113678.22303512372,6733.150092738878,1745.4253727704731
12489.126621380645,-113696.5291138326,6720.968392010736,1748.1969890829314
12502.582371542738,-113694.07042194252,6727.383342669409,1745.5371314927495
12524.57648808676,-113683.341584604,6742.202549243278,1749.8957216615347
12527.124586954664,-113678.20068337928,6747.634023145917,1745.246558814831
12509.600819301704,-113693.46692484224,6731.183139226811,1741.3797070240626
12498.46965056296,-113713.4940878742,6716.475691375219,1747.2582158158084
12504.258752376883,-113713.29292217408,6719.604935598963,1748.979300138867
12516.61926706067,-113700.95475923477,6733.373610183431,1747.2582158158084
12520.19554617352,-113690.49414282967,6740.637927131406,1742.1843698244536
12506.650389033604,-113706.20741918177,6726.176348468823,1744.3971925255291
12508.550287312304,-113721.38425366693,6719.0237902431245,1746.207683826409
12517.04395020532,-113724.87112580196,6723.360028667454,1744.0842681031547
12526.029351476354,-113711.48243087322,6741.107313764967,1744.0172128697889
12523.168328186077,-113703.72637554722,6748.058706290568,1744.6430617145377
12509.444357090517,-113713.06940472954,6733.66418286135,1747.302919304719
12504.415214588073,-113724.4911461462,6721.527185622119,1746.8111809267025
12504.594028543715,-113735.48820441822,6718.75556930966,1742.7431634358363
12523.43654911954,-113721.36190192246,6739.408581186364,1747.5040850048167
12530.276182922862,-113706.47564011524,6752.238482503711,1749.2922245612413
12506.560982055782,-113729.0509020151,6733.194796227789,1750.7003844619258
12502.314150609274,-113746.9993528127,6723.337676922999,1754.567236252694
12515.702845538002,-113750.95561158127,6728.2997641920765,1754.7907536972468
12530.76792130088,-113742.37254171044,6742.291956221099,1752.622634485082
12526.09640670972,-113736.4493294298,6750.025659802635,1748.4428582719397
12507.320941367265,-113749.9944865697,6736.90518580737,1745.6712419594817
12501.911819209075,-113760.81273088609,6730.065552004046,1746.945291393434
12504.66108377708,-113762.22089078676,6734.424142172831,1745.246558814831
12514.47349959296,-113749.16747202486,6748.796313857593,1743.3243087916744
12515.814604260278,-113741.56787891006,6754.719526138249,1744.464247758895
12498.201429629496,-113760.2539372747,6734.155921239367,1744.464247758895
12494.133412138632,-113775.98956537124,6721.214261199744,1742.1173145910875
12502.0012261869,-113774.38023977044,6722.935345522803,1737.110523833099
12514.8534792487,-113753.83898661604,6735.944060795791,1725.8452446276242
12515.792252515825,-113737.27634397463,6741.867273076448,1718.916203846479
12496.122717395154,-113756.83412037304,6719.962563510248,1717.5750991791606
12490.71359523697,-113776.10132409351,6704.85278425846,1717.6421544125265
12498.670816263058,-113776.16837932687,6707.758511037649,1714.848186355613
12513.042987947822,-113761.3044692641,6721.527185622119,1712.6130119100824
12509.511412323882,-113750.77679762564,6722.823586800527,1705.8180815956691
12491.250037103897,-113758.37639074044,6706.193888925778,1704.275811228253
12480.498848020894,-113772.92737638086,6692.984007952691,1702.6441338830157
12481.415269543562,-113779.76701018418,6692.447566085764,1699.4701861703618
12495.318054594763,-113766.82535014456,6706.685627303795,1698.889040814524
12498.492002307416,-113754.6436494164,6714.66520007434,1697.0338460247335
12477.280196819327,-113770.02164960168,6696.202659154255,1696.6762181134486
12466.439600758506,-113784.5055800087,6685.7420427491725,1695.1562994904875
12470.261749060362,-113784.5055800087,6690.726481762706,1690.3506744325966
12484.432755045029,-113765.01485884369,6709.010208727147,1692.3846831780295
12483.628092244637,-113752.9002133489,6714.955772752259,1692.094110500111
12467.646594959093,-113763.96432685429,6699.600124311462,1692.4293866669402
12467.8924641481,-113773.82144615908,6691.106461418446,1695.7821483352363
12474.687394462517,-113771.31805078009,6698.1249091774125,1700.4760146708506
12488.947807425,-113756.4541407173,6716.810967542049,1701.5265466602502
12496.18977262852,-113745.68059988983,6726.221051957733,1702.4206164384625
12487.070260890754,-113752.92256509337,6715.313400663544,1708.1873665079318
12479.872999176145,-113763.42788498737,6705.925667992315,1710.0425612977222
12483.337519566718,-113760.857434375,6709.747816294172,1707.628572896549
12493.440508060516,-113747.73696037973,6724.231746701211,1700.7665873487697
12498.246133118408,-113730.16848923784,6733.775941583627,1697.8608605695797
12477.079031119232,-113744.76417836716,6717.839147786993,1704.6781426284483
12469.680603704526,-113762.86909137596,6707.244420915177,1708.500290930306
12476.721403207946,-113765.46189373278,6709.189022682789,1709.5284711752502
12492.52408653785,-113746.37350396794,6728.679743847817,1710.3778374645517
12497.419118573562,-113733.23067822822,6736.23463347371,1709.819043853169
12480.409441043072,-113748.31810573555,6716.654505330862,1711.1601485204874
12471.692260705502,-113761.43857973082,6704.249287158166,1708.43323569694
12476.9449206525,-113762.06442857556,6708.89845000487,1708.142663019021
12491.18298187053,-113744.94299232282,6728.500929892174,1711.1601485204874
12491.18298187053,-113734.39296893992,6736.9275375518255,1715.228166011353
12470.798190927291,-113755.38125698344,6717.3250576645205,1716.7480846343142
12471.759315938869,-113767.8535303895,6708.071435460024,1718.8938521020236
12477.213141585964,-113771.6980304358,6708.339656393488,1716.9045468455015
12492.345272582206,-113760.00806808568,6722.555365867062,1716.1222357895656
12496.457993561984,-113743.13250102192,6732.814816572049,1715.1164072890767
12484.65627248958,-113750.28505924765,6719.582583854507,1714.199985766409
12480.275330576342,-113762.8020361426,6711.245383172677,1710.3107822311858
12483.493981777903,-113759.69514366332,6719.42612164332,1701.012456537778
12496.61445577317,-113746.37350396794,6735.5193776511405,1697.9279158029458
12506.225705888952,-113730.03437877112,6745.577662656029,1696.8103285801803
12485.840914945711,-113745.39002721192,6727.293935691588,1694.7763198347477
12482.421098044051,-113756.0071058282,6720.186080954801,1696.2291832243425
12490.17715337004,-113751.31323949258,6730.289069448599,1698.531412903239
12505.71161576648,-113732.87305031696,6751.545578425596,1699.179613492443
12507.43270008954,-113724.31233219056,6757.088811050512,1697.2797152137418
12490.08774639222,-113740.20442249828,6738.179235241322,1698.531412903239
12487.584351013227,-113754.21896627176,6729.640868859395,1703.694665872415
12498.693168007514,-113743.31131497756,6740.727334109228,1703.7393693613255
12506.181002400042,-113728.96149503726,6751.880854592426,1705.2816397287418
12502.537668053828,-113723.2841519456,6753.646642404395,1701.7053606158927
12477.101382863688,-113741.32200972104,6735.541729395596,1708.0979595301103
12472.340461294709,-113755.76123663918,6725.326982179521,1710.2213752533646
12486.824391701746,-113752.81080637108,6732.501892149675,1710.8919275870237
12497.821449973757,-113740.04796028708,6746.292918478599,1708.4108839524847
12495.563923783771,-113730.3920066824,6749.779790613627,1704.722846117359
12472.51927525035,-113748.47456794676,6726.668086846839,1700.788939093225
12465.545530980293,-113767.69706817831,6710.932458750303,1699.201965236898
12469.390031026607,-113772.7485624252,6713.189984940289,1696.4750524133508
12480.23062708743,-113759.13635005194,6729.149130481378,1696.407997179985
12481.70584222148,-113750.62033541444,6733.217147972245,1695.5139274017724
12462.148065823088,-113771.54156822462,6711.692418061783,1698.3302472031412
12459.085876832709,-113785.06437362007,6699.2424964001775,1702.6441338830157
12463.42211525704,-113789.5123707667,6702.081167946001,1702.8900030720238
12476.0955543632,-113779.4540857618,6717.794444298082,1699.827814081647
12478.442487531003,-113774.51435023718,6721.527185622119,1697.235011724831
12463.0421356013,-113793.356870813,6701.61178131244,1692.339979689119
12460.784609411314,-113810.88063846595,6688.9159904618255,1688.920162787457
12466.216083313951,-113814.50162106771,6694.973313209214,1692.8987733005015
12478.04015613081,-113808.69016750934,6710.8654035169375,1692.0494070112
12477.213141585964,-113805.89619945244,6714.866365774437,1686.6402848530156
12453.341478507697,-113831.98068523176,6691.709958518739,1686.9755610198451
12447.619431927138,-113848.18569996188,6681.56226653603,1690.23891571032
12453.766161652347,-113853.23719420878,6687.932513705792,1691.6023721220938
12466.976042625432,-113847.51514762822,6700.89652548987,1687.5120028867725
12471.960481638967,-113846.2187464498,6708.1831941823,1691.4906133998172
12460.225815799931,-113858.40044717796,6697.476708588209,1694.7986715792026
12449.7875511393,-113875.85715959754,6688.223086383711,1694.016360523267
12456.962461109457,-113878.13703753198,6693.363987608432,1689.590715121116
12471.289929305309,-113870.96212756184,6709.61370582744,1688.786052320725
12465.456124002472,-113869.64337463897,6713.011170984647,1683.8463167961022
12448.871129616637,-113889.04468882618,6694.436871342286,1685.6121046080716
12443.953745836468,-113907.93191289093,6684.780917737594,1687.2214302088537
12452.447408729484,-113911.55289549268,6689.318321862022,1691.244744210809
12473.972138639943,-113898.0300900972,6708.741987793683,1701.8394710826244
12476.56494099676,-113890.09522081558,6716.319229164033,1702.9347065609345
12457.70006867648,-113910.01062512526,6696.8955632323705,1701.6159536380717
12453.632051185616,-113928.45081430089,6684.915028204326,1702.6888373719262
12460.225815799931,-113933.30114284767,6686.591409038474,1696.7656250912698
12475.60381598518,-113916.89496241749,6702.103519690457,1694.95513379039
12475.357946796174,-113908.26718905772,6708.0490837155685,1695.4468721684066
12455.978984353422,-113926.1932881109,6688.2677898726215,1694.664561112471
12447.79824588278,-113942.04067492973,6676.644882755862,1694.95513379039
12455.576652953228,-113943.96292495288,6683.573923537007,1696.3409419466188
12469.434734515517,-113929.68016024592,6701.790595268082,1695.0221890237558
12476.967272396956,-113918.34782580708,6713.078226218013,1696.7432733468145
12464.763219924358,-113930.90950619096,6699.287199889088,1702.711189116381
12458.929414621523,-113941.68304701842,6690.838240484982,1703.627610639049
12463.578577468226,-113939.78314873972,6700.628304556407,1705.4604536843842
12476.006147385377,-113923.2875613317,6721.124854221923,1707.0697792851663
12473.681565962026,-113916.26911357274,6725.3046304350655,1702.0629885271776
12458.549434965782,-113937.07858766062,6706.775034281616,1701.660657126982
12455.867225631146,-113946.93570696542,6699.063682444535,1700.6995321154038
12458.661193688058,-113950.66844828943,6702.304685390554,1697.1009012580994
12473.94978689549,-113937.32445684964,6715.156938452356,1692.496441900306
12475.46970551845,-113923.13109912052,6720.186080954801,1694.1057675010882
12459.689373933004,-113939.2467068728,6700.673008045317,1695.0668925126663
12456.761295409358,-113947.94153546591,6695.196830653767,1701.1018635155992
12464.450295501983,-113946.55572730968,6702.461147601742,1704.9687153063674
12480.632958487626,-113932.2953143472,6721.728351322216,1709.7296368753478
12484.969196911956,-113919.95715140789,6729.193833970289,1708.7461601193145
12466.596062969693,-113934.66459925946,6710.440720372287,1707.4050554519958
12461.008126855866,-113944.27584937523,6700.337731878488,1706.24276474032
12469.837065915712,-113942.21948888536,6703.131699935401,1706.24276474032
12485.192714356508,-113929.5460497792,6717.347409408976,1704.499328672806
12484.075127133745,-113918.81721244064,6721.773054811127,1697.8161570806692
12462.058658845266,-113935.31279984866,6702.774072024116,1698.0620262696775
12458.772952410336,-113944.96875345336,6693.922781219814,1700.6101251375826
12465.634937958115,-113942.2418406298,6696.806156254549,1694.5080989012838
12484.924493423045,-113921.67823573091,6714.598144840974,1697.592639636116
12488.389013813618,-113906.81432566814,6722.778883311616,1700.9677530488675
12464.383240268618,-113919.82304094112,6699.555420822552,1695.0221890237558
12458.884711132612,-113930.95420967988,6688.893638717371,1698.5761163921495
12466.596062969693,-113928.16024162296,6699.466013844731,1702.62178213856
12482.577560255237,-113912.06698561514,6717.056836731057,1707.561517663183
12482.018766643854,-113900.71229943183,6723.360028667454,1709.4167124529736
12464.919682135544,-113912.55872399316,6706.059778459046,1711.5401281762277
12465.746696680391,-113920.5830002526,6697.99079871068,1713.4847299438395
12479.448316031494,-113910.92704664792,6708.630229071407,1710.6013549091049
12492.591141771216,-113888.50824695925,6727.740970580694,1704.1640525059763
12493.261694104876,-113878.11468578751,6732.434836916308,1705.013418795278
12476.47553401894,-113891.86100862754,6714.75460705216,1707.4274071964512
12470.306452549274,-113906.41199426795,6700.941228978781,1710.3331339756412
12477.03432763032,-113905.383814023,6703.578734824507,1709.081436286144
12491.920589437555,-113888.39648823698,6720.007266999158,1708.0756077856552
12491.18298187053,-113878.33820323208,6726.623383357929,1703.33703796113
12471.960481638967,-113894.09618307308,6707.825566271015,1703.1582240054877
12476.363775296662,-113907.99896812427,6700.85182200096,1710.8248723536578
12487.8972754356,-113903.01452911076,6708.809043027049,1711.9424595764233
12505.219877388465,-113885.84838936909,6727.293935691588,1712.0095148097892
12504.28110412134,-113874.78427586368,6734.133569494912,1709.595526408616
12479.09068812021,-113894.40910749543,6713.324095407021,1707.0921310296217
12475.335595051718,-113909.8318111696,6703.623438313418,1709.5061194307948
12482.152877110586,-113906.59080822358,6709.479595360708,1705.7733781067584
12494.558095283282,-113884.35082249057,6728.344467680988,1702.599430394105
12494.915723194566,-113872.34793571806,6738.559214897063,1704.5440321617166
12485.527990523338,-113885.1331335465,6722.823586800527,1709.3720089640628
12485.32682482324,-113897.60540695256,6710.910107005848,1710.4448926979176
12488.992510913911,-113896.2866540297,6713.257040173655,1712.2330322543423
12498.983740685431,-113883.09912480108,6724.947002523781,1713.1047502880992
12494.89337145011,-113872.16912176242,6729.909089792859,1710.6684101424707
12477.168438097053,-113885.96014809134,6714.3299239075095,1714.2223375108645
12474.37447004014,-113899.61706395354,6704.070473202524,1718.692686401926
12487.360833568671,-113897.02426159671,6709.121967449423,1718.156244534999
12506.158650655589,-113877.48883694278,6727.316287436043,1712.1212735320655
12502.783537242834,-113867.58701414907,6730.981973526714,1712.4789014433509
12490.020691158854,-113880.05928755514,6714.66520007434,1717.7986166237138
12485.170362612052,-113894.69968017336,6701.321208634521,1716.7480846343142
12491.80883071528,-113892.21863653883,6704.428101113809,1715.630497411549
12501.755356997892,-113876.14773227548,6719.42612164332,1713.3953229660185
12501.084804664231,-113868.9281188164,6723.874118789926,1714.110578788588
12488.701938235992,-113886.58599693608,6704.070473202524,1715.4293317114511
12483.941016667011,-113902.34397677708,6689.8547637289485,1713.3282677326522
12490.221856858952,-113901.44990699888,6694.191002153279,1709.3273054751523
12500.481307563938,-113889.42466848192,6706.70797904825,1708.209718252387
12506.628037289149,-113880.28280499968,6714.262868674144,1710.266078742275
12488.85840044718,-113900.01939535372,6696.269714387622,1709.461415941884
12483.47163003345,-113914.1904013384,6687.083147416491,1709.8637473420797
12490.624188259148,-113913.07281411564,6689.743005006672,1710.4895961868283
12504.549325054804,-113899.46060174236,6704.986894725192,1713.238860754831
12504.594028543715,-113891.14575280498,6709.546650594074,1710.4225409534624
12489.014862658369,-113906.90373264597,6692.760490508139,1710.5566514201942
12482.018766643854,-113923.51107877624,6680.1094031464345,1703.5382036612275
12486.310301579271,-113928.76373872324,6680.84701071346,1697.5032326582948
12500.056624419289,-113912.17874433742,6700.85182200096,1696.117424502066
12499.341368596715,-113905.96495937883,6708.630229071407,1697.0338460247335
12483.51633352236,-113926.90854393346,6692.291103874577,1699.984276292834
12479.716536964956,-113943.00179994128,6684.289179359577,1700.43131118194
12488.679586491537,-113944.0970354196,6689.787708495583,1697.4808809138397
12502.023577931355,-113926.41680555543,6709.770168038627,1698.4196541809624
12495.80979297278,-113918.95132290738,6714.151109951868,1698.889040814524
12478.263673575364,-113943.27002087476,6693.766319008627,1699.1572617479876
12480.387089298618,-113954.17767216894,6687.127850905401,1700.7218838598592
12492.412327815571,-113949.21558489988,6693.319284119521,1695.5586308906832
12503.588200043228,-113941.68304701842,6700.360083622943,1689.5460116322056
12507.9020867231,-113935.78218648222,6704.763377280638,1690.2612674547754
12489.461897547471,-113957.23986115932,6685.138545648879,1690.23891571032
12487.383185313129,-113972.57315785566,6674.923798432804,1691.1553372329877
12497.24030461792,-113969.3545066541,6681.919894447315,1688.7413488318143
12513.646485048115,-113955.0940936916,6698.795461511071,1690.95417153289
12516.462804849483,-113947.896831977,6702.863479001937,1690.1495087324988
12499.22960987444,-113969.06393397615,6681.405804324842,1696.2291832243425
12492.032348159832,-113987.99586152982,6668.598254751952,1699.3137239591747
12494.938074939022,-113990.409849931,6672.46510654272,1697.9055640584904
12507.410348345084,-113978.22814920286,6690.927647462803,1697.6373431250267
12501.8000604868,-113975.9035677795,6694.839202742482,1693.0328837672334
12482.689318977516,-113993.82966683264,6676.555475778041,1694.7092646013814
12479.738888709411,-114009.78881237374,6667.547722762552,1699.559593148183
12488.701938235992,-114012.98511183086,6673.917969932315,1699.8725175705574
12501.733005253436,-114001.02692854726,6692.0228829411135,1696.0056657797893
12504.012883187876,-113994.6119778886,6695.777976009605,1694.463395412373
12483.09165037771,-114010.97345482987,6675.549647277552,1689.7695290767583
12468.56301648176,-114031.8052806622,6660.730440703684,1687.1990784643983
12476.363775296662,-114032.25231555132,6665.759583206128,1685.2991801856972
12492.14410688211,-114020.65176017904,6684.646807270862,1685.5897528636162
12495.8991999506,-114018.68480666696,6691.75466200765,1694.9998372793004
12475.0450223738,-114040.92479239998,6673.135658876379,1696.7432733468145
12468.786533926312,-114059.05205715324,6661.803324437538,1696.4750524133508
12479.336557309218,-114064.1259031446,6667.324205317999,1697.4585291693843
12495.385109828128,-114053.28530708376,6681.651673513851,1694.6198576235602
12491.451202803995,-114051.81009194972,6681.361100835932,1687.8472790536025
12475.156781096077,-114071.36786834813,6663.546760505053,1688.6072383650826
12473.815676428758,-114091.48443835787,6652.08031559948,1686.9308575309346
12481.504676521385,-114101.00628149584,6654.740173189661,1677.923104515446
12498.782574985336,-114092.84789476966,6670.386394308376,1679.7559475607811
12501.017749430866,-114092.91495000305,6674.610874010429,1681.7676045617586
12482.08582187722,-114122.97804629542,6657.601196479941,1683.9580755183788
12482.957539910978,-114141.66410466006,6657.243568568656,1684.986255763323
12492.457031304482,-114142.2899535048,6668.374737307398,1684.3157034296637
12504.929304710544,-114133.90804933406,6683.618627025918,1686.819098808658
12502.403557587097,-114134.75741562336,6686.8596299719375,1684.2262964518425
12477.593121241704,-114164.3511252822,6664.709051216728,1681.633494095027
12472.876903161634,-114192.96135818498,6651.298004543544,1679.1971539493984
12489.28308359183,-114203.04199493432,6655.41072552332,1679.3536161605855
12502.0012261869,-114205.4559833355,6669.000586152147,1679.8006510496916
12499.006092429889,-114215.89424799613,6669.693490230262,1677.9007527709905
12476.386127041118,-114253.04284728086,6646.2688620411,1674.659749824971
12476.877865419134,-114287.91156863113,6631.561414189508,1678.1242702155437
12487.00320565739,-114307.40228979615,6633.908347357315,1677.5878283486163
12497.37441508465,-114315.06893814432,6644.368963762398,1676.403185892485
12499.542534296816,-114325.55190629388,6648.727553931183,1677.3196074151526
12484.768031211855,-114360.13005496624,6629.2144810217005,1677.5431248597056
12478.330728808727,-114398.95503508508,6611.556602902008,1671.2846364122197
12490.959464425978,-114410.1085555683,6620.005562306114,1671.1058224565772
12504.325807610252,-114409.61681719028,6635.338859002454,1669.5188486002503
12497.061490662276,-114421.23972430704,6634.400085735332,1668.535371844217
12479.716536964956,-114455.77316949048,6612.629486635863,1667.3507293880857
12482.331691066229,-114480.80712328044,6607.935620300248,1669.4517933668844
12492.412327815571,-114492.36297516382,6615.714027370696,1670.7034910563816
12501.397729086606,-114490.64189084076,6631.762579889605,1666.7695840322476
12496.301531350797,-114495.69338508768,6636.210577036211,1669.720014300348
12484.745679467402,-114522.29196098947,6621.078446039969,1675.307950414175
12484.164534111564,-114543.9284496222,6615.557565159508,1671.597560834594
12493.462859804971,-114550.1869380697,6625.012353064103,1666.2331421653205
12506.918609967068,-114543.45906298864,6641.12796081638,1661.762793274259
12512.819470503267,-114542.07325483244,6646.2688620411,1662.433345607918
12497.955560440489,-114560.46874051914,6629.8626816109045,1664.0426712087003
12486.355005068184,-114584.07218266396,6617.658629138306,1662.7015665413817
12493.865191205168,-114587.76022049908,6623.783007119061,1656.666595538449
12509.734929768436,-114574.34917382587,6642.513768972608,1656.9348164719129
12508.885563479134,-114567.59894700038,6648.146408575346,1650.341051857597
12493.641673760614,-114584.72038325317,6630.019143822092,1655.7725257602365
12495.09453715021,-114601.551246828,6621.0560942955135,1660.9804822183232
12510.025502446357,-114599.83016250494,6629.974440333181,1659.147639172988
12525.42585437606,-114587.0449646765,6647.498207986142,1654.409069348463
12525.04587472032,-114577.88074944985,6652.750867933139,1646.0942204110886
12506.449223333506,-114602.55707532848,6630.399123477831,1650.2292931353204
12508.48323207894,-114612.88358126684,6625.280573997567,1654.1632001594544
12521.067264207277,-114604.68049105174,6635.2047485357225,1655.9960432047897
12535.394732403129,-114589.83893273342,6650.895673143348,1655.1019734265774
12531.81845329028,-114579.6912407507,6654.31549004501,1650.2516448797758
12520.642581062626,-114588.6989937662,6641.88792012786,1655.727822271326
12521.04491246282,-114595.69508978073,6635.137693302357,1656.2866158827087
12530.656162578603,-114589.66011877776,6641.016202094103,1663.7073950418703
12537.898127782122,-114575.91379593775,6654.918987145304,1660.6452060514937
12540.28976443884,-114567.77776095604,6658.629376724884,1659.9299502289236
12526.0069997319,-114581.36762158484,6641.530292216575,1657.828886250125
12518.832089761743,-114597.66204329276,6630.712047900206,1661.8298485076248
12525.805834031802,-114595.11394442488,6638.3116410150105,1665.0708514536443
12541.63086910616,-114577.43371456071,6658.115286602412,1667.820116021647
12541.474406894971,-114567.59894700038,6663.971443649703,1668.5577235886722
12522.408368874594,-114582.10522915189,6647.654670197328,1666.7248805433371
12517.111005438686,-114590.37537460036,6639.8986148713375,1660.824020007136
12528.420988133072,-114581.0994006514,6650.627452209885,1662.3215868856416
12548.470502909482,-114559.90994690776,6671.369871064409,1659.080583939622
12546.525901141871,-114556.288964306,6672.643920498362,1657.5830170611164
12533.472482379972,-114567.35307781138,6658.003527880136,1661.0251857072335
12532.086674223743,-114571.82342670244,6652.482646999675,1661.8745519965355
12540.20035746102,-114566.81663594444,6656.818885424004,1660.533447329217
12557.522959413882,-114548.51055723555,6672.7109757317285,1664.5120578422616
12557.075924524775,-114529.19865002616,6681.897542702859,1662.1427729299992
12542.703752840014,-114540.15100480928,6666.050155884047,1662.7015665413817
12548.783427331857,-114543.61552519984,6660.909254659326,1664.4897060978064
12561.590976904748,-114531.32206574942,6669.358214063432,1665.0708514536443
12579.740593402455,-114500.96839677912,6692.849897485959,1668.8035927776807
12576.857218367722,-114482.25998667002,6701.254153401155,1674.5256393582392
12559.53461641486,-114485.85861752732,6685.362063093432,1677.4537178818844
12559.065229781298,-114483.6234430818,6682.791612481072,1680.0465202387002
12571.53750318736,-114465.1161986728,6693.386339352887,1675.6655783254598
12591.274093541397,-114432.14737560124,6712.787653540094,1674.279770169231
12586.714337672513,-114412.47784048055,6716.252173930666,1674.7715085472475
12560.428686193072,-114423.13962258572,6691.642903285373,1670.9717119898453
12557.455904180517,-114429.17459358869,6681.249342113655,1671.1952294343985
12576.611349178716,-114407.82867763384,6695.397996353865,1676.649055081493
12590.312968529815,-114378.7937615864,6711.42419712832,1675.3303021586305
12589.798878407346,-114353.55864209637,6717.705037320261,1671.1952294343985
12575.180837533577,-114351.1893571841,6701.365912123431,1671.2175811788538
12578.15361954613,-114339.4323396006,6697.119080676924,1672.312816657164
12593.956302876031,-114302.95429264956,6714.531089607607,1676.112613214566
12617.805614209845,-114245.48795765496,6746.00234580068,1679.1971539493984
12628.422692826116,-114187.50753253789,6764.822514632048,1675.7326335588257
12618.520870032416,-114150.60480244218,6757.446438961797,1676.134964959021
12621.02426541141,-114112.07039500122,6757.938177339814,1676.403185892485
12632.982448694998,-114063.61181302211,6769.9187123678585,1675.7773370477364
12638.033942941898,-114027.3572835156,6777.965340371769,1675.9114475144684
12618.252649098951,-114022.32814101316,6761.782677386127,1667.7530607882811
12581.573436447792,-114051.65362973852,6723.225918200722,1669.4294416224293
12581.193456792053,-114063.164778133,6705.366874380931,1673.3857003910186
12599.63364596768,-114049.97724890438,6707.691455804284,1676.0232062367447
12614.855183941743,-114022.64106543554,6722.4883106336965,1672.6480928239937
12608.462585027526,-114005.78785011623,6724.857595545959,1673.6539213244823
12586.334358016771,-114018.08130956668,6699.488365589186,1675.1514882029878
12588.904808629131,-114024.65272243653,6685.94320844927,1677.5878283486163
12597.309064544328,-114018.19306828894,6683.775089237105,1673.9444940024011
12609.088433872275,-113999.9093413245,6694.191002153279,1665.47318285384
12607.63557048268,-113991.63919587604,6692.268752130121,1665.2943688981975
12588.502477228938,-114009.6099984181,6669.492324530163,1669.1388689445105
12584.769735904902,-114018.84126887814,6659.232873825178,1671.083470712122
12594.15746857613,-114013.2086292754,6663.189132593767,1668.4236131219404
12610.630704239691,-113995.61780638908,6677.941283934269,1668.602427077583
12602.025282624398,-113989.51578015278,6677.628359511896,1661.3157583851528
12578.511247457416,-114006.07842279416,6657.131809846379,1659.4829153398175
12579.49472421345,-114010.43701296295,6650.515693487608,1659.013528706256
12585.44028823856,-113999.39525120202,6658.495266258153,1653.6938135258931
12596.817326166312,-113982.29616669372,6670.498153030652,1652.442115836396
12597.979616877989,-113971.63438458851,6673.783859465583,1654.9902147043008
12582.556913203824,-113988.84522781913,6651.543873732552,1659.594674062094
12580.835828880769,-114000.57989365816,6637.305812514522,1658.275921139231
12593.665730198114,-113994.76844009978,6639.540986960053,1661.762793274259
12608.820212938812,-113975.81416080167,6654.918987145304,1663.953264230879
12603.791070436368,-113965.64411707452,6657.668251713307,1661.762793274259
12584.255645782428,-113982.63144286054,6640.256242782622,1662.433345607918
12577.617177679203,-113993.58379764365,6632.902518856826,1664.9367409869126
12584.769735904902,-113990.18633248644,6638.669268926295,1666.300197398686
12600.63947446817,-113973.37782065604,6655.433077267776,1668.2000956773873
12602.82994542479,-113963.43129437344,6659.545798247552,1666.2331421653205
12581.886360870169,-113978.00463175827,6642.402010250332,1665.9649212318566
12583.786259148868,-113988.28643420774,6638.579861948474,1672.4245753794405
12597.15260233314,-113980.66448934848,6647.654670197328,1668.9824067333232
12609.423710039106,-113961.10671295007,6663.949091905248,1662.3215868856416
12608.462585027526,-113948.2991633772,6671.548685020052,1663.9979677197896
12591.698776686047,-113963.58775658462,6655.03074586758,1670.8152497786582
12591.341148774762,-113969.51096886527,6649.621623709396,1671.374043390041
12605.221582081507,-113958.87153850457,6656.237740068167,1672.75985154627
12618.722035732511,-113941.05719817369,6671.70514723124,1671.1505259454875
12621.672466000611,-113931.02126491324,6675.75081297765,1669.809421278169
12601.86882041321,-113948.2991633772,6655.902463901337,1667.1719154324433
12598.516058744915,-113959.34092513812,6647.140580074857,1665.4508311093846
12611.681236229091,-113951.00372445628,6655.343670289954,1665.5625898316612
12629.182652137595,-113927.40028231149,6673.403879809843,1663.9756159753342
12624.01939916842,-113917.3419973066,6677.024862411602,1663.8191537641471
12606.741500704467,-113928.5402212787,6661.2221790817,1667.060156710167
12605.623913481702,-113932.6976457474,6655.678946456784,1670.6140840785604
12612.128271118198,-113927.33322707812,6659.992833136658,1666.9707497323454
12620.59958226676,-113912.35755829306,6672.688623987273,1662.7015665413817
12612.150622862651,-113907.30606404616,6672.621568753907,1659.5723223176387
12595.766794176912,-113920.5382967637,6656.416554023809,1661.561627574161
12594.559799976329,-113927.2438201003,6647.542911475052,1663.1933049193983
12604.171050092107,-113915.84443042809,6655.097801100946,1662.3215868856416
12621.672466000611,-113895.2361220403,6673.515638532119,1660.242874651298
12620.48782354448,-113887.14479054748,6673.359176320932,1658.857066495069
12605.556858248336,-113897.136020319,6657.489437757664,1660.6899095404042
12601.041805868364,-113901.7851831657,6649.956899876225,1656.6218920495382
12604.595733236758,-113896.84544764108,6653.846103411449,1652.665633280949
12618.11853863222,-113878.06998229862,6673.090955387468,1651.1680664024434
12613.73759671898,-113871.05153453966,6675.259074599633,1648.9775954458232
12598.91839014511,-113880.39456372196,6660.283405814577,1654.2302553928205
12591.989349363965,-113887.9271016034,6655.03074586758,1654.1632001594544
12602.137041346676,-113890.45284872684,6654.963690634214,1651.7715635027366
12619.124367132708,-113873.39846770746,6671.235760597678,1650.1175344130438
12618.766739221424,-113861.7755605907,6673.359176320932,1654.543179815195
12603.902829158644,-113873.621985152,6653.488475500164,1656.37602286053
12601.220619824007,-113882.16035153394,6643.229024795178,1652.6432815364935
12613.558782763335,-113875.58893866408,6649.152237075835,1652.2185983918428
12626.656905014146,-113857.90870879994,6665.089030872468,1652.9785577033233
12622.231259611995,-113853.05838025312,6665.021975639103,1652.3974123474852
12611.614180995724,-113868.79400834968,6644.167798062301,1651.436287335907
12612.105919373742,-113881.02041256672,6634.333030501965,1652.598578047583
12626.0310561694,-113876.23713925328,6642.625527694885,1654.7666972597478
12640.984373209998,-113859.65214486745,6657.869417413404,1654.2973106261863
12633.16126265064,-113854.73476108728,6657.131809846379,1646.429496577918
12613.625837996702,-113880.28280499968,6632.522539201086,1650.095182668589
12621.225431111508,-113885.89309285798,6627.538100187552,1651.860970480558
12631.328419605306,-113878.33820323208,6633.9754025906805,1647.9717669453344
12644.180672667108,-113857.14874948843,6654.471952256197,1648.9328919569127
12639.710323776046,-113852.5666418751,6655.991870879158,1651.860970480558
12621.8289282118,-113865.41889493693,6640.815036394005,1655.4596013378623
12614.274038585909,-113876.48300844229,6635.137693302357,1659.080583939622
12622.745349734469,-113872.68321188488,6644.257205040122,1658.633549050516
12640.425579598616,-113854.08656049808,6665.245493083656,1655.884284482513
12635.9328789631,-113846.39756040544,6669.469972785709,1646.1612756444545
12618.58792526578,-113862.93785130235,6651.476818499186,1647.4129733339516
12618.20794561004,-113872.30323222915,6643.407838750821,1652.822095492136
12627.528623047903,-113872.59380490708,6647.185283563767,1653.112668170055
12642.325477877315,-113857.5734326331,6662.183304093279,1654.1632001594544
12642.101960432765,-113851.76197907473,6662.116248859912,1657.0912786830995
12623.55001253486,-113872.34793571806,6642.558472461519,1661.8074967631694
12623.281791601396,-113887.99415683678,6638.848082881937,1667.1272119435323
12633.250669628462,-113887.4800667143,6649.263995798111,1664.9143892424572
12651.444989615082,-113868.0787525271,6670.2746355861,1665.339072387108
12655.758876294956,-113858.3780954335,6675.817868211016,1664.668520053449
12634.12238766222,-113872.63850839598,6659.478743014186,1663.9085607419684
12633.496538817471,-113881.04276431118,6652.728516188684,1668.2000956773873
12638.413922597638,-113881.22157826682,6658.674080213796,1667.082508454622
12652.45081811557,-113865.68711587036,6673.649748998851,1667.306025899175
12650.662678559149,-113858.48985415576,6678.880057201392,1664.7802787757253
12629.182652137595,-113878.42761020992,6660.238702325667,1660.75696477377
12625.427559069103,-113892.2856917722,6651.834446410471,1657.7841827612142
12637.65396328616,-113891.54808420516,6659.635205225373,1659.6170258065497
12653.635460571702,-113873.42081945192,6677.896580445359,1661.5169240852506
12648.494559346982,-113872.21382525133,6676.913103689326,1660.75696477377
12631.194309138577,-113893.22446503933,6658.003527880136,1656.5548368161724
12626.433387569594,-113905.54027623418,6650.359231276421,1654.0961449260883
12630.635515527192,-113903.4839157443,6659.836370925471,1657.404203105474
12642.951326722066,-113891.05634582716,6675.013205410624,1652.3303571141194
12641.297297632373,-113885.7813341357,6677.494249045164,1650.18458964641
12625.02522766891,-113902.5898459661,6660.529275003586,1649.7375547573038
12623.572364279316,-113913.00575888228,6654.203731322734,1650.0281274352226
12633.630649284203,-113910.90469490348,6659.903426158837,1647.6141390340497
12646.393495368184,-113898.00773835275,6676.823696711504,1644.6860605104043
12646.259384901452,-113889.51407545974,6682.724557247706,1643.65788026546
12623.125329390208,-113908.15543033546,6661.445696526253,1643.1661418874437
12618.185593865586,-113921.5888287531,6651.879149899381,1645.602482033072
12637.095169674776,-113918.25841882928,6661.065716870513,1647.9047117119685
12659.491617618993,-113901.24874129875,6678.388318823376,1643.5908250320942
12651.802617526368,-113895.6831569294,6678.947112434758,1642.4955895537842
12632.289544616884,-113917.20788683988,6659.992833136658,1649.044650679189
12631.26136437194,-113928.9425526789,6653.779048178083,1645.5130750552507
12641.297297632373,-113925.29921833269,6661.691565715261,1645.624833777527
12652.003783226464,-113908.26718905772,6677.829525211993,1640.3498220860747
12643.711286033546,-113908.82598266912,6678.32126359001,1641.378002331019
12634.234146384497,-113926.886192189,6664.016147138614,1649.178761145921
12635.865823729731,-113939.80550048416,6658.159990091323,1651.793915247192
12641.520815076929,-113938.93378245042,6663.390298293865,1648.1952843898875
12652.942556493588,-113922.95228516488,6679.75177523515,1644.306080854664
12644.270079644928,-113919.46541302984,6678.902408945848,1641.3109470976528
12628.623858526214,-113936.81036672716,6660.439868025765,1641.757981986759
12634.234146384497,-113947.94153546591,6653.734344689173,1640.2604151082537
12640.894966232176,-113944.02998018624,6661.311586059522,1638.829903463114
12651.35558263726,-113928.2943520897,6678.2318566121885,1640.8415604640916
12647.712248291044,-113922.90758167596,6680.80230722455,1640.439229063896
12626.478091058503,-113939.4478725729,6661.289234315066,1638.8969586964795
12622.16420437863,-113950.37787561154,6652.728516188684,1642.5849965316054
12634.189442895586,-113947.53920406572,6657.645899968851,1643.2779006097198
12652.40611462666,-113926.66267474444,6678.2765601011,1642.4955895537842
12652.763742537943,-113923.60048575408,6677.807173467538,1647.6364907785048
12638.749198764468,-113940.96779119586,6659.098763358446,1649.3575751015635
12634.45766382905,-113957.48573034831,6652.08031559948,1647.8376564786026
12644.270079644928,-113956.56930882564,6657.131809846379,1643.4790663098177
12653.07666696032,-113941.97361969632,6671.973368164703,1638.6510895074714
12644.69476278958,-113940.2972388622,6672.621568753907,1637.600557518072
12625.53931779138,-113959.6985530494,6652.862626655416,1637.7123162403484
12626.835718969787,-113974.4954078788,6642.714934672706,1644.0378599212004
12640.805559254355,-113970.33798341012,6650.716859187706,1645.2225023773317
12658.41873388514,-113952.70245703487,6672.12983037589,1644.2613773657536
12651.55674833736,-113946.71218952088,6674.655577499339,1640.1710081304325
12635.50819581845,-113966.33702115262,6657.757658691127,1645.758944244259
12636.335210363295,-113977.13291372452,6653.533178989074,1646.6977175113818
12643.152492422165,-113977.42348640246,6659.344632547454,1645.9601099443569
12659.849245530278,-113962.73839029532,6678.32126359001,1648.8658367235466
12657.971698996033,-113957.50808209278,6680.3999758243535,1646.138923899999
12639.151530164663,-113975.61299510158,6660.417516281309,1644.7754674882256
12641.319649376828,-113982.29616669372,6655.880112156882,1648.3517466010746
12652.093190204288,-113978.49637013632,6663.03267038258,1646.0271651777227
12665.258367688462,-113961.33023039464,6682.590446780974,1648.7764297457254
12655.803579783867,-113955.85405300307,6683.976254937203,1645.177798888421
12632.73657950599,-113979.92688178146,6659.657556969829,1643.9261011989238
12634.435312084594,-113991.2145127314,6650.046306854047,1646.1836273889098
12649.656850058658,-113984.7548585838,6657.444734268754,1644.887226210502
12661.88325427571,-113971.7461433108,6673.381528065387,1643.210845376354
12653.546053593882,-113967.0969804641,6677.650711256351,1644.37313608803
12630.054370171354,-113984.59839637262,6660.238702325667,1645.110743655055
12629.02618992641,-113995.37193720006,6652.773219677594,1646.6083105335606
12640.157358665152,-113988.88993130803,6661.445696526253,1646.2953861111864
12656.7870565399,-113972.46139913338,6678.880057201392,1650.5198658132394
12654.12719894972,-113967.96869849786,6680.578789779996,1653.514999570251
12632.982448694998,-113987.45941966288,6661.043365126057,1652.0621361806557
12634.12238766222,-114001.3175012252,6652.594405721951,1655.8619327380577
12649.254518658465,-113995.93073081144,6662.183304093279,1658.0077002057674
12663.157303709664,-113977.91522478047,6679.729423490695,1657.0689269386444
12652.65198381567,-113977.28937593572,6676.443717055764,1655.9289879714238
12632.982448694998,-114000.53519016923,6653.264958055611,1664.4450026088955
12632.267192872428,-114015.44380372092,6642.8937486283485,1671.3293399011302
12640.000896453965,-114013.32038799768,6647.364097519409,1666.635473565516
12654.663640816649,-114002.4574401924,6660.596330236952,1661.3604618740633
12654.462475116548,-114001.18339075844,6663.814981438516,1660.8687234960466
12631.283716116395,-114027.44669049344,6640.099780571435,1658.0971071835886
12624.287620101884,-114044.7692924463,6631.516710700597,1655.1913804043986
12634.6811812736,-114045.03751337976,6639.1386555598565,1657.6724240389376
12653.143722193685,-114025.68090268146,6658.852894169438,1655.9736914603343
12648.31574539134,-114022.77517590228,6661.289234315066,1657.47125833884
12629.227355626506,-114043.1152633566,6640.323298015988,1657.0018717052783
12626.835718969787,-114060.169644376,6631.673172911785,1661.047537451689
12634.12238766222,-114060.3261065872,6641.55264396103,1661.1369444295103
12652.31670764884,-114043.47289126788,6664.239664583167,1663.014490963756
12651.60145182627,-114040.74597844436,6666.497190773152,1661.2934066406974
12635.97758245201,-114060.99665892083,6644.41366725131,1662.3215868856416
12633.384780095192,-114075.63705153907,6635.227100280178,1664.2885403977086
12645.275908145417,-114075.59234805017,6642.513768972608,1661.3604618740633
12663.470228132035,-114060.3261065872,6661.065716870513,1657.5606653166612
12655.535358850404,-114058.2697460973,6662.675042471296,1655.0349181932115
12635.351733607262,-114081.426153353,6641.418533494299,1655.2807873822198
12637.229280141508,-114091.5738453357,6634.377733990877,1655.9289879714238
12650.439161114591,-114085.02478421033,6641.418533494299,1653.269130381242
12660.855074030767,-114072.59721429316,6655.053097612035,1650.5198658132394
12654.641289072191,-114071.25610962584,6654.427248767287,1647.3459181005858
12640.40322785416,-114094.01018548134,6633.684829912762,1654.4984763262842
12642.012553454942,-114107.35417692116,6629.370943232888,1657.9182932279462
12649.142759936183,-114110.4834211449,6636.031763080569,1655.8395809936026
12664.07372523233,-114097.69822331646,6655.991870879158,1656.4654298383512
12657.099980962275,-114097.85468552764,6657.824713924493,1657.4489065943849
12638.100998175263,-114120.76522359434,6636.568204947496,1659.5052670842729
12634.79293999588,-114137.14905228007,6628.543928688041,1657.4489065943849
12645.275908145417,-114136.41144471306,6639.451579982231,1658.5217903282394
12661.056239730864,-114123.693302118,6660.551626748041,1660.9134269849571
12651.377934381717,-114123.17921199552,6661.2221790817,1657.8959414834908
12630.657867271646,-114146.2462122734,6639.071600326491,1654.3643658595522
12633.74240800648,-114159.9031281356,6634.0871613129575,1657.180685660921
12645.253556400963,-114155.76805541136,6643.78781840656,1655.1690286599433
12662.352640909272,-114137.3949214691,6662.786801193572,1655.9289879714238
12659.22339668553,-114137.08199704671,6664.351423305443,1659.2593978952646
12644.605355811758,-114158.33850602372,6644.480722484675,1659.7734880177366
12643.465416844538,-114170.60961372968,6638.825731137483,1657.1359821720102
12650.640326814691,-114163.97114562643,6650.247472554144,1658.1194589280435
12663.157303709664,-114145.82152912876,6667.927702418292,1659.8628949955578
12661.145646708686,-114143.47459596091,6669.782897208082,1657.0018717052783
12643.755989522457,-114167.1003898502,6649.621623709396,1654.6996420263818
12640.045599942876,-114182.5007417799,6640.904443371826,1657.337147872108
12650.059181458852,-114179.57266325626,6648.615795208907,1654.6102350485603
12667.493542133992,-114161.06541884724,6668.821772196505,1651.7492117582813
12662.21853044254,-114154.06932283274,6671.951016420248,1647.4800285673175
12638.21275689754,-114174.32000330926,6651.677984199284,1648.4635053233512
12635.843471985278,-114187.86516044918,6643.765466662106,1652.308005369664
12647.421675613126,-114185.16059937008,6652.192074321756,1651.011604191256
12657.748181551478,-114172.1518840971,6667.79359195156,1646.4965518112842
12658.396382140683,-114170.6543172186,6668.374737307398,1648.1058774120663
12642.8842714887,-114191.46379130648,6647.341745774955,1647.8376564786026
12641.610222054747,-114204.13723041264,6638.669268926295,1647.167104144943
12652.942556493588,-114204.3607478572,6641.88792012786,1643.2555488652647
12668.834646801311,-114184.69121273652,6661.311586059522,1643.367307587541
12667.314728178351,-114179.17033185606,6663.122077360401,1645.2225023773317
12646.818178512834,-114197.34230009824,6643.78781840656,1641.6685750089378
12636.871652230222,-114212.42972760556,6630.287364755555,1636.8629499510469
12646.79582676838,-114210.52982932686,6634.891824113349,1640.6850982529045
12661.749143808978,-114195.1518291416,6652.616757466407,1640.3274703416191
12658.709306563058,-114192.62608201816,6653.309661544521,1639.4557523078624
12644.583004067305,-114209.6134078042,6640.569167204996,1644.5519500436724
12638.145701664174,-114219.35876838672,6635.897652613838,1647.144752400488
12645.432370356604,-114215.71543404048,6643.966632362203,1643.9484529433792
12661.615033342248,-114196.22471287544,6664.977272150192,1648.2623396232534
12655.401248383672,-114197.76698324288,6663.79262969406,1646.787124489203
12636.446969085571,-114216.94477998553,6644.033687595569,1644.6190052770385
12630.233184126995,-114231.74163481494,6636.411742736309,1644.6860605104043
12646.348791879273,-114222.91269575508,6650.605100465429,1644.2613773657536
12661.279757175418,-114207.28882638084,6670.766373964117,1642.6520517649712
12654.93186175011,-114204.7630792574,6671.727498975694,1643.344955843086
12637.519852819429,-114223.87382076668,6651.298004543544,1647.9047117119685
12632.535413805892,-114236.94959127303,6642.580824205974,1651.6151012915495
12638.21275689754,-114234.22267844949,6650.202769065234,1649.022298934734
12651.668507059636,-114217.213000919,6667.41361229582,1645.5577785441612
12644.940631978588,-114214.41903286208,6666.832466939983,1636.505322039762
12627.796843981369,-114233.8650505382,6646.246510296644,1634.3148510831418
12632.982448694998,-114245.33149544377,6640.300946271533,1636.3488598285749
12642.526643577416,-114246.35967568871,6643.139617817356,1630.202130103365
12655.9376902506,-114231.42871039256,6659.456391269731,1627.2293480908097
12653.233129171507,-114228.0088934909,6662.630338982384,1627.4305137909073
12639.777379009412,-114246.67260011108,6647.520559730597,1627.050534135167
12639.911489476144,-114255.45683568202,6644.234853295667,1627.7434382132817
12650.617975070236,-114254.00397229244,6652.482646999675,1631.0291446482115
12664.565463610348,-114244.03509426536,6663.591463993963,1628.4363422913962
12660.653908330669,-114240.34705643024,6663.099725615946,1620.3003073096645
12648.65102155817,-114252.70757111402,6646.335917274466,1621.9096329104464
12639.866785987231,-114270.8124841228,6633.863643868404,1622.535481755195
12650.59562332578,-114266.29743174285,6640.658574182818,1633.0408016491892
12663.224358943027,-114250.69591411304,6655.477780756686,1630.8056272036586
12660.162169952651,-114242.7610448314,6659.635205225373,1623.630717233505
12638.056294686354,-114265.29160324237,6637.372867747888,1623.0719236221223
12637.318687119328,-114278.09915281524,6627.9851350766585,1620.501473009762
12646.92993723511,-114270.18663527806,6634.444789224242,1616.344048541075
12655.513007105948,-114251.969963547,6647.498207986142,1612.0748653501112
12642.638402299692,-114248.68425711208,6641.463236983209,1605.726969924804
12626.008704424945,-114264.88927184216,6621.100797784424,1609.5267664822063
12620.554878777848,-114278.5685394488,6608.539117400542,1612.7677694282258
12628.087416659286,-114277.74152490396,6611.221326735178,1610.5549467271503
12642.325477877315,-114261.11182702922,6625.794664120039,1610.6220019605164
12639.26328888694,-114253.6686961256,6624.855890852916,1608.6774001929043
12619.59375376627,-114272.77943763488,6599.3972539183205,1602.955353612346
12616.330399075796,-114286.54811221936,6587.550829357008,1596.987437842779
12629.316762604329,-114281.04958308335,6596.4021201613095,1593.9699523413126
12645.901756990166,-114259.79307410636,6616.429283193265,1590.3042662506425
12640.514986576438,-114255.72505661548,6617.144539015835,1588.2255540162987
12625.181689880095,-114274.00878357992,6598.97257077367,1589.9689900838123
12624.01939916842,-114285.40817325212,6590.054224736003,1593.0982343075557
12635.754065007455,-114280.06610632731,6597.922038784271,1595.311057008631
12653.680164060614,-114263.32464973028,6616.3622279598985,1597.568583198617
12649.50038784747,-114258.25080373892,6615.2446407371335,1594.6181529305163
12630.859032971744,-114273.3158795018,6597.363245172888,1597.79210064317
12634.45766382905,-114277.89798711515,6596.223306205668,1601.1672140559217
12640.82791099881,-114273.04765856836,6604.493451654131,1601.5918972005722
12653.680164060614,-114255.92622231558,6624.11828328589,1603.1565193124438
12651.109713448252,-114250.7629693464,6625.817015864493,1607.403350758952
12636.446969085571,-114270.43250446708,6606.6168673773855,1613.2371560617871
12638.07864643081,-114278.85911212672,6602.057111508502,1612.9689351283237
12647.622841313225,-114271.9300713456,6611.534251157553,1613.147749083966
12659.603376341269,-114259.27898398388,6627.180472276267,1611.516071738729
12663.470228132035,-114254.33924845926,6630.890861855849,1612.7230659393151
12648.047524457876,-114272.31005100132,6612.785948847049,1616.053475863156
12644.426541856115,-114284.96113836304,6605.231059221156,1621.2614323212424
12653.031963471409,-114280.49078947197,6614.752902359117,1626.916423668435
12666.755934566969,-114261.64826889614,6636.031763080569,1626.2682230792311
12661.45857113106,-114256.35090546023,6638.021068337092,1623.697772466871
12641.185538910097,-114272.39945797916,6619.335009972455,1626.111760868044
12630.926088205111,-114290.61612971022,6608.539117400542,1627.7881417021922
12640.447931343071,-114289.74441167648,6615.803434348516,1627.341106813086
12663.35846940976,-114268.465550955,6640.680925927273,1632.079676637611
12653.36723963824,-114264.19636776405,6640.949146860737,1630.202130103365
12630.702570760555,-114288.20214130904,6618.597402405429,1631.6102900040496
12629.316762604329,-114302.730775205,6611.891879068838,1632.437304548896
12639.106826675752,-114299.91445540365,6620.229079750667,1632.3255458266194
12656.943518751088,-114277.56271094832,6643.072562583991,1636.5947290175832
12651.623803570725,-114278.59089119326,6643.452542239731,1638.919310440935
12642.16901566613,-114292.65013845565,6633.438960723754,1644.8425227215914
12645.991163967989,-114295.01942336792,6632.544890945541,1648.083525667611
12651.9367279931,-114285.83285639678,6642.692582928251,1650.2739966242311
12667.806466556369,-114267.70559164352,6659.948129647748,1652.0397844362003
12667.180617711618,-114263.05642879684,6659.836370925471,1651.0339559357114
12652.070838459833,-114280.64725168316,6643.452542239731,1651.65980478046
12653.031963471409,-114288.26919654242,6639.78685614906,1654.1855519039098
12665.951271766577,-114280.31197551632,6650.783914421072,1654.543179815195
12677.641234116702,-114263.83873985276,6667.391260551365,1647.5023803117729
12664.520760121435,-114265.29160324237,6660.730440703684,1645.1554471439658
12644.113617433744,-114283.4188679956,6644.681888184773,1649.4469820793847
12643.040733699889,-114293.09717334477,6639.876263126882,1648.1729326454322
12652.048486715375,-114288.64917619816,6650.739210932161,1650.3634036020524
12663.090248476296,-114270.43250446708,6670.721670475205,1654.56553155965
12661.480922875517,-114266.23037650948,6670.967539664214,1654.0961449260883
12643.286602888897,-114283.93295811808,6651.40976326582,1660.444040351396
12639.375047609215,-114294.99707162348,6641.977327105681,1657.7841827612142
12645.477073845515,-114292.98541462248,6647.140580074857,1651.0563076801668
12655.155379194664,-114280.20021679404,6659.2105220807225,1647.1894558893987
12649.925070992122,-114276.8698068702,6657.198865079745,1645.3342610996085
12629.808500982344,-114300.6744147151,6633.751885146128,1642.8085139761586
12633.02715218391,-114309.41394679714,6627.739265887651,1646.6753657669267
12646.639364557192,-114303.8260106833,6635.651783424829,1648.7093745123595
12657.949347251575,-114288.38095526469,6650.560396976519,1640.483932552807
12649.16511168064,-114286.61516745272,6647.967594619703,1639.7016214968708
12635.68700977409,-114305.6365019842,6627.471044954186,1642.3614790870524
12635.418788840629,-114313.61607475473,6622.531309429563,1642.56264478715
12639.9338412206,-114313.6831299881,6632.07550431198,1640.0592494081557
12649.276870402917,-114299.04273736988,6651.543873732552,1635.4547900503624
12645.097094189776,-114289.67735644308,6654.851931911938,1636.0806388951112
12627.752140492456,-114300.00386238145,6636.657611925318,1634.672478994427
12626.008704424945,-114310.03979564187,6630.443826966743,1638.7404964852926
12644.73946627849,-114309.32453981932,6638.222234037189,1643.3896593319964
12660.139818208198,-114292.04664135537,6654.31549004501,1638.5169790407394
12654.954213494566,-114283.15064706215,6656.573016234996,1638.986365674301
12632.781282994902,-114303.46838277204,6634.221271779689,1635.4324383059072
12624.131157890695,-114314.39838581068,6623.604193163418,1634.985403416801
12629.629687026703,-114314.66660674413,6628.141597287846,1638.7404964852926
12649.8356640143,-114296.6287489687,6648.83931265346,1641.534464542206
12647.712248291044,-114289.25267329844,6652.415591766309,1642.6073482760607
12635.50819581845,-114303.8707141722,6639.228062537678,1648.7987814901808
12637.475149330516,-114309.21278109704,6638.535158459564,1652.822095492136
12644.7841697674,-114306.79879269586,6646.626489952385,1650.2516448797758
12655.26713791694,-114292.71719368902,6662.116248859912,1645.2895576106976
12652.160245437652,-114284.06706858482,6665.401955294843,1647.5023803117729
12644.761818022946,-114294.482981501,6651.119190587901,1656.0854501826109
12646.259384901452,-114301.74729844896,6642.759638161617,1658.1865141614098
12653.680164060614,-114294.28181580087,6643.810170151016,1651.8386187361025
12662.084419975808,-114274.3217080023,6653.801399922539,1650.341051857597
12654.864806516744,-114266.5656526763,6652.348536532943,1650.341051857597
12638.391570853182,-114288.33625177578,6630.421475222287,1648.955243701368
12633.675352773113,-114302.70842346054,6619.536175672552,1644.7754674882256
12645.78999826789,-114295.84643791275,6625.839367608949,1643.2555488652647
12655.088323961298,-114280.0214028384,6640.055077082525,1643.501418054273
12647.824007013323,-114274.65698416914,6639.071600326491,1641.6462232644826
12631.574288794314,-114292.56073147785,6618.93267857226,1639.9698424303344
12628.467396315027,-114306.35175780675,6607.488585411142,1640.4615808083513
12639.240937142486,-114304.1836385946,6611.958934302204,1640.9309674419128
12649.232166914007,-114289.65500469864,6625.235870508656,1637.019412162234
12645.186501167596,-114284.11177207372,6625.817015864493,1633.8007609606698
12628.042713170376,-114303.49073451648,6608.427358678265,1636.2594528507536
12625.941649191576,-114315.1359933777,6602.63825686434,1636.5723772731278
12631.909564961144,-114315.31480733331,6606.125128999368,1635.4547900503624
12651.802617526368,-114295.91349314612,6626.487568198153,1643.143790142988
12656.921167006632,-114288.98445236498,6631.002620578125,1645.4907233107954
12641.11848367673,-114306.6870339736,6612.607134891407,1646.5189035557394
12642.660754044147,-114314.2866270884,6610.439015679242,1647.0329936782116
12654.30601290536,-114311.71617647602,6620.542004173041,1642.18266513141
12671.852132302778,-114288.87269364273,6642.022030594591,1638.762848229748
12670.265158446451,-114278.65794642664,6646.872359141393,1636.3935633174854
12652.517873348936,-114292.67249020012,6629.102722299424,1633.6666504939378
12648.718076791534,-114304.40715603916,6619.513823928097,1631.5879382595942
12655.088323961298,-114307.69286247408,6619.089140783446,1624.9718219008234
12670.399268913185,-114295.3770512792,6633.461312468209,1625.150635856466
12666.040678744395,-114289.14091457616,6636.925832858781,1626.6258509905165
12645.767646523434,-114301.4343740266,6621.659591395806,1628.503397524762
12639.576213309314,-114312.16321136514,6611.511899413097,1634.0019266607676
12647.511082590949,-114309.4362985416,6615.311695970499,1637.2876330956976
12660.095114719286,-114293.20893206703,6629.639164166351,1635.8347697061026
12653.948384994075,-114287.91156863113,6626.755789131616,1633.8231127051251
12640.40322785416,-114309.54805726386,6606.013370277092,1638.986365674301
12641.11848367673,-114321.99797892549,6598.436128906743,1639.2992900966751
12652.160245437652,-114319.85221145776,6603.755844087106,1634.3372028275971
12674.780210826422,-114298.7745164364,6624.006524563614,1636.2818045952088
12668.387611912203,-114285.74344941897,6626.755789131616,1633.0631533936446
12644.180672667108,-114305.34592930626,6603.375864431366,1637.578205773617
12645.991163967989,-114314.2866270884,6598.771405073572,1641.6909267533931
12666.55476886687,-114305.43533628408,6612.785948847049,1646.764772744748
12681.441030674105,-114292.15840007763,6629.348591488432,1648.5082088122615
12673.46145790356,-114289.18561806508,6628.856853110416,1645.6471855219825
12655.535358850404,-114306.0835368733,6610.886050568349,1648.016470434245
12654.41777162764,-114315.85124920026,6604.73932084314,1648.2846913677088
12663.336117665303,-114310.8221066978,6612.540079658042,1645.2895576106976
12677.484771905514,-114290.30320528784,6631.986097334158,1640.953319186368
12669.41579215715,-114283.86590288472,6631.136731044857,1640.4168773194406
12646.818178512834,-114303.66954847211,6604.694617354228,1636.9970604177786
12642.16901566613,-114318.48875504598,6592.06588173698,1635.1195138835328
12658.21756818504,-114307.06701362932,6603.129995242357,1636.9970604177786
12670.779248568922,-114287.7774581644,6620.720818128684,1635.6112522615497
12665.392478155194,-114283.50827497344,6620.027914050569,1632.3031940821645
12648.31574539134,-114305.10006011726,6598.525535884564,1637.8017232181696
12646.617012812736,-114317.30411258986,6591.216515447679,1644.4178395769409
12655.133027450209,-114312.76670846542,6596.469175394675,1643.8143424766472
12661.615033342248,-114295.95819663504,6610.126091256869,1638.4499238073736
12653.121370449231,-114292.44897275556,6611.377788946365,1635.1418656279882
12640.760855765446,-114310.0844991308,6594.591628860429,1633.8678161940356
12639.352695864762,-114319.40517656866,6585.025082233558,1632.727877226815
12651.959079737557,-114307.96108340754,6596.893858539326,1631.7220487263262
12667.202969456072,-114292.27015879992,6612.763597102595,1631.9008626819686
12664.856036288267,-114284.89408312966,6615.982248304159,1633.6890022383932
12648.02517271342,-114299.75799319244,6598.950219029215,1637.4440953068847
12641.721980777023,-114311.9396939206,6589.920114269271,1637.7570197292591
12649.276870402917,-114302.28374031588,6601.49831789712,1635.723010983826
12662.240882186996,-114281.3178040168,6618.105664027413,1633.6442987494827
12659.737486808,-114273.3829347352,6619.200899505723,1635.8124179616473
12644.247727900474,-114290.10203958774,6601.833594063949,1636.505322039762
12641.967849966031,-114302.59666473826,6595.955085272203,1635.924176683924
12650.41680937014,-114297.6792809581,6606.080425510458,1635.790066217192
12661.547978108882,-114283.28475752888,6620.78787336205,1631.8785109375133
12659.245748429985,-114276.89215861466,6624.185338519256,1630.2915370811866
12643.443065100082,-114295.95819663504,6605.678094110263,1630.693868481382
12641.230242399008,-114309.86098168624,6596.759748072594,1629.5092260252509
12650.50621634796,-114307.75991770744,6602.191221975234,1630.0456678921782
12665.54894036638,-114288.76093492044,6621.972515818181,1632.7055254823597
12662.039716486895,-114283.32946101778,6622.285440240556,1633.241967349287
