 EXG Channel 0, EXG Channel 1, EXG Channel 2, EXG Channel 3
4528.597537111943,-5628.660992224335,-11108.86169777652,19901.70269032749
4294.060682542406,-5589.523087683093,-11107.81116578712,19705.946112387912
4320.972182866595,-5428.143492715775,-11118.6741135924,19577.177712580888
4566.863723619428,-5312.741436093025,-11125.44669216236,19620.98713171329
4729.986754654259,-5475.037452583009,-11129.20178523085,19924.74733886091
4526.98821151116,-5615.473462995704,-11104.68192156338,19894.84070477971
4295.401787209724,-5575.48619216516,-11098.691654049357,19706.52725774375
4322.849729400841,-5419.35925714484,-11124.373808428503,19572.48384624527
4560.202903771747,-5300.202107453598,-11137.784855101689,19617.74612876727
4721.426036527877,-5452.976280805621,-11121.423378160403,19929.12828077415
4526.876452788884,-5583.018730046598,-11092.701386535333,19895.466553624457
4305.169499536693,-5535.051886445509,-11088.611017300012,19704.940283887423
4342.586319754877,-5387.888000951767,-11112.48268037828,19578.943500392856
4575.670310934819,-5295.843517284813,-11130.20761373134,19629.54784983967
4719.727303949274,-5459.659452397758,-11130.855814320545,19931.25169649741
4512.459577615211,-5598.910820354321,-11113.33204666758,19884.31303314126
4299.335694233858,-5563.81858155949,-11106.112433208518,19696.893655883512
4342.09458137686,-5404.2941813819625,-11118.562354870124,19566.895910131447
4569.992967843172,-5303.308999932886,-11131.459311420836,19615.04156768817
4712.731207934762,-5469.695385658191,-11124.44086366187,19924.859097583187
4518.203975940225,-5605.906916368833,-11096.411776114915,19904.18373396203
4278.257999212504,-5584.58335215847,-11097.998749971242,19702.32512978615
4304.364836736302,-5444.907301057256,-11126.720741596311,19561.59854669554
4542.902653563339,-5329.52759617896,-11132.889823065976,19625.12220443752
4686.892591344427,-5478.904304373777,-11121.24456420476,19933.41981570957
4495.092272173438,-5595.580410430481,-11089.348624867038,19891.57735008924
4294.127737775772,-5529.754523009601,-11083.939502708854,19723.8051562077
4343.703906977643,-5373.11349786681,-11105.598343086043,19595.86377094552
4583.962808127739,-5277.112755431265,-11114.829613546088,19653.911251295955
4731.171397110391,-5441.845112066879,-11103.586686085067,19969.406124282614
4519.813301541007,-5579.665968378302,-11084.43124108687,19922.959199304485
4304.096615802839,-5528.122845664364,-11083.42541258638,19731.740025489336
4345.0226599005055,-5386.144564884254,-11108.682883820878,19599.30593959164
4563.779182884596,-5306.393540667718,-11124.686732850878,19659.298021709685
4693.486355958743,-5469.673033913736,-11122.719779338811,19962.477083501468
4489.526687804066,-5588.114927782408,-11101.083290706074,19912.47623115495
4287.265752227992,-5526.602927041403,-11106.850040775544,19728.90135394351
4340.865235431818,-5368.598445486838,-11120.48460489328,19597.003709912744
4578.374872013912,-5285.42760436864,-11134.074465522108,19663.92483281193
4716.486301003254,-5453.691536628192,-11130.833462576087,19967.126246348173
4498.087405930449,-5592.741738884657,-11115.634276346478,19904.340196173216
4286.03640628295,-5549.357002896906,-11108.660532076425,19720.586505006137
4328.772941681497,-5403.310704625929,-11128.218308474816,19590.58875925407
4560.739345638674,-5320.072808274366,-11144.44567494937,19667.679925880424
4699.968361850782,-5468.957778091166,-11131.481663165292,19978.771505209388
4489.504336059611,-5586.617360903902,-11103.072595962596,19916.007806778885
4274.3464439328245,-5554.05086923252,-11104.279590163183,19728.38726382104
4319.988706110562,-5397.9239342122,-11118.58470661458,19608.26898911822
4565.589674185476,-5288.959179992578,-11121.468081649316,19701.9004466415
4707.970286365782,-5439.654641110259,-11112.080348978085,20007.515848578914
4505.239964156147,-5559.214122201696,-11087.605188799524,19940.95235359101
4307.650543171232,-5497.188031338219,-11091.874371990489,19752.41538911049
4353.069287904416,-5348.146599310231,-11115.209593201827,19611.577047297604
4579.179534814302,-5289.853249770791,-11131.548718398655,19692.87034188156
4714.832271913561,-5451.836341838401,-11119.702293837345,20005.280674133384
4513.666571815797,-5544.394915627828,-11093.416642357904,19943.835728625745
4307.561136193412,-5492.3377027914175,-11101.10564245053,19751.09663618763
4359.953625196651,-5341.239910273542,-11125.334933440085,19615.19802989936
4610.874308451928,-5267.166229148654,-11134.432093433392,19712.47282176886
4728.332725564566,-5450.606995893359,-11122.429206660892,20018.91523825112
4494.689940773242,-5584.493945180649,-11100.256276161228,19936.929039589053
4286.639903383244,-5524.323049106962,-11098.356377882526,19759.47854035837
4334.696153962154,-5365.11157335181,-11118.897631036954,19629.05611146165
4567.891903864373,-5300.850308042802,-11139.461235935836,19718.083109627143
4681.841097097528,-5484.0675573429535,-11132.599250388055,20018.66936906211
4456.110829843382,-5585.34331146995,-11103.318465151604,19941.89112685813
4261.6059495933,-5519.696238004713,-11107.7217588093,19758.964450235897
4334.472636517601,-5348.303061521418,-11128.48652940828,19630.55367834016
4592.411767531845,-5272.038909439911,-11139.550642913657,19730.71184524439
4718.274440559679,-5445.711963857647,-11132.308677710138,20020.502212107447
4487.3585685919015,-5575.016805531598,-11120.86458454902,19932.928077331555
4288.048063283928,-5511.359037322884,-11121.53513688268,19746.045141940733
4355.416221072223,-5344.883244619757,-11139.282421980191,19622.060015447143
4610.896660196383,-5270.563694305861,-11143.171625515415,19730.91301094449
4748.203426385335,-5414.061893708932,-11124.418511917414,20029.82288954531
4538.097028505448,-5519.405665326794,-11100.010406972218,19940.84059486873
4348.710697735632,-5478.501972973582,-11106.15713669743,19755.276412400774
4400.007951260562,-5337.574224182871,-11130.833462576087,19619.40015785696
4643.485503612221,-5295.038854484422,-11142.121093526015,19724.18513586344
4777.372452899511,-5459.547693675482,-11128.508881152737,20030.02405524541
4558.906502593339,-5551.8603982759005,-11107.520593109202,19941.064112313285
4371.755346269053,-5491.533039991026,-11109.19697394335,19764.77590379428
4439.570538946455,-5340.636413173248,-11134.745017855766,19629.97253298432
4689.5748006790645,-5281.650159555693,-11142.702238881857,19749.017923953288
4802.696979367373,-5452.797466849979,-11119.702293837345,20045.24559321947
4563.019223573116,-5568.132468239363,-11108.593476843058,19936.07967329975
4373.230561403103,-5518.913926948778,-11116.640104846969,19753.77884552227
4446.700745427697,-5350.359422011307,-11134.610907389037,19627.53619283869
4698.515498461187,-5272.485944329017,-11142.188148759384,19757.35512463512
4786.559019870641,-5467.504914701572,-11131.325200954105,20043.256287962948
4539.259319217124,-5578.078994521975,-11109.509898365724,19929.10592902969
4356.667918761721,-5500.540793006515,-11111.409796644426,19745.843976240634
4446.745448916608,-5322.419741442173,-11125.804320073645,19623.289361392184
4691.698216402318,-5272.016557695456,-11138.6789248799,19755.164653678497
4778.311226166633,-5461.089964042898,-11131.951049798852,20040.5293751394
4525.960031266217,-5576.670834621291,-11117.15419496944,19925.909629572587
4338.495950519557,-5515.04707515801,-11118.025913003195,19745.016961695783
4430.942765586707,-5319.446959429617,-11127.05601776314,19622.060015447143
4684.88093434345,-5264.528723302928,-11143.998640060265,19749.129682675564
4786.022578003714,-5454.250330239574,-11131.63812537648,20039.277677449903
4547.887092576872,-5541.019802215076,-11109.91222976592,19930.51408893038
4379.466698106134,-5448.46122842565,-11111.81212804462,19764.59708983864
4478.976664421161,-5264.394612836196,-11119.970514770808,19645.305829680663
4734.1888826118575,-5222.373333260219,-11126.832500318587,19775.795313810744
4818.633773164007,-5426.64592583727,-11119.590535115069,20050.811177588843
4576.385566757389,-5532.302621877507,-11096.344720881549,19938.113682045187
4414.625992134332,-5458.675975641725,-11098.803412771633,19764.217110182897
4514.247717171636,-5296.8716975297575,-11118.785872314676,19644.74703606928
4756.138295666969,-5270.787211750414,-11133.985058544284,19778.20930221192
4823.349991244077,-5475.059804327465,-11123.770311328211,20049.179500243605
4587.539087240588,-5560.041136746542,-11098.646950560444,19933.889202343133
4431.456855709178,-5476.17739155023,-11095.316540636604,19769.179197451973
4512.347818892935,-5321.704485619604,-11118.472947892304,19650.55848962766
4752.2714438762005,-5288.556848592383,-11128.53123289719,19796.269511731807
4838.638584451507,-5458.608920408359,-11115.097834479551,20070.279547009417
4603.297067081579,-5541.489188848637,-11095.24948540324,19955.61509795369
4431.859187109374,-5481.18418230822,-11109.420491387904,19777.225825455884
4509.442092113744,-5335.227291015064,-11135.549680656157,19652.36898092854
4755.043060188658,-5306.728816834548,-11147.038477306183,19803.28795949077
4836.537520472708,-5488.560257978471,-11131.258145720738,20073.140570299696
4598.759662957152,-5553.715593065691,-11106.6712268199,19947.38965599414
4439.92816685774,-5475.909170616767,-11101.8208982731,19769.13449396306
4536.3759441823895,-5302.593744110316,-11121.624543860502,19642.98124825731
4794.225668218812,-5244.814484693347,-11128.95591604184,19798.34822396615
4871.093317400613,-5428.277603182507,-11114.270819934703,20063.12698878372
4628.10750342697,-5509.637952999825,-11093.617808058,19928.32361797376
4472.673472484765,-5428.232899693597,-11094.735395280766,19755.8128542677
4573.256322533646,-5259.164304633654,-11113.712026323325,19633.19118418589
4827.663877923951,-5232.565728731839,-11125.312581695627,19792.469715174404
4892.081605444147,-5437.531225387004,-11113.779081556688,20058.231956748004
4629.58271856102,-5542.092685948931,-11090.130935922973,19922.735681859933
4472.561713762488,-5469.315406002451,-11090.555619067623,19768.39688639604
4568.629511431398,-5301.543212120916,-11107.967627998309,19654.60415537407
4817.091502796591,-5268.172057649143,-11113.19793620085,19826.846698146663
4866.891189443015,-5470.410641480761,-11103.34081689606,20085.523436727934
4596.591543744987,-5573.072203763986,-11090.734433023266,19940.147690790614
4431.143931286804,-5493.879973158833,-11095.875334247989,19777.24817720034
4534.23017671468,-5323.447921687117,-11113.53321236768,19665.265937479253
4790.247057705768,-5287.886296258724,-11117.623581603,19837.754349440856
4846.14877058849,-5464.018042566543,-11107.67705532039,20091.82662866433
4583.582828471998,-5540.326898136962,-11085.99586319874,19945.869737371177
4431.747428387097,-5447.902434814267,-11083.693633519844,19774.43185739897
4539.549891895043,-5267.903836715679,-11107.364130898017,19659.3427251986
4800.57356364412,-5242.534606758905,-11115.097834479551,19835.809747673244
4854.374212548043,-5450.897568571279,-11097.663473804412,20090.105544341277
4596.3680263004335,-5554.140276210342,-11078.329214850572,19952.016467096382
4454.792076920518,-5463.861580355356,-11077.658662516911,19779.975090023887
4563.890941606873,-5285.740528791014,-11096.67999704838,19659.119207754044
4821.740665643295,-5259.18665637811,-11115.835442046577,19830.557087726247
4870.847448211604,-5456.016118051543,-11101.23975291726,20083.22120704904
4613.712979997752,-5533.084932933442,-11079.267988117694,19937.934868089545
4477.903780687307,-5441.062801010943,-11089.52743882268,19768.039258484758
4593.752872199163,-5264.193447136098,-11105.978322741788,19641.282515678708
4846.931081644426,-5241.6405369806935,-11113.600267601048,19819.73884340988
4871.696814500906,-5453.512722672549,-11106.62652333099,20059.662468393144
4597.105633867459,-5547.725325551668,-11093.774270269188,19904.18373396203
4458.703632200198,-5458.877141341823,-11091.67320629039,19748.57088906418
4576.877305135406,-5287.260447413975,-11107.699407064843,19641.282515678708
4820.2878022537,-5275.570485063849,-11119.255258948238,19826.7796429133
4859.135134117024,-5464.912112344756,-11096.67999704838,20074.861654622757
4607.76741597264,-5534.694258534224,-11062.8618076875,19940.505318701904
4474.640425996831,-5441.442780666684,-11067.510970534202,19789.452229672937
4587.5614389850425,-5262.606473279771,-11096.076499948083,19674.60896666157
4824.7581511447615,-5258.896083700191,-11104.592514585556,19861.715419496944
4851.490837513308,-5462.945158832688,-11087.180505654873,20106.19880034909
4605.308724082556,-5525.1500636518085,-11063.174732109874,19958.878452644167
4491.113661660393,-5423.270812424518,-11069.008537412708,19799.19759025545
4609.488500295699,-5250.9165109296455,-11083.738337008755,19694.77024016026
4844.897072898993,-5251.497656285484,-11102.022063973196,19885.36356513066
4856.587035249118,-5465.739126889602,-11100.43509011687,20102.13078285823
4609.890831695894,-5545.66896506178,-11081.592569541046,19944.372170492672
4481.994149922628,-5459.547693675482,-11076.563427038602,19787.48527616087
4602.425349047822,-5277.224514153542,-11095.271837147697,19677.604100418583
4838.571529218141,-5279.973778721545,-11110.359264655026,19859.52494854033
4863.538427774719,-5472.154077548275,-11095.271837147697,20089.21147456306
4604.884040937905,-5523.741903751124,-11074.976453182277,19939.90182160161
4477.680263242753,-5419.538071100482,-11081.972549196786,19781.025622013287
4596.546840256076,-5246.1555893606655,-11094.62363655849,19671.144446271
4848.115724100558,-5246.893196927691,-11103.25140991824,19867.45981782196
4871.875628456549,-5448.908263314756,-11086.71111902131,20091.82662866433
4611.455453807766,-5524.166586895774,-11071.601339769524,19939.834766368243
4482.150612133814,-5416.297068154463,-11071.66839500289,19777.069363244696
4590.109537852948,-5245.909720171657,-11095.897685992442,19660.57207114364
4818.09733129708,-5254.381031320218,-11110.58278209958,19860.955460185465
4845.232349065823,-5447.813027836446,-11087.7169475218,20089.54675072989
4615.277602109623,-5501.680731973735,-11058.413810540893,19942.494623958424
4501.0378361985495,-5406.9763907166,-11064.38172631046,19789.09460176165
4619.792654489595,-5238.354830545763,-11076.898703205432,19687.50592321228
4867.9640731768695,-5252.414077808151,-11083.090136419552,19902.239132194416
4883.386776851032,-5463.973339077633,-11078.105697406016,20111.04912889589
4603.744101970685,-5541.645651059825,-11059.553749508112,19938.38190297865
4464.962120647683,-5452.1939697496855,-11069.589682768546,19778.43281965647
4586.712072695741,-5265.08751691431,-11088.789831255655,19665.467103179348
4840.404372263476,-5250.760048718459,-11094.6683400474,19877.87573073813
4849.322718301144,-5433.619670107326,-11076.921054949888,20090.97726237503
4585.370968028423,-5482.190010808708,-11059.129066363465,19921.685149870533
4461.989338635128,-5395.68875976667,-11068.740316479243,19768.75451430732
4581.347654026467,-5239.338307301797,-11083.090136419552,19658.269841464746
4829.5190727137415,-5260.840685467802,-11093.57310456909,19877.87573073813
4845.992308377303,-5444.348507445873,-11079.469153817792,20097.25810256697
4576.877305135406,-5499.400854039294,-11069.589682768546,19914.353777689197
4457.854265910896,-5414.598335575859,-11071.556636280611,19754.650563556024
4591.741215198185,-5244.367449804241,-11085.772345754189,19658.80628333167
4848.026317122736,-5239.092438112788,-11094.310712136115,19883.106038940678
4847.7133927003615,-5434.26787069653,-11082.821915486087,20083.131800071216
4578.4642789917325,-5495.3328365484285,-11067.555674023111,19907.044757252308
4455.1944083207145,-5393.610047532327,-11078.128049150471,19752.549499577224
4573.368081255922,-5213.477338967006,-11100.345683139049,19649.396198915983
4824.355819744565,-5230.308202541853,-11103.430223873882,19877.07106793774
4843.824189165138,-5435.944251530677,-11083.268950375194,20090.776096674934
4588.008473874149,-5488.359092278372,-11064.024098399175,19925.35083596121
4472.271141084569,-5392.000721931544,-11076.876351460976,19767.838092784656
4598.469090279233,-5216.025437834912,-11093.371938868991,19659.208614731862
4844.427686265432,-5233.258632809953,-11101.351511639536,19885.69884129749
4844.606500221074,-5413.883079753289,-11080.34087185155,20089.233826307514
4582.197020315769,-5453.758591861558,-11065.879293188966,19918.533553902336
4462.794001435519,-5367.369099541796,-11076.406964827414,19766.206415439417
4583.113441838436,-5214.214946534032,-11094.467174347305,19666.36117295756
4810.900069582471,-5257.152647632676,-11112.236811189272,19902.864981039165
4788.883601293994,-5467.8625426128565,-11095.830630759076,20096.989881633508
4522.763731809107,-5523.652496773302,-11068.606206012511,19921.79690859281
4422.247936993592,-5416.140605943276,-11076.09404040504,19774.834188799166
4542.321508207501,-5251.587063263305,-11095.517706336705,19669.401010203484
4793.443357162876,-5261.980624435023,-11097.507011593225,19916.700710857
4797.489022909287,-5451.813990093946,-11073.992976426242,20113.19489636361
4547.261243732124,-5510.934354178233,-11054.636365727943,19931.69873138651
4446.074896582949,-5408.049274450455,-11062.23595884275,19778.477523145382
4590.5565727420535,-5200.021588804912,-11071.891912447443,19681.068620809157
4837.923328628937,-5208.6493621646605,-11079.893836962445,19917.5500771463
4831.530729714719,-5409.971524473611,-11071.66839500289,20102.443707280603
4575.960883612738,-5460.218246009141,-11051.082438359552,19921.37222544816
4481.4577080557,-5346.447866731628,-11053.8093511831,19773.64954634304
4618.742122500196,-5174.518248381406,-11081.458459074314,19671.68088813793
4852.8766456695375,-5215.93603085709,-11094.400119113938,19905.860114796174
4825.093427311591,-5424.902489769756,-11082.129011407971,20081.075439581327
4553.363269968423,-5484.916923632255,-11072.182485125362,19895.533608857822
4452.065164096972,-5389.698492252647,-11085.548828309637,19744.189947150942
4586.153279084359,-5227.469530996029,-11101.932656995376,19647.675114592927
4816.979744074314,-5267.032118681922,-11112.661494333925,19891.376184389137
4793.689226351885,-5444.750838846068,-11097.328197637582,20069.92191909813
4543.416743685812,-5466.901417601278,-11076.228150871772,19899.579274604235
4460.514123501078,-5357.064945347899,-11076.026985171677,19758.830339769167
4594.535183255099,-5188.018702032412,-11094.221305158297,19667.054077035675
4821.874776110027,-5229.928222886112,-11102.29028490666,19913.772632333355
4793.353950185055,-5439.229957965607,-11082.084307919064,20085.568140216845
4529.066923745504,-5489.051996356488,-11064.00174665472,19899.06518448176
4423.991373061106,-5393.7888614879685,-11074.596473526535,19748.63794429755
4554.749078124652,-5238.265423567942,-11093.081366191074,19664.014239789754
4787.430737904399,-5293.921267261657,-11095.62946505898,19917.684187613035
4772.499772608254,-5484.916923632255,-11067.510970534202,20087.468038495543
4541.382734940378,-5479.999539852088,-11047.506159246705,19910.397518920603
4460.380013034345,-5357.042593603444,-11067.980357167764,19758.115083946595
4602.268886836635,-5185.828231075791,-11085.347662609538,19667.27759448023
4848.182779333924,-5221.568670459827,-11087.96281671081,19919.718196358463
4817.315020241144,-5424.276640925007,-11074.060031659608,20082.26008203746
4561.365194483423,-5460.8217431094345,-11055.32926980606,19904.92134152905
4471.421774795267,-5348.839503388346,-11064.694650732834,19760.260851414307
4612.573041030531,-5182.207248474032,-11088.074575433086,19673.580786416627
4844.382982776521,-5236.030249122411,-11099.00457847173,19933.218650009472
4800.171232243923,-5443.45443766766,-11082.374880596984,20084.20468380507
4525.825920799484,-5486.034510855021,-11067.846246701032,19891.353832644683
4432.842663865407,-5373.739346711558,-11081.816086985598,19740.703075015917
4585.460375006244,-5203.731978384492,-11096.724700537288,19662.58372814461
4818.879642353016,-5244.747429459981,-11097.507011593225,19925.440242939025
4785.642598347974,-5423.829606035902,-11069.94731067983,20086.12693382823
4530.788008068563,-5460.84409485389,-11053.988165138742,19901.85915253868
4439.950518602195,-5369.850143176334,-11076.786944483156,19746.71569427439
4569.389470742878,-5230.46466475304,-11097.216438915306,19667.7916846027
4805.200374746368,-5273.692938529603,-11103.921962251898,19943.433397225548
4778.870019778016,-5442.292146955985,-11078.396270083937,20098.778021189933
4516.661705572808,-5473.852810126879,-11067.108639134009,19910.285760198327
4438.654117423787,-5352.795762156936,-11079.938540451354,19764.351220649627
4602.827680448017,-5160.682518563571,-11086.28643587666,19696.580731461137
4849.076849112135,-5217.277135524409,-11098.19991567134,19962.298269545827
4799.3442176990775,-5433.9325945297,-11085.235903887262,20096.006404877477
4543.036764030071,-5463.481600699616,-11065.789886211143,19912.006844521387
4471.310016072991,-5330.19814851262,-11075.088211904553,19771.6155375976
4615.322305598535,-5162.962396498013,-11096.5682383261,19692.46801048136
4849.792104934705,-5224.69791468357,-11103.743148296257,19965.271051558386
4799.031293276703,-5423.1367019577865,-11080.452630573824,20101.99667239149
4536.979441282683,-5456.552559918471,-11059.129066363465,19909.726966586943
4451.327556529946,-5351.097029578332,-11076.541075294146,19761.043162470243
4589.841316919484,-5201.295638238864,-11097.372901126491,19678.67698415244
4834.43645649391,-5253.710478986559,-11100.636255816968,19958.252603799418
4789.822374561117,-5431.339792172885,-11071.690746747345,20098.576855489835
4526.742342322153,-5448.662394125748,-11055.932766906351,19907.491792141413
4457.496637999611,-5324.096122276321,-11068.963833923795,19763.881834016065
4614.316477098046,-5161.241312174954,-11087.180505654873,19686.433039478427
4834.43645649391,-5247.988432406,-11094.601284814034,19957.514996232392
4767.805906272639,-5433.284393940496,-11077.05516541662,20082.05891633736
4515.052379972027,-5433.619670107326,-11058.27970007416,19893.253730923385
4462.458725268689,-5296.71523531857,-11067.265101345194,19762.831302026665
4622.050180679582,-5138.196663641532,-11087.851057988531,19687.93060635693
4846.439343266409,-5218.953516358557,-11095.920037736898,19966.27688005887
4769.169362684413,-5427.160015959742,-11078.664491017402,20098.800372934387
4515.097083460937,-5470.075365313932,-11062.817104198588,19912.47623115495
4466.660853226287,-5344.1232853082765,-11073.590645026046,19779.25983420132
4641.764419289162,-5144.633966044661,-11085.347662609538,19721.65938873999
4881.799802994705,-5192.377292201197,-11085.548828309637,20006.442964845057
4808.6201916480295,-5389.698492252647,-11070.349642080027,20117.777003976946
4537.158255238325,-5427.964678760133,-11052.647060471423,19916.700710857
4470.706518972697,-5314.551927393905,-11072.696575247834,19776.734087077868
4635.327116886034,-5154.915768494102,-11092.187296412862,19721.592333506625
4863.538427774719,-5231.22462406452,-11093.14842142444,20013.751985281942
4785.732005325795,-5414.106597197842,-11068.896778690432,20131.52332681696
4521.84731028644,-5422.242632179575,-11059.129066363465,19928.770652862862
4466.035004381538,-5313.7249128490585,-11077.949235194832,19780.95856677992
4637.58464307602,-5160.280187163376,-11090.309749878616,19725.52624053076
4859.448058539398,-5235.784379933403,-11089.594494056046,20005.19126715556
4767.1800574278905,-5431.116274728332,-11068.449743801326,20104.924750915143
4497.5733158079765,-5459.301824486473,-11055.105752361507,19900.383937404626
4447.460704739178,-5325.10195077681,-11070.014365913195,19757.958621735408
4630.365029616956,-5144.20928290001,-11082.687805019355,19704.359138531585
4868.500515043797,-5212.672676166615,-11083.514819564203,20000.028014186384
4777.193638943868,-5409.345675628862,-11064.09115363254,20097.615730478257
4513.130129948871,-5430.401018905762,-11054.703420961312,19902.574408361248
4467.867847426874,-5293.988322495023,-11066.326328078072,19769.33565966316
4632.577852318032,-5119.287087832343,-11082.464287574803,19709.298874056207
4858.062250383169,-5212.1138825552325,-11080.85496197402,19998.552799052337
4775.740775554273,-5403.869498237312,-11057.09505761803,20103.673053225644
4516.639353828354,-5414.64303906477,-11040.130083576452,19905.122507229156
4475.132164374848,-5283.415947367662,-11050.18836858134,19773.604842854125
4668.295939957612,-5104.847860914214,-11064.739354221743,19726.062682397685
4898.697721802917,-5194.254838735443,-11074.95410143782,20012.38852887017
4794.09155775208,-5404.495347082061,-11052.065915115583,20093.21243682056
4533.783141825574,-5421.795597290468,-11032.195214294818,19899.6463298376
4485.615132524387,-5280.174944421643,-11042.007630110696,19771.369668408595
4668.117126001969,-5114.615573241184,-11061.252482086717,19728.96840917688
4896.037864212735,-5189.292751466364,-11063.62176699898,20028.97352325601
4800.238287477289,-5365.625663474281,-11041.292374288128,20116.145326631704
4540.019278528604,-5373.515829267005,-11030.161205549384,19914.979626533943
4502.848327499429,-5241.104095113766,-11046.477979001758,19780.28801444626
4680.20941975229,-5102.500927746407,-11065.655775744412,19732.678798756457
4894.786166523239,-5222.753312915959,-11068.47209554578,20016.85887776123
4784.748528569762,-5406.015265705021,-11044.511025489692,20098.95683514557
4511.7219700481855,-5410.150338429254,-11040.308897532092,19903.244960694905
4468.247827082614,-5280.845496755302,-11051.66358371539,19776.667031844503
4665.97135853426,-5118.594183754228,-11060.134894863952,19740.457205826904
4891.992198466325,-5200.848603349758,-11064.29231933264,20042.697494351567
4786.447261148365,-5367.525561752983,-11048.623746469468,20118.55931503288
4537.180606982781,-5357.936663381656,-11033.84924338451,19922.802737093298
4503.295362388535,-5220.920469870624,-11048.333173791549,19790.7709825958
4698.023760083171,-5069.129773274633,-11060.514874519691,19765.60291833913
4933.387629197554,-5160.771925541392,-11053.988165138742,20070.815988876344
4836.537520472708,-5343.8327126303575,-11029.04361832662,20149.82940552585
4570.775278899107,-5361.825866916879,-11018.158318776885,19947.121435060675
4518.159272451315,-5245.663850982649,-11044.309859789591,19795.8224768427
4685.909114588394,-5115.263773830387,-11079.759726495711,19749.040275697746
4896.529602590752,-5232.029286864911,-11073.925921192877,20059.617764904237
4794.76211008574,-5388.536201540971,-11027.478996214748,20145.69433280162
4540.4216099288005,-5364.999814629533,-11018.873574599456,19949.58012695076
4502.1554234213145,-5234.800903177369,-11039.146606820415,19814.64264567407
4693.64281816993,-5085.334788004731,-11060.224301841772,19782.634947614068
4922.479977903364,-5178.608617616727,-11054.077572116565,20090.93255888612
4801.177060744412,-5366.475029763584,-11024.729731646745,20154.255050928004
4541.583900640476,-5373.381718800273,-11017.152490276396,19946.205013538005
4519.32156316299,-5223.17799606061,-11033.782188151145,19816.92252360851
4712.440635256843,-5075.9917588224125,-11056.04452562863,19785.94300579345
4898.898887503015,-5222.306278026853,-11071.087249647053,20062.21056726105
4732.2666325887,-5441.956870789155,-11070.28258684666,20086.59632046179
4479.714271988186,-5433.351449173862,-11068.405040312417,19880.15560867257
4467.689033471231,-5282.119546189255,-11086.19702889884,19753.10829318861
4663.490314899721,-5120.91876517758,-11106.514764608712,19727.940228931933
4858.665747483462,-5242.7581242034585,-11114.449633890348,20017.73059579499
4714.944030635837,-5442.001574278066,-11099.496316849749,20062.4340847056
4464.068050869471,-5439.02879226551,-11092.075537690584,19859.815521218243
4453.003937364094,-5291.306113160385,-11103.832555274075,19729.23663011034
4657.500047385699,-5149.461942847007,-11121.691599093869,19703.37566177555
4851.7590584467725,-5279.705557788081,-11122.228040960794,20002.352595609736
4693.911039103394,-5467.124935045831,-11103.989017485264,20053.985125301497
4437.1789022897365,-5458.184237263708,-11097.395252870949,19858.295602595284
4432.552091187488,-5304.426587155651,-11109.8228227881,19731.672970255968
4643.597262334498,-5152.680594048571,-11126.117244496018,19721.637036995537
4844.5394449877085,-5281.6725113001485,-11127.570107885613,20028.59354360027
4697.174393793869,-5464.040394310999,-11108.10173846504,20065.29510799588
4450.657004196287,-5457.424277952227,-11099.920999994398,19861.983640430408
4455.328518787446,-5296.849345785302,-11100.18922092786,19733.81873772368
4665.457268411788,-5136.877910718669,-11117.44476764736,19729.080167899152
4853.368384047554,-5271.413060595162,-11121.021046760208,20033.756796569443
4697.308504260601,-5442.716830100636,-11095.897685992442,20082.68476518211
4462.011690379583,-5396.694588267158,-11083.04543293064,19895.80182979129
4472.651120740309,-5249.7989237068805,-11095.025967958683,19764.55238634973
4684.813879110084,-5126.35023908022,-11117.288305436172,19751.968354221382
4871.942683689915,-5279.012653709967,-11120.976343271295,20051.6828956226
4700.527155462165,-5460.12883903132,-11093.729566780275,20084.69642218309
4437.245957523102,-5441.107504499853,-11082.933674208363,19879.37329761664
4446.320765771958,-5278.56561882086,-11093.550752824636,19749.35320012012
4661.411602665377,-5126.283183846854,-11109.73341581028,19747.6097640526
4866.220637109356,-5242.13227535871,-11105.710101808325,20060.131855026702
4716.799225425628,-5410.105634940343,-11077.23397937226,20080.047259336385
4457.809562421985,-5411.178518674197,-11076.630482271969,19871.058448679265
4443.616204692866,-5278.610322309772,-11102.938485495864,19733.081130156654
4647.084134469525,-5152.166503926099,-11122.63037236099,19723.693397485426
4839.867930396549,-5283.19242992311,-11115.67897983539,20038.02597976041
4680.634102896941,-5445.801370835468,-11090.130935922973,20058.991916059484
4422.069123037949,-5430.602184605859,-11088.029871944174,19855.12165488263
4417.3305532134245,-5302.102005732299,-11102.558505840125,19720.742967217324
4644.714849557263,-5170.740803568459,-11109.599305343543,19727.44849055392
4850.462657268365,-5284.555886334883,-11111.096872222051,20040.149395483662
4694.626294925964,-5411.916126241223,-11085.14649690944,20061.763532371944
4456.960196132683,-5377.248570591041,-11073.992976426242,19873.003050446878
4461.721117701664,-5237.304298556363,-11078.61978752849,19752.013057710297
4683.942161076327,-5099.81871841177,-11089.683901033868,19760.238499669853
4883.140907662023,-5247.876673683724,-11094.24365690275,20070.10073305377
4716.843928914539,-5429.9316322722,-11075.199970626829,20087.35627977327
4472.31584457348,-5388.983236430077,-11062.928862920864,19890.41505937756
4466.571446248466,-5230.0176298639335,-11078.083345661564,19752.013057710297
4677.750727862207,-5095.683645687538,-11090.466212089805,19756.930441490465
4878.715262259872,-5224.899080383669,-11089.10275567803,20077.588567446302
4718.699123704329,-5388.536201540971,-11067.9133019344,20088.004480362477
4462.145800846315,-5380.154297370231,-11062.14655186493,19883.798943018788
4457.921321144262,-5233.303336298864,-11080.452630573824,19752.191871665946
4680.634102896941,-5097.471785243963,-11091.852020246031,19770.229729441373
4873.596712779608,-5245.820313193835,-11091.516744079205,20080.78486690341
4704.326952019567,-5421.21445193463,-11072.651871758922,20081.097791325785
4458.815390922474,-5403.131890670287,-11065.164037366396,19875.305280125773
4453.942710631217,-5261.622996523738,-11083.783040497668,19747.34154311914
4664.764364333673,-5136.408524085107,-11104.19018318536,19774.163636465502
4857.414049793965,-5276.621017053249,-11098.445784860349,20086.30574778387
4688.837193112039,-5432.412675906739,-11069.52262753518,20082.237730293004
4454.16622807577,-5386.301027095441,-11057.85501692951,19887.91166399857
4462.972815391161,-5225.480225739507,-11071.9142641919,19759.590299080646
4689.485393701243,-5096.1530323211,-11086.129973665473,19777.359935922617
4895.993160723825,-5226.910737384646,-11078.105697406016,20090.95491063057
4730.41143779891,-5379.774317714491,-11060.492522775236,20095.201742077083
4494.5111268176,-5348.258358032508,-11050.836569170544,19897.254693180883
4510.157347936314,-5191.6843881230825,-11067.935653678853,19765.379400894573
4717.089798103547,-5078.428098968041,-11088.722776022289,19785.25010171534
4875.384852336032,-5243.495731770484,-11093.327235380082,20087.06570709535
4674.5544284050975,-5425.148358958764,-11081.503162563224,20061.87529109422
4437.491826712111,-5399.041521434966,-11076.675185760878,19871.773704501837
4463.866885169374,-5240.388839291196,-11086.57700855458,19744.72638901787
4689.530097190153,-5115.219070341476,-11104.368997141004,19766.63109858407
4872.881456957038,-5266.562732048361,-11101.91030525092,20074.21345403355
4707.635010198952,-5413.346637886362,-11067.7121362343,20071.084209809807
4492.834745983451,-5355.545026724938,-11044.131045833952,19895.064222224264
4503.720045533186,-5199.462795193529,-11056.513912262191,19771.43672364196
4726.388123796955,-5075.768241377859,-11066.549845522624,19808.40650897104
4915.215660955389,-5218.774702402914,-11053.541130249636,20122.22500112355
4733.004240155726,-5386.569248028904,-11030.407074738392,20104.924750915143
4485.637484268843,-5367.190285586154,-11032.642249183924,19905.61424560717
4500.188469909247,-5200.356864971741,-11046.433275512847,19782.00909876932
4731.3725628104885,-5064.48061042793,-11054.591662239036,19830.73590168189
4902.721035804872,-5218.662943680638,-11047.774380180166,20141.738074033037
4718.8108824266055,-5372.219428088597,-11023.679199657345,20120.66037901168
4503.27301064408,-5317.569412895371,-11005.574286648549,19941.28762975784
4529.044572001048,-5145.952718967524,-11026.204946780796,19811.938084594974
4750.483304319776,-5042.531197372818,-11044.868653400976,19847.6338204901
4923.754027337316,-5211.666847666126,-11043.14756907792,20156.98196375155
4729.025629642681,-5376.645073490748,-11018.94062983282,20124.482527313536
4495.315789617991,-5345.397334742229,-11016.861917598477,19928.23421099594
4520.439150385756,-5177.871010049702,-11035.391513751929,19798.68350013298
4758.105249179036,-5036.831502536715,-11046.053295857108,19853.109997881653
4929.45372217342,-5195.17126025811,-11048.824912169566,20163.866301043785
4729.092684876047,-5366.58678848586,-11031.256441027695,20128.908172715684
4492.544173305532,-5339.474122461573,-11025.199118280309,19932.034007553342
4513.599516582432,-5182.274303707398,-11035.32445851856,19802.88562809058
4745.878844961982,-5063.452430182985,-11043.03581035564,19852.126521125618
4929.073742517679,-5202.949667328557,-11037.291412030629,20161.89934753172
4742.41432457141,-5360.149486082732,-11019.097092044009,20134.36199836278
4516.259374172613,-5326.979497311056,-11015.833737353532,19939.432434968046
4532.285574947068,-5189.650379377649,-11037.559632964092,19800.24812224485
4747.599929285041,-5105.63017197015,-11062.705345476312,19853.06529439274
4921.720018591884,-5239.003031134967,-11051.14949359292,20169.99067902454
4735.284118090167,-5365.804477429924,-11024.70737990229,20121.68855925662
4518.673362573786,-5321.324505963863,-11018.672408899356,19922.400405693104
4554.726726380197,-5149.193721913543,-11033.290449773129,19798.16941001051
4781.529877368197,-5037.859682781659,-11051.529473248658,19859.502596795868
4948.36329798261,-5199.351036471252,-11044.823949912066,20162.592251609836
4738.972155925293,-5362.161143083709,-11027.814272381578,20116.994692921005
4504.390597866845,-5327.806511855903,-11026.361408991985,19928.03304529584
4534.096066247948,-5160.391945885653,-11039.95126962081,19798.68350013298
4765.280159149189,-5060.47964817043,-11051.641231970934,19854.965192671443
4931.018344285291,-5222.954478616057,-11044.153397578406,20157.33959166284
4721.806016183617,-5369.425460031684,-11026.584926436535,20100.655567724178
4483.6034755234095,-5329.639354901237,-11030.742350905222,19908.0505857528
4500.501394331622,-5168.863257034213,-11048.444932513828,19781.24913945784
4738.770990225195,-5068.973311063446,-11062.839455943044,19853.914660682043
4911.326457420166,-5233.929185143613,-11051.7082872043,20162.636955098744
4722.610678984008,-5372.308835066418,-11021.04169381162,20107.8975329277
4502.669513543787,-5322.352686208807,-11025.266173513672,19911.89508579911
4523.255470187124,-5175.032338503878,-11050.23307207025,19779.706869090423
4743.107228649525,-5086.631189183139,-11068.941482179342,19853.28881183729
4908.7560068078055,-5227.737751929492,-11047.99789762472,20172.98581278155
4724.59998424053,-5334.400276470217,-11013.620914652458,20129.73518726053
4511.364342136901,-5287.752185791992,-11018.918278088366,19938.89599310112
4531.547967380044,-5142.823474743781,-11043.28167954465,19802.39388971256
4771.717461552317,-5034.462217624452,-11055.66454597289,19883.6424808076
4929.967812295891,-5190.142117755666,-11049.070781358574,20192.9682723246
4703.544640963632,-5347.811323143402,-11033.066932328577,20119.34162608881
4483.625827267865,-5310.282744202941,-11026.204946780796,19927.80952785129
4536.331240693479,-5131.714657749493,-11037.984316108745,19806.10427929214
4779.294702922667,-5035.266880424843,-11052.28943256014,19880.535588328315
4931.934765807959,-5205.475414452007,-11041.024153354663,20171.60000462532
4715.480472502765,-5351.141733067243,-11023.589792679524,20092.11720134225
4498.601496052921,-5308.8522325578015,-11023.299220001603,19898.372280403648
4528.5081301341215,-5162.671823820094,-11043.371086522471,19769.24625268534
4756.853551489538,-5084.597180437706,-11052.244729071228,19866.72221025493
4891.053425199202,-5264.014633180455,-11048.154359835908,20168.73898133504
4668.787678335629,-5373.3593670558175,-11024.66267641338,20095.514666499457
4472.31584457348,-5294.18948819512,-11017.823042610054,19917.214800979476
4523.166063209304,-5141.236500887454,-11042.700534188813,19788.60286338364
4752.025574687192,-5064.435906939019,-11063.733525721256,19878.50157958288
4893.646227556018,-5223.22269954952,-11048.847263914022,20177.411458183706
4688.054882056103,-5351.924044123179,-11022.89688860141,20105.751765459987
4495.896934973828,-5312.808491326391,-11022.360446734485,19922.69097837102
4561.834581116985,-5139.180140397566,-11031.077627072053,19807.668901404013
4818.454959208365,-5022.6381448075945,-11040.219490554273,19899.109887970677
4960.477943477385,-5194.701873624548,-11039.012496353684,20195.96340608161
4735.932318679371,-5329.348782223318,-11020.639362411424,20121.487393556523
4527.368191166901,-5262.315900601852,-11021.399321722904,19931.855193597698
4578.017244102627,-5074.538895432817,-11038.252537042206,19818.93418060949
4814.409293461954,-5003.7956242317705,-11051.61888022648,19919.04764402481
4937.947385066436,-5199.440443449073,-11044.980412123254,20206.28991201996
4712.507690490209,-5346.403163242718,-11033.04458058412,20124.1025476578
4490.085481415449,-5307.444072657117,-11042.18644406634,19939.74535939042
4545.227234986691,-5138.487236319451,-11054.211682583296,19821.83990738868
4784.7261768253065,-5063.899465072092,-11066.393383311435,19922.400405693104
4915.416826655487,-5234.84560666628,-11061.028964642164,20214.02361560149
4684.54565817662,-5360.77533492748,-11033.17869105085,20130.875126227755
4481.681225500253,-5311.601497125805,-11026.80844388109,19945.869737371177
4548.602348399442,-5128.361896081197,-11034.18451955134,19824.946799867965
4802.026427033714,-5027.130845443112,-11044.04163885613,19935.94556283302
4928.067914017191,-5202.860260350735,-11046.56738597958,20208.9721213546
4693.911039103394,-5338.289480005441,-11028.149548548408,20113.485469041523
4500.814318753996,-5276.911589731168,-11023.299220001603,19942.42756872506
4568.003662586649,-5112.156881351099,-11039.504234731705,19827.204326057952
4793.264543207234,-5057.730383602427,-11062.95121466532,19929.37414996316
4912.667562087484,-5230.576423475316,-11045.986240623744,20215.677644691183
4704.6622281863965,-5332.165102024687,-11015.520812931158,20124.437823824625
4512.101949703926,-5263.545246546894,-11017.152490276396,19938.963048334488
4563.153334039847,-5100.243401556421,-11034.810368396087,19816.564895697225
4818.767883630739,-5031.154159445066,-11045.628612712457,19939.49949020141
4958.332176009676,-5208.98463833149,-11039.727752176255,20234.40840654473
4714.564050980098,-5333.282689247452,-11011.341036718017,20131.0539401834
4517.354609650924,-5267.903836715679,-11011.765719862668,19952.128225818666
4573.748060911663,-5096.845936399214,-11033.066932328577,19816.810764886235
4822.09829355458,-5037.032668236812,-11047.796731924622,19931.47521394196
4938.975565311381,-5232.185749076099,-11041.42648475486,20213.06249058992
4699.633085683952,-5359.814209915902,-11015.65492339789,20108.59043700581
4501.395464109834,-5308.919287791167,-11024.305048502094,19928.14480401812
4563.3768514844005,-5135.961489196002,-11042.409961510892,19809.322930493705
4822.679438910418,-5043.38056366212,-11042.879348144454,19940.147690790614
4941.166036268,-5217.970039602523,-11034.653906184902,20219.20922031513
4709.914888133394,-5335.942546837634,-11011.743368118212,20114.290131841917
4507.698656046231,-5291.7084445605815,-11020.862879855977,19933.911554087583
4557.18541827028,-5143.941061966546,-11047.819083669076,19803.198552512957
4798.964238043337,-5076.930532089536,-11054.479903516758,19941.37703673566
4909.359503908098,-5232.096342098277,-11043.304031289104,20223.85838316183
4675.560256905586,-5329.035857800944,-11021.734597889734,20108.59043700581
4501.596629809932,-5256.280929598919,-11014.716150130767,19944.46157747049
4580.878267392906,-5064.793534850304,-11033.066932328577,19829.506555736847
4836.895148383993,-5004.712045754439,-11046.835606913044,19955.0116008534
4952.654832918029,-5199.619257404716,-11027.747217148211,20225.28889480697
4712.373580023477,-5323.425569942662,-11004.970789548252,20106.39996604919
4522.249641686635,-5261.690051757104,-11009.03880703912,19937.733702389443
4584.588656972487,-5093.314360775275,-11029.490653215726,19823.44923298946
4816.108026040558,-5053.818828322748,-11051.909452904398,19950.04951358432
4905.9396870064365,-5258.381993577718,-11044.645135956423,20214.56005746842
4659.802277064595,-5364.351614040329,-11012.928010574344,20097.436916522613
4473.388728307335,-5296.201145196098,-11016.101958286996,19921.595742892718
4551.128095522892,-5125.344410579731,-11040.107731831997,19795.91188382052
4813.224651005823,-5049.147313731589,-11049.85309241451,19939.49949020141
4905.604410839607,-5218.282964024897,-11042.14174057743,20213.867153390307
4648.715811814763,-5323.380866453751,-11025.51204270268,20089.770268174445
4484.274027857069,-5247.273176583431,-11023.7015514018,19921.863963826177
4577.301988280057,-5079.098651301701,-11041.962926621787,19801.81274435672
4829.742590158295,-5038.351421159676,-11050.858920915,19947.277897271862
4908.130157963056,-5243.0486968813775,-11044.265156300684,20210.827316144387
4663.333852688534,-5331.360439224296,-11019.99116182222,20091.71486994205
4494.958161706706,-5243.071048625833,-11016.571344920558,19927.98834180693
4572.362252755434,-5080.193886780011,-11038.498406231214,19806.39485197006
4814.632810906507,-5051.360136432664,-11051.507121504204,19953.04464734133
4892.081605444147,-5257.08559239931,-11038.006667853197,20212.23547604507
4649.073439726048,-5350.493532478039,-11023.142757790418,20083.087096582305
4480.429527810756,-5273.827048996335,-11034.653906184902,19913.45970791098
4570.283540521091,-5084.507773459884,-11048.7578569362,19794.459020430928
4832.402447748476,-5016.826691249215,-11049.8083889256,19953.245813041427
4917.696704589928,-5208.783472631392,-11039.258365542695,20213.75539466803
4655.801314807095,-5319.514014662983,-11026.875499114454,20079.488465725
4499.6296762978645,-5243.741600959493,-11024.595621180011,19921.50633591489
4600.950133913771,-5072.326072731742,-11039.794807409622,19805.567837425213
4849.05449736768,-5047.292118941798,-11051.305955804106,19964.220519568986
4911.706437075905,-5260.728926745525,-11038.09607483102,20221.80202267194
4664.451439911299,-5353.041631345944,-11018.448891454804,20095.201742077083
4520.170929452292,-5256.973833677034,-11021.46637695627,19939.90182160161
4622.094884168492,-5059.898502814592,-11034.698609673813,19815.290846263277
4861.750288218294,-5023.219290163433,-11048.623746469468,19967.6626882151
4914.500405132819,-5217.053618079855,-11036.553804463603,20231.14505185426
4648.402887392389,-5316.0718460168655,-11017.644228654412,20091.156076330677
4496.969818707683,-5242.489903269995,-11022.56161243458,19923.51799291587
4598.580849001509,-5070.023843052846,-11039.23601379824,19809.21117177143
4845.835846166116,-5040.541892116296,-11046.477979001758,19978.168008109096
4895.523774090263,-5249.173074862132,-11034.765664907178,20225.266543062517
4630.476788339232,-5348.191302799142,-11017.934801332332,20078.25911977996
4478.484926043145,-5274.542304818905,-11021.958115334286,19915.918399801067
4593.372892543423,-5088.352273506198,-11030.89881311641,19801.097488534157
4846.953433388881,-5058.065659769257,-11039.66069694289,19980.023202898887
4876.211866880878,-5269.535514060916,-11040.130083576452,20230.85447917634
4587.606142473954,-5387.776242229491,-11030.787054394134,20087.758611173467
4445.560806460477,-5295.508241117984,-11025.780263636145,19935.587934921736
4568.897732364861,-5074.985930321924,-11028.931859604343,19827.74076792488
4840.024392607736,-5034.529272857818,-11039.213662053784,20001.79380199836
4910.8123672976935,-5236.27611831142,-11027.143720047918,20243.885546193786
4659.019966008659,-5310.685075603137,-11007.831812838533,20108.50103002799
4493.639408783843,-5241.528778258416,-11021.779301378643,19934.917382588075
4591.316532053535,-5074.695357644005,-11046.477979001758,19820.58820969918
4853.726011958839,-5024.426284364019,-11044.80159816761,20010.19805791355
4896.909582246492,-5229.838815908292,-11026.27200201416,20244.354932827348
4638.612823320964,-5328.38765721174,-11005.08254827053,20088.295053040398
4490.197240137725,-5248.167246361643,-11016.213717009274,19917.907705057587
4588.276694807612,-5074.33772973272,-11041.89587138842,19804.629064158093
4838.7279914293285,-5056.165761490555,-11055.61984248398,19985.655842501623
4878.402337837499,-5254.984528420512,-11037.313763775082,20223.05372036144
4615.232898620713,-5337.596575927327,-11011.586905907025,20079.421410491635
4465.990300892628,-5256.258577854464,-11021.689894400824,19913.83968756672
4569.836505631984,-5090.38628225163,-11047.081476102052,19790.033375028772
4815.593935918086,-5069.040366296812,-11055.79865643962,19972.065981872795
4841.454904252876,-5276.933941475623,-11046.14270283493,20206.17815329768
4589.57309598602,-5359.925968638178,-11023.679199657345,20060.802407360366
4460.938806645729,-5265.713365759059,-11022.338094990027,19905.860114796174
4591.405939031356,-5068.682738385527,-11035.436217240836,19805.701947891943
4854.396564292499,-5052.835351566715,-11042.007630110696,20009.12517417969
4885.487840829831,-5255.208045865064,-11028.909507859888,20238.074092635405
4633.58368081852,-5321.0562850304,-11007.161260504874,20085.07640183883
4496.209859396203,-5242.735772459004,-11021.33226648954,19917.17009749056
4601.352465313968,-5066.782840106826,-11039.459531242792,19802.05861354573
4849.38977353451,-5062.0219185378455,-11053.608185483,19994.641243772658
4884.057329184691,-5265.221627381043,-11029.37889449345,20224.61834247331
4639.573948332542,-5313.657857615693,-10998.041748767107,20079.8907971252
4508.413911868801,-5203.1284812842,-11005.149603503896,19923.51799291587
4619.233860878213,-5014.524461570319,-11028.216603781771,19805.97016882541
4857.995195149803,-5018.838348250192,-11039.727752176255,20001.10089792024
4879.743442504817,-5231.492844997984,-11031.345848005516,20225.065377362414
4626.073494681536,-5305.387712167229,-11016.32547573155,20065.988012074
4498.869716986384,-5219.311144269842,-11027.188423536829,19904.206085706483
4615.881099209917,-5034.506921113363,-11040.018324854174,19799.08583153317
4857.346994560599,-5034.752790302371,-11045.919185390376,19999.98331069748
4863.538427774719,-5257.063240654855,-11037.47022598627,20223.65721746173
4611.835433463506,-5329.237023501042,-11013.620914652458,20063.954003328563
4489.4596325707,-5238.9359759016015,-11017.84539435451,19899.243998437407
4605.398131060378,-5058.959729547469,-11036.106769574497,19788.401697683537
4848.830979923127,-5044.8781305406255,-11042.812292911089,19991.042612915357
4858.755154461283,-5250.51417952945,-11022.874536856954,20214.58240921288
4602.514756025643,-5320.966878052578,-11002.13211800243,20059.77422711542
4479.691920243731,-5226.195481562077,-11013.196231507807,19894.684242568524
4588.410805274344,-5066.067584284257,-11041.650002199412,19781.807933069224
4801.445281677876,-5103.842032413725,-11053.51877850518,19997.72578450749
4791.096423995069,-5305.298305189408,-11029.781225893645,20227.367607041317
4564.360328240434,-5327.515939177984,-11001.50626915768,20070.50306445397
4494.891106473339,-5182.631931618683,-10995.851277810489,19922.19923999301
4625.000610947682,-4999.459385807441,-11020.684065900334,19810.06053806073
4848.540407245208,-5020.85000525117,-11034.296278273616,20018.11057545073
4848.562758989663,-5208.93993484258,-11012.190403007318,20232.977894899595
4610.002590418171,-5255.923301687634,-10994.532524887623,20072.96175634405
4514.761807294108,-5166.002233743934,-11003.026187780642,19916.61130387918
4652.180332205336,-4996.08427239469,-11025.154414791396,19805.12080253611
4886.985407708336,-5027.443769865486,-11031.65877242789,20021.3739301412
4877.888247715026,-5247.675507983627,-11016.7501588762,20220.70678719363
4620.217337634246,-5313.926078549156,-11000.7463098462,20043.54686064087
4514.582993338465,-5213.633801178194,-11009.150565761396,19892.80669603428
4653.700250828297,-5028.561357088252,-11027.970734592764,19801.544523423257
4883.8114599956825,-5052.47772365543,-11037.17965330835,20018.825831273298
4862.53259927423,-5260.7736302344365,-11015.409054208882,20209.24034228806
4604.2358403487015,-5329.974631068067,-11003.36146394747,20042.317514695827
4492.231248883159,-5257.622034266238,-11013.866783841466,19892.87375126764
4628.2416138937015,-5066.112287773167,-11027.814272381578,19795.889532076068
4881.352768105598,-5052.969462033447,-11027.61310668148,20017.596485328257
4881.196305894412,-5257.733792988514,-11007.764757605168,20223.65721746173
4632.957831973771,-5281.069014199855,-10989.682196340824,20065.96566032954
4523.27782193158,-5170.204361701532,-11009.530545417136,19909.257579953384
4653.543788617109,-5007.908345211547,-11035.458568985292,19803.10914553513
4898.943590991926,-5037.6585170815615,-11046.925013890865,20033.53327912489
4888.170050164467,-5248.547226017383,-11036.46439748578,20227.881697163783
4615.031732920616,-5326.86773858878,-11020.572307178058,20047.39136068718
4496.522783818577,-5249.0389643954,-11034.60920269599,19891.30912915577
4620.48555856771,-5068.168648263055,-11052.512950004691,19783.506665647827
4875.183686635935,-5051.024860265835,-11050.501293003714,20022.93855225308
4877.888247715026,-5232.476321754018,-11036.218528296771,20213.867153390307
4615.322305598535,-5290.970836993556,-11023.299220001603,20038.24949720496
4505.642295556342,-5201.36269347223,-11028.820100882069,19884.02246046334
4634.097770940992,-5033.478740868419,-11047.059124357596,19787.90995930552
4857.123477116046,-5064.078279027734,-11040.66652544338,20036.193136715072
4850.306195057177,-5246.8037899498695,-11020.639362411424,20232.083825121383
4606.828642705517,-5274.810525752369,-11002.579152891536,20054.07453227932
4505.597592067432,-5172.350129169242,-11020.907583344888,19897.16528620306
4635.72944828623,-5016.156138915556,-11035.7044381743,19798.70585187744
4857.414049793965,-5060.077316770234,-11042.678182444355,20039.32238093881
4833.207110548868,-5266.987415193012,-11035.27975502965,20223.09842385035
4571.490534721677,-5327.582994411349,-11016.124310031451,20045.692628108576
4460.134143845337,-5244.166284104143,-11027.166071792371,19887.88931225411
4595.205735588758,-5059.362060947664,-11039.839510898531,19792.96145355242
4847.2440060668005,-5061.172552248544,-11037.112598074986,20051.79465434488
4840.136151330013,-5236.700801456071,-11023.746254890711,20233.71550246662
4585.125098839414,-5277.336272875818,-11016.41488270937,20050.6323636332
4500.36728386489,-5161.509533108418,-11022.025170567653,19907.782364819333
4635.908262241872,-4985.064862378224,-11042.477016744258,19815.983750341387
4863.605483008085,-5030.550662344774,-11056.245691328728,20046.989029286982
4846.081715355124,-5225.770798417425,-11040.912394632389,20218.449261003647
4597.463261778744,-5258.404345322174,-11016.079606542542,20046.094959508773
4507.698656046231,-5144.946890467035,-11020.013513566675,19896.584140847222
4645.564215846564,-4974.917170395514,-11041.247670799215,19808.674729904506
4874.647244769007,-5021.922888985025,-11053.09409536053,20053.06870377883
4852.787238691716,-5224.295583283375,-11026.94255434782,20228.082862863885
4599.34080831299,-5277.403328109184,-11014.403225708393,20044.61974437472
4507.765711279597,-5177.043995504856,-11024.193289779818,19894.86305652417
4646.279471669134,-5010.344685357176,-11029.758874149187,19804.763174624823
4874.289616857722,-5058.490342913908,-11032.7540079062,20055.572099157824
4843.913596142959,-5251.8552841967685,-11013.687969885825,20226.451185518647
4595.920991411328,-5266.808601237369,-10993.370234175947,20049.648886877167
4501.484871087655,-5148.8360940022585,-11013.710321630278,19904.943693273508
4622.921898713338,-4994.072615393712,-11042.365258021982,19807.95947408193
4827.149787801479,-5082.652578670094,-11053.71994420528,20059.036619548395
4783.653293091452,-5286.209915424575,-11037.269060286171,20219.969179626605
4546.724801865197,-5286.433432869128,-11011.452795440293,20045.62557287521
4467.64432998232,-5169.399698901141,-11022.293391501116,19898.104059470184
4611.231936363213,-4976.750013440849,-11038.163130064384,19810.79814562776
4861.146791118002,-4990.809260703238,-11033.581022451046,20080.20372154757
4854.48597127032,-5171.098431479744,-11008.591772150014,20248.91468869623
4603.252363592668,-5215.466644223528,-10998.354673189482,20061.91999458313
4511.789025281551,-5118.415369798586,-11015.945496075808,19904.071975239756
4637.96462273176,-4959.069783576701,-11035.391513751929,19813.659168918035
4853.949529403392,-5022.034647707302,-11038.677220186855,20080.02490759193
4819.840767364593,-5216.807748890848,-11030.742350905222,20238.141147868773
4568.361290497934,-5256.146819132187,-11011.36338846247,20048.9336310546
4487.582086036455,-5153.015870215401,-11019.655885655391,19896.8970652696
4617.959811444261,-4999.280571851798,-11042.074685344063,19813.7262241514
4824.735799400306,-5072.035500053823,-11051.685935459844,20070.190140031595
4775.584313343085,-5272.575351306839,-11033.961002106787,20217.398729014247
4521.08735097496,-5316.116549505777,-11016.392530964917,20030.8287180458
4447.930091372739,-5213.298525011364,-11030.56353694958,19883.731887785423
4592.590581487487,-5026.61675532064,-11045.762723179188,19812.98861658437
4830.122569814035,-5052.85770331117,-11044.488673745236,20080.896625625686
4806.407368946954,-5213.767911644925,-11023.746254890711,20220.10329009334
4562.460429961733,-5241.394667791685,-11016.012551309175,20032.572154113317
4471.64529223982,-5164.63877733216,-11042.007630110696,19883.396611618595
4620.552613801076,-4996.8665834506255,-11040.66652544338,19824.656227190048
4872.255608112288,-5028.226080921421,-11028.84245262652,20111.74203297401
4839.510302485264,-5206.525946441406,-11012.32451347405,20259.934098712696
4588.008473874149,-5237.147836345177,-11002.08741451352,20070.68187840961
4499.473214086677,-5133.681611261561,-11015.65492339789,19921.01459753688
4631.728486028729,-4972.324368038699,-11029.401246237903,19844.057541377253
4857.302291071688,-5021.833482007204,-11029.222432282262,20117.91111444368
4823.461749966354,-5205.721283641014,-11011.98923730722,20253.317982353925
4572.295197522068,-5236.99137413399,-10996.432423166329,20061.83058760531
4495.807527996008,-5133.838073472747,-11009.619952394958,19914.733757344933
4628.398076104889,-4984.126089111101,-11025.914374102877,19836.904983151555
4833.38592450451,-5066.402860451086,-11029.177728793353,20105.41648929316
4783.809755302639,-5255.699784243082,-11011.385740206926,20228.39578728626
4552.938586823772,-5265.9368832036125,-10991.716205086255,20039.6800088501
4488.118527903382,-5146.802085256825,-11006.691873871312,19894.34896640169
4629.739180772207,-4985.377786800598,-11022.80748162359,19816.788413141778
4844.315927543155,-5062.468953426952,-11032.061103828086,20093.7935821764
4803.479290423309,-5234.7114961995485,-11012.860955340975,20227.0770343634
4561.9686915837165,-5248.524874272928,-10996.343016188504,20038.24949720496
4499.987304209149,-5118.817701198781,-11006.13308025993,19897.27704492534
4668.295939957612,-4924.826911071171,-11014.626743152949,19840.07893086421
4888.460622842386,-4996.777176472804,-11020.080568800042,20113.351358574797
4841.186683319412,-5183.302483952342,-11003.8979058144,20231.52503151
4601.106596124959,-5195.305370724842,-10993.526696387136,20035.142604725672
4530.586842368465,-5090.967427607468,-11004.680216870334,19893.41019313457
4658.975262519749,-4952.341908495654,-11026.249650269709,19817.48131721989
4869.349881333099,-5023.040476207791,-11029.89298461592,20099.716794457054
4818.544366186186,-5202.010894061434,-11005.41782443736,20228.060511119427
4568.09306956447,-5235.404400277663,-10999.584019134523,20031.36515991273
4491.292475616036,-5135.134474651155,-11010.335208217528,19873.71830626945
4623.100712668981,-4989.043472891268,-11018.314780988072,19810.842849116667
4839.890282141004,-5055.338746945709,-11021.399321722904,20104.567123003857
4788.257752449244,-5217.388894246686,-11001.282751713128,20218.91864763721
4531.145635979848,-5237.259595067453,-10995.627760365936,20014.66840680461
4461.139972345826,-5132.675782761072,-11007.720054116257,19868.197425388986
4614.5623462870535,-4978.873429164103,-11024.930897346843,19805.456078702937
4835.263471038756,-5054.422325423041,-11021.46637695627,20095.581721732822
4796.416139175432,-5213.812615133836,-10993.50434464268,20215.498830735545
4583.605180216454,-5197.384082959185,-10977.88047526842,20026.134851710183
4528.150502222837,-5091.0791863297445,-11000.388681934915,19873.874768480637
4652.940291516816,-4969.329234281688,-11022.874536856954,19804.96434032492
4863.538427774719,-5043.76054331786,-11013.643266396914,20101.415527035657
4826.568642445641,-5190.678559622594,-10990.330396930029,20217.778708669983
4599.00553214616,-5211.845661621769,-10991.895019041898,20016.568305083318
4546.143656509359,-5107.44066327103,-11000.098109256996,19872.10898066866
4699.633085683952,-4938.774399611282,-11007.295370971606,19814.7767561408
4897.803652024705,-5028.717819299438,-11013.732673374734,20105.058861381876
4841.030221108225,-5199.440443449073,-10997.259437711173,20225.266543062517
4623.815968491551,-5187.772832843403,-10987.581132362026,20036.21548845953
4570.887037621384,-5067.073412784745,-11002.26622846916,19888.291643654306
4698.135518805447,-4937.187425754956,-11014.626743152949,19827.31608478023
4881.084547172135,-5048.834389309214,-11015.565516420069,20112.814916707863
4807.2120317473455,-5227.156606573654,-11009.061158783576,20223.16547908372
4574.977406856705,-5221.009876848445,-10997.773527833644,20033.73444482499
4535.638336615364,-5080.842087369214,-11007.27301922715,19879.66387029456
4671.0899080145255,-4934.393457698043,-11025.936725847332,19812.765099139822
4851.826113680138,-5043.022935750835,-11030.205909038295,20101.72845145803
4805.71446486884,-5201.74267312797,-11006.110728515474,20215.275313290997
4603.72175022623,-5194.187783502077,-10990.039824252108,20026.648941832656
4550.323432722501,-5083.166668792566,-11008.167089005365,19872.22073939094
4669.793506836118,-4951.31372825071,-11023.366275234972,19804.71847113591
4866.019471409259,-5040.206615949466,-11011.855126840488,20099.381518290225
4808.173156758923,-5199.663960893627,-10997.12532724444,20190.42017345669
4597.507965267654,-5191.036187533879,-10988.050518995586,19995.647072273143
4565.679081163297,-5061.887808071114,-10997.527658644636,19851.54537576978
4702.471757229777,-4933.745257108839,-11009.776414606144,19800.8739710896
4883.386776851032,-5037.703220570472,-11008.345902961006,20108.903361428187
4826.725104656828,-5183.0566147633335,-10986.485896883714,20212.48134523408
4622.541919057599,-5169.667919834605,-10977.813420035056,20024.45847087604
4574.798592901063,-5054.556435889774,-10990.8444870525,19872.824236491237
4702.047074085125,-4921.943536036437,-11006.714225615768,19814.64264567407
4880.659864027484,-5029.813054777748,-11013.106824529985,20111.74203297401
4827.283898268211,-5180.173239728599,-10984.56364686056,20207.80983064292
4611.321343341034,-5174.384137914674,-10978.327510157527,20007.8734764902
4550.61400540042,-5065.62054939515,-11001.305103457584,19852.35003857017
4674.5544284050975,-4951.179617783978,-11011.117519273464,19802.952683323943
4856.00588989328,-5044.453447395975,-11002.51209765817,20111.02677715144
4789.3082844386445,-5183.190725230065,-10991.962074275263,20196.23162701507
4591.562401242542,-5167.589207600261,-10979.534504358116,20008.544028823857
4573.85981963394,-5039.804284549271,-10980.294463669594,19874.07593418073
4717.425074270377,-4913.181652209956,-10990.710376585768,19828.008988858342
4892.528640333252,-5026.125016942623,-11002.13211800243,20120.83919296732
4822.008886576758,-5182.184896729576,-10992.543219631105,20202.24424627355
4597.485613523199,-5197.36173121473,-10988.296388184595,20007.8734764902
4543.550854152543,-5092.733215419437,-11006.066025026565,19854.07112289323
4677.996597051215,-4957.818085887205,-11016.37017922046,19805.09845079165
4850.954395646381,-5078.361043734675,-11015.520812931158,20104.522419514946
4789.37533967201,-5228.542414729884,-10987.93876027331,20181.09949601883
4595.809232689051,-5182.1178414962105,-10977.634606079411,19992.473124560493
4574.642130689876,-5026.370886131631,-10980.875609025432,19857.37918107261
4715.011085869203,-4899.323570647665,-10989.592789363,19818.710663164933
4893.579172322652,-5009.785891745793,-10992.610274864468,20130.49514657201
4813.425816705921,-5178.1839344720765,-10985.345957916494,20197.036289815464
4595.898639666872,-5183.302483952342,-10977.433440379316,20000.74327000896
4551.798647856552,-5059.250302225388,-10999.002873778689,19854.294640337783
4683.383367464944,-4934.304050720221,-11006.311894215572,19823.717453922924
4866.399451064998,-5048.365002675653,-10998.46643191176,20138.921754231666
4807.077921280614,-5181.424937418096,-10976.472315367737,20207.295740520447
4618.608012033465,-5167.455097133529,-10973.32071939954,20008.11934567921
4601.777148458618,-5037.166778703544,-10979.98153924722,19865.98460268791
4736.312298335111,-4888.125346675557,-10994.756042332176,19833.239297060885
4893.668579300473,-5003.125071898112,-10995.895981299398,20138.6535332982
4801.914668311438,-5175.322911181797,-10980.227408436229,20201.14901079524
4610.986067174204,-5160.97309124149,-10968.31392864155,20008.07464219029
4598.67025597933,-5008.355380100654,-10976.695832812293,19864.8893672096
4736.379353568477,-4883.833811740138,-10990.330396930029,19826.04203534628
4894.048558956213,-5017.653705794061,-10988.586960862513,20131.56803030587
4798.4054444319545,-5166.046937232845,-10971.778449032125,20192.11890603529
4605.19696536028,-5146.287995134353,-10966.816361763043,20002.44200258756
4575.1785725568025,-5035.892729269592,-10985.636530594413,19853.69114323749
4711.83713815655,-4927.933803550459,-11004.18847849232,19826.44436674647
4870.981558678336,-5044.788723562804,-10999.98635053472,20138.720588531567
4775.003167987248,-5186.0741002648,-10965.587015818002,20188.96731006709
4573.077508578004,-5180.173239728599,-10967.30810014106,19990.57322628179
4552.04451704556,-5063.541837160807,-10986.955283517276,19847.991448401383
4700.705969417807,-4928.02321052828,-11002.310931958073,19820.275285276806
4875.004872680292,-5031.355325145165,-10999.360501689973,20139.011161209484
4788.548325127164,-5157.665033062105,-10977.299329912585,20188.162647266705
4597.999703645672,-5129.434779815052,-10974.639472322402,19995.937644951064
4579.33599702549,-5009.987057445891,-10992.118536486452,19847.92439316802
4735.909966934916,-4907.191384695934,-11003.719091858757,19832.948724382964
4886.873648986059,-5058.356232447175,-11005.171955248352,20137.200669908605
4788.101290238058,-5179.189762972565,-10981.099126469986,20190.196656012136
4614.852918964973,-5106.188965581532,-10966.74930652968,20011.4721073475
4612.528337541621,-4969.262179048322,-10990.285693441116,19861.84952996368
4748.248129874245,-4889.019416453769,-11013.50915593018,19828.523078980816
4885.286675129732,-5039.625470593628,-10999.449908667792,20141.33574263284
4788.771842571717,-5147.249120145932,-10960.870797737933,20196.835124115365
4614.584698031509,-5096.465956743474,-10952.35478310046,20015.718938794013
4609.957886929261,-4973.084327350179,-10973.946568244288,19870.83493123471
4764.18492367088,-4873.4849540573305,-10990.6433213524,19847.65617223456
4916.959097022903,-5011.350513857665,-10985.658882338868,20154.255050928004
4789.621208861018,-5167.633911089171,-10966.346975129483,20180.58540589636
4587.874363407417,-5155.027527216378,-10961.563701816049,19988.74038323645
4602.58181125901,-5007.818938233726,-10976.964053745754,19851.299506580774
4782.625112846507,-4881.777451250249,-10994.666635354355,19844.683390222
4934.16994025349,-5028.270784410332,-10992.45381265328,20154.38916139473
4784.6144181030295,-5188.130460754688,-10970.057364709064,20178.529045406467
4582.28642729359,-5161.844809275247,-10970.035012964609,19985.745249479445
4592.7246919542185,-5020.626487806617,-10990.59861786349,19837.799052929768
4764.60960681553,-4936.919204821492,-11016.37017922046,19824.6785789345
4908.152509707512,-5063.877113327636,-11015.163185019874,20137.26772514197
4755.020708444204,-5164.303501165331,-10990.50921088567,20164.268632443986
4554.2796914910905,-5130.0606286598,-10977.522847357135,19974.70348771852
4578.330168525001,-4984.550772255751,-10991.537391130614,19842.381160543104
4784.368548914022,-4853.211921836367,-10997.84058306701,19855.814558960745
4952.274853262288,-4979.454574519941,-10988.36344341796,20171.264728458493
4807.413197447443,-5129.63594551515,-10968.02335596363,20177.344402950337
4602.738273470196,-5108.3347330492425,-10963.240082650194,19978.74915346493
4614.428235820322,-4975.543019240263,-10983.490763126703,19839.766006441838
4819.974877831326,-4864.633663253029,-10994.957208032276,19857.088608394697
4960.232074288378,-5027.8013977767705,-10990.866838796956,20161.36290566479
4796.103214753058,-5175.591132115261,-10972.180780432318,20163.12869347676
4585.639188961886,-5140.387134598152,-10969.36446063095,19969.786103938357
4595.876287922417,-4995.033740405291,-10979.758021802669,19829.953590625955
4796.259676964245,-4880.615160538574,-10989.816306807556,19845.420997789028
4937.254480988322,-5034.126941457623,-10991.157411474876,20154.99265849503
4754.305452621634,-5187.102280509745,-10976.762888045656,20147.057789213395
4540.466313417711,-5158.983785984968,-10981.166181703353,19945.51210945989
4573.792764400574,-5012.915135969536,-10999.22639122324,19814.5755904407
4794.493889152275,-4890.5616868211855,-11008.927048316842,19844.906907666555
4939.087324033657,-5029.723647799927,-11002.26622846916,20158.680696330157
4757.501752078742,-5173.534771625373,-10989.436327151816,20146.968382235573
4559.71116539373,-5126.909032691602,-10984.764812560656,19954.8104351533
4586.779127929107,-4992.507993281841,-11004.054368025583,19819.984712598885
4808.709598625851,-4892.707454288895,-11014.246763497204,19855.345172327183
4958.26512077631,-5016.245545893377,-11000.723958101746,20171.89057730324
4776.970121499315,-5132.184044383054,-10980.31681541405,20167.62139411228
4575.424441745811,-5084.731290904438,-10980.115649713953,19974.792894696344
4619.099750411481,-4926.860919816604,-10992.498516142192,19837.933163396498
4846.171122332946,-4821.673610409929,-11008.100033771996,19866.811617232757
4980.259237320332,-5001.649856764061,-11002.623856380444,20175.7127256051
4794.695054852374,-5149.0149079579005,-10978.394565390894,20156.110245717795
4601.218354847236,-5097.471785243963,-10964.40237336187,19973.988231895957
4646.458285624777,-4932.06887627469,-10970.437344364804,19849.37725655761
4866.310044087177,-4830.52490121423,-10989.235161451716,19884.0448122078
4994.65376074955,-5000.9122491970365,-10981.479106125726,20184.720478620588
4797.690188609385,-5145.371573611686,-10959.641451792892,20157.33959166284
4584.365139527934,-5100.712788189982,-10965.050573951075,19954.966897364488
4621.96077370176,-4947.357469482121,-10987.044690495097,19821.01289284383
4845.3664595325545,-4851.222616579845,-11000.433385423828,19872.22073939094
4962.511952222819,-5029.209557677455,-10991.55974287507,20172.78464708145
4745.27534786169,-5185.515306653418,-10972.896036254888,20143.123882189266
4539.102857005937,-5128.138378636644,-10967.576321074524,19951.90470837411
4596.3680263004335,-4963.182504556478,-10985.591827105502,19826.10909057964
4816.33154348511,-4897.468375857875,-11008.27884772764,19866.96807944394
4925.45275991592,-5088.352273506198,-11003.942609303307,20163.151045221217
4732.825426200084,-5185.403547931141,-10971.59963507648,20140.441672854624
4554.056174046537,-5084.440718226519,-10963.284786139106,19960.264260800395
4625.939384214805,-4905.067968972679,-10978.863952024454,19824.790337656777
4857.838732938616,-4818.343200486088,-10994.309007443071,19867.50452131087
4961.483771977874,-5017.698409282972,-10989.16810621835,20164.067466743883
4744.56009203912,-5153.328794637775,-10966.436382107304,20121.64385576771
4562.90746485084,-5081.780860636337,-10950.03020167711,19948.775464150367
4636.131779686425,-4913.82985279916,-10962.725992527725,19829.26068654784
4874.021395924258,-4821.517148198742,-10980.875609025432,19897.947597259
4981.063900120724,-5003.147423642567,-10977.858123523964,20192.409478713213
4757.993490456759,-5152.010041714912,-10964.871759995433,20145.806091523897
4569.769450398619,-5110.592259239228,-10955.461675579749,19961.80653116781
4620.86553822345,-4960.1203155661005,-10973.007794977164,19826.39966325756
4837.588052462108,-4870.556875533685,-10991.64914985289,19878.70274528298
4934.393457698043,-5051.561302132762,-10991.73855683071,20170.862397058296
4733.674792489385,-5167.253931433432,-10960.043783193089,20125.42130058066
4571.803459144051,-5090.207468295988,-10951.505416811158,19941.57820243576
4642.747896045196,-4933.857015831115,-10974.058326966564,19818.28598002028
4864.544256275208,-4866.444154553909,-10995.203077221284,19880.289719139306
4965.820010402204,-5060.211427236966,-10984.474239882737,20169.342478435337
4760.2733683912,-5156.100410950233,-10952.131265655908,20120.995655178507
4573.703357422753,-5083.881924615136,-10954.008812190154,19928.793004607323
4638.948099487794,-4921.094169747134,-10977.209922934762,19806.461907203426
4871.450945311898,-4838.303308284678,-10992.185591719815,19872.846588235687
4978.538152997274,-5022.61579306314,-10981.88143752592,20173.8128273264
4742.928414693883,-5169.198533201044,-10960.69198378229,20113.03843415242
4547.373002454401,-5120.829358199759,-10957.02629769162,19932.36928372017
4637.674050053841,-4930.012515784802,-10967.129286185418,19811.44634621696
4886.024282696758,-4823.104122055069,-10980.070946225042,19876.355812115173
4983.611998988628,-5007.774234744816,-10979.668614824846,20170.37065868028
4763.290853892667,-5140.54359680934,-10954.07586742352,20108.769250961454
4578.4642789917325,-5078.562209434773,-10959.17206515933,19930.08940578573
4640.557425088576,-4919.998934268825,-10979.109821213464,19795.129572764585
4871.115669145068,-4841.589014719608,-10995.180725476828,19864.397628831583
4973.777231428294,-5036.943261258992,-10985.971806761245,20154.54562360592
4760.496885835753,-5180.329701939786,-10961.474294838226,20090.59728271929
4577.14552606887,-5110.636962728138,-10957.808608747557,19902.97673976144
4654.773134562151,-4914.388646410543,-10975.242969422696,19788.647566872547
4892.975675222358,-4822.522976699231,-10987.22350445074,19881.384954617617
4992.1280136261,-5007.528365555807,-10973.655995566369,20185.18986525415
4767.828258017094,-5141.057686931812,-10960.893149482388,20105.371785804247
4574.887999878883,-5096.398901510108,-10964.82705650652,19918.75707134689
4642.390268133911,-4932.091228019146,-10981.613216592456,19798.14705826605
4879.184648893434,-4857.77167770525,-10999.762833090166,19883.061335451763
4963.227208045389,-5058.736212102916,-10996.07479525504,20170.6612313582
4737.765161724707,-5185.470603164506,-10970.191475175796,20105.3941375487
4547.574168154499,-5139.224843886476,-10970.750268787178,19913.7502805889
4623.145416157891,-4957.862789376115,-10985.323606172038,19795.06251753122
4867.382927821031,-4854.061288125669,-10991.55974287507,19891.75616404488
4947.0892485486565,-5045.660441596561,-10986.798821306087,20179.24430122904
4705.846870642527,-5166.806896544325,-10974.438306622304,20102.823686936343
4533.313755192013,-5087.1452793056105,-10967.285748396604,19928.86005984069
4621.3125731125565,-4909.583021352652,-10978.103992712977,19805.38902346957
4873.082622657135,-4825.898090111982,-10985.681234083324,19906.28479794083
4976.191219829467,-4996.844231706171,-10969.498571097682,20199.94201659465
4761.905045736438,-5110.994590639423,-10948.286765609597,20122.113242401272
4575.692662679275,-5057.417459180053,-10957.02629769162,19935.073844799263
4646.748858302696,-4902.430463126953,-10972.27018741014,19812.78745088428
4903.995085238825,-4822.165348787946,-10974.773582789134,19923.22742023795
4982.449708276953,-5025.163891931044,-10971.577283332024,20211.05083358894
4755.51244682222,-5144.633966044661,-10950.007849932654,20126.02479768095
4589.774261686118,-5080.976197835947,-10954.634661034905,19943.768673392377
4671.02285278116,-4907.124329462567,-10970.996137976186,19811.200477027956
4907.034922484747,-4819.438435964398,-10970.839675765,19906.530667129835
4969.105716837134,-5011.797548746771,-10965.587015818002,20185.592196654343
4729.874995931983,-5135.894433962636,-10952.287727867097,20096.989881633508
4542.679136118786,-5101.249230056909,-10968.380983874917,19909.50344914239
4625.179424903325,-4948.609167171618,-10984.809516049569,19782.09850574714
4871.7191662453615,-4866.131230131535,-10988.430498651329,19887.442277365004
4947.7374491378605,-5041.346554916687,-10972.27018741014,20177.702030861623
4719.12380684898,-5140.029506686868,-10952.935928456298,20099.11329735676
4572.786935900085,-5038.6643455820495,-10952.667707522834,19938.068978556275
4672.654530126397,-4861.6832329849285,-10973.588940333002,19818.50949746484
4899.167108436479,-4815.213956262345,-10987.111745728464,19921.618094637168
4950.777286383783,-5026.393237876087,-10976.137039200908,20186.508618177013
4727.751580208728,-5126.417294313585,-10946.968012686732,20083.6905936826
4587.516735496132,-5037.904386270569,-10946.342163841982,19920.388748692127
4691.050015813114,-4864.611311508574,-10965.810533262556,19800.471639689404
4923.284640703755,-4804.66393287944,-10976.785239790112,19918.444146924518
4965.104754579635,-5014.2338888924,-10971.152600187374,20201.819563128895
4730.858472688016,-5125.567928024284,-10948.890262709889,20099.31446305686
4583.918104638828,-5058.624453380639,-10950.298422610573,19921.059301025787
4680.634102896941,-4888.035939697736,-10969.386812375404,19802.05861354573
4916.445006900431,-4822.031238321214,-10974.17008568884,19920.388748692127
4956.02994633078,-5032.42820887902,-10972.493704854693,20181.56888265239
4708.5961352105305,-5151.1830271700655,-10952.913576711844,20082.103619826277
4567.198999786258,-5070.761450619871,-10945.06811440803,19923.674455127057
4679.740033118729,-4885.957227463392,-10960.26730063764,19812.8768578621
4914.5674603661855,-4831.642488436996,-10969.051536208575,19927.541306917825
4951.269024761799,-5044.1181712291445,-10959.529693070614,20196.388089226257
4700.393044995433,-5144.231634644465,-10943.056457407052,20091.73722168651
4550.435191444778,-5066.447563939996,-10950.790160988588,19921.28281847034
4660.450477653799,-4885.711358274384,-10973.7901060331,19800.046956544757
4908.621896341074,-4819.036104564203,-10978.953359002277,19919.673492869555
4957.639271931562,-5013.183356903,-10964.670594295334,20196.388089226257
4727.12573136398,-5113.989724396435,-10936.865024192934,20099.00153863449
4580.565342970532,-5040.586595605207,-10946.252756864162,19917.728891101942
4688.725434389762,-4851.312023557666,-10960.669632037834,19791.173313996
4921.0271145137685,-4821.561851687652,-10973.45482986627,19922.24394348192
4979.70044370895,-5013.697447025472,-10958.993251203688,20208.927417865685
4738.03338265817,-5100.601029467706,-10930.673590978811,20096.09581185529
4582.755813927151,-5033.344630401687,-10939.8825096944,19913.817335822267
4687.384329722444,-4866.5559132761855,-10961.004908204664,19793.00615704133
4921.585908125152,-4818.387903974999,-10967.129286185418,19928.301266229304
4965.238865046366,-5014.412702848042,-10949.627870276914,20192.43183045767
4719.660248715907,-5115.77786395286,-10935.97095441472,20075.554558700867
4570.730575410196,-5043.984060762413,-10946.49862605317,19895.80182979129
4673.839172582528,-4873.842581968615,-10970.817324020543,19777.494046389347
4902.318704404677,-4834.257642538267,-10981.121478214442,19912.6997485995
4927.754989594816,-5047.716802086449,-10968.068059452542,20165.207405711102
4689.194821023324,-5151.473599847985,-10948.487931309692,20046.765511842437
4538.4323046722775,-5085.267732771365,-10957.920367469833,19873.450085335982
4644.625442579441,-4901.670503815473,-10977.992233990695,19760.68553455896
4893.042730455724,-4835.866968139049,-10984.138963715908,19910.866905554165
4931.174806496479,-5038.351421159676,-10979.735670058211,20170.258899958004
4690.357111735,-5143.941061966546,-10954.16527440134,20058.701343381566
4566.684909663786,-5057.350403946687,-10948.800855732066,19895.265387924363
4693.173431536368,-4856.229407337833,-10959.26147213715,19782.9702237809
4933.49938791983,-4805.066264279636,-10962.413068105348,19932.101062786707
4970.245655804355,-5006.254316121855,-10943.794064974078,20198.466801460603
4716.173376580879,-5102.970314379968,-10929.086617122486,20076.64979417918
4558.057136304037,-5046.107476485668,-10938.02731490461,19902.10502172769
4669.838210325028,-4880.928084960948,-10953.517073812136,19785.272453459795
4912.444044642931,-4841.253738552778,-10959.8873209819,19937.644295411625
4940.696649634439,-5041.391258405597,-10947.16917838683,20187.514446677505
4715.972210880782,-5115.979029652957,-10925.935021154288,20062.50113993897
4588.4331570188,-5028.784874532804,-10935.658029992346,19887.86696050965
4692.368768735978,-4861.213846351368,-10951.6842307668,19766.42993288397
4941.143684523545,-4814.588107417597,-10953.07003892303,19926.84840283971
4971.720870938405,-5007.729531255905,-10927.030256632595,20180.18307449616
4724.465873773798,-5102.322113790764,-10908.433605245782,20052.55461365636
4585.326264539512,-5038.843159537692,-10924.906840909343,19883.731887785423
4692.614637924986,-4869.036956910724,-10948.756152243155,19758.24919441333
4915.282716188755,-4841.410200763965,-10961.228425649218,19909.61520786467
4924.513986648797,-5045.079296240723,-10947.616213275936,20170.68358310265
4689.619504167975,-5117.722465720471,-10923.565736242026,20047.30195370936
4589.371930285923,-5002.856850964648,-10923.453977519748,19896.74060305841
4730.880824432472,-4810.408331204454,-10934.786311958587,19782.232616213874
4961.416716744508,-4798.941886298881,-10943.816416718531,19935.923211088564
4968.859847648126,-5033.791665290793,-10933.132282868895,20184.09462977584
4719.235565571256,-5138.01784968589,-10914.692093693267,20059.81893060433
4597.150337356369,-5036.697392069983,-10915.78732917158,19900.763917060365
4724.823501685083,-4847.691040955906,-10938.228480604706,19785.83124707118
4947.245710759844,-4845.120590343546,-10954.969937201731,19936.593763422225
4954.755896896827,-5055.405802179075,-10937.602631759955,20177.098533761327
4711.166585822891,-5126.573756524773,-10924.63861997588,20043.32334319632
4575.938531868284,-5040.586595605207,-10930.561832256535,19867.25865212186
4702.784681652151,-4866.15358187599,-10945.582204530505,19750.29197338724
4948.743277638349,-4846.662860710962,-10951.706582511257,19918.04181552432
4973.576065728195,-5038.083200226212,-10934.383980558394,20177.18794073915
4735.015897156703,-5109.698189461015,-10915.384997771383,20051.034695033395
4622.698381268786,-5014.971496459424,-10919.40831177334,19883.95540522997
4749.946862452849,-4826.658049423462,-10936.954431170754,19766.25111892833
4971.497353493852,-4829.608479691563,-10947.6832685093,19935.118548288174
4969.820972659704,-5056.657499868572,-10940.083675394497,20168.85074005732
4722.431865028366,-5126.260832102398,-10916.234364060683,20036.662523348637
4613.243593364191,-5029.075447210723,-10919.92240189581,19892.002033233886
4740.626185014986,-4851.915520657959,-10939.16725387183,19777.65050860053
4957.348699253643,-4851.692003213407,-10955.036992435098,19941.30998150229
4949.525588694285,-5068.079241285234,-10938.787274216087,20171.309431947404
4702.538812463143,-5139.537768308851,-10917.329599538994,20033.44387214707
4592.970561143227,-5048.163836975556,-10926.35970429894,19885.542379086302
4707.299734032123,-4878.2011721374,-10947.817378976031,19771.86140678661
4937.701515877428,-4871.7191662453615,-10958.188588403296,19957.49264448793
4953.794771885249,-5057.260996968866,-10936.68621023729,20196.90217934873
4699.476623472765,-5123.1092361342,-10917.530765239091,20051.81700608933
4572.943398111272,-5051.181322477022,-10929.01956188912,19894.30426291278
4702.337646763044,-4879.028186682247,-10949.426704576816,19776.421162655493
4945.301108992232,-4845.612328721563,-10954.74641975718,19962.85706315721
4949.83851311666,-5045.660441596561,-10945.917480697331,20191.76127812401
4703.343475263533,-5126.417294313585,-10929.824224689512,20039.992933272475
4597.552668756565,-5024.918022742036,-10937.69203873778,19881.519065084347
4742.03434491567,-4821.047761565181,-10948.376172587416,19773.42602889848
4978.649911719551,-4819.058456308658,-10955.238158135196,19964.935775391557
4966.758783669327,-5026.169720431533,-10947.92913769831,20193.348251980336
4704.952800864316,-5101.919782390569,-10932.97582065771,20043.32334319632
4589.550744241565,-5021.453502351464,-10937.69203873778,19880.60264356168
4715.88280390296,-4851.513189257764,-10954.634661034905,19764.03829622725
4937.768571110794,-4862.219674851856,-10963.664765794849,19952.016467096382
4936.315707721199,-5062.558360404773,-10941.670649250824,20174.50573140451
4689.954780334804,-5118.795349454325,-10920.369436784917,20022.53622085288
4579.492459236677,-5008.84711847867,-10923.54338449757,19872.824236491237
4715.949859136326,-4806.876755580515,-10936.909727681845,19762.78659853776
4947.5586351822185,-4814.4316452064095,-10945.358687085947,19959.414894511094
4924.066951759691,-5050.71193584346,-10938.54140502708,20179.08783901785
4673.034509782137,-5129.032448414856,-10932.841710190978,20022.24564817496
4579.961845870238,-5026.639107065094,-10925.845614176467,19869.22560563393
4728.89151917595,-4825.093427311591,-10940.307192839053,19766.385229395062
4961.126144066589,-4820.2430987647895,-10949.82903597701,19968.780275437864
4944.965832825403,-5030.237737922399,-10939.726047483213,20181.23360648556
4689.463041956788,-5095.303666031799,-10923.431625775293,20027.76652905542
4600.324285069023,-4987.612961246128,-10923.141053097374,19872.399553346582
4759.155781168435,-4793.197487973868,-10937.31205908204,19764.03829622725
5000.152289885556,-4798.181926987401,-10944.35285858546,19973.362383051204
4990.004597902846,-5006.142557399578,-10929.7795212006,20197.460972960114
4748.359888596522,-5060.9043313150805,-10915.11677683792,20044.887965308186
4644.91601525736,-4975.185391328978,-10927.58905024398,19879.708573783468
4777.908894766438,-4810.698903882373,-10949.426704576816,19774.208339954417
4996.352493328153,-4834.145883815991,-10953.964108701242,19980.00085115443
4962.98133885638,-5052.1424474886,-10938.139073626886,20183.066449530896
4709.490204988743,-5116.068436630779,-10919.54242224007,20019.27286616241
4620.060875423059,-5013.205708647455,-10927.857271177443,19873.248919635884
4760.22866490229,-4833.296517526689,-10934.741608469678,19778.656337101023
4988.194106601966,-4821.852424365571,-10926.40440778785,20004.990101455463
4978.538152997274,-4989.46815603592,-10898.911762107822,20216.929342380685
4745.632975772975,-5033.814017035248,-10878.683433375769,20050.028866532903
4659.690518342319,-4943.758838624816,-10891.066299804008,19902.864981039165
4798.628961876508,-4776.813659288127,-10906.466651733715,19808.69708164896
5021.922888985025,-4795.834993819594,-10901.795137142555,20029.711130823034
4996.151327628056,-5010.165871401533,-10893.502639949636,20226.4735372631
4743.777780983184,-5066.894598829103,-10882.326767721985,20057.851977092265
4660.5845881205305,-4940.093152534146,-10884.092555533953,19915.046681767308
4811.950601571871,-4741.162626881913,-10894.44141321676,19816.810764886235
5020.715894784438,-4771.650406318951,-10905.326712766497,20014.288427148877
4983.65670247754,-4981.89091466557,-10893.055605060532,20201.03725207296
4724.22000458479,-5039.938395016003,-10873.25195947313,20030.20286920105
4630.834416250517,-4949.927920094481,-10885.165439267808,19870.94668995699
4780.367586656522,-4791.789328073183,-10901.68337842028,19765.401752639027
5000.80049047476,-4831.530729714719,-10912.143994825365,19985.320566334794
4983.120260610612,-5019.620659306128,-10890.641616659355,20180.04896402943
4752.070278176103,-5044.386392162609,-10871.352061194428,20013.32730213729
4679.985902307738,-4932.270041974788,-10870.927378049775,19875.685259781512
4826.546290701186,-4754.908949721927,-10884.696052634246,19781.33854643566
5045.928662530025,-4796.326732197611,-10895.044910317054,20008.47697359049
5017.206670904955,-4994.206725860444,-10878.169343253296,20195.494019448044
4761.837990503072,-5040.564243860751,-10864.7135930912,20011.91914223661
4669.391175435922,-4947.245710759844,-10871.732040850167,19858.92145144003
4796.773767086717,-4784.23443844729,-10887.221799757695,19767.502816617827
5028.561357088252,-4814.833976606605,-10895.000206828145,19996.74230775145
5008.534194056296,-5011.395217346575,-10888.831125358478,20180.60775764081
4762.910874236926,-5046.66627009705,-10871.799096083534,20012.27677014789
4685.3056174881,-4937.768571110794,-10873.810753084512,19869.65028877858
4818.678476652918,-4784.94969426986,-10895.223724272695,19773.694249831948
5045.191054962999,-4816.309191740656,-10905.21495404422,20003.78310725488
5010.99288594638,-5012.065769680235,-10892.496811449148,20185.14516176524
4761.837990503072,-5051.851874810681,-10872.939035050757,20014.511944593425
4681.192896508324,-4934.639326887051,-10881.365642710403,19867.07983816622
4823.372342988532,-4762.620301559008,-10897.771823140602,19767.39105789555
5044.90048228508,-4805.490947424287,-10908.567715712514,20002.44200258756
5009.540022556785,-4991.748033970361,-10897.414195229316,20185.14516176524
4740.961461181815,-5038.083200226212,-10888.093517791453,20001.547932809342
4653.677899083841,-4936.807446099216,-10897.481250462684,19845.86803267813
4796.483194408798,-4769.70580455134,-10912.143994825365,19760.931403747967
5027.220252420932,-4809.357799215055,-10907.941866867766,20013.81904051531
5004.600287032162,-5003.639162020584,-10883.265540989109,20191.80598161292
4756.093592178058,-5037.591461848195,-10871.82144782799,20014.40018587115
4659.802277064595,-4935.801617598727,-10890.351043981438,19852.35003857017
4799.098348510069,-4775.986644743281,-10899.96229409722,19755.946964734438
5014.703275525961,-4831.664840181451,-10903.739738910168,19999.782144997374
4968.681033692484,-5032.875243768125,-10896.117794050908,20170.057734257905
4714.251126557723,-5063.519485416351,-10878.77284035359,19988.24864485844
4648.246425181202,-4944.585853169662,-10883.779631111578,19843.051712876764
4790.85055480606,-4793.353950185055,-10907.047797089554,19753.555328077717
4996.08427239469,-4852.071982869146,-10915.78732917158,20004.878342733187
4969.84332440416,-5022.839310507692,-10894.44141321676,20175.600966882823
4747.532874051675,-5014.479758081407,-10870.703860605225,19999.737441508467
4681.170544763869,-4882.716224517372,-10883.712575878211,19849.936050169
4827.619174435041,-4719.369676037989,-10903.896201121355,19753.980011222364
5054.489380656407,-4778.847668033561,-10907.092500578465,19998.84337173025
5015.530290070808,-4981.823859432204,-10894.77668938359,20164.49214988853
4759.111077679525,-5027.823749521226,-10881.142125265853,19979.77733370988
4684.188030265335,-4926.615050627595,-10891.0215963151,19835.74269243988
4819.729008642317,-4780.23347618979,-10912.792195414568,19749.017923953288
5024.5156913418405,-4844.67355545444,-10915.608515215936,20001.86085723172
4976.638254718573,-5020.5817843177065,-10893.72615739419,20163.016934754483
4733.3171645781,-5033.478740868419,-10878.951654309232,19976.73749646396
4658.863503797473,-4924.692800604439,-10889.68049164778,19826.846698146663
4802.227592733811,-4760.049850946647,-10904.119718565908,19741.55244130521
5020.246508150877,-4814.81162486215,-10903.024483087598,20003.20196189904
4964.970644112903,-5030.371848389131,-10888.808773614022,20163.508673132503
4708.55143172162,-5083.166668792566,-10871.575578638982,19977.296290075337
4658.9976142642045,-4940.987222312358,-10876.224741485685,19841.77766344281
4823.95348834437,-4733.965365167304,-10889.144049780853,19769.514473618805
5029.544833844285,-4798.204278731857,-10898.420023729805,20021.5750958413
4979.231057075388,-4987.031815890291,-10881.097421776942,20158.211309696595
4742.526083293687,-5009.137691156589,-10860.846741300433,19966.94743239253
4684.188030265335,-4894.92027698997,-10871.419116427796,19829.707721436946
4831.508377970264,-4730.456141287821,-10889.255808503129,19746.9615634634
5035.579804847218,-4800.7523775997615,-10893.837916116468,19999.96095895302
4973.039623861268,-5002.856850964648,-10879.353985709427,20148.60005958081
4733.339516322555,-5031.131807700612,-10865.85353205842,19962.208862568004
4677.013120295182,-4911.035884742247,-10877.163514752809,19817.995407342365
4821.114816798547,-4754.3278043660885,-10901.81748888701,19744.52522331777
5021.56526107374,-4824.735799400306,-10902.711558665223,20005.7724125114
4950.509065450319,-5022.749903529872,-10885.38895671236,20146.051960712903
4712.887670145949,-5041.123037472134,-10870.033308271564,19962.879414901665
4652.135628716424,-4923.217585470389,-10882.237360744162,19817.0789858197
4808.553136414664,-4768.074127206102,-10902.219820287208,19742.267697127783
5030.774179789327,-4829.3402587581,-10893.212067271716,20017.86470626172
4964.367147012609,-5013.876260981115,-10870.90502630532,20157.51840561848
4712.21711781229,-5036.6079850921615,-10867.954596037222,19967.215653325995
4672.945102804316,-4903.391588138532,-10873.542532151048,19825.86322139063
4842.48308449782,-4725.918737163393,-10888.205276513729,19749.86729024259
5048.342650931198,-4800.730025855306,-10892.139183537864,20029.86759303422
4954.040641074257,-5004.242659120877,-10874.816581585,20164.93918477764
4687.853716356006,-5053.438848667008,-10863.39484016834,19968.37794403767
4651.755649060685,-4923.463454659397,-10872.53670365056,19834.379236028104
4831.396619247988,-4724.577632496075,-10886.43948870176,19767.569871851192
5040.005450249369,-4791.968142028826,-10888.451145702738,20043.45745366305
4967.31757728071,-4987.322388568209,-10868.558093137515,20164.536853377445
4722.230699328268,-5010.881127224103,-10857.33751742095,19965.315755047293
4662.708003843785,-4904.330361405655,-10875.934168807766,19826.086738835187
4816.890337096494,-4754.171342154902,-10894.53082019458,19759.47854035837
5032.048229223279,-4836.448113494887,-10898.01769232961,20033.24270644697
4948.430353215976,-5030.416551878042,-10879.845724087443,20157.764274807487
4685.707948888296,-5043.157046217567,-10873.073145517486,19966.992135881443
4623.503044069176,-4916.6238208560735,-10883.511410178116,19828.098395836165
4789.218877460823,-4748.538702552164,-10896.050738817545,19761.490197359348
5007.058978922246,-4825.004020333769,-10900.945770853254,20034.136776225183
4927.240899472345,-5017.720761027427,-10889.9710643257,20145.537870590437
4683.964512820782,-5038.105551970667,-10872.871979817388,19945.310943759792
4653.856713039483,-4902.87749801606,-10870.323880949483,19807.35597698164
4831.19545354789,-4730.41143779891,-10889.367567225405,19742.893545972533
5038.172607204033,-4807.882584081004,-10894.44141321676,20018.401148128647
4943.982356069369,-5002.566278286729,-10881.9691398107,20130.584553549837
4693.106376303002,-5035.132769958112,-10868.155761737318,19941.153519291107
4654.750782817696,-4922.390570925542,-10872.380241439372,19797.63296814358
4817.158558029957,-4761.346252125055,-10892.429756215784,19737.395016836526
5024.292173897287,-4823.7076191553615,-10894.664930661313,20023.6761598201
4937.187425754956,-5012.1328249136,-10874.615415884902,20128.46113782658
4693.575762936564,-5030.438903622497,-10862.47841864567,19925.86492608368
4647.575872847542,-4903.771567794272,-10874.324843206983,19786.9711860384
4811.749435871772,-4731.12669362148,-10887.355910224427,19731.06947315568
5014.435054592497,-4811.257697493756,-10887.15474452433,20018.28938940637
4923.999896526325,-5001.247525363866,-10865.33944193595,20124.46017556908
4685.573838421565,-5019.553604072762,-10852.040153985045,19928.14480401812
4643.194930934302,-4907.325495162666,-10866.881712303366,19787.798200583245
4794.203316474356,-4757.792324756661,-10891.602741670937,19725.705054486403
4997.201859617456,-4834.659973938462,-10894.06143356102,20015.651883560644
4913.852204543616,-4999.8617172076365,-10862.411363412306,20122.73909124602
4681.885800586439,-4992.709158981938,-10847.05571497151,19924.27795222735
4642.2114541782685,-4876.368329092065,-10863.730116335168,19783.8195900702
4807.167328258434,-4731.998411655237,-10872.693165861749,19732.701150500918
5001.5604497862405,-4836.939851872904,-10880.605683398924,20011.829735258787
4903.056311971702,-5027.8013977767705,-10870.927378049775,20108.210457350076
4650.280433926634,-5047.448581152986,-10859.304470933015,19916.36543469017
4606.426311305322,-4932.918242563992,-10878.52697116458,19765.58056659467
4770.622226074008,-4779.719386067318,-10899.805831886031,19706.52725774375
4959.874446377093,-4873.4849540573305,-10911.473442491704,19983.33126107827
4873.7755267352495,-5045.638089852106,-10870.100363504933,20089.25617805197
4659.265835197668,-5013.3621708586425,-10850.564938850992,19911.448050910003
4621.133759156914,-4880.391643094021,-10869.474514660182,19768.64275558505
4788.771842571717,-4730.523196521187,-10882.550285166535,19712.338711302127
4997.023045661813,-4825.138130800501,-10882.416174699803,20000.34093860876
4911.997009753824,-5004.265010865332,-10861.740811078644,20097.056936866877
4687.183164022346,-4997.89476369557,-10849.134427205852,19903.043794994806
4654.370803161955,-4870.445116811409,-10864.490075646649,19762.40661888201
4817.851462108071,-4724.59998424053,-10880.650386887835,19720.318284072677
5009.785891745793,-4825.76397964525,-10880.024538043088,20018.66936906211
4915.081550488657,-5001.985132930891,-10856.219930198184,20110.15505911768
4678.622445895964,-5012.669266780528,-10850.587290595447,19904.742527573413
4632.711962784763,-4907.012570740291,-10877.185866497262,19753.912955989
4787.56484837113,-4770.197542929357,-10892.765032382613,19707.801307177702
4980.169830342511,-4848.786276434216,-10894.8213928725,19999.8715519752
4885.085509429635,-5002.543926542274,-10868.356927437417,20089.434992007613
4660.8751607984495,-4999.6829032519945,-10848.128598705363,19899.668681582058
4635.997669219693,-4887.521849575263,-10866.412325669806,19764.15005494953
4802.47346192282,-4732.713667477807,-10880.315110721009,19727.42613880946
4993.6926357379725,-4817.449130707876,-10874.816581585,20025.509002865438
4894.450890356408,-4975.878295407092,-10854.498845875129,20104.03068113693
4648.358183903478,-4979.007539630836,-10853.023630741076,19901.03213799383
4613.668276508842,-4865.77360222025,-10866.166456480796,19761.132569448066
4777.193638943868,-4744.694202505852,-10882.259712488618,19711.24347582382
4972.436126760975,-4867.070003398658,-10877.9681775532,20005.95122646704
4876.502439558797,-5028.51665359934,-10852.9118720188,20083.914111127157
4654.102582228492,-5004.309714354243,-10839.813749767987,19886.50350409788
4638.121084942947,-4869.707509244384,-10855.19174995324,19751.387208865548
4807.100273025068,-4734.926490178882,-10868.9157210488,19713.635112480537
4991.010426403335,-4851.401430535488,-10869.496866404636,20014.86957250471
4888.527678075752,-5017.94427847198,-10852.688354574246,20085.03169834992
4658.192951463813,-4996.441900305975,-10847.011011482598,19884.60360581918
4629.672125538841,-4867.315872587666,-10868.759258837612,19749.040275697746
4803.85927007905,-4731.12669362148,-10891.58038992648,19716.0043973928
5006.924868455514,-4827.283898268211,-10888.33938698046,20022.96090399753
4907.549012607219,-4976.861772163126,-10866.34527043644,20089.278529796426
4672.386309192933,-4976.682958207483,-10856.331688920462,19891.242073922407
4650.749820560196,-4849.188607834412,-10868.446334415235,19752.258926899307
4840.605537963574,-4699.096643817025,-10881.58916015496,19715.28914157023
5032.9646507459465,-4815.61628766254,-10877.00705254162,20019.183459184584
4908.264268429789,-5004.577935287707,-10858.946843021731,20072.805294132864
4666.664262612375,-5001.493394552875,-10847.502749860616,19875.21587314795
4643.999593734693,-4863.270206841256,-10858.38804941035,19749.64377279804
4820.958354587359,-4726.432827285866,-10871.39676468334,19731.51650804478
5015.262069137343,-4841.4325525084205,-10866.38997392535,20040.037636761383
4897.982465980347,-5011.3058103687545,-10842.09362770243,20091.22313156404
4669.726451602752,-5000.398159074564,-10836.505691588603,19884.80477151928
4655.3989834069,-4864.410145808476,-10854.364735408397,19742.58062155016
4815.817453362639,-4738.815693714106,-10877.00705254162,19715.445603781416
4983.075557121701,-4863.694889985906,-10887.400613713338,20015.02603471589
4851.624947980041,-5037.479703125919,-10869.854494315923,20069.49723595348
4621.983125446216,-5030.371848389131,-10854.968232508689,19872.153684157573
4608.773244473129,-4888.930009475948,-10864.57948262447,19737.61853428108
4792.61634261803,-4735.865263446005,-10882.751450866634,19718.23957183833
4987.724719968405,-4836.716334428351,-10883.48905843366,20028.95117151155
4854.441267781409,-5010.367037101632,-10865.652366358325,20070.704230154068
4615.545823043087,-5023.822787263726,-10861.24907270063,19860.0390386628
4593.4846512657,-4909.471262630375,-10874.43660192926,19716.652597982003
4772.008034230236,-4767.336519639078,-10883.801982856034,19700.0005483628
4968.07753659219,-4863.873703941548,-10882.662043888811,20006.57707531179
4871.875628456549,-4977.442917518963,-10852.978927252165,20064.021058561928
4652.470904883255,-4934.885196076059,-10846.496921360129,19871.95251845748
4629.739180772207,-4810.47538643782,-10865.182979724765,19726.263848097784
4811.816491105138,-4688.479565200754,-10881.253883988127,19707.71190019988
5006.4331300774975,-4803.300476467666,-10868.267520459596,20019.854011518244
4891.567515321674,-4963.540132467763,-10844.507616103603,20065.250404506973
4666.485448656732,-4958.98037659888,-10843.032400969554,19859.346134584684
4652.761477561174,-4831.351915759077,-10864.355965179917,19716.11615611508
4824.378171489021,-4711.5912689675415,-10883.779631111578,19711.735214201835
4986.182449600989,-4839.57735771863,-10885.813639857011,20038.093034993773
4850.395602034999,-4996.598362517162,-10862.523122134582,20078.281471524417
4635.483579097221,-4982.27089432131,-10859.237415699652,19875.372335359138
4626.453474337277,-4850.5297125017305,-10882.304415977527,19731.24828711132
4810.47538643782,-4718.386199281955,-10892.317997493506,19727.269676598276
5004.153252143055,-4847.199302577889,-10884.226666000684,20043.055122262853
4871.853276712093,-5017.541947071784,-10870.033308271564,20055.63915439119
4652.225035694246,-5000.129938141101,-10860.980851767166,19852.908832181554
4649.855750781983,-4863.493724285809,-10877.319976963994,19723.42517655196
4820.332505742611,-4751.220911886801,-10890.06047130352,19712.584580491137
4998.766481729327,-4861.437363795921,-10886.01480555711,20019.362273140225
4871.115669145068,-4989.89283918057,-10864.780648324568,20053.06870377883
4659.019966008659,-4947.31276599321,-10864.646537857836,19866.07400966573
4662.484486399232,-4818.700828397373,-10880.315110721009,19721.905257929
4849.322718301144,-4706.115091575992,-10891.96036958222,19723.402824807505
5025.588575075695,-4826.009848834258,-10883.377299711385,20047.570174642824
4875.96599769187,-4978.538152997274,-10860.422058155782,20055.527395668916
4665.524323645154,-4969.262179048322,-10855.750543564624,19852.081817636707
4686.512611688687,-4838.52682572923,-10873.229607728674,19723.31341782968
4873.44025056842,-4704.125786319469,-10875.777706596578,19737.417368580984
5030.1483309445775,-4835.15171231648,-10876.492962419148,20041.982238528995
4887.901829231004,-4987.545906012762,-10858.566863365992,20062.59054691679
4657.723564830251,-4971.631463960584,-10860.422058155782,19861.55895728576
4640.400962877388,-4841.4325525084205,-10880.315110721009,19712.09284211312
4830.837825636605,-4729.003277898226,-10891.312168993018,19714.596237492115
5002.901554453559,-4869.126363888546,-10890.641616659355,20021.48568886348
4848.2945380562,-5021.94524072948,-10867.798133826034,20021.19511618556
4628.15220691588,-4991.815089203727,-10863.797171568534,19825.371483012612
4624.06183768056,-4853.301328814188,-10874.168380995796,19702.57099897516
4808.2849154812,-4738.860397203016,-10889.34521548095,19714.819754936667
4997.693597995472,-4840.091447841102,-10877.67760487528,20042.16105248464
4862.286730085222,-4963.808353401227,-10853.180092952263,20057.650811392166
4644.49133211271,-4941.680126390473,-10846.563976593492,19853.802901959767
4648.447590881299,-4803.389883445488,-10859.013898255098,19716.540839259727
4830.949584358881,-4689.798318123618,-10873.877808317877,19727.71671148738
5007.818938233726,-4822.634735421507,-10868.96042453771,20043.23393621849
4847.57928223363,-4986.249504834354,-10860.086781988954,20026.11249996573
4613.176538130825,-4972.972568627903,-10860.846741300433,19829.01481735883
4613.467110808744,-4833.81060764916,-10872.939035050757,19710.215295578877
4824.489930211298,-4694.223963525768,-10874.213084484709,19736.52329880277
5006.254316121855,-4810.6765521379175,-10872.313186206004,20048.084264765297
4859.135134117024,-4951.9619288399135,-10857.829255798968,20036.304895437348
4636.221186664247,-4939.780228111771,-10854.655308086314,19828.32191328072
4633.20370116278,-4810.229517248812,-10872.357889694917,19684.75665864428
4831.418970992443,-4693.776928636662,-10885.567770668004,19702.01220536377
5007.885993467092,-4828.066209324147,-10882.349119466438,20032.214526202028
4861.794991707206,-4973.84428666166,-10855.549377864523,20036.751930326456
4646.324175158045,-4954.644138174551,-10855.281156931062,19840.8835936646
4647.195893191802,-4814.163424272946,-10869.139238493352,19702.593350719613
4835.084657083114,-4691.87703035796,-10878.974006053688,19725.07920564165
5003.37094108712,-4830.815473892149,-10872.179075739274,20039.38943617218
4851.4684857688535,-4976.548847740752,-10849.983793495154,20031.476918635
4638.635175065419,-4944.719963636394,-10844.597023081426,19826.801994657755
4632.980183718227,-4807.994342803281,-10866.47938090317,19682.633242921023
4811.503566682764,-4710.317219533589,-10883.8690380894,19695.664309938467
4999.8617172076365,-4825.831034878616,-10872.58140713947,20003.447831088048
4860.900921928993,-4948.653870660529,-10851.034325484554,19990.90850244862
4651.040393238115,-4917.652001101017,-10845.424037626271,19786.34533719365
4648.291128670112,-4784.189734958379,-10868.088706503951,19638.712065066346
4832.178930303923,-4677.482506928744,-10881.186828754762,19674.98894631731
5006.522537055318,-4817.806758619161,-10876.269444974596,19996.608197284724
4858.509285272275,-4956.6557951755285,-10849.536758606047,19981.90074943313
4654.326099673045,-4919.440140657442,-10841.110150946395,19793.095564019157
4656.717736329762,-4784.435604147388,-10859.505636633116,19650.022047760733
4838.504473984775,-4681.461117441788,-10876.291796719051,19682.96851908785
5000.889897452581,-4821.38303773201,-10871.553226894526,20005.414784600114
4850.976747390837,-4963.741298167861,-10850.520235362084,19990.752040237432
4641.496198355699,-4931.979469296869,-10853.135389463352,19794.63783438657
4643.06082046757,-4788.973008271815,-10871.82144782799,19657.75575134227
4824.825206378127,-4698.135518805447,-10878.05758453102,19703.085089097636
4993.670283993517,-4839.085619340613,-10863.551302379528,20035.857860548243
4844.651203709985,-4952.833646873671,-10836.371581121872,20012.29912189235
4639.6857070548185,-4920.133044735557,-10838.00325846711,19804.29378799126
4642.904358256383,-4804.373360201521,-10866.278215203074,19659.678001365424
4836.157540816968,-4681.215248252779,-10870.793267583043,19710.528220001248
4996.419548561519,-4807.435549191899,-10860.980851767166,20033.645037847167
4827.932098857415,-4942.171864768489,-10845.021706226076,20002.889037476663
4644.312518157068,-4905.559707350696,-10834.158758420795,19813.25683751784
4681.952855819804,-4754.059583432625,-10845.267575415084,19679.459295208373
4869.327529588643,-4639.350430887989,-10861.807866312012,19723.492231785327
5020.738246528894,-4775.763127298728,-10854.252976686115,20042.49632865147
4839.443247251898,-4926.302126205222,-10842.026572469063,20011.695624792057
4626.095846425992,-4913.718094076883,-10844.887595759345,19809.88172410509
4654.571968862053,-4773.460897619832,-10852.263671429597,19669.42336194794
4856.207055593379,-4660.808105565084,-10866.904064047822,19720.43004279495
5020.626487806617,-4795.656179863951,-10858.589215110447,20039.657657105643
4850.216788079356,-4928.649059373029,-10839.701991045711,19998.95513045253
4649.095791470503,-4893.981503722847,-10836.930374733254,19810.418165972016
4679.583570907542,-4738.614528014008,-10855.728191820168,19672.46319919386
4879.072890171157,-4636.042372708604,-10868.736907093156,19726.844993453626
5028.941336743991,-4786.536668126187,-10864.378316924372,20044.37387518572
4840.605537963574,-4926.793864583238,-10846.563976593492,20002.352595609736
4629.359201116467,-4903.011608482791,-10844.932299248256,19803.220904257407
4654.370803161955,-4772.320958652611,-10861.696107589736,19666.78585610221
4855.827075937638,-4678.913018573883,-10870.636805371858,19735.875098213568
5002.074539908712,-4805.669761379929,-10867.172284981283,20047.525471153916
4836.67163093944,-4896.39549212402,-10840.841930012934,19999.558627552826
4648.022907736648,-4846.3052327996775,-10838.62910731186,19803.623235657604
4671.738108603729,-4713.893498646438,-10857.561034865505,19669.51276892576
4857.659918982973,-4652.023869994148,-10870.457991416217,19733.639923768034
4992.4632897929305,-4811.481214938309,-10867.77578208158,20050.140625255182
4811.637677149496,-4924.02224827078,-10845.446389370729,20009.90748523563
4608.594430517487,-4870.333358089132,-10834.561089820992,19822.35399751115
4634.991840719204,-4720.196690582835,-10851.81663654049,19682.83440862112
4837.945680373393,-4643.463151867766,-10863.730116335168,19748.704999530917
4978.9628361419245,-4810.005999804259,-10857.404572654315,20053.135759012195
4816.376246974021,-4920.982411024858,-10827.497938573117,20014.176668426597
4629.493311583199,-4868.2993493437,-10825.307467616496,19827.629009202603
4648.224073436746,-4721.493091761243,-10849.134427205852,19694.725536671347
4852.943700902903,-4631.370858117444,-10856.778723809568,19777.40463941153
5005.650819021562,-4772.365662141521,-10849.246185928128,20086.35045127278
4835.978726861325,-4886.739538519328,-10825.262764127585,20039.277677449903
4641.652660566886,-4835.062305338658,-10825.262764127585,19840.794186686777
4666.060765512081,-4676.476678428255,-10851.14608420683,19689.696394168903
4862.53259927423,-4606.62747700542,-10869.049831515533,19754.15882517801
5008.243621378377,-4765.928359738393,-10858.075124987976,20065.71979114053
4832.983593104314,-4886.49366933032,-10830.873051985867,20013.5731713263
4639.864521010461,-4857.794029449705,-10832.48237758665,19812.63098867309
4670.531114403143,-4704.394007252933,-10851.168435951286,19673.42432420544
4869.43928831092,-4608.974410173227,-10862.8136948125,19751.8118920102
5008.534194056296,-4759.982795713281,-10856.599909853923,20053.06870377883
4828.245023279789,-4884.638474540529,-10834.158758420795,19994.4177263281
4641.026811722138,-4843.108933342568,-10828.9060984738,19803.66793914651
4655.980128762738,-4715.614582969497,-10853.694183074736,19664.595385145592
4838.392715262498,-4674.353262705,-10861.517293634091,19750.828415254167
4972.056147105235,-4826.680401167918,-10846.899252760322,20063.77518937292
4801.802909589161,-4900.061178214691,-10823.966362949175,20008.38756661267
4626.073494681536,-4824.199357533379,-10811.04705465401,19823.6280469451
4682.35518722,-4654.236692695224,-10824.301639116007,19695.97723436084
4913.718094076883,-4554.927892080294,-10827.028551939557,19782.54554063625
5059.004433036379,-4712.328876534567,-10826.939144961732,20094.39707927669
4868.835791210627,-4830.748418658784,-10808.342493574915,20033.44387214707
4670.084079514037,-4790.671740850418,-10802.486336527629,19837.37436978512
4700.3259897620665,-4655.3989834069,-10820.837118725434,19704.0015106203
4902.810442782694,-4590.914200653338,-10833.018819453577,19798.79525885525
5029.880110011114,-4755.534798566675,-10829.733113018649,20097.5933787338
4834.637622194007,-4869.081660399635,-10812.656380254792,20014.95897948253
4649.811047293073,-4816.4880056962975,-10807.113147629876,19833.46281450544
4690.647684412919,-4657.812971808073,-10821.485319314635,19702.19101931942
4898.988294480836,-4582.487592993688,-10832.750598520111,19799.64462514456
5020.268859895332,-4752.584368298575,-10826.536813561535,20104.567123003857
4816.309191740656,-4878.089413415124,-10806.487298785129,20019.49638360696
4637.338773887012,-4836.559872217164,-10803.358054561384,19828.92541038101
4693.955742592304,-4659.601111364497,-10811.784662221036,19701.34165303012
4912.935783020947,-4565.209694529735,-10818.512537302082,19803.04209030177
5047.605043364173,-4713.111187590503,-10807.47077554116,20090.8431519083
4853.278977069733,-4836.2916512837,-10792.584513733926,20005.683005533578
4669.6817481138405,-4790.85055480606,-10794.12678410134,19817.86129687563
4701.287114773645,-4634.745971530196,-10812.298752343506,19684.04140282171
4894.316779889677,-4583.605180216454,-10820.993580936622,19780.19860746844
4995.793699716771,-4763.804944015139,-10825.441578083228,20074.235805778004
4800.774729344217,-4843.53361648722,-10801.502859771594,19979.59851975424
4631.728486028729,-4783.027444246703,-10800.005292893087,19800.739860622867
4678.845963340516,-4646.324175158045,-10814.399816322306,19677.782914374224
4899.658846814496,-4573.18926730028,-10816.389121578828,19802.148020523557
5034.350458902176,-4724.6223359849855,-10804.98973190662,20097.21339907806
4839.264433296255,-4833.631793693518,-10786.482487497628,20002.8219822433
4657.120067729959,-4786.380205914999,-10784.806106663478,19821.884610877587
4694.4474809703215,-4632.913128484861,-10799.915885915269,19691.618644192054
4903.4809951163525,-4569.680043420797,-10807.917810430266,19803.466773446416
5027.019086720835,-4739.329783836578,-10802.173412105252,20098.26393106746
4821.941831343393,-4832.245985537289,-10778.055879837975,20005.459488089025
4657.611806107975,-4754.79719099965,-10774.27843502503,19830.64649470407
4715.480472502765,-4585.929761639805,-10789.745842188102,19710.081185112143
4934.996954798336,-4531.816188313507,-10801.52521151605,19825.21502080143
5045.101647985179,-4718.006219626215,-10798.66418822577,20102.510762513968
4835.308174527666,-4831.642488436996,-10782.749746173591,20003.98427295497
4660.092849742514,-4762.84381900356,-10788.002406120588,19819.671788176514
4703.45523398581,-4607.566250272543,-10812.61167676588,19681.38154523153
4908.68895157444,-4556.000775814149,-10819.80893848049,19800.98572981188
5013.764502258838,-4732.89248143345,-10807.314313329973,20086.30574778387
4802.026427033714,-4847.311061300166,-10790.394042777303,19981.207845355017
4623.3912853469,-4791.141127483979,-10797.27838006954,19801.768040867813
4677.683672628841,-4618.630363777919,-10808.09662438591,19674.43015270593
4885.510192574286,-4579.067776092026,-10814.355112833397,19813.83798287368
4991.077481636701,-4764.6543103044405,-10807.873106941355,20097.369861289248
4797.757243842751,-4828.468540724342,-10780.291054283509,19998.306929863327
4627.883985982417,-4747.622281029497,-10779.03935659401,19815.96139859693
4673.481544671243,-4596.457433278255,-10801.011121393576,19683.348498743595
4900.217640425878,-4549.630528644387,-10810.555316275992,19810.12759329409
5026.169720431533,-4716.039266114148,-10797.32308355845,20101.32612005784
4820.936002842904,-4822.880604610516,-10775.686594925714,19999.357461852727
4656.225997951746,-4775.249037176256,-10775.306615269974,19818.12951780909
4701.64474268493,-4634.701268041285,-10797.70306321419,19678.90050159699
4909.180689952456,-4579.961845870238,-10808.074272641454,19809.43468921598
5020.4029703620645,-4723.12476910648,-10790.125821843842,20098.08511711182
4818.8349388641045,-4808.888412581493,-10769.875141367334,19986.505208790924
4656.941253774316,-4741.27438560419,-10774.256083280574,19810.86520086112
4713.602925968519,-4588.790784930085,-10789.343510787909,19683.549664443693
4930.683068118461,-4552.312737979024,-10806.196726107208,19820.610561443635
5035.780970547316,-4728.153911608924,-10801.167583604763,20104.701233470587
4811.771787616228,-4826.322773256633,-10784.202609563186,19984.80647621232
4633.762494774162,-4779.85349653405,-10792.629217222837,19790.860389573623
4681.59522790852,-4618.473901566733,-10807.962513919178,19643.18241395741
4903.995085238825,-4559.308833993535,-10818.736054746634,19786.524151149293
5021.878185496114,-4714.653457957918,-10800.98876964912,20073.632308677712
4813.537575428197,-4811.056531793658,-10780.17929556123,19951.05534208481
4646.279471669134,-4746.325879851089,-10785.588417719417,19772.50960737581
4700.504803717709,-4580.542991226076,-10804.587400506423,19637.37096039903
4924.7822075822605,-4541.270976218102,-10815.38329307834,19775.19181671045
5033.210519934955,-4721.604850483519,-10799.17827834824,20054.05218053486
4830.4578459808645,-4815.8398051070935,-10776.245388537096,19937.48783320044
4663.937349788827,-4763.55907482613,-10782.347414773396,19766.25111892833
4711.926545134371,-4612.193061374791,-10802.32987431644,19636.99098074329
4942.440085701953,-4542.6567843743305,-10809.147156375308,19788.31229070572
5048.655575353572,-4698.582553694553,-10788.158868331777,20064.803369617865
4829.317907013644,-4790.627037361507,-10774.70311816968,19938.71717914548
4660.718698587263,-4746.4599903178205,-10790.081118354932,19762.40661888201
4712.708856190307,-4613.757683486662,-10813.32693258845,19634.30877140865
4925.385704682553,-4577.2349330466905,-10821.28415361454,19797.409450699022
5012.222231891422,-4732.691315733351,-10808.61071450838,20074.526378455925
4794.4715374078205,-4815.102197540069,-10792.47275501165,19954.45280724201
4647.754686803185,-4734.144179122946,-10791.221057322153,19782.29967144724
4720.151987093925,-4571.937569610783,-10802.084005127432,19649.396198915983
4927.553823894718,-4562.460429961733,-10818.33372334644,19788.44640117245
5011.685790024494,-4745.498865306243,-10810.465909298173,20052.19698574507
4803.4569386788535,-4807.5026044252645,-10785.834286908424,19928.9047633296
4665.949006789805,-4706.070388087081,-10785.431955508227,19751.029580954262
4722.968306895293,-4551.843351345462,-10802.62044699436,19616.74030026678
4933.477036175374,-4529.782179568074,-10810.398854064806,19781.7185260914
5020.827653506715,-4708.819652655084,-10804.408586550784,20050.945288055576
4793.577467629608,-4808.955467814859,-10788.091813098408,19917.59478063521
4632.667259295852,-4759.826333502095,-10791.735147444624,19739.361970348597
4688.345454734023,-4599.720787968729,-10812.566973276971,19599.9764919253
4903.548050349718,-4554.391450213368,-10815.651514011804,19759.567947336192
4988.75290021335,-4695.945047848827,-10805.481470284638,20028.861764533733
4782.066319235125,-4768.61056907303,-10783.75557467408,19908.855248553187
4645.005422235182,-4711.680675945363,-10788.114164842864,19744.34640936213
4722.767141195195,-4542.522673907599,-10790.125821843842,19617.14263166697
4935.533396665263,-4512.504281104121,-10803.425109794747,19780.936215035465
5010.724665012916,-4711.50186198972,-10798.954760903687,20041.043465261875
4775.964292998826,-4821.070113309635,-10785.521362486048,19895.265387924363
4638.523416343143,-4718.632068470964,-10781.341586272909,19732.410577822997
4719.146158593436,-4530.966822024206,-10791.109298599877,19618.416681100927
4938.573233911185,-4507.385731623856,-10805.168545862263,19789.429877928484
5025.7450372868825,-4685.506783188198,-10801.636970238324,20046.87727056471
4804.306304968155,-4768.744679539762,-10781.788621162012,19907.89412354161
4648.224073436746,-4710.78660616715,-10786.750708431093,19742.759435505803
4696.056806571103,-4580.587694714987,-10810.510612787082,19601.94344543737
4901.49168985983,-4583.314607538535,-10819.80893848049,19774.67772658798
4983.679054221994,-4750.840932231061,-10804.475641784147,20044.86561356373
4771.85157201905,-4827.596822690585,-10786.437784008716,19903.244960694905
4638.5681198320535,-4745.431810072877,-10788.449441009694,19732.18706037844
4720.129635349469,-4544.489627419666,-10796.27255156905,19613.74516650977
4942.283623490765,-4515.879394516873,-10807.157851118784,19799.19759025545
5021.766426773837,-4686.69142564433,-10802.955723161189,20050.833529333297
4822.925308099426,-4753.612548543519,-10780.447516494694,19909.9504840315
4685.372672721466,-4688.658379156396,-10783.286188040518,19734.7575109908
4740.000336170237,-4545.920139064806,-10794.864391668369,19611.666454275422
4949.726754394384,-4533.51492089211,-10805.213249351174,19797.565912910213
5026.214423920444,-4697.934353105349,-10792.293941056008,20053.851014834763
4807.5026044252645,-4765.36956612701,-10778.547618215993,19902.686167083524
4651.263910682668,-4707.433844498854,-10789.410566021272,19724.229839352352
4700.482451973254,-4556.783086870085,-10804.363883061871,19600.512933792223
4917.428483656465,-4544.020240786104,-10808.029569152544,19796.403622198537
5004.667342265528,-4708.663190443896,-10790.796374177502,20046.139662997684
4793.577467629608,-4774.958464498337,-10771.03743207901,19896.31591991376
4657.477695641243,-4701.465928729288,-10780.805144405978,19736.880926714057
4716.732170192262,-4551.70924087873,-10798.23950508112,19619.288399134686
4919.551899379719,-4555.374926969401,-10803.000426650098,19815.44730847446
4988.909362424536,-4731.216100599301,-10792.47275501165,20054.29804972387
4770.42106037391,-4788.123641982513,-10775.41837399225,19898.327576914737
4650.883931026928,-4686.311445988589,-10768.42227797774,19744.6593337845
4727.46100753081,-4519.343914907446,-10782.526228729035,19624.89868699297
4934.996954798336,-4533.604327869932,-10797.211324836177,19805.567837425213
4984.617827489117,-4726.544586008142,-10789.432917765727,20040.41761641713
4758.976967212792,-4788.145993726968,-10771.909150112766,19884.693012797
