 EXG Channel 0, EXG Channel 1, EXG Channel 2, EXG Channel 3
5164.795239543348,9798.624789550877,20417.89387677835,2997.234820989945
4707.813824154595,9753.54132098452,19242.102711451374,2298.698103272689
4623.145416157891,9768.628748491854,18634.850518089595,2034.9251669556104
5071.901389587091,9824.977496263684,19507.9543600028,2649.106401098538
5378.522620024994,9832.241813211658,20580.659279901894,3173.9030091646923
5170.874914035191,9786.264274867091,20419.70436807923,2989.4564139194986
4704.21519329729,9731.748370140598,19256.69840058069,2298.049902683485
4609.443796806789,9755.664736707777,18619.427814415438,2020.552995270848
5058.937377803013,9819.858946783415,19473.04093516361,2628.4757409662893
5373.53818101146,9826.005676508626,20567.94113730683,3169.633825973729
5183.526001396895,9787.3595103454,20451.3767899724,3013.21631827549
4718.989696382248,9732.083646307428,19296.79743013352,2326.1236937193507
4603.632343248409,9749.02626860455,18615.337445180117,2020.8882714376773
5035.937432758503,9803.832746008962,19425.25290551817,2605.9004790664294
5358.830733159868,9811.70056005723,20537.31924740305,3161.9001223921923
5181.559047884828,9779.156420130304,20466.061886079537,3028.1919870605457
4719.615545226997,9729.222623017147,19330.59326774994,2351.9623103096856
4585.438023261789,9742.186634801226,18607.357872409568,2014.1156928677196
5020.4029703620645,9806.202030921226,19395.368623181417,2590.2989614366247
5353.667480190692,9814.27101066959,20525.36106411947,3153.786439154916
5186.476431664995,9778.21764686318,20490.00060439117,3034.830455163772
4734.725324478784,9732.97771608564,19373.776838037596,2373.0400053310404
4584.901581394861,9748.22160580416,18611.761166067263,2009.6229922322027
5004.7343974988935,9805.732644287664,19351.134520904365,2558.715946521276
5353.48866623505,9812.527574602078,20497.86841843944,3141.045944815391
5204.849565607258,9774.663719494789,20508.30668310007,3043.055897123325
4753.992528199259,9726.11573053786,19403.906989563347,2386.294589793037
4583.538124983087,9735.995201587106,18604.608607841565,1994.356750769228
4992.440938048475,9789.997016191128,19310.856677395903,2520.3156495470585
5354.941529624645,9800.971722718685,20482.266900809635,3122.8292730843154
5221.836891393291,9769.813390947986,20534.614686323963,3055.0587838958245
4773.840877275572,9721.623029902345,19444.43070226082,2408.422816803791
4581.2805987931015,9720.68425663522,18605.189753197403,1989.8193466448008
4979.409871031031,9779.335234085946,19272.545787399507,2506.6587336848656
5351.812285400902,9790.801678991518,20451.39914171685,3118.694200360084
5227.357772273752,9752.535492484032,20545.2988201736,3059.372670575699
4776.187810443379,9702.534640137512,19479.18766488882,2420.0010204316404
4566.975482341705,9705.932105294718,18606.39674739799,1978.8669918617
4954.666489919006,9768.74050721413,19233.653752047278,2473.1311170019053
5339.161198039198,9788.70061501272,20425.985208271173,3099.270534428422
5226.329592028808,9758.12342859786,20559.045143013616,3069.5874177917744
4786.648426848463,9713.799919342986,19531.826023081067,2451.315814413525
4558.615929915421,9715.789224599508,18630.17900349844,1984.432576231072
4927.196195983433,9777.949425929715,19203.74711796607,2449.0359364790843
5324.2302327430525,9802.156365174817,20406.60624582842,3091.3803686356987
5229.212967063542,9770.79686770402,20584.74964913722,3080.0033307079475
4781.462822134831,9715.096320521394,19562.939651362856,2455.5402941155785
4539.169912239303,9715.051617032485,18637.82330010215,1969.5016109349265
4906.118500962079,9783.98439693265,19181.350670021853,2422.0573809215284
5315.24483147202,9809.890068756353,20391.69763227673,3076.94114171757
5236.879615411713,9778.910550941297,20608.509553493208,3088.5640488343297
4805.066264279636,9728.932050339228,19617.25439038925,2488.822041609531
4546.166008253814,9722.07006479145,18650.78731188623,1977.72705289448
4892.528640333252,9779.089364896938,19142.12335850279,2400.8679271778974
5306.90763079019,9799.965894218194,20352.380913779845,3060.5349612873747
5245.46268528255,9772.607359004898,20610.521210494186,3094.7331303039946
4825.674572667429,9725.445178204202,19649.619716360536,2516.1582250783717
4550.792819356063,9717.175032755737,18656.017620088773,1986.7348059099684
4888.862954242582,9779.245827108123,19115.03304422296,2391.256677062116
5316.407122183696,9808.213687922203,20340.109806073884,3065.6982142565507
5262.159438390665,9777.83766720744,20638.99733293025,3116.6154881257403
4833.967069860348,9727.903870094284,19692.222141292357,2537.5041410331896
4546.747153609652,9719.83489034592,18676.98355638785,1990.6687129341024
4873.552009290696,9784.431431821757,19093.77653524596,2371.2518657746155
5307.466424401573,9811.365283890402,20319.16622151926,3053.538865272864
5273.335310618319,9784.006748677106,20653.66007729293,3130.0265347989243
4856.251759082289,9733.692971908207,19729.95188593291,2563.1862954123376
4553.877360090895,9721.175995013236,18683.46556227989,1992.903887379633
4863.851352197094,9782.084498653949,19050.838834147315,2346.217911984672
5299.330389419841,9803.229248908669,20275.40150587577,3028.527263227375
5281.0466624554,9775.066050894982,20657.012838961225,3128.2160434980447
4868.522866788253,9730.11669279536,19762.183101437466,2580.84417353203
4548.155313510337,9716.549183910987,18689.76875421629,1994.647323447147
4844.472389754342,9778.575274774466,19008.05759525986,2321.474530872647
5296.1117382182765,9811.767615290595,20233.648447233256,3022.447588735532
5291.57433409385,9784.453783566212,20649.815577246616,3144.376354739232
4875.943645947415,9726.316896237957,19771.973165508887,2599.686694107854
4549.652880388842,9712.615276886854,18682.83971343514,1999.989390371965
4831.91070937046,9773.300263083012,18958.95081269155,2301.961457963164
5285.874639257746,9806.157327432316,20185.100458276327,3003.985047815448
5294.345950406308,9777.278873596058,20642.28303936518,3137.9837558250138
4896.440195612931,9731.3460387404,19805.16550602502,2619.445636206345
4556.291348492068,9712.235297231116,18699.75998398781,2011.902870166644
4816.66681965194,9767.958196158195,18928.820661165795,2283.141289131795
5274.698767030092,9802.22342040818,20158.010143996496,2991.2892569648334
5304.270124944464,9782.352719587412,20662.39960937496,3151.797133898393
4917.294373189732,9736.01755333156,19863.391800331094,2648.413497020423
4558.414764215322,9714.090492020903,18735.20985069393,2019.614222003725
4799.254810721256,9766.572388001963,18913.08503306926,2257.928521386209
5264.260502369464,9803.3633593754,20128.483489571037,2966.0317857303367
5308.71812209107,9779.782268975052,20665.484150109787,3147.1926745406004
4929.431370428964,9732.30716375198,19889.431582621524,2663.724441972309
4566.28257826359,9712.5929251424,18750.23022296789,2032.488826809982
4793.286894951689,9770.79686770402,18881.993756531927,2245.7915241469773
5266.316862859352,9812.862850768906,20093.011271120464,2960.06386996077
5322.307982719896,9790.376995846867,20664.52302509821,3158.1226775792456
4950.062030561213,9740.01851558906,19927.831879595746,2688.0207881952274
4571.579941699498,9716.370369955346,18761.361391706632,2036.154512900652
4785.463784392332,9775.088402639438,18845.53806132532,2226.412561704226
5262.51706630195,9817.646124082345,20044.28446820789,2943.277709874834
5335.450808459617,9791.695748769733,20658.80097851765,3165.923436394148
4979.678091964494,9748.892158137818,19962.18651082355,2721.2131287113584
4588.276694807612,9722.4947479361,18788.563464708743,2055.7569927879563
4773.170324941912,9773.590835760931,18818.2912848343,2208.821738817899
5252.458781297062,9817.221440937692,20002.017319442908,2924.6810584880186
5340.256433517508,9792.433356336756,20648.161548156924,3172.5842562418293
4980.259237320332,9736.732809154131,19972.42360978408,2736.769942852252
4581.995854615671,9706.15562273927,18791.91622637704,2064.317710914339
4758.5522840681415,9761.699707710708,18790.61982519863,2195.2318781890726
5235.985545633501,9803.5645250755,19970.23313882746,2908.945430391482
5335.495511948528,9784.498487055122,20652.900117981448,3172.941884153114
4993.960856671436,9743.773608657551,20019.27286616241,2761.133344308537
4585.840354661984,9711.184765241716,18823.25337210338,2081.685016356113
4735.46293204581,9755.59768147441,18755.5275864038,2174.1988866566285
5217.567708202328,9800.636446551856,19920.20993473649,2888.0689010702254
5331.762770624491,9782.643292265331,20641.70189400934,3173.791250442416
5000.688731752483,9741.001992345096,20040.551726883856,2775.9525508824054
4584.141622083381,9708.770776840542,18836.35149435419,2092.5256124169364
4720.196690582835,9755.284757052035,18727.02911222328,2163.179476640162
5204.134309784688,9798.691844784242,19875.01470744785,2871.573313662209
5338.736514894547,9784.252617866114,20629.386082814468,3176.920494666159
5017.251374393866,9743.68420167973,20065.138645784697,2797.8796121930613
4593.976389643716,9707.362616939858,18852.42239861756,2102.94152533311
4709.758425922207,9754.45774250719,18688.628815249063,2135.552720493403
5194.768928857914,9800.4129291073,19823.516288222825,2840.638499336064
5344.860892875301,9783.067975409982,20620.75830945472,3171.9584073970805
5033.277575168321,9744.265347035567,20091.73722168651,2813.682295522964
4602.134776369903,9700.657093603266,18872.82954130525,2108.9541445915875
4697.375559493967,9742.186634801226,18665.628870204557,2113.446845227104
5189.35980669973,9799.496507584632,19785.227749970883,2822.8241590051844
5353.890997635245,9782.263312609592,20609.113050593503,3169.0526806178905
5035.71391531395,9730.02728581754,20100.186181090616,2808.519042553788
4601.978314158716,9695.404433656267,18885.79355308933,2106.093121301308
4686.624370410964,9739.303259766491,18638.94088732492,2087.5635251478584
5175.032338503878,9790.756975502609,19734.981028435355,2790.414129544989
5359.613044215804,9780.586931775444,20596.819591143085,3165.923436394148
5063.340671460709,9742.074876078948,20138.6535332982,2843.3207086707007
4613.064779408548,9694.286846433502,18920.326998272776,2134.6586507151906
4662.104506743492,9727.233317760623,18618.332578937123,2077.907571543166
5145.5503875673285,9778.977606174662,19694.434963993423,2776.8466206606176
5347.788971398946,9774.395498561324,20587.543617194133,3170.9078754076813
5065.933473817525,9736.665753920764,20168.001373768016,2863.034947280282
4620.552613801076,9693.72805282212,18950.010114909423,2157.8821132042544
4661.746878832207,9729.468492206155,18604.630959586026,2075.9182662866438
5144.432800344563,9783.246789365625,19657.018143775244,2762.697966420408
5357.579035470371,9775.758954973096,20579.385230467946,3173.34421555331
5088.016997339368,9738.342134754914,20198.57856018288,2885.4537469689544
4630.476788339232,9687.804840541465,18980.72141179102,2172.678968033668
4651.1298002159365,9720.863070590864,18595.82437227063,2059.154457945164
5126.551404780317,9775.26721659508,19618.30492237865,2731.1149515050597
5351.901692378723,9769.008728147594,20564.700134360806,3159.106154335279
5090.229820040443,9727.501538694089,20222.00318837204,2886.861906869639
4632.868424995951,9679.065308459438,19014.874877318725,2177.082261691364
4637.539939587109,9715.364541454855,18588.403593111467,2038.233225134996
5111.173404595066,9771.579178759954,19584.39732603995,2701.387131379501
5349.308890021907,9762.951405400208,20557.07818950155,3147.416191985153
5104.378474280653,9728.216794516658,20256.73779925559,2903.469252999932
4649.699288570797,9681.591055582889,19059.15368308469,2202.0715119923966
4632.354334873478,9710.558916396967,18583.217988397835,2034.0087454329428
5102.970314379968,9771.64623399332,19551.69672390184,2694.614552809543
5359.970672127089,9772.473248538166,20552.74195107722,3169.9467503961027
5111.553384250807,9720.416035701755,20272.831055263407,2925.9998114108816
4659.802277064595,9681.546352093976,19085.1040583973,2227.2619279935275
4625.671163281341,9712.34705595339,18570.56690103613,2028.9125476971328
5086.608837438684,9768.896969425316,19508.624912336458,2672.396918820968
5356.595558714337,9767.399402546813,20538.50388985919,3157.094497334301
5137.079076418767,9734.83291087543,20315.50053542859,2948.597425055197
4675.716719116774,9687.022529485528,19127.348855417837,2250.440686993681
4614.316477098046,9710.78243384152,18561.40268580946,2022.6317075051916
5076.86347685617,9774.79782996152,19473.935004941824,2656.19190409087
5367.30204430843,9780.095193397428,20529.160860676868,3161.922474136648
5150.490123091951,9738.520948710557,20336.82409963895,2964.288349662823
4692.860507113995,9696.276151690025,19165.592690180863,2275.541696016991
4609.779072973618,9714.4928234211,18551.29969731566,2009.2877160653727
5058.244473724899,9768.561693258487,19421.587219427493,2616.3163919826025
5359.657747704715,9769.79103920353,20500.215351607247,3141.358869237765
5164.616425587706,9733.424750974746,20355.376047536854,2976.604160857697
4704.841042142039,9682.328663149914,19186.02218461301,2288.349245589882
4603.989971159694,9697.527849379523,18529.640856938466,1998.5365269823703
5046.576863119229,9753.340155284424,19369.77587578009,2598.680865607365
5360.797686671936,9758.391649531324,20466.598327946464,3139.213101770056
5169.980844256979,9721.287753735514,20355.01841962557,2984.695492350518
4712.641800956941,9672.851523500864,19205.870533689325,2303.302562630482
4588.768433185629,9682.462773616646,18510.217191006803,1980.901000607133
5027.153197187567,9742.924242368252,19319.21622982219,2566.092022191527
5359.970672127089,9756.759972186086,20443.218403246214,3131.322935977332
5194.724225369004,9731.904832351784,20387.40609734131,3010.154129285113
4751.220911886801,9698.377215668825,19260.00645876008,2346.1061532623958
4614.919974198338,9714.939858310208,18528.05388308214,2002.6939514510573
5045.414572407552,9781.972739931673,19299.792563890525,2570.942350738329
5388.245628863052,9793.170963903782,20437.60811538793,3145.7398111510056
5207.084740052788,9738.789169644018,20396.570312567987,3021.039428834847
4744.627147272486,9683.669767817231,19275.518569412063,2355.046851044518
4593.842279176984,9703.62987561582,18520.074310311596,1996.2119455590184
5011.395217346575,9768.65110023631,19257.39130465881,2544.0308504141394
5363.34578553984,9779.916379441784,20409.95900749672,3127.813712097849
5215.846623879269,9742.812483645974,20421.89483903585,3033.377591774177
4764.743717282262,9691.224657443126,19326.748767703622,2379.0973280784283
4589.595447730476,9696.432613901212,18521.66128416792,1978.1964395280409
5001.783967230794,9760.582120487945,19221.04736817448,2509.676219186332
5367.838486175357,9775.669547995276,20391.965853210197,3116.682543359106
5236.477284011517,9743.728905168642,20455.176586529804,3049.314385570811
4779.093537222569,9686.463735874146,19369.75352403564,2399.95150565523
4588.366101785434,9692.833983043907,18531.898383128453,1981.7503668964348
4990.384577558587,9761.02915537705,19200.550818508964,2499.014437081151
5368.531390253472,9775.669547995276,20384.589777539943,3115.453197414064
5253.174037119632,9745.785265658533,20482.24454906518,3068.402775335643
4799.120700254524,9688.162468452749,19419.79907987107,2426.7065437682327
4588.679026207808,9692.00696849906,18550.651496726456,1984.3431692532504
4978.918132653014,9758.011669875585,19176.299175774955,2483.8599543404525
5359.188361071153,9769.254597336603,20372.922166934277,3112.815691568338
5253.79988596438,9739.862053377874,20514.67693026983,3083.0878714427795
4808.776653859217,9690.06236673145,19473.68913575281,2455.5402941155785
4577.436098746789,9685.547314351476,18562.85554919905,1983.002064585932
4957.952196353936,9752.468437250667,19147.867756827804,2456.143791215872
5350.381773755762,9764.493675767622,20348.670524200264,3091.156851191145
5254.0234034089335,9731.59190792941,20524.55640131908,3082.551429575852
4818.47731095282,9689.34711090888,19505.607426834995,2474.874553069419
4571.2446655326685,9683.200381183671,18556.798226451665,1978.5317156948704
4943.378858969076,9751.104980838893,19098.62686379276,2430.662802536822
5352.77341041248,9770.550998515013,20313.667692383253,3083.7360720319834
5279.28087464343,9738.610355688375,20535.911087502373,3094.5096128594414
4846.998136877792,9686.933122507706,19546.131139532463,2491.4148439663463
4583.292255794079,9679.557046837455,18570.701011502864,1973.8154976148007
4934.527568164775,9741.963117356672,19063.42286627565,2396.0623021200063
5352.505189479017,9760.984451888138,20284.69983156917,3058.456249053031
5293.608342839282,9730.675486406742,20549.83622429803,3096.90124951616
4860.476238784342,9677.545389836478,19567.7676281652,2502.523660960634
4583.091090093982,9664.357860607846,18564.48722654429,1970.2168667574963
4921.541204636241,9728.954402083684,19020.01577854345,2381.2654472905933
5340.859930617801,9748.892158137818,20243.86319444933,3052.309519327822
5289.942656748612,9716.370369955346,20549.903279531394,3106.4454443985755
4868.366404577066,9668.15765716525,19604.625654772004,2531.9832601527287
4577.100822579959,9658.725221005108,18582.70389827537,1981.6609599186136
4895.546125834719,9717.26443973356,18987.024603727416,2353.258711488093
5329.907575834701,9744.198291802204,20217.376377269797,3034.0928475967467
5302.124357476754,9721.801843857986,20564.49896866071,3116.3472671922764
4889.287637387233,9676.271340402523,19646.244602947787,2560.817010500075
4583.918104638828,9666.77184900902,18596.941959493397,1992.3450937682503
4884.817288496171,9725.378122970837,18960.89541445916,2336.763124080077
5325.861910088291,9759.397478031811,20193.43765895816,3025.59918470373
5309.9027645472015,9733.02241957455,20583.520303192177,3123.298659717877
4897.982465980347,9682.373366638823,19697.832429150632,2576.5079351077006
4581.19119181528,9671.219846155624,18628.63673313102,1992.2780385348844
4871.383890078532,9732.441274218712,18943.19283285056,2314.590193580412
5306.617058112271,9753.36250702888,20162.011106253995,3003.180385015057
5308.136976735232,9736.196367287204,20593.310367263603,3130.786494110405
4901.581096837652,9687.15663995226,19732.276467356263,2597.3397609400467
4573.14456381137,9674.550256079468,18644.752340883297,1997.485994992971
4849.009793878769,9735.145835297804,18918.27063778289,2293.266629370049
5299.5762586088495,9767.958196158195,20144.37557987876,2995.692550622529
5313.210822726586,9745.204120302693,20607.771945926183,3136.4861889465083
4922.658791859007,9703.540468638,19780.77975282428,2623.8489298640407
4577.480802235699,9682.686291061198,18666.500588238312,2006.292582308362
4836.537520472708,9741.583137700933,18892.096745025727,2274.915847172242
5295.552944606894,9775.73660322864,20110.333873073327,2978.861687047683
5323.29145947593,9752.155512828293,20613.73986169575,3140.62126167074
4941.568367668196,9708.837832073908,19820.11882306562,2646.424191763901
4585.795651173074,9687.87189577483,18691.400431561524,2018.2731173364064
4826.255718023267,9740.957288856183,18864.872320279163,2255.536884729491
5298.90570627519,9779.692861997231,20089.03266060742,2971.3067974217893
5346.134942309254,9757.74344894212,20628.93904792536,3155.86515138926
4964.657719690528,9707.273209962035,19852.32768682572,2670.251151353258
4594.356369299456,9682.999215483573,18705.169106145997,2034.366373344228
4823.417046477442,9739.45972197768,18832.43993907451,2247.154980558751
5298.838651041824,9780.966911431184,20044.15035774116,2961.606140328186
5355.612081958304,9758.16813208677,20626.45800429082,3167.7115759505723
4975.028929117791,9708.21198322916,19882.927224985036,2694.413387109445
4597.776186201118,9686.933122507706,18720.256533653323,2042.9717949595208
4807.2120317473455,9743.080704579435,18804.47790676092,2225.6078989038347
5290.233229426531,9791.98632144765,20014.93662773808,2945.1329046646247
5356.349689525329,9765.432449034744,20624.133422867468,3163.978834626536
4985.355435056143,9713.934029809718,19914.867867811667,2707.735026804808
4602.045369392082,9692.945741766183,18746.09515024366,2050.3478706297724
4791.163479228435,9745.07000983596,18780.181560538003,2203.747892826545
5274.028214696434,9788.27593186807,19981.65488024412,2925.418666055044
5363.926930895678,9768.673451980763,20634.41522531691,3173.411270786676
4995.7489962278605,9714.381064698824,19949.155443806107,2728.924480548439
4595.675122222319,9688.475392875123,18766.032906297794,2055.913454999144
4768.297644650656,9742.656021434786,18756.24284222637,2181.5526105824247
5254.984528420512,9790.488754569144,19937.867812856177,2898.6859796864965
5361.803515172424,9769.36635605888,20634.169356127903,3170.773764940949
5011.574031302218,9719.410207201268,19992.33901409376,2752.2149982708693
4606.046331649582,9692.521058621533,18792.20679905496,2072.476097640526
4748.717516507807,9732.061294562973,18716.12146092909,2154.484648047048
5235.672621211126,9779.581103274955,19885.005937219372,2868.1087932716364
5354.829770902368,9756.625861719354,20612.577570984075,3155.038136844413
5019.352438372664,9710.178936741226,20008.700491035044,2754.4501727164
4608.013285161649,9686.307273662958,18808.121241107136,2072.74431857399
4744.783609483673,9741.35962025638,18701.257550866318,2140.2242350845618
5226.821330406825,9788.588856290444,19846.896212923075,2848.70747908443
5365.335090796362,9771.869751437873,20611.05765236112,3164.4258695156423
5042.151217717078,9727.322724738446,20052.39815144517,2788.134251610548
4621.424331834833,9692.185782454704,18849.941354983017,2091.989170550009
4735.574690768086,9739.124445810849,18689.8134577052,2126.030877355442
5220.0934553257775,9790.801678991518,19821.57168645521,2836.414019634011
5370.230122832075,9772.808524704997,20616.4667745193,3164.8058491713823
5057.663328369061,9730.004934073084,20089.94908213009,2804.7192459963853
4620.194985889792,9688.542448108488,18865.83344529074,2100.41577820966
4715.748693436229,9734.274117264047,18659.482140479344,2105.355513734283
5201.116824283222,9785.83959172244,19777.181121966973,2810.977734443872
5375.549838012438,9781.525705042566,20609.3142162936,3171.9137039081697
5069.867380841659,9735.279945764536,20111.16088761817,2824.1429119280474
4627.794579004595,9692.5881138549,18892.45437293701,2118.0736563293526
4709.110225333003,9738.520948710557,18642.047779804205,2094.3361037178165
5200.110995782733,9795.294379627036,19740.0101709378,2797.611391259598
5377.0027014020325,9784.4090800773,20602.519285979182,3170.237323074022
5079.500982701896,9740.622012689357,20141.78277752194,2840.7502580583405
4636.4447041088,9695.292674933991,18922.450413996037,2134.189264081629
4687.4066814669,9727.188614271714,18615.89623879149,2068.899818527677
5173.177143714088,9783.336196343444,19694.18909480442,2765.715451921875
5370.408936787718,9770.863922937384,20587.431858471857,3159.24026480201
5089.134584562134,9732.30716375198,20165.140350477737,2855.1671332320134
4646.793561791606,9697.259628446058,18942.164652605614,2152.04830790142
4686.780832622151,9738.431541732734,18591.488133846306,2067.9386935160987
5167.9691872560015,9793.483888326156,19641.59544010108,2750.9185970924614
5384.848163705846,9788.097117912426,20561.72735234825,3163.1965235706
5114.325000563264,9750.009745360583,20170.147141235728,2870.589836906176
4658.9976142642045,9702.691102348695,18947.3726090637,2159.8267149718663
4676.5437336616205,9738.431541732734,18556.82057819612,2043.128257170708
5157.195646428543,9795.94258021624,19593.62859649999,2723.984745023816
5381.741271226558,9787.583027789957,20549.32213417556,3156.8262764008377
5113.118006362678,9740.510253967075,20198.600911927333,2885.4313952244997
4667.223056223757,9705.6415326168,18995.13828696469,2188.7498722970336
4661.143381731914,9735.481111464633,18555.23360433979,2042.413001348138
5136.7438002519375,9791.874562725374,19560.190386794853,2711.4677681288445
5377.15916361322,9788.722966757176,20543.577735850544,3162.1459915812006
5127.847805958725,9751.373201772358,20235.593049000865,2909.057189113759
4673.190971993324,9710.022474530038,19027.682426891617,2205.58073587188
4655.376631662444,9744.779437158042,18551.81378743813,2037.160341401141
5129.926518193069,9805.12914718737,19527.534488145648,2697.319113888635
5388.335035840873,9801.485812841156,20532.06658745606,3165.6328637162287
5141.862349732202,9755.68708845223,20258.41418008973,2929.017296912348
4675.560256905586,9707.004989028572,19057.857281906283,2221.405770946237
4638.054029709581,9740.867881878365,18539.20740356534,2020.5753470153031
5107.999456882412,9802.916324486296,19486.87666498145,2668.3736048190126
5382.545934026949,9801.865792496896,20521.11423267296,3155.3734130112425
5156.413335372607,9762.280853066546,20294.691061340694,2942.920081963549
4697.576725194064,9716.817404844453,19106.517029585484,2243.7128119126337
4631.3485063729895,9737.559823698975,18532.14425231746,2005.5996782302475
5090.699206674005,9800.971722718685,19444.631867960918,2640.4115725054235
5373.985215900567,9798.691844784242,20500.327110329523,3148.0196890854468
5162.135381953166,9761.4538385217,20319.903829086285,2959.6838903050293
4705.7798154091615,9714.448119932187,19154.036838297467,2266.1986668346726
4626.364067359456,9733.380047485834,18551.4785112713,2006.7172654530127
5077.3999187230975,9796.70253952772,19424.761167140143,2623.491301952756
5377.136811868765,9800.144708173835,20503.612816764453,3149.7631251529606
5170.271416934898,9756.044716363516,20354.861957414385,2970.792707299317
4716.396894025433,9713.084663520416,19199.053251630456,2288.8409839678984
4614.0929596534925,9727.300372993992,18543.253069311748,1994.9155443806108
5057.529217902329,9785.41490857779,19381.91287301932,2591.483603892756
5379.8190212034015,9795.60730404941,20484.457371766257,3139.6154331702514
5194.612466646728,9761.498542010611,20381.974623438677,2992.317437209778
4735.060600645614,9715.11867226585,19235.911278237258,2312.086798201418
4615.478767809721,9736.464588220668,18548.282211814192,1995.9437246255548
5049.57199687624,9793.640350537342,19355.51546281761,2580.754766554209
5379.103765380832,9800.256466896111,20475.04728735057,3141.9847180825136
5208.671713909115,9765.477152523656,20413.02119648709,3011.830510119261
4742.436676315865,9711.363579197356,19273.73042985564,2328.7388478206217
4613.757683486662,9734.721152153154,18550.785607193186,1994.1332333246748
5045.95101427448,9798.60243780642,19327.01698863709,2568.5730658260663
5381.070718892899,9800.524687829577,20462.19503428877,3134.7874563679047
5222.350981515763,9765.007765890094,20441.6761328788,3022.6711061800847
4768.767031284217,9717.040922289005,19321.384349034357,2359.852476102409
4610.471977051732,9728.507367194576,18547.902232158453,1987.6959309215465
5029.276612910821,9795.115565671393,19287.34264222892,2536.721829977254
5385.809288717424,9811.27587691258,20447.778159115096,3126.8972905751816
5236.454932267062,9777.50239104061,20465.234871534693,3034.897510397137
4785.083804736591,9733.424750974746,19365.66315480032,2382.0030548576183
4606.2251456052245,9739.996163844606,18553.31135431664,1981.1245180516864
5014.882089481604,9805.710292543208,19257.279545936533,2514.5936029665
5369.067832120399,9812.304057157524,20424.599400114945,3112.3910084236877
5240.679411969115,9779.73756548614,20484.613833977444,3044.732277957473
4795.879697308505,9730.675486406742,19407.706786120747,2398.610400987912
4601.732444969707,9735.59287018691,18568.510540546245,1977.458831961016
4995.972513672414,9795.495545327132,19222.768452497538,2483.189402006793
5363.703413451125,9801.821089007984,20400.75008878113,3091.8944587581705
5244.479208526517,9765.87948392385,20503.054023153072,3043.882911668171
4797.779595587206,9713.77756759853,19435.713521923248,2407.0593603920174
4586.24268606218,9712.168241997748,18560.307450331147,1961.8573143312117
4972.324368038699,9777.614149762889,19185.575149723907,2453.305119670048
5365.893884407746,9807.18550767726,20394.17867591127,3095.783662293394
5270.943673961601,9790.019367935583,20546.863442285478,3081.6126563087296
4829.161444802457,9744.287698780025,19506.501496613204,2455.1826662042936
4589.282523308101,9734.855262619883,18585.162590165448,1975.648340660136
4967.474039491897,9802.312827386002,19164.966841336118,2449.751192301654
5368.1961140866415,9825.357475919423,20372.07280064497,3091.603886080252
5275.168153663654,9791.27106562508,20551.937288276826,3080.7185865305173
4841.477255997331,9741.471378978657,19534.754101604714,2467.833753565997
4601.352465313968,9741.292565023014,18592.20338966887,1978.6658261616024
4968.368109270109,9808.70542630022,19134.903745043724,2428.71820076921
5366.54208499695,9822.69761832924,20341.495614230116,3072.7390137599723
5282.52187758945,9787.135992900849,20561.12385524796,3080.584476063785
4850.395602034999,9734.855262619883,19573.10969509002,2479.590771149489
4593.596409987976,9732.843605618908,18607.20141019838,1969.032224301365
4943.289451991254,9798.580086061966,19102.20314290561,2386.383996770858
5352.125209823276,9821.937659017762,20317.53454417402,3043.7040977125284
5286.947522991601,9794.579123804466,20582.67093690288,3083.601961565252
4859.403355050487,9746.254652292091,19616.583838055594,2503.1495098053824
4590.444814019777,9747.774570915051,18628.41321568647,1985.05842507582
4924.916318048992,9808.012522222103,19077.750334471504,2386.696921193233
5351.7005266786255,9832.845310311952,20299.474334654133,3060.1549816316347
5300.939715020623,9800.882315740862,20599.770021411183,3111.3628281787437
4878.782317493238,9750.233262805135,19656.1911292304,2533.9725654092517
4582.375834271412,9733.938841097215,18626.58037264113,1978.0399773168535
4909.001875996813,9801.686978541253,19039.52885145293,2359.830124357953
5343.028049829966,9829.649010854842,20267.39958136077,3045.760458202417
5310.059226758388,9800.681150040764,20600.37351851148,3121.7116858615504
4891.075776943658,9749.719172682664,19674.161931772465,2555.944330208818
4595.920991411328,9746.008783103083,18628.77084359775,1992.322742023795
4907.750178307317,9808.973647233684,18992.120801463225,2343.759220094588
5332.075695046866,9821.937659017762,20207.36279575381,3013.7751118868723
5319.849290829813,9801.977551219172,20598.49597197723,3116.5707846368296
4913.315762676688,9753.16134132878,19710.19294383442,2571.299978649614
4592.009436131649,9738.54330045501,18636.526898923745,1987.3383030102616
4885.890172230026,9799.3623971179,18954.81573996732,2314.5231383470464
5335.607270670805,9830.587784121964,20182.99939429753,3009.1930042735344
5330.533424679449,9804.637408809354,20603.88274239096,3126.2937934748884
4927.64323087254,9758.235187320137,19733.751682490318,2593.428205660368
4605.264020593646,9749.160379071282,18644.506471694287,2005.8678991637112
4870.668634255962,9795.5626005605,18910.35812024571,2296.2170596381497
5317.457654173095,9818.09315897145,20136.954800719595,2990.015207530881
5335.897843348724,9798.98241746216,20609.69419594934,3133.982793567514
4945.524626436785,9760.246844321116,19781.003270268837,2620.0491333066384
4591.472994264722,9734.676448664242,18661.87377713606,1996.927201381588
4856.184703848923,9795.741414516142,18885.10064901121,2270.8031261924657
5320.922174563668,9827.592650364952,20110.490335284518,2975.2630561903784
5347.185474298653,9806.023216965585,20616.64558847494,3137.9837558250138
4953.1689230405,9759.50923675409,19811.893381106067,2634.2871945246693
4591.048311120071,9733.558861441476,18676.08948660964,1998.2459543044515
4835.665802438951,9793.953274959717,18856.55747134179,2244.4280677352035
5299.8668312867685,9829.760769577118,20078.75085815798,2955.6382245586187
5340.547006195428,9805.442071609745,20626.32389382409,3139.593081425796
4958.041603331757,9761.476190266156,19855.70280023847,2656.862456424529
4591.763566942641,9741.426675489744,18705.571437546187,2015.7920737018676
4821.807720876661,9804.391539620345,18837.111453665668,2233.319250740916
5294.681226573137,9846.5245779186,20051.81700608933,2948.195093655001
5343.206863785608,9818.80841479402,20623.865201934004,3145.136314050712
4966.065879591212,9767.779382202552,19878.658041794068,2671.0558141536494
4587.941418640783,9742.611317945875,18710.332359115167,2014.6968382235573
4800.551211899664,9801.709330285708,18795.604264212165,2204.284334693472
5275.346967619296,9848.938566319772,19999.513924063915,2925.53042477732
5341.575186440371,9824.619868352398,20608.509553493208,3149.71842166405
4981.063900120724,9779.603455019407,19908.341158430718,2702.705884302364
4594.043444877082,9756.290585552524,18737.08739722817,2041.0271931919087
4786.246095448268,9810.98530423466,18775.890025602585,2198.2717154349943
5262.651176768682,9856.51580769012,19966.254528314417,2911.851157170672
5349.264186532997,9837.449769669744,20620.28892282116,3157.921511879148
4997.313618339732,9793.997978448628,19952.128225818666,2728.902128803984
4595.3845495444,9761.409135032787,18765.496464430867,2053.588873575792
4769.437583617876,9814.338065902955,18755.929917803995,2179.540953581447
5253.062278397355,9857.879264101895,19942.405216980605,2896.070825585225
5348.101895821321,9830.85600505543,20626.994446157747,3153.853494388282
5007.975400444913,9791.315769113991,19996.00470018443,2741.374402210045
4607.789767717096,9770.036908392538,18803.5391334938,2068.2739696829285
4757.032365445181,9816.014446737105,18740.32840017419,2160.698433005623
5241.908757914157,9866.864665372928,19911.78332707683,2877.8541538541504
5363.7928204289465,9852.76071462163,20638.23737361877,3165.856381160782
5028.963688488447,9806.023216965585,20032.9297820246,2763.5026292207995
4624.754741758674,9783.693824254731,18833.22225013045,2082.0202925229423
4750.818580486605,9821.021237495092,18717.55197257423,2138.570205994869
5225.36846701723,9857.432229212787,19869.82910273422,2845.533531371776
5364.44102101815,9844.915252317816,20638.326780596588,3158.659119446173
5043.04528749529,9809.867717011895,20074.191102289093,2780.3334927956457
4617.669238766342,9776.78713521804,18863.039477233822,2084.456632668571
4729.807940698617,9817.4673101267,18700.430536321463,2115.033819083431
5222.194519304576,9869.56922645202,19850.338381569192,2835.60935683362
5381.674215993192,9863.444848471268,20652.18486215888,3171.6678347191614
5055.472857412441,9812.818147279995,20107.74107071651,2796.896135437028
4623.324230113534,9777.323577084968,18893.996643304425,2099.029970053431
4723.2141760843015,9827.167967220304,18697.12247814208,2108.9094411026767
5212.627972677705,9878.867552145428,19828.187802813984,2821.7512752713296
5373.024090888988,9861.500246703656,20653.570670315108,3173.232456831033
5067.788668607315,9820.015408994605,20157.004315496008,2829.820255019695
4628.018096449148,9780.922207942273,18941.136472360668,2126.366153522272
4699.878954872961,9819.3672084054,18683.21969309088,2097.063016541364
5188.152812499144,9871.737345664184,19783.14903773654,2797.7231499818745
5369.224294331586,9862.28255775959,20644.54056555517,3169.656177718184
5074.471840199451,9819.076635727482,20178.551397150924,2839.9455952579497
4635.617689563953,9784.163210888291,18962.080056915293,2135.6868309601346
4682.466945942277,9815.567411847998,18657.381076500544,2074.331292430317
5170.494934379451,9874.933645121297,19744.324057617672,2776.511344493788
5368.509038509016,9865.4788572167,20634.862260206017,3169.097384106801
5081.669101914061,9818.964877005206,20205.57465619739,2853.893083798061
4637.6293465649305,9779.98343467515,18987.82926652781,2144.985156653542
4676.722547617263,9820.70831307272,18640.147881525503,2054.2147224205405
5164.63877733216,9879.29223529008,19696.893655883512,2745.1071435340814
5375.035747889966,9862.953110093247,20610.521210494186,3157.8544566457817
5107.798291182315,9825.17866196378,20230.36274079833,2868.6899386274745
4662.596245121508,9788.07476616797,19021.915676822147,2163.1347731512515
4682.757518620196,9823.211708451714,18633.375302955545,2049.8561322517558
5159.296710407342,9882.354424280456,19661.488492666304,2725.1693874799475
5380.377814814784,9870.485647974689,20604.910922635907,3153.071183332346
5115.82256744177,9824.061074741016,20256.044895177474,2879.932866088494
4666.239579467724,9779.201123619214,19052.090531836813,2173.8859622342543
4667.535980646131,9813.55575484702,18616.276218447238,2031.0583151648425
5145.013945700401,9874.263092787634,19614.818050243623,2698.928439489417
5388.625608518792,9872.117325319923,20591.90220736292,3150.210160042067
5134.441570573041,9830.498377144144,20281.30236641197,2896.227287796413
4673.63800688243,9779.178771874758,19076.74450597101,2190.560363597913
4661.277492198646,9818.5178421161,18609.146011965997,2031.1477221426635
5129.703000748516,9877.213523055736,19584.889064417966,2691.2170876523364
5380.243704348052,9871.223255541714,20588.147114294425,3157.787401412416
5135.067419417789,9826.81033930902,20311.45486968218,2916.120340361636
4679.650626140908,9784.498487055122,19113.73664304455,2214.34261969836
4641.295032655601,9812.03583622406,18593.656253058463,2015.546204512859
5103.417349269074,9867.28934851758,19538.039808039644,2658.404726791945
5374.320492067396,9867.356403750946,20565.52714890565,3143.281119260921
5148.880797491169,9829.716066088207,20332.55491644799,2927.3856195671106
4688.144289033925,9779.98343467515,19142.145710247245,2228.424218705204
4629.96269821676,9804.212725664704,18581.5863110526,1998.447120004549
5091.526221218851,9868.630453184898,19503.461659367284,2631.6496886789428
5376.555666512927,9869.703336918752,20560.274488958657,3138.229625014022
5160.324890652286,9833.046476012049,20368.384762809845,2944.1941313975017
4696.54854494912,9782.97856843216,19185.77631542401,2246.1044485693515
4610.315514840546,9800.524687829577,18574.72432550482,1982.0409395743536
5066.939302318014,9863.266034515624,19462.826187947536,2605.4087406884123
5367.324396052885,9866.797610139563,20536.69339855831,3127.657249886662
5167.87978027818,9831.392446922357,20381.50523680511,2949.223273899945
4707.724417176773,9783.023271921073,19205.579961011408,2256.0956783408737
4614.29412535359,9808.4148536223,18557.379371807503,1975.648340660136
5065.151162761589,9873.86076138744,19420.26846650463,2592.8247085600747
5373.493477522549,9873.436078242788,20515.50394481468,3127.6348981422066
5181.603751373738,9833.292345201058,20397.28556839056,2965.4729921189537
4724.488225518254,9785.213742877691,19241.47686260663,2283.2083443651613
4598.446738534777,9791.628693536364,18544.86239491253,1960.8291340862677
5038.373772904131,9856.4264007123,19369.77587578009,2553.4632865742788
5367.503210008527,9868.094011317971,20493.822752693028,3115.6320113697066
5189.717434611015,9826.81033930902,20417.692711078253,2980.247495203912
4734.41240005641,9778.307053841,19274.04335427801,2306.677676043233
4598.156165856858,9790.086423168948,18547.097569358066,1964.159544010108
5029.008391977357,9853.677136144295,19328.581610748963,2537.2582718441813
5368.151410597731,9863.28838626008,20461.79270288857,3109.529985133408
5212.806786633348,9834.007601023628,20437.29519096556,3002.9345158260485
4753.590196799064,9782.12920214286,19316.466965254185,2335.3549641793925
4588.209639574247,9790.55580980251,18545.62235422401,1963.131363765164
5008.80241498976,9858.70627864674,19290.941273086224,2516.8064256675752
5358.003718615022,9866.57409269501,20442.34668521246,3102.6009443522626
5217.098321568767,9838.634412125875,20457.031781319594,3018.245460777934
4764.699013793351,9787.672434767775,19356.700105273736,2362.177057525761
4587.203811073758,9791.807507492009,18552.17141534941,1967.489953933949
4998.140632884578,9855.19705476726,19256.787807558518,2500.690817915299
5359.881265149268,9869.502171218655,20429.449728661744,3099.9634385065365
5222.328629771308,9834.655801612833,20481.596348475978,3023.0957893247355
4775.472554620809,9788.298283612525,19396.79913482656,2379.812583900998
4590.333055297501,9795.316731371491,18565.224834111315,1967.5793609117704
4987.188278101477,9858.214540268724,19221.3379408524,2475.589808891989
5359.747154682535,9871.491476475176,20393.95515846672,3087.2452959114667
5234.219757821531,9830.096045743949,20486.401973533862,3036.283318553367
4789.285932694189,9780.184600375247,19425.74464389618,2402.723121967688
4583.76164242764,9786.93482720075,18558.787531708185,1964.226599243474
4973.754879683838,9851.352554720945,19181.574187466405,2455.652052837855
5362.63052971727,9866.685851417284,20372.430428556258,3083.825479009805
5250.961214418557,9830.94541203325,20501.265883596647,3049.850827437738
4808.486081181298,9783.716175999189,19458.780522201127,2424.136093155872
4589.684854708297,9786.666606267288,18561.76031372074,1959.2421602299405
4968.055184847735,9850.480836687188,19149.544137661956,2436.0942764394613
5350.761753411503,9858.66157515783,20343.03788459753,3068.402775335643
5257.934958688612,9827.123263731391,20515.21337213676,3057.785696719372
4821.695962154385,9779.201123619214,19491.86110399498,2441.324584642003
4573.85981963394,9771.60153050441,18555.81474969563,1951.709622348502
4939.288489733754,9831.683019600276,19102.046680694424,2404.1536336128274
5355.992061614044,9861.76846763712,20323.323645987948,3065.005310178436
5274.765822263458,9831.23598471117,20537.96744799226,3074.437746338576
4836.805741406172,9780.430469564257,19534.37412194897,2465.308006442548
4578.419575502822,9776.518914284576,18567.616470768036,1954.5035904054157
4939.243786244844,9846.23400524068,19082.377145573755,2391.3460840399366
5352.482837734561,9863.690717660274,20304.056442267472,3052.913016428115
5287.23809566952,9833.18058647878,20559.44747441381,3085.7700807774168
4853.748363703295,9782.710347498698,19572.8191224121,2488.4420619537905
4580.297122037068,9773.121449127371,18578.658232528956,1957.230503228963
4920.647134858029,9834.968726035206,19044.26742127745,2364.233418015649
5345.956128353611,9861.679060659297,20274.909767497757,3035.970394130992
5299.732720820037,9835.505167902133,20570.69040187483,3090.598057579763
4874.87076221356,9784.900818455317,19613.14166940948,2512.626649454433
4584.2757325501125,9772.562655515989,18589.40942161196,1965.612407399703
4911.63938184254,9833.18058647878,19012.37148193973,2353.057545787996
5351.097029578332,9863.310738004537,20246.366589828325,3032.751742929428
5318.597593140315,9831.437150411266,20580.815742113085,3100.3210664178214
4893.5568205781965,9772.808524704997,19650.22321346083,2531.3350595635247
4590.444814019777,9758.637518720332,18610.420061399946,1965.746517866435
4900.374102637065,9821.669438084298,18983.3812693812,2321.5192343615577
5334.19911077012,9844.132941261882,20209.396804499247,3001.146376269624
5313.747264593514,9814.94156300325,20587.431858471857,3099.47170012852
4903.503346860808,9768.919321169771,19692.557417459186,2561.420507600368
4585.818002917529,9751.93199538374,18621.283009205225,1976.67652090508
4879.944608204914,9813.153423446824,18949.920707931604,2304.93423997572
5322.330334464352,9839.439074926267,20173.365792437293,2995.223163988968
5321.972706553067,9816.081501970471,20597.69130917684,3116.2802119589105
4923.865786059593,9769.969853159171,19737.23855462534,2585.1804119563594
4590.601276230965,9747.126370325848,18645.78052112824,1983.4938029639488
4861.191494606912,9797.03781569455,18917.80125114933,2277.463946040147
5319.089331518332,9830.252507955136,20144.308524645392,2982.3485591827107
5328.611174656293,9798.04364419504,20597.98188185476,3121.1528922501675
4935.131065265067,9744.064181335472,19761.7137148039,2605.296981966136
4591.249476820169,9721.77949211353,18648.52978569624,1989.1040908222308
4851.513189257764,9781.79392597603,18877.16577972958,2259.604902220357
5307.935811035134,9813.80162403603,20092.430125764626,2957.3369571372223
5333.48385494755,9784.118507399382,20581.88862584694,3115.2520317139665
4938.752047866828,9729.982582328628,19770.475598630383,2613.544775670144
4581.2805987931015,9703.58517212691,18644.32765773865,1988.545297210848
4819.393732475488,9748.802751159996,18830.696503006995,2230.100599539352
5289.115642203766,9788.342987101434,20056.64498289168,2947.5468930657976
5335.316697992886,9767.555864758,20598.49597197723,3133.2004825115782
4959.561521954718,9722.472396191644,19829.30539003675,2647.5417789866665
4600.525450769121,9705.082739005416,18692.51801878429,2013.020457389409
4833.162407059956,9764.113696111885,18833.624581530643,2229.832378605888
5306.974686023556,9805.017388465094,20049.805349088358,2943.478875574932
5363.010509373011,9780.586931775444,20622.725262966786,3144.510465205964
4981.354472798643,9724.5958119149,19876.199349903985,2669.044157152672
4605.375779315922,9699.271285447036,18716.814365007205,2018.3401725697724
4816.420950462932,9751.954347128194,18805.77430793933,2204.9101835382203
5280.018482210456,9778.575274774466,20006.01828170041,2909.258354813857
5353.578073212872,9758.749277442608,20619.19368734285,3135.9273953351258
4991.770385714815,9713.06231177596,19907.804716563787,2690.546535318677
4597.485613523199,9680.786392782496,18728.593734335154,2026.9455941850656
4789.889429794483,9738.520948710557,18771.106752289143,2186.1347181957626
5273.961159463067,9787.091289411936,19971.149560350128,2909.4818722584096
5356.416744758695,9763.64430947832,20619.014873387205,3154.4793432330302
4991.32335082571,9711.25182047508,19935.27501049936,2711.646582084487
4589.662502963842,9677.903017747763,18745.37989442109,2034.612242533236
4764.900179493449,9728.77558812804,18737.221507694903,2161.838371972844
5254.313976086853,9779.894027697328,19931.25169649741,2884.7384911463846
5349.53240746646,9752.915472139774,20614.656283218417,3145.8515698732817
5001.158118386044,9706.088567505903,19966.09806610323,2725.974050280339
4594.982218144205,9673.700889790163,18764.04360104127,2044.0893821822865
4748.471647318798,9722.628858402832,18709.03595793676,2141.766505451978
5239.830045679813,9773.009690405092,19886.74937328689,2862.990243791371
5354.941529624645,9752.624899461856,20601.3122917786,3146.4550669735754
5014.099778425668,9702.691102348695,19986.66167100211,2741.642623143509
4601.084244380503,9664.87195073032,18784.473095473422,2054.997033476476
4739.732115236773,9710.245991974592,18683.5102657688,2126.1649878221738
5227.804807162858,9759.531588498545,19840.43655877549,2842.5607493592206
5355.008584858011,9737.4480649767,20594.472657975275,3143.683450661117
5028.270784410332,9691.805802798965,20028.39237790017,2762.4968007203106
4609.734369484708,9657.808799482442,18827.880183205627,2073.705443585568
4730.567900010097,9702.311122692958,18683.7114314689,2115.056170827886
5213.924373856113,9750.07680059395,19818.576552698203,2824.5005398393323
5360.663576205204,9734.184710286228,20605.022681358183,3150.008994341969
5041.57007236124,9686.77666029652,20062.322325983325,2779.372367784067
4613.6235730199305,9645.6270987543,18853.38352362913,2089.731644360023
4717.4027225259215,9689.838849286896,18660.44326549092,2107.4118742241712
5204.6036964182495,9742.723076668151,19776.287052188763,2813.4364263339558
5370.431288532172,9728.149739283292,20591.96926259628,3162.1459915812006
5064.547665661296,9679.19941892617,20089.88202689672,2819.024362447782
4633.337811629512,9643.235462097582,18881.725535598463,2120.286479030428
4721.3142778056,9694.979750511617,18646.07109380616,2102.382731721727
5196.713530625526,9739.906756866783,19734.42223482397,2789.117728366581
5373.784050200468,9728.060332305471,20585.93429159335,3155.86515138926
5078.741023390416,9685.39085214029,20118.760480732977,2824.5899468171533
4638.322250643045,9643.90601443124,18905.619550421183,2115.5926126948134
4697.822594383072,9681.81457302744,18627.429738930437,2067.0446237378865
5186.007045031434,9740.957288856183,19713.635112480537,2766.8777426335505
5385.049329405943,9736.375181242844,20597.780716154663,3160.938997380614
5085.223029282454,9682.663939316742,20155.32793466186,2838.984470246371
4636.377648875434,9638.832168439883,18938.811890937315,2129.964784379576
4684.657416898896,9683.267436417036,18616.231514958326,2060.7861352904006
5171.321948924297,9743.639498190822,19680.93451034242,2752.63968141552
5375.818058945902,9729.73671313962,20591.90220736292,3157.183904312122
5101.964485879479,9686.508439363057,20193.19178976915,2861.403269935044
4658.394117163911,9644.62127025381,18976.63104255569,2155.401069569715
4678.622445895964,9677.81361076994,18589.990566967797,2043.910568226644
5156.21216967251,9731.010762573573,19621.881201491506,2723.6941723458976
5394.101785910343,9734.83291087543,20577.574739167063,3162.7271369370387
5124.763265223893,9689.615331842344,20213.397766756745,2879.307017243745
4668.474753913254,9643.369572564314,18999.04984224437,2166.733404008556
4670.486410914232,9676.20428516916,18575.551340049667,2028.6219750192136
5147.07030619029,9734.296469008505,19585.559616751627,2701.2083174238587
5390.816079475413,9735.056428319982,20560.96739303677,3153.0264798434355
5134.620384528683,9691.336416165404,20240.48808103658,2894.4167964955327
4677.996597051215,9646.409409810234,19028.442386203096,2189.331017652872
4662.260968954679,9677.970072981128,18558.496959030268,2024.129274383697
5134.933308951057,9736.710457409676,19541.101997030026,2685.3832823495013
5382.881210193778,9728.753236383583,20539.82264278205,3149.67371817514
5144.455152089018,9692.074023732428,20261.81164524694,2915.941526405993
4687.5854954225415,9646.230595854591,19062.841720919816,2212.509776653025
4649.475771126244,9676.24898865807,18550.070351370618,2014.9203556681105
5116.940154664535,9738.610355688375,19501.450002366302,2660.6175494930208
5390.078471908388,9745.047658091506,20526.81392750906,3147.684412918617
5159.855504018725,9705.373311683335,20288.94666301569,2927.989116667404
4702.337646763044,9658.658165771743,19099.409174848697,2230.8829105952877
4645.295994913101,9682.887456761297,18543.05190361165,2004.035056118376
5105.429006270052,9742.097227823404,19457.841748934003,2636.745886414753
5391.665445764715,9743.214815046167,20508.239627866704,3145.628052428729
5179.189762972565,9706.043864016994,20315.20996275067,2953.335994879722
4713.558222479609,9653.53961629148,19137.18362297817,2251.9159021277314
4635.617689563953,9676.830134013908,18543.163662333925,1992.7921286573564
5087.078224072245,9736.621050431855,19427.0857485635,2608.8732610789853
5385.809288717424,9743.371277257356,20500.86355219645,3132.8652063447485
5187.526963654395,9709.217811729648,20347.396474766312,2960.086221705225
4732.691315733351,9663.597901296363,19190.403126526253,2275.698158228178
4638.501064598688,9683.379195139312,18550.226813581805,1992.5015559794372
5082.116136803167,9748.065143592972,19397.31322494903,2592.8694120489854
5389.87730620829,9756.290585552524,20486.513732256142,3131.054715043869
5196.758234114437,9716.30331472198,20366.12723661986,2976.8500300467053
4739.083914647569,9668.24706414307,19215.99587392758,2300.17331840674
4631.706134284274,9691.895209776783,18545.354133290548,1997.128367081686
5067.609854651672,9751.462608750178,19362.757428021127,2578.6984060643204
5382.9706171716,9752.066105850472,20464.29609826757,3121.935203306103
5209.498728453962,9719.186689756714,20382.488713561143,2983.9802365279484
4756.98766195627,9673.924407234716,19252.362162156365,2314.79135928051
4627.258137137668,9690.755270809565,18534.75940641873,1981.7280151519797
5057.819790580248,9754.59185297392,19317.13751758785,2551.2057603842927
5390.190230630664,9763.085515866938,20448.47106319321,3115.788473580894
5223.960307116546,9729.960230584173,20410.115469707904,2995.871364578172
4765.749545782751,9676.67367180272,19286.29211023952,2326.9060047752864
4612.058950908059,9686.95547425216,18530.847851139053,1968.1381545231527
5038.977270004424,9755.485922752134,19286.985014317637,2529.16694035136
5383.8646869498125,9765.298338568013,20431.528440896087,3108.591211866285
5231.872824653724,9729.893175350808,20429.09210075046,3006.980181572459
4777.439508132877,9679.91467474874,19321.25023856762,2349.525970164057
4612.193061374791,9693.839811544396,18533.038322095672,1967.19938125603
5026.773217531827,9762.414963533278,19247.131853953822,2504.9823528507177
5386.904524195734,9778.284702096547,20406.874466761885,3102.2209646965225
5243.22751083702,9742.03017259004,20443.33016196849,3020.726504412473
4789.621208861018,9689.525924864522,19354.77785525058,2374.559923954001
4601.307761825056,9694.420956900234,18522.801223135142,1964.517171921393
5002.946257942469,9760.515065254578,19199.634396986294,2484.239933996193
5370.520695509994,9778.17294337427,20379.85120771542,3099.13642396169
5246.13323761621,9743.863015635374,20464.45256047876,3044.7099262130173
4798.830127576605,9694.4880121336,19396.75443133765,2406.52291852509
4596.613895489442,9699.830079058418,18535.04997909665,1968.361671967706
4980.862734420626,9759.956271643196,19165.07860005839,2457.127267971905
5364.843352418346,9782.755050987607,20355.42075102577,3080.338606874777
5253.665775497649,9747.998088359604,20479.852912408463,3044.50876051292
4809.938944570893,9699.360692424858,19430.21499278724,2419.8669099649087
4591.808270431551,9703.562820382454,18535.876993641497,1966.8194016002897
4968.435164503475,9767.578216502454,19125.04662573893,2438.6200235629112
5361.825866916879,9789.482926068657,20322.898962843297,3073.9013044716485
5259.365470333752,9751.64142270582,20483.22802582121,3056.55635077433
4810.721255626829,9689.682387075709,19454.779559943625,2434.104971182939
4575.022110345615,9689.324759164425,18534.580592463088,1957.4316689290608
4946.1504752815335,9758.45870476469,19084.96994793057,2412.2896685945598
5356.483799992061,9786.085460911449,20292.25472119507,3063.2171706220115
5276.777479264436,9755.038887863027,20496.124982371926,3069.721528258506
4836.246947794789,9699.91948603624,19493.69394704032,2462.134058729894
4583.180497071802,9694.53271562251,18541.844909411066,1956.045860772832
4939.5790624116735,9762.21379783318,19054.72803768254,2387.970970627185
5348.77244815498,9785.996053933628,20259.46471207913,3042.6088622342186
5280.890200244213,9756.961137886185,20503.72457548673,3069.475659069498
4855.536503259719,9710.849489074884,19537.50336617272,2488.173841020327
4584.4321947613,9703.406358171267,18556.887633429484,1966.4394219445492
4920.35656218011,9764.761896701086,19022.20624950007,2368.2343802731493
5339.809398628402,9789.170001646282,20242.4773862931,3029.8683678946936
5290.9484852491005,9763.331385055946,20530.390206621916,3082.886705742682
4871.853276712093,9717.666771133754,19582.519779505707,2511.7996349095865
4578.486630736188,9700.143003480793,18569.00227892426,1961.7902590978456
4905.40324513951,9762.996108889116,18996.70290907656,2347.1343335073398
5345.442038231139,9800.815260507496,20229.24515357556,3033.221129562989
5297.542249863416,9767.354699057902,20548.20454695279,3095.783662293394
4875.764831991772,9712.72703560913,19619.824841001613,2527.1329316059278
4575.759717912641,9700.165355225248,18585.162590165448,1966.5288289223704
4891.455756599397,9767.131181613348,18969.634946541184,2330.571690865957
5328.186491511642,9797.954237217216,20196.05281305943,3012.143434541635
5302.481985388039,9772.048565393516,20560.4533029143,3096.521269860419
4894.2050211674,9725.154605526282,19664.595385145592,2548.098867905005
4577.86078189144,9704.479241905125,18605.413270641955,1970.5968464132368
4873.887285457527,9761.990280388629,18939.638905482163,2302.1402719188063
5320.296325718919,9796.300208127524,20166.257937700502,2989.791690086328
5311.6685523591705,9768.181713602748,20570.93627106384,3094.1296332037014
4904.062140472191,9718.87376533434,19694.81494364917,2553.753859252198
4579.00072085866,9700.746500581086,18614.26456144626,1963.8689713321887
4857.481105027331,9758.749277442608,18901.90916084161,2268.880876169309
5310.618020369771,9793.50624007061,20128.70700701559,2966.0317857303367
5310.57331688086,9758.905739653796,20566.197701239314,3090.1510226906566
4905.537355606241,9709.4413291742,19717.591371249124,2565.510876835689
4567.489572464177,9691.58228535441,18614.622189357546,1959.4433259300383
4833.72120067134,9752.513140739578,18863.888843523127,2241.455285722648
5293.965970750567,9794.93675171575,20097.5933787338,2951.9054832345823
5313.255526215497,9770.975681659662,20581.97803282476,3104.94787752007
4919.037809257246,9717.242087989103,19759.29972640273,2594.389330671946
4562.23691251718,9691.291712676491,18631.63186688803,1968.2499132454293
4814.163424272946,9750.635594205332,18828.97541868394,2221.115198268318
5280.040833954911,9788.6112080349,20053.60514564576,2927.497378289387
5322.9338315646455,9772.182675860247,20578.245291500723,3102.779758307905
4942.350678724132,9723.098245036394,19788.24523547235,2610.2814209796693
4581.794688915574,9700.791204069998,18650.20616653039,1976.095375549242
4815.549232429175,9756.849379163908,18802.53330499331,2202.4961951370474
5279.772613021447,9790.98049294716,20012.16501142561,2906.978476879415
5326.040724043933,9765.767725201576,20569.34929720751,3096.7447873049723
4950.97845208388,9717.130329266827,19820.454099232447,2624.5641856866105
4574.642130689876,9689.257703931058,18667.953451627905,1977.9282185945767
4793.465708907332,9745.427637747243,18776.7840953808,2178.9821599700645
5266.249807625986,9787.918303956783,19983.420668056093,2893.2992092727677
5328.968802567578,9763.666661222776,20580.88279734645,3105.216098453533
4960.343833010654,9713.107015264872,19859.301431095773,2645.686584196876
4580.610046459442,9691.224657443126,18698.061251409203,1994.334399024773
4775.025519731703,9743.88536737983,18752.107769502138,2159.267921360484
5254.85041795378,9787.471269067675,19945.780330393354,2874.18846776348
5339.518825950483,9768.159361858292,20577.95471882281,3114.42501716912
4983.3661297996205,9725.26636424856,19891.59970183369,2680.287084613691
4590.198944830769,9694.264494689049,18712.098146927136,2017.6919719805685
4762.665005047918,9739.482073722134,18714.243914394847,2148.315566577383
5245.0380021379,9789.03589117955,19901.970911260956,2864.152534503047
5340.792875384435,9767.332347313446,20572.724410620263,3119.8117875828493
4991.7033304814495,9719.052579289984,19921.640446381625,2699.621343567532
4589.841316919484,9686.4860876186,18735.790996049764,2024.68806799508
4755.400688099943,9739.191501044215,18698.374175831577,2135.6644792156794
5242.959289903556,9791.449879580725,19875.59585280369,2851.032060507782
5354.896826135734,9773.88140843885,20582.246253758225,3127.657249886662
5014.859737737148,9732.642439918807,19960.197205567027,2718.217994954347
4610.002590418171,9707.988465784603,18767.77634236531,2038.7696670019232
4755.266577633211,9756.894082652818,18683.5102657688,2119.0347813409307
5239.427714279618,9808.817185022495,19841.17416634252,2834.044734721748
5360.574169227382,9786.487792311644,20582.64858515842,3129.9594795655585
5030.640069322595,9738.610355688375,20000.698566520045,2742.06730628816
4613.936497442305,9704.747462838586,18798.33117703571,2052.873617753222
4736.871091946494,9747.104018581393,18666.58999521613,2098.6052869087803
5226.530757728906,9800.658798296308,19817.906000364543,2810.1954233879355
5375.572189756893,9793.685054026251,20602.78750691265,3136.0838575463126
5043.693488084494,9736.732809154131,20037.981276271497,2753.1761232824474
4614.852918964973,9693.035148744006,18821.37582556913,2059.6908998120907
4725.784626696662,9740.756123156089,18649.468558963366,2091.542135660903
5212.784434888892,9791.092251669435,19784.95952903742,2801.411187817
5369.179590842676,9776.854190451408,20600.88760863395,3139.7718953814383
5052.030688766324,9728.239146261114,20081.20955004806,2777.1818968274474
4622.4301603353215,9692.454003388168,18868.64976509211,2076.2088389645623
4710.339571278045,9735.324649253447,18642.874794349053,2064.9882632479985
5191.639684634171,9784.431431821757,19749.19673790893,2767.1236118225597
5367.7267274530805,9777.41298406279,20595.74670740923,3135.413305212653
5067.721613373949,9731.055466062482,20117.665245254662,2800.0477314052264
4630.342677872501,9690.799974298474,18900.098669540726,2097.800624108389
4695.989751337737,9730.586079428922,18621.707692349875,2055.2876061543952
5183.50364965244,9784.766707988583,19712.42811827995,2752.2373500153244
5373.493477522549,9771.780344460052,20591.34341375153,3134.1616075231564
5080.327997246743,9726.40630321578,20146.834271768843,2817.862071736106
4634.723619785741,9682.283959661005,18921.779861662373,2112.150444048696
4680.812916852584,9719.16433801226,18600.80881128416,2039.2390536354849
5160.816629030303,9772.495600282622,19663.61190838956,2724.9235182909392
5364.619834973792,9760.626823976854,20565.68361111684,3124.170377751634
5075.097689044201,9703.831041315918,20148.62241132527,2814.3081443677124
4627.101674926481,9657.026488426503,18937.73900720346,2111.390484737216
4655.667204340363,9692.319892921436,18575.663098771944,2013.3110300673284
5141.594128798739,9758.615166975876,19624.116375937032,2700.3589511345567
5368.129058853276,9759.64334722082,20565.81772158357,3128.4172091981422
5112.894488918125,9730.4966724511,20204.814696885907,2863.325519958201
4662.886817799427,9691.694044076688,18997.99931025497,2163.961787696098
4663.445611410811,9717.39855020029,18585.87784598802,2030.745390742468
5141.862349732202,9777.100059640416,19604.31273034963,2699.844861012085
5370.520695509994,9766.684146724245,20560.60976512549,3134.9886220680028
5111.687494717538,9718.762006612063,20227.613476230323,2876.982435820393
4661.188085220824,9673.72324153462,19025.11197627926,2177.931627980665
4650.034564737626,9702.02055001504,18571.61743302553,2015.836777190778
5121.969297166979,9757.11760009737,19555.3177065036,2673.514506043733
5375.0580996344215,9753.586024473432,20543.287163172623,3131.010011554958
5129.054800159312,9709.910715807762,20250.926345697208,2888.3818254926
4673.347434204511,9664.53667456349,19055.443293505108,2192.192040943151
4639.73041054373,9690.419994642734,18558.072275885617,2004.0127043739203
5102.947962635513,9746.209948803182,19514.9057525284,2648.972290631806
5366.944416397145,9745.606451702888,20530.50196534419,3126.9866975530026
5137.123779907677,9710.603619885876,20281.81645653444,2907.045532112781
4681.461117441788,9665.698965275164,19090.28966311093,2211.906279552732
4631.460265095266,9692.29754117698,18550.562089748637,1996.8824978926775
5096.555363721295,9754.524797740556,19484.73089751373,2635.76240965872
5362.429364017173,9738.83387313293,20511.592389535,3115.408493925154
5146.824437001281,9700.165355225248,20305.08462251241,2914.2874973163007
4695.989751337737,9660.178084394704,19128.13116647377,2227.5525006714465
4632.935480229316,9687.670730074731,18548.48337751429,1989.3052565223288
5086.564133949773,9747.059315092483,19443.51428073815,2609.432054690368
5379.193172358653,9745.762913914075,20505.780935976614,3119.208290482556
5166.002233743934,9698.82425055793,20331.236163525125,2932.124189391636
4701.130652562458,9647.951680177652,19155.869681342803,2237.476675209603
4611.410750318855,9668.649395543263,18528.344455760056,1964.8971515771327
5060.85962782617,9728.283849750023,19402.297663962563,2577.357301397002
5369.425460031684,9735.659925420276,20492.01226139215,3108.144176977179
5176.999292015946,9697.661959846257,20359.175844094258,2940.43903832901
4723.750617951228,9651.349145334858,19198.159181852243,2255.134553329296
4612.930668941816,9664.357860607846,18522.220077779304,1954.9953287834323
5053.707069600471,9724.796977614997,19352.78854999406,2553.9326732078403
5380.355463070329,9739.504425466588,20461.41272323284,3112.2345462125
5200.178051016099,9705.507422150067,20369.256480843604,2974.748966067906
4741.8778827044825,9655.215997125626,19222.85785947536,2298.631048039323
4617.669238766342,9666.861255986842,18514.799298620143,1969.8145353573009
5056.098706257189,9729.02145731705,19319.305636800007,2544.969623681262
5387.3292073403845,9736.866919620865,20441.184394500782,3098.644685583673
5209.834004620791,9692.63281734381,20381.058201916007,2967.954035753493
4754.528970066187,9645.068305142917,19253.63621159032,2302.6767137857337
4613.265945108646,9659.373421594311,18511.17831601838,1954.034203771854
5034.641031580095,9721.421864202246,19267.650755363797,2512.02315235414
5375.63924499026,9733.089474807915,20402.627635315377,3086.015949966425
5218.528833213906,9696.544372623488,20386.04264092954,2979.956922525993
4762.240321903268,9642.274337086004,19268.61188037537,2317.7194378041554
4604.012322904149,9655.57362503691,18495.24152222175,1947.038107757343
5018.458368594453,9722.092416535905,19225.3389031099,2493.5382596896006
5371.034785632466,9736.30812600948,20384.209797884203,3082.9984644649585
5221.792187904381,9700.768852325542,20414.9210947658,2993.278562221356
4767.872961506005,9649.71746798962,19331.375578805877,2341.568749137968
4594.557534999554,9660.714526261632,18526.623371437,1948.5803781247591
4999.504089296352,9724.014666559062,19216.26409486104,2471.186515234293
5362.272901805985,9733.49180620811,20386.109696162905,3072.2249236375005
5229.436484508095,9699.517154636043,20452.20380451725,3009.058893806802
4774.42202263141,9645.53769177648,19371.094628702955,2367.8767523618644
4576.273808035113,9650.589186023377,18518.15206028844,1940.6678605875804
4971.810277916226,9718.672599634245,19168.520768704508,2448.119514956417
5354.785067413458,9739.951460355696,20357.87944291585,3072.202571893045
5238.980679390512,9706.87087856184,20462.48560696669,3026.761475415406
4791.878735051005,9655.260700614535,19400.95655929525,2391.301380551026
4579.403052258856,9658.881683216296,18524.254086524736,1946.680479846058
4966.736431924872,9721.958306069171,19142.70450385863,2435.8037037615422
5355.29915753593,9739.370314999856,20338.656942684287,3067.240484623967
5252.391726063696,9706.312084950458,20485.642014222387,3043.2794145678777
4819.818415620139,9663.262625129537,19456.880623922425,2430.1487124143496
4584.655712205853,9660.178084394704,18540.23558381028,1957.1857997400523
4952.051335817735,9720.01370430156,19105.73471852955,2417.587032030467
5353.779238912969,9743.304222023991,20309.666730125755,3060.691423498562
5269.781383249925,9715.63276238832,20490.469991024733,3058.523304286397
4826.278069767723,9662.748535007064,19464.32375482604,2443.582110831989
4578.5760377140095,9661.854465228853,18520.007255078228,1950.7037938480128
4948.273891004788,9731.569556184955,19058.59488947331,2399.973857399685
5352.125209823276,9751.68612619473,20272.16050292975,3048.4203157925986
5275.637540297215,9717.06327403346,20500.48357254071,3064.602978778241
4842.639546709007,9665.117819919327,19504.19926693431,2466.6044076209555
4582.576999971509,9658.345241349369,18529.886726127475,1953.967148538488
4929.811350084705,9721.73478862462,19020.842793088294,2373.509391964601
5349.241834788541,9748.4004197598,20244.44433980517,3039.3231557992885
5281.6725113001485,9715.096320521394,20510.36304358996,3069.207438136034
4849.7697531902495,9664.53667456349,19538.39743595093,2479.456660682757
4574.798592901063,9659.48518031659,18543.92362164541,1952.3801746821612
4904.308009661199,9717.577364155934,18988.745688050472,2344.295661961515
5330.868700846279,9744.533567969032,20210.737909166564,3016.054989821314
5289.339159648319,9713.710512365164,20517.694415771297,3078.4163568516205
4874.043747668713,9666.861255986842,19579.03290737068,2512.291373287603
4584.47689825021,9658.00996518254,18552.86431942753,1961.00794804191
4894.942628734426,9716.325666466437,18946.143263118654,2324.98375475213
5328.678229889659,9747.282832537036,20167.95667027911,3003.1356815261465
5304.918325533668,9721.377160713337,20518.946113460795,3087.066481955824
4887.007759452791,9667.665918787232,19606.14557339497,2530.172768851849
4575.536200468087,9656.62415702631,18553.62427873901,1963.8019160988235
4877.083584914635,9716.30331472198,18901.50682944141,2305.202460909183
5323.202052498109,9748.176902315248,20128.818765737866,2997.793614601328
5311.646200614715,9722.87472759184,20520.77895650613,3101.2821914293995
4899.144756692023,9666.6824420312,19635.24754467577,2555.02790868615
4571.557589955043,9642.967241164117,18555.367714806525,1963.0196050428876
4866.444154553909,9706.535602395012,18862.838311533727,2281.2860943420046
5321.525671663961,9740.242033033614,20088.429163507124,2976.917085280071
5321.123340263765,9711.274172219535,20519.32609311653,3100.5445838623746
4928.000858783825,9667.889436231784,19674.251338750284,2583.839307289041
4585.750947684163,9646.543520276968,18574.500808060267,1977.883515105667
4856.00588989328,9709.26251521856,18834.11631990866,2267.785640690999
5315.736569850036,9748.668640693264,20058.902509081665,2968.758698553884
5333.282689247452,9724.461701448166,20525.472822841744,3116.593136381285
4944.339983980654,9673.969110723629,19701.252246052296,2611.644877391443
4595.809232689051,9649.382191822791,18586.48134308831,1989.595829200248
4842.706601942373,9698.53367788001,18802.309787548755,2243.310480512438
5300.023293497956,9733.82708237494,20024.12319470921,2948.6197767996523
5335.182587526154,9718.739654867608,20535.464052613264,3119.722380605028
4953.727716651883,9676.5842648249,19740.56896454918,2626.75465664323
4594.557534999554,9649.449247056156,18605.83795378661,1994.848489147245
4834.391753004999,9706.222677972635,18781.410906483045,2234.794465874966
5295.798813795903,9740.30908826698,19996.74230775145,2941.3554598516776
5340.479950962062,9715.498651921587,20541.096692216004,3124.8632818297488
4959.896798121548,9666.883607731295,19771.48142713087,2641.842084150563
4584.4321947613,9634.85355792684,18618.421985914945,1996.1225385811967
4807.860232336549,9690.308235920458,18744.731693831887,2206.4077504167262
5282.633636311726,9734.385875986323,19963.125284090675,2920.2330613414124
5343.475084719073,9715.29748622149,20550.73029407624,3127.009049297458
4969.999786615346,9664.737840263586,19816.18491604149,2657.600063991554
4584.141622083381,9631.411389280724,18646.92046009546,1998.000085115443
4791.431700161898,9689.168296953238,18725.084510455672,2180.546782081936
5272.620054795749,9737.82804463244,19937.778405878355,2902.2846105438007
5349.286538277453,9719.700779879187,20563.917823304877,3132.4405232000977
4982.561466999229,9669.67757578821,19850.60660250266,2675.503811300256
4590.511869253143,9638.318078317414,18663.3042887812,2005.130291596686
4779.004130244748,9690.889381276296,18696.742498486343,2161.0337091724527
5263.813467480358,9739.3479632554,19892.73964080091,2889.342950504178
5356.77437266998,9721.757140369074,20547.98102950824,3143.9069681056703
4997.380673573098,9668.090601931885,19869.44912307848,2709.2772971722243
4597.619723989931,9636.127607360791,18681.87858842356,2033.964041944032
4770.398708629455,9691.001139998572,18670.210977817893,2154.216427113584
5250.156551618165,9732.441274218712,19854.60756476016,2864.1748862475024
5367.34674779734,9721.310105479968,20556.40763716789,3141.2918140043994
5021.408798862552,9670.214017655137,19916.298379456806,2724.945870035395
4611.366046829945,9634.562985248922,18716.926123729485,2042.368297859228
4760.787458513672,9682.932160250206,18654.855329377096,2134.6586507151906
5243.585138748305,9733.558861441476,19826.466718490927,2851.859075052628
5369.760736198514,9719.678428134732,20556.318230190067,3147.416191985153
5037.837331037204,9675.064346201938,19956.44211249854,2750.06923080316
4614.383532331412,9632.685438714676,18750.90077530155,2053.45476310906
4743.688374005363,9676.941892736184,18639.522032680758,2110.8540428702886
5225.569632717327,9724.037018303516,19787.127648249585,2819.761970014807
5366.519733252494,9712.905849564771,20554.865366800477,3138.699011647584
5049.884921298614,9674.505552590555,19996.362328095714,2766.989501355827
4623.34658185799,9632.19370033666,18785.277758273813,2069.145687716685
4733.875958189483,9671.353956622355,18623.07114876165,2095.2748769849395
5225.457873995051,9728.842643361408,19755.969316478888,2802.1040918951144
5381.294236337452,9716.146852510792,20553.948945277803,3136.2403197575
5069.688566886016,9672.270378145024,20031.40986340164,2781.1828590849477
4637.115256442458,9630.42791252469,18822.15813662507,2084.03194952392
4728.466836031298,9670.146962421772,18615.672721346946,2082.5567343898697
5214.349057000763,9723.12059678085,19726.912048686987,2783.55214399721
5382.411823560217,9709.508384407569,20550.752645820696,3136.709706391061
5075.678834400039,9661.496837317569,20055.34858171327,2794.4821470358547
4641.786771033618,9620.86136589782,18846.07450319225,2099.0076183089755
4713.088835846047,9661.273319873017,18592.136334435505,2071.2467516954844
5196.802937603347,9715.11867226585,19686.61185343407,2765.6260449440533
5385.228143361586,9706.379140183824,20548.651581841896,3144.2645960169552
5091.481517729941,9661.832113484395,20090.03848910791,2820.4325223484666
4653.275567683646,9622.604801965334,18874.572977372765,2117.358400506783
4707.590306710042,9659.48518031659,18569.40461032446,2056.516952099437
5184.397719430652,9709.173108240737,19637.996809243778,2744.481294689333
5382.747099727047,9700.165355225248,20527.976218220738,3137.849645358282
5099.885773645136,9662.18974139568,20102.30959681387,2831.317821898201
4658.371765419455,9624.974086877595,18887.53698915684,2129.048362856908
4709.356094522011,9674.080869445905,18552.99842989426,2055.5558270878587
5181.313178695819,9720.460739190668,19593.293320333163,2731.87491081654
5393.431233576684,9712.369407697846,20511.07829941253,3140.0848198038125
5120.047047143823,9669.76698276603,20124.72839650254,2846.3605459166224
4665.2784544561455,9620.28022054198,18911.989797590948,2139.441924028626
4683.942161076327,9654.6795552587,18522.8235748796,2029.158416886141
5168.036242489367,9711.095358263894,19555.943555348345,2711.1101402175595
5397.141623156264,9701.931143037218,20506.518543543643,3139.9507093370808
5133.882776961658,9654.6795552587,20157.719571318576,2862.789078091273
4675.426146438855,9603.337598244858,18940.108292115725,2149.1425811222293
4676.20845749479,9639.659182984731,18507.31146422761,2007.9466113980548
5158.02266097339,9702.355826181869,19520.06900549758,2681.829354981108
5399.466204579617,9695.851468545374,20500.952959174272,3135.368601723743
5138.1519601526215,9649.4268953117,20181.14419950774,2879.99992132186
4677.013120295182,9602.890563355752,18970.149036663657,2178.490421592048
4663.669128855363,9638.809816695431,18502.081156025077,2013.2216230895071
5137.459056074507,9701.819384314942,19478.47240906625,2665.691395484376
5398.862707479323,9703.763986082551,20485.06086886655,3133.312241233855
5159.788448785359,9662.435610584693,20219.633903459777,2904.2292123114125
4698.068463572081,9612.904144871727,19017.33356920881,2202.4961951370474
4651.532131616132,9633.244232326058,18494.03452802116,1996.2342973034736
5116.180195353055,9691.761099310052,19438.574545213527,2641.327994028091
5385.675178250692,9691.984616754606,20463.11145581144,3128.4172091981422
5150.087791691755,9642.833130697383,20223.56781048391,2907.917250146538
4692.391120480433,9595.939170830152,19042.43457823212,2211.705113852634
4636.4000006198885,9622.85067115434,18490.547655886134,1986.3324745097727
5101.852727157203,9691.895209776783,19413.473536190217,2621.2337757627697
5390.59256203086,9701.171183725735,20472.208615804742,3127.791360353394
5177.513382138417,9662.860293729342,20279.693040811188,2933.8452737146945
4712.93237363486,9607.875002369286,19100.325596371367,2236.8731781093097
4633.986012218716,9628.125682845794,18497.85667632302,1981.7950703853453
5094.029616597845,9696.656131345766,19389.534817878583,2603.4417871763453
5397.141623156264,9702.82521281543,20459.535176698588,3121.4211131836314
5190.946780556057,9656.53475004849,20301.8436195664,2940.3943348400994
4730.143216865446,9602.935266844665,19139.575259634883,2252.407640505748
4634.723619785741,9620.369627519802,18497.32023445609,1971.870895847189
5072.974273320946,9674.86318050184,19341.657381255314,2572.886952505941
5381.405995059728,9679.221770670623,20433.070711263503,3108.300639188366
5197.808766103836,9647.258776099536,20320.708491886675,2956.599349570197
4738.726286736284,9593.346368473336,19166.68792565917,2274.960550661153
4626.162901659358,9609.126700058783,18488.647757607432,1970.6862533910576
5066.760488362371,9675.19845666867,19309.649683195315,2566.539057080633
5394.370006843807,9686.06140447395,20423.079481491983,3120.61645038324
5211.331571499297,9645.29182258747,20343.239050297627,2977.54293412482
4746.974080440293,9591.200601005628,19202.07073713192,2300.776815507033
4613.131834641914,9605.796290134942,18489.27360645218,1968.272264989885
5051.3377846882095,9674.90788399075,19282.82758984895,2547.8977022049075
5385.138736383765,9682.462773616646,20408.506144107123,3110.245240955978
5218.394722747174,9648.868101700318,20369.345887821422,2990.3281319532557
4757.948786967849,9598.219048764591,19239.822833516937,2320.6475163278005
4606.649828749875,9610.199583792635,18482.255158693213,1959.8903608191445
5028.874281510625,9674.147924679271,19241.074531206435,2516.4487977562903
5377.270922335497,9685.6367213293,20388.94836770873,3095.917772760126
5227.246013551476,9646.297651087958,20390.445934587235,2994.709073866496
4764.766069026718,9585.187981747147,19275.071534522955,2326.503673375091
4600.234878091202,9597.839069108852,18483.864484294,1941.00313675441
5018.547775572273,9664.022584441016,19206.831658700903,2484.5752101630223
5376.130983368276,9674.170276423729,20372.385725067343,3080.271551641411
5230.822292664325,9632.394866036757,20410.786022041564,2997.9947803014256
4778.937075011382,9579.912970055697,19321.384349034357,2350.0624120309844
4593.1940785877805,9587.244342237038,18493.3639756875,1941.450171643516
5001.672208508517,9660.893340217272,19172.477027473094,2465.397413420369
5371.794744943946,9673.00798571205,20352.403265524303,3074.7730225054056
5246.960252161057,9634.607688737831,20430.679074606785,3019.9665451009923
4795.253848463756,9577.968368288084,19348.765235992105,2379.2984937785263
4595.630418733409,9579.577693888868,18492.671071609388,1948.6250816136696
4988.976417657902,9644.10718013134,19126.477137384078,2445.7055265552435
5372.353538555329,9660.781581494995,20312.34893946039,3068.5815892912856
5256.862074954757,9621.755435676032,20433.316580452512,3030.2036440615234
4809.067226537136,9565.741964071032,19384.90800677633,2399.8173951884983
4589.841316919484,9568.51358038349,18499.84598157954,1944.4453054005276
4970.424469759997,9636.887566672274,19098.44804983712,2422.750284999643
5361.937625639156,9655.595976781366,20299.809610820965,3058.74682173095
5261.578293034827,9618.29091528546,20466.57597620201,3042.9888418899586
4824.378171489021,9570.882865295753,19450.57743198603,2435.043744450062
4586.488555251188,9569.921740284177,18527.09275807056,1959.4656776744937
4949.100905549634,9630.942002647162,19080.74546822852,2413.183738372772
5352.214616801098,9655.81949422592,20296.859180552863,3058.6797664975843
5266.115697159255,9623.14124383226,20500.30475858507,3057.226903107989
4836.939851872904,9575.241455464537,19504.62395007896,2459.0271662506066
4582.800517416063,9571.03932750694,18549.04217112567,1957.4093171846052
4936.181597254467,9633.66891547071,19064.987488387524,2386.249886304127
5342.335145751852,9651.371497079312,20278.82132277743,3037.020926120392
5276.844534497802,9625.24230781106,20523.796442007595,3069.877990469693
4846.215825821856,9574.61560661979,19542.711322630803,2484.686968885299
4571.535238210588,9565.674908837664,18552.14906360496,1961.9914247979436
4915.416826655487,9631.411389280724,19022.697987878084,2369.687243662744
5333.215634014086,9654.903072703251,20235.86126993433,3029.8907196391488
5276.196333908598,9627.321020045403,20514.811040736564,3074.013063193925
4853.077811369635,9577.968368288084,19566.15830256442,2500.288486515103
4573.14456381137,9571.598121118324,18558.04992414116,1962.6396253871476
4904.375064894565,9639.010982395528,18988.924502006117,2356.1644382672835
5330.756942124002,9667.509456576045,20212.21312430061,3033.176426074079
5287.640427069715,9633.601860237344,20528.780881021128,3093.1238047032125
4868.634625510529,9580.695281111632,19595.55084652315,2526.1718065943487
4571.937569610783,9569.430001906156,18561.76031372074,1971.9603028250103
4885.6890065299285,9630.71848520261,18948.64665849765,2337.7466008361102
5319.1787384961535,9653.472561058112,20174.349269193324,3017.463149721998
5290.85907827128,9621.107235086827,20535.77697703564,3101.9303920186035
4882.962093706381,9576.604911876311,19636.208669687352,2555.318481364069
4569.948264354261,9561.405725646702,18575.43958132739,1979.224619772985
4871.808573223183,9622.560098476422,18915.342559259243,2313.338495890915
5320.7657123524805,9658.278186116004,20147.34836189132,3005.996704816426
5302.325523176852,9622.71656068761,20544.31534341757,3107.0712932433244
4894.6744078009615,9570.36877517328,19664.863606079056,2567.5448855811223
4570.060023076538,9553.672022065166,18579.59700579608,1975.402471471128
4858.911616672471,9614.6699326837,18876.472875651467,2292.730187503122
5311.422683170162,9645.180063865191,20105.483544526523,2988.852916819205
5316.183604739143,9616.256906540026,20545.23176494024,3112.458063657053
4916.646172600529,9566.054888493409,19693.6973564264,2586.476813134768
4575.357386512445,9540.976231214552,18584.045002942683,1976.743576138446
4847.914558400459,9598.688435398157,18833.66928501955,2260.9683586321307
5313.836671571336,9634.38417129328,20066.904433596665,2966.0317857303367
5331.695715391125,9604.298723256436,20547.288125430125,3117.1966334815784
4941.098981034635,9554.431981376649,19727.560249276197,2611.823691347085
4588.723729696719,9529.68860026462,18601.09938396208,1987.383006499172
4827.507415712764,9579.309472955403,18799.471116002933,2237.9460618431644
5295.57529635135,9620.727255431088,20025.62076158771,2947.926872721538
5331.673363646671,9596.09563304134,20546.706980074287,3117.6436683706843
4945.234053758866,9543.03259170444,19758.04802871323,2621.9937350742503
4578.263113291635,9512.187184356117,18615.359796924567,1984.030244830876
4818.85729060856,9569.742926328532,18776.158246536048,2216.935422055176
5292.311941660874,9611.563040204412,19992.33901409376,2930.4254568130323
5341.306965506908,9590.485345183057,20551.177328965347,3127.3219737198324
4959.896798121548,9536.014143945473,19792.76028785232,2649.4640290098228
4586.846183162473,9506.778062197933,18638.11387278007,2001.6210677172028
4807.770825358728,9563.819714047875,18753.068894513715,2203.949058526642
5278.386804865218,9605.416310479202,19961.18068232306,2913.86281417165
5342.022221329477,9580.695281111632,20557.41346566838,3127.657249886662
4979.096946608656,9532.147292154705,19837.620238974123,2673.000415921261
4596.613895489442,9501.413643528658,18670.434495262445,2016.641439991169
4795.52206939722,9550.98981273053,18741.267173441312,2187.3640641408047
5271.748336761992,9591.871153339283,19939.52184194587,2900.094139587181
5353.332204023863,9573.095687996827,20566.26475647268,3135.949747079581
5000.50991779684,9530.515614809468,19877.76397201585,2699.219012167336
4606.314552583045,9499.513745249957,18698.03889966475,2029.6054517752475
4789.218877460823,9551.190978430626,18715.428556850977,2172.4330988446595
5270.273121627942,9595.402728963223,19908.676434597543,2892.2263255389125
5367.793782686446,9579.778859588963,20576.524207177667,3145.985680340014
5010.32233361272,9526.514652551969,19910.91160904308,2711.914803017951
4597.887944923395,9485.92388462113,18718.580152819177,2029.896024453166
4764.296682393156,9536.707048023589,18696.02724266377,2152.5623980238915
5250.380069062719,9590.865324838796,19873.874768480637,2875.082537541692
5365.9162361522,9577.811906076897,20579.83226535705,3153.6970321770946
5023.778083774815,9528.97334444205,19951.770597907376,2738.0439922862047
4608.236802606202,9490.237771301005,18748.822063067208,2048.8503037512664
4752.629071787485,9540.484492836536,18673.004945874804,2134.7927611819223
5242.936938159101,9591.692339383644,19846.20330884496,2853.155476231036
5367.860837919812,9572.112211240794,20582.223902013768,3146.209197784566
5030.32714490022,9522.871318205753,19983.8677029452,2748.772829624752
4611.075474152026,9488.78490791141,18775.934729091496,2057.9027602556657
4737.832216958072,9534.784798000432,18651.54727119771,2110.317601003361
5233.929185143613,9590.32888297187,19813.7262241514,2829.5967375751425
5375.907465923723,9572.916874041186,20588.92942535036,3145.136314050712
5047.985023019913,9523.608925772778,20025.598409843256,2762.8544286315955
4625.134721414414,9487.600265455278,18806.40015678408,2069.8162400503447
4734.1888826118575,9531.007353187484,18631.318942465656,2096.683036885624
5228.430656007607,9588.786612604454,19775.214168454902,2812.5870600446538
5384.736404983569,9573.788592074943,20577.15005602241,3148.556130952374
5071.923741331547,9526.872280463253,20053.985125301497,2790.682350478453
4638.612823320964,9487.77907941092,18836.798529243297,2093.218516495051
4731.484321532765,9531.633202032232,18622.82527957264,2093.285571728417
5218.864109380736,9577.297815954424,19739.920763959977,2794.1692226134805
5393.498288810049,9559.349365156811,20577.01594555568,3148.332613507821
5082.00437808089,9498.88789640521,20077.45445697957,2802.707588995408
4644.513683857165,9450.608128381746,18856.46806436397,2105.668438156657
4713.893498646438,9485.49920147648,18591.6892995464,2071.738490073501
5194.008969546434,9534.896556722708,19684.04140282171,2769.1129170790814
5380.333111325874,9524.771216484454,20556.20647146779,3150.8360088868158
5085.468898471463,9474.278625759916,20106.422317793647,2825.0146299618045
4649.207550192779,9437.599413108755,18893.281387481857,2122.186377309129
4693.553411192109,9471.752878636466,18576.55716855016,2053.030079964409
5175.255855948431,9528.056922919384,19643.22711744632,2740.905015576484
5377.516791524505,9518.892707692708,20541.990761994217,3142.6999739050834
5092.86732588617,9469.316538490835,20130.003408194,2840.7055545694298
4647.754686803185,9423.875442013195,18919.14235581665,2136.4691420160702
4679.762384863185,9459.437067441591,18569.024630668715,2044.7599345159451
5155.563969083306,9515.249373346493,19607.19610538436,2719.380285666023
5371.258303077019,9506.17456509764,20531.328979889036,3130.451217943576
5105.764282436881,9463.77330586592,20162.636955098744,2851.166170974513
4655.063707240071,9422.467282112511,18953.4746353,2148.606139255302
4670.799335336606,9458.25242498546,18555.881804928995,2028.5102162969367
5143.605785799717,9513.193012856604,19567.9687938653,2696.7603202772525
5368.665500720203,9500.16194583916,20520.77895650613,3128.976002809525
5114.816738941281,9457.045430784874,20194.488190947555,2871.3721479621117
4670.955797547794,9413.280715141382,19000.0333190004,2176.903447735721
4664.853771311495,9439.6781253431,18551.4785112713,2024.129274383697
5142.085867176756,9498.217344071549,19548.366313978,2691.440605096889
5388.267980607508,9492.91998063564,20532.513622345166,3147.237378029511
5135.290936862342,9441.578023621802,20230.20627858714,2894.282686028801
4681.215248252779,9392.270075353394,19025.71547337955,2189.7780525419776
4658.595282864008,9415.806462264833,18540.749673932754,2014.361562056728
5126.037314657845,9471.64111991419,19508.28963616963,2668.3065495856467
5385.518716039505,9467.39428846768,20518.879058227427,3142.409401227165
5143.002288699423,9413.794805263857,20255.24023237708,2910.4877007588984
4683.740995376229,9354.942662113031,19060.517139496464,2209.469939407103
4640.400962877388,9377.920255413086,18534.15590931844,2003.006875873432
5104.311419047287,9438.806407309345,19480.43936257832,2644.0549068516384
5379.081413636376,9435.855977041245,20517.38149134892,3132.7310958780167
5152.747649281937,9389.364348574203,20292.277072939527,2919.696619474485
4688.412509967388,9332.814435102277,19099.6103405488,2217.918898811209
4627.459302837766,9359.882397637652,18531.33958951707,1986.6006954432364
5088.799308395303,9421.550860589849,19447.358780784463,2618.1492350279373
5384.892867194756,9428.368142648716,20513.82756398053,3128.6183748982403
5168.416222145107,9381.205961848016,20323.904791343783,2930.023125412837
4704.014027597193,9327.785292599832,19139.664666612705,2233.274547252005
4635.327116886034,9358.831865648255,18537.26280179773,1983.9184861086
5087.368796750164,9420.612087322725,19420.290818249086,2604.5146709102
5386.077509650888,9417.48284309898,20497.846066694983,3128.037229542402
5184.017739774912,9366.766734929888,20350.481015501144,2955.3029483917894
4718.050923115125,9300.918495764554,19173.348745506853,2261.63891096579
4626.67699178183,9321.526804152349,18523.203554535336,1979.2022680285295
5077.310511745276,9387.598560762235,19375.341460149462,2585.1580602119043
5380.40016655924,9383.888171182654,20470.64399369288,3119.364752693743
5192.444347434563,9339.788179372332,20365.814312197486,2968.8034020427945
4738.972155925293,9288.93796073651,19218.543972795484,2291.0538066689737
4625.5370528146095,9306.707597578476,18533.217136051317,1980.3422069957503
5060.85962782617,9364.799781417822,19346.842985968942,2565.823801258064
5385.250495106041,9365.80560991831,20465.436037234787,3117.911889304148
5204.31312374033,9314.731873837933,20394.84922824493,2978.057024247292
4748.471647318798,9261.35590807866,19264.56621462896,2307.0129522100638
4617.53512829961,9275.392803596593,18541.353171033046,1972.072061547287
5044.1405229736,9334.267298491872,19311.706043685204,2538.062934644572
5387.999759674044,9346.940737598032,20444.53715616908,3111.563993878841
5208.783472631392,9292.916571249554,20406.36037663941,2986.5953906292198
4752.070278176103,9236.456064755448,19290.270720752564,2322.033324484029
4589.1484128413695,9239.942936890477,18520.16371728941,1949.4967996474268
5000.08523465219,9303.757167310378,19254.21735694616,2495.2146405237486
5347.9454336101335,9317.056455261283,20401.018309714596,3077.969321962514
5205.967152830023,9286.367510124148,20417.51389712261,2989.1881929860347
4762.665005047918,9240.322916546216,19328.24633458213,2343.021612527563
4593.551706499065,9250.738829462389,18528.702083671345,1956.872875317678
5008.891821967581,9321.83972857472,19231.15035666828,2494.3429224899915
5380.06489039241,9342.55979568479,20404.03579521606,3102.310371674344
5248.591929506294,9309.121585979652,20461.725647655207,3034.7633999304057
4795.834993819594,9254.918605675532,19376.99548923916,2389.6697032057887
4601.106596124959,9254.359812064147,18534.580592463088,1971.6920818915464
5002.387464331086,9319.202222728994,19200.573170253418,2485.8269078525195
5372.152372855231,9331.518033923869,20375.246748357626,3098.8905547726818
5250.000089406978,9293.989454983408,20466.352458757457,3044.5534640018304
4805.75916835775,9245.285003815294,19404.398727941363,2412.1779098722827
4598.379683301411,9247.028439882808,18535.541717474665,1973.39081447015
4985.757766456338,9311.60262961419,19162.88812910177,2466.067965754028
5367.68202396417,9325.907746065586,20350.16809107877,3089.4804703569976
5260.885388956713,9284.244094400894,20487.184284589803,3056.0646123963134
4815.973915573825,9230.242279796872,19443.871908649435,2430.260471136626
4584.521601739121,9221.435692481482,18533.41830175141,1962.10318352022
4958.645100432051,9286.568675824246,19115.480079112065,2430.3945816033583
5354.449791246628,9306.7970045563,20319.83677385292,3067.7098712575284
5262.293548857397,9272.107097161665,20495.63324399391,3056.51164728542
4819.729008642317,9216.697122656957,19468.28001359463,2439.759962530132
4579.403052258856,9213.009084821831,18531.071368583605,1953.9000933051225
4941.993050812847,9270.900102961075,19073.21293034708,2400.398540544336
5349.577110955371,9296.626960829137,20290.77950606102,3056.489295540964
5267.61326403776,9262.920530190531,20506.116212143446,3065.8323247232825
4829.116741313546,9208.382273719582,19502.880514011445,2459.3177389285256
4572.518714966621,9204.53777367327,18544.16949083441,1954.972977038977
4928.961983795403,9276.733908263912,19054.839796404816,2388.0380258605514
5343.139808552242,9301.209068442471,20275.669726809232,3046.721583213995
5277.38097636473,9266.11682964764,20533.854727012484,3076.650569039651
4843.421857764943,9207.599962663648,19551.942593090844,2485.0222450521287
4577.994892358172,9207.935238830476,18564.48722654429,1970.0827562907648
4915.461530144397,9273.492905317891,19026.05074954638,2375.789269899043
5335.6743259041705,9298.392748641105,20252.938002698185,3039.211397077012
5293.317770161363,9268.530818048814,20553.188985966324,3095.0460547263688
4874.043747668713,9215.221907522906,19598.74714598026,2520.9638501362624
4581.86174414894,9193.071328767695,18577.25007262827,1972.7649656254011
4901.49168985983,9249.956518406454,18992.456077630053,2347.8719410743643
5334.087352047844,9275.54926580778,20218.024577859,3026.157978315113
5303.890145288724,9244.21212008144,20549.724465575757,3099.717569317528
4884.616122796074,9187.326930442685,19617.92494272291,2531.290356074614
4579.268941792124,9169.378479645073,18568.26467135724,1959.5997881412252
4890.874611243559,9234.645573454569,18945.852690440737,2315.953649992186
5329.259375245497,9263.479323801914,20173.410495926204,2999.090015779736
5310.953296536601,9233.21506180943,20547.891622530416,3092.6991215585617
4902.676332315962,9179.995558261342,19657.53223389772,2552.680975518343
4582.733462182697,9160.035450462754,18592.38220362451,1974.8213261152896
4868.858142955082,9217.032398823789,18918.91883837209,2298.474585828136
5317.569412895371,9255.432695798005,20149.8070537814,2989.791690086328
5308.360494179785,9223.402645993549,20561.1015035035,3098.667037328129
4898.407149124998,9165.131648198563,19690.501056969293,2558.425373843357
4570.775278899107,9149.373668357572,18606.508506120263,1964.226599243474
4851.222616579845,9213.59023017767,18899.204599762517,2269.059690124952
5301.744377821014,9249.844759684178,20134.473757085056,2965.8082682857835
5318.128206506754,9231.225756552907,20598.630082443964,3108.7476740774723
4913.82985279916,9176.218113448396,19756.05872345671,2589.2707811916807
4570.127078309904,9151.877063736569,18651.83784387563,1980.0069308289208
4834.592918705096,9215.467776711916,18900.992739318932,2263.449402266669
5298.056339985888,9261.311204589749,20132.5515070619,2974.4807451344427
5321.346857708319,9238.06539035623,20622.926428666884,3131.658212144162
4926.480940160864,9183.683596096467,19802.81857285721,2621.725514140787
4573.256322533646,9158.359069628605,18669.987460373337,1993.417977502105
4831.284860525711,9228.431788495993,18873.2542244499,2250.887721882787
5303.465462144072,9274.31991986274,20107.87518118324,2966.5235241083533
5338.982384083555,9245.530873004303,20638.5726497856,3144.5328169504187
4959.740335910361,9198.905134070532,19851.724189725424,2653.28617731168
4589.595447730476,9167.590340088647,18697.100126397625,2006.8737276642
4819.818415620139,9221.7262651594,18843.63816304662,2227.5748524159017
5291.931962005135,9261.959405178954,20064.46809345104,2942.2942331188005
5345.844369631335,9238.601832223158,20633.163527627414,3145.181017539622
4974.693652950961,9189.562104888211,19872.153684157573,2671.435793809389
4597.552668756565,9157.085020194652,18700.452888065924,2017.9825446584875
4803.412235189943,9203.241372494862,18794.33021477821,2204.9995905160417
5283.259485156475,9248.347192805672,20019.33992139577,2929.3972765680883
5347.788971398946,9220.049884325254,20625.787451957163,3148.354965252276
4968.569274970207,9161.66712780799,19895.623015835645,2681.1140991585376
4583.918104638828,9133.056894905198,18720.435347608967,2019.8600911927333
4781.105194223546,9188.042186265253,18770.726772633407,2185.933552495665
5256.70561274357,9236.38900952208,19969.473179515982,2905.078578600714
5340.748171895525,9219.848718625157,20606.632006958964,3143.594043683296
4986.115394367623,9171.904226768522,19925.35083596121,2708.651448327476
4587.024997118116,9140.365915342083,18739.56844086271,2037.540321056881
4765.1236969380025,9198.01106429232,18745.71517058792,2168.432136587159
5245.395630049185,9245.664983471035,19934.537402932336,2880.536363188787
5348.683041177159,9227.023628595309,20619.618370487497,3142.5882151828077
5003.862679465137,9182.7671745738,19970.6131184832,2719.715561832853
4600.748968213674,9150.7594765138,18774.75008663536,2044.4470100935712
4763.424964359399,9201.833212594178,18733.08643497067,2154.864627702788
5250.2683103404415,9251.677602729513,19911.693920099013,2876.8706770981166
5362.250550061531,9227.381256506593,20623.015835644703,3154.881674633226
5020.022990706324,9172.753593057823,20003.24666538795,2746.872931346051
4605.711055482752,9133.19100537193,18800.745165436885,2060.7861352904006
4749.164551396912,9182.811878062712,18713.12632717208,2140.3359938068384
5235.493807255484,9238.221852567418,19873.897120225087,2849.5791971181866
5359.411878515706,9219.401683736049,20612.912847150907,3142.4764564605307
5030.61771757814,9175.167581458996,20026.559534854838,2756.506533206288
4612.86361370845,9136.14143564003,18825.30973259327,2070.509144128459
4731.3725628104885,9178.72150882739,18691.735707728352,2118.699505174101
5215.8689756237245,9231.225756552907,19834.803919172755,2829.194406174947
5355.902654636223,9212.003256321344,20611.370576783487,3151.6406716872066
5040.85481653867,9168.439706377949,20071.06185806535,2790.8164609451846
4613.221241619735,9129.99470591482,18859.083218465235,2093.3749787062384
4709.26668754419,9166.137476699052,18673.02729761926,2105.8472521122994
5192.9807893014895,9220.29575351426,19799.35405246664,2816.520967068788
5356.1038203363205,9210.282171998284,20616.10914660801,3166.459878261075
5047.806209064271,9163.455267364416,20100.49910551299,2815.6492490350306
4608.885003195405,9120.718731965868,18876.74109658493,2112.888051615721
4697.397911238421,9162.784715030755,18653.49187296532,2104.5284991894364
5185.269437464409,9217.859413368633,19766.42993288397,2808.340228598145
5365.960939641112,9209.321046986704,20615.528001252176,3172.092517863812
5066.313453473264,9159.923691740476,20132.864431484275,2834.312955655212
4624.978259203227,9115.644885974514,18912.95092260253,2127.2378715560285
4689.239524512234,9153.464037592894,18640.63961990352,2081.3050367003725
5176.619312360205,9213.076140055196,19731.94119118943,2781.249914318313
5366.251512319031,9200.872087582598,20607.660187203903,3160.8048869138825
5076.885828600625,9154.46986609338,20165.8109028114,2841.7784383032845
4636.936442486816,9112.582696984136,18946.65735324113,2136.670307716168
4689.954780334804,9159.119028940086,18625.194564484904,2069.6374260947023
5172.171315213599,9215.91481160102,19698.03359485073,2761.625082686553
5373.493477522549,9205.811823107222,20599.524152222177,3160.7378316805166
5095.594238709717,9161.488313852347,20191.783629868463,2861.6491391240525
4649.833399037529,9114.840223174122,18975.871083244216,2159.8043632274107
4673.928579560349,9146.691459022935,18606.01676774225,2061.0990597127748
5150.7136405365045,9202.39200620556,19645.998733758777,2739.3403934646126
5372.39824204424,9195.708834613424,20583.632061914454,3161.1848665696225
5105.719578947971,9144.299822366218,20219.0751098484,2882.324502745212
4651.1298002159365,9085.492382704304,19003.52019113543,2172.880133733765
4656.337756674023,9111.04042661672,18591.935168735406,2039.1496466576637
5132.765189738892,9169.780811045268,19605.54207629467,2711.1771954509254
5369.9171984097,9164.014060975798,20570.332773963542,3152.177113554134
5117.163672109088,9123.177423855952,20245.96425842813,2891.220497038424
4664.294977700112,9075.23293199932,19039.70766540857,2186.872325762788
4651.934463016327,9106.61478121457,18577.5853487951,2026.2079866180409
5127.512529791896,9170.987805245852,19572.48384624527,2691.753529519264
5381.182477615175,9171.34543315714,20572.947928064816,3158.033270601424
5134.329811850764,9126.530185524249,20281.21295943415,2912.208785081957
4679.896495329916,9081.983158824822,19082.1536281292,2207.9500207841425
4645.787733291118,9109.028769615745,18579.753468007264,2014.1380446121748
5117.588355253739,9172.977110502376,19537.90569757291,2668.932398430395
5387.150393384743,9175.77107855929,20559.64864011391,3153.0041280989803
5148.322003879786,9129.458264047891,20309.219695236647,2925.53042477732
4685.015044810181,9074.65178664348,19116.08357621236,2222.612765146824
4636.48940759771,9100.80332765619,18574.321994104623,2004.124463096197
5099.394035267119,9166.919787754989,19502.656996566893,2639.942185871862
5380.646035748248,9169.959625000907,20548.606878352988,3138.05081105838
5159.073192962789,9126.977220413351,20341.182689807734,2936.3263173492337
4701.108300818003,9077.781030867223,19164.45275121364,2242.796390389966
4628.398076104889,9098.27758053274,18576.46776157233,1991.227506545485
5079.612741424173,9156.682688794455,19470.67165025135,2608.359170956513
5371.705337966125,9158.694345795437,20536.40282588039,3122.873976573226
5166.02458548839,9117.388322042028,20365.79196045303,2942.24952962989
4704.952800864316,9062.0901062596,19190.91721664873,2250.6195009493235
4612.684799752808,9076.37287096654,18561.5814997651,1972.4073377141165
5059.004433036379,9136.90139495151,19428.158632297356,2579.2571996757038
5372.040614132955,9149.105447424108,20523.885848985417,3121.5105201614524
5174.764117570415,9109.9004876495,20388.478981075168,2957.091087948214
4707.947934621327,9050.780123565211,19222.14260365279,2270.110222114351
4598.3573315569565,9063.967652793845,18553.82544443911,1967.5793609117704
5040.385429905108,9132.38634257154,19385.64561434336,2561.5546180671
5360.77533492748,9145.126836911064,20487.474857267724,3107.7418455769835
5182.810745574325,9109.878135905044,20401.755917281615,2967.3952421421104
4726.455179030321,9057.955033535363,19263.64979310629,2288.282190356516
4597.284447823101,9071.164914508452,18554.652458983957,1956.29172996184
5034.5516246022735,9136.454360062404,19356.87891922938,2538.420562555857
5370.118364109799,9148.457246834903,20484.591482232987,3105.1713949646232
5193.517231168417,9102.099728834595,20423.772385570097,2975.5089253793867
4732.89248143345,9046.779161307712,19280.368897958862,2300.8662224848536
4591.562401242542,9063.587673138103,18532.792452906662,1952.715450848991
5027.8013977767705,9137.773112985267,19306.811011649494,2528.854015928986
5365.6703669631925,9142.66814502098,20448.47106319321,3103.740883319484
5210.325742998808,9107.531202737237,20435.75292059814,2998.7770913573613
4753.813714243617,9053.797609066678,19314.54471523103,2328.0682954869626
4588.366101785434,9060.79370508119,18523.650589424444,1942.9253867775665
5009.472967323419,9129.480615792349,19255.75962731357,2497.9639050917517
5368.576093742382,9142.623441532069,20419.25733319013,3096.811842538338
5225.279060039408,9103.105557335086,20445.56533641402,3010.6905711520403
4772.946807497359,9053.328222433118,19345.88186095737,2356.723231878666
4595.831584433507,9066.51575166175,18528.009179593228,1954.838866572245
5002.007484675346,9131.67108674897,19217.493440806084,2476.439175181291
5364.709241951614,9145.171540399971,20395.18450441176,3085.010121465936
5236.142007844688,9107.41944401496,20466.7324384132,3024.4592457365093
4790.4258716614095,9050.154274720464,19389.579521367494,2381.75718566861
4587.539087240588,9044.543986862182,18529.886726127475,1945.5628926232928
4978.98518788638,9106.883002148032,19174.823960640904,2446.4207823778133
5363.859875662312,9127.580717513649,20365.434332541747,3072.716662015517
5251.408249307662,9095.774185153745,20471.87333963792,3031.5894522177523
4805.446243935376,9039.89482401548,19412.579466412004,2397.0904823649507
4585.415671517333,9036.899690258466,18524.05292082464,1940.8243227987675
4966.199990057944,9105.117214336064,19134.38965492125,2425.47719782319
5362.474067506083,9132.341639082628,20333.96307634867,3062.144286888157
5264.461668069562,9099.529278222237,20486.08904911149,3041.3571645447214
4824.132302300012,9044.096951973075,19454.8913186659,2420.783331487576
4588.164936085336,9036.162082691442,18537.687484942377,1944.7582298229013
4959.427411487986,9099.9986648558,19109.19923892012,2404.488909779657
5361.177666327675,9126.7537029688,20317.713358129666,3050.655490238129
5270.273121627942,9086.073528060142,20508.396090077887,3046.833341936272
4833.251814037778,9024.583879063592,19501.628816321947,2437.43538110678
4582.174668571314,9021.40993135094,18559.14515961947,1940.6008053542143
4943.69178339145,9092.220257785351,19097.3081108699,2387.188659571249
5351.7005266786255,9114.19202258492,20309.957302803672,3041.133647100168
5280.286703143919,9084.75477513728,20541.32020966056,3061.719603743506
4848.138075845012,9033.770446034723,19551.160282034907,2469.7336518446987
4576.720842924219,9019.21946039432,18572.66796501493,1951.5978636262253
4923.955193037414,9080.70910939087,19054.973906871543,2365.663929660789
5350.761753411503,9112.94032489542,20273.255738408057,3032.5282254848757
5294.368302150763,9081.13379253552,20544.002418995195,3070.36972884771
4859.850389939594,9024.807396508146,19569.466360743805,2480.2389717386927
4577.0561190910485,9009.742320745268,18557.446427040868,1942.1207239771757
4918.322553434677,9078.697452389892,19006.04593825888,2345.055621272996
5346.336108009352,9100.266885789262,20237.470595535116,3019.6089171897074
5301.565563865372,9055.451638156372,20554.328924933547,3080.830345252793
4877.798840737205,8989.49164026876,19611.04060543068,2510.21266105326
4570.037671332082,8953.237110762253,18565.202482366854,1942.7689245663796
4899.457681114398,9021.812262751137,18976.98867046698,2321.7427518061104
5342.804532385413,9052.74707707728,20215.945865624653,3012.7022281530176
5309.947468036112,9013.20684113584,20560.4533029143,3088.072310456313
4891.120480432568,8952.186578772853,19630.03958821769,2524.0930943600056
4581.951151126761,8933.679334363858,18565.76127597824,1952.424878171072
4888.795899009216,9002.612114264026,18921.668102940097,2303.88370798632
5327.538290922438,9035.536233846691,20157.116074218284,2990.015207530881
5307.846404057313,9000.533402029681,20541.32020966056,3085.5689150773187
4898.138928191534,8944.564633913593,19648.36801867104,2544.3884783254243
4575.804421401551,8923.553994125605,18568.95757543535,1958.9292358075663
4861.303253329188,8981.601474476038,18872.44956164951,2273.4182802937366
5314.417816927174,9022.035780195689,20106.131745115727,2968.0434427313144
5314.641334371726,8997.739433972769,20537.766282292163,3092.274438413911
4914.388646410543,8945.324593225074,19673.98311781682,2563.655682045899
4577.547857469065,8924.626877859459,18571.4833225588,1958.6610148741024
4848.562758989663,8984.954236144333,18838.92194496655,2243.601053190357
5301.185584209631,9013.58682079158,20072.84999762177,2940.215520884457
5312.763787837481,8979.545113986149,20539.42031138185,3083.4231476096093
4917.182614467456,8922.794034814124,19712.361063046585,2575.5915135850328
4566.215523030224,8894.943761222812,18592.29279664669,1957.8787038181667
4825.6969244118845,8956.96985208629,18812.34572080919,2224.1997390031506
5299.442148142118,9009.11647190052,20053.851014834763,2942.115419163158
5340.0776195618655,8996.554791516637,20575.384268210444,3116.146101492179
4957.482809720375,8948.386782215452,19783.52901739228,2623.2454327637474
4595.7198257112295,8916.557898111094,18645.288782750224,1985.7289774094795
4836.537520472708,8977.980491874278,18819.96766566845,2221.58458490188
5307.064093001377,9029.233041910296,20036.036674503885,2933.5323492923203
5356.439096503151,9010.457576567838,20581.732163635752,3122.225775984022
4980.594513487162,8959.115619553999,19820.275285276806,2644.658403951932
4608.549727028576,8927.554956383105,18677.475294765867,1998.2683060489069
4824.333468000111,8974.806544161624,18801.90745614856,2198.383474157271
5296.625828340749,9019.957067961344,20014.556648082336,2911.225308325924
5358.026070359478,8999.326407829096,20595.12085856448,3115.073217758324
4990.1163566251225,8951.516026439194,19866.54339629929,2657.3318430580907
4601.687741480797,8915.909697521889,18703.7162427564,2002.3139717953168
4803.121662512024,8968.704517925325,18783.355508250657,2180.3679681262934
5282.119546189255,9018.459501082838,19989.232121614477,2897.0095988523485
5362.608177972816,9002.58976251957,20612.063480861605,3124.0809707738126
5003.326237598209,8949.8619973495,19909.16817297556,2670.474668797812
4606.918049683339,8910.254706174697,18728.929010501983,2001.8892886506665
4792.951618784859,8963.429506233872,18757.494539915864,2154.3952410692264
5278.498563587495,9020.225288894808,19956.62092645418,2874.0096538078374
5372.264131577508,9002.88033519749,20613.829268673573,3123.85745332926
5007.640124278084,8941.43538968985,19929.441205196526,2683.930418959906
4604.191136859791,8904.689121805326,18736.03686523877,2014.5627277568256
4779.920551767415,8965.82114289059,18726.11269070061,2146.5274270209584
5268.194409393598,9016.26903012622,19911.80567882129,2864.1078310141365
5370.073660620888,8990.564524002615,20597.378384754466,3129.5571481653637
5025.6332785646055,8941.457741434306,19960.62188871168,2714.015866996749
4611.790729974596,8904.443252616316,18757.00280153785,2025.805655217845
4761.368603869511,8956.545168941639,18689.8134577052,2119.0347813409307
5250.938862674101,9009.339989345071,19864.151759642573,2842.0019557478377
5371.68298622167,8991.704462969836,20592.304538763117,3134.854511601271
5030.9082902560585,8940.250747233718,19983.822999456286,2729.2374049708137
4606.828642705517,8897.938894979823,18771.86671160063,2030.1418936421744
4740.112094892514,8948.833817104556,18666.16531207148,2093.352626961783
5236.343173544786,9008.803547478146,19837.35201804066,2817.504443824821
5381.428346804184,8998.25352409524,20606.341434281047,3134.295717989888
5046.9344910305135,8936.048619276122,20027.29714242186,2740.346221965101
4622.519567313143,8890.875743731945,18811.96574115345,2041.8542077367556
4737.1840163688685,8934.908680308901,18656.21878578887,2077.9522750320766
5229.257670552453,8992.531477514682,19799.912846078023,2792.984580157349
5389.407919574728,8990.720986213802,20600.686442933853,3129.490092931997
5069.442697697008,8942.508273423706,20060.26596549344,2764.664919932475
4634.745971530196,8896.866011245967,18838.72077926645,2065.7035190705683
4725.404647040921,8935.713343109292,18632.88356457753,2066.619940593236
5220.428731492607,8998.49939328425,19760.841996770145,2777.7853939277406
5387.619780018304,8989.670454224402,20594.539713208644,3133.5134069339524
5082.071433314256,8945.324593225074,20101.840210180308,2790.324722567168
4647.531169358632,8904.33149389404,18891.06856478078,2088.7258158595346
4715.12284459148,8940.228395489263,18640.25964024778,2056.382841632705
5197.205269003543,9000.801622963147,19736.14331914703,2756.484181461833
5384.535239283471,8996.621846750004,20600.686442933853,3132.328764477821
5092.509697974885,8950.689011894347,20141.022818210466,2805.926240196972
4647.665279825364,8904.465604360772,18925.2667337974,2104.059112555875
4701.220059540279,8940.764837356191,18632.838861088618,2048.492675839981
5179.50268739494,8996.219515349809,19709.94707464541,2737.8875300750174
5381.249532848541,8994.520782771204,20600.820553400583,3136.5755959243293
5096.845936399214,8948.923224082379,20174.12575174877,2828.926185241483
4650.258082182179,8901.604581070493,18955.88862370117,2121.0464383419085
4693.665169914386,8943.178825757364,18621.752395838783,2039.64138503568
5178.0721757498,9006.613076521526,19679.213426019363,2725.415256668956
5387.016282918011,8997.82884095059,20587.431858471857,3130.2277004990224
5113.810910440792,8952.655965406415,20193.32590023588,2838.448028379444
4660.271663698157,8904.644418316415,18976.116952433225,2131.641165213724
4683.316312231578,8944.586985658048,18597.14312519349,2023.011687160932
5162.649472075638,9003.908515442434,19632.967666741333,2698.883736000507
5387.172745129197,8995.146631615953,20579.83226535705,3126.830235341816
5129.479483303962,8953.818256118091,20225.400653529246,2856.66470011052
4678.153059262402,8905.560839839083,19013.80199358487,2151.4224590566705
4682.042262797626,8942.172997256876,18589.54353207869,2013.8921754231665
5160.235483674465,9006.657780010437,19605.13974489448,2681.6281892810093
5394.325303354896,9000.265181096218,20572.433837942343,3121.5105201614524
5148.232596901965,8962.423677733383,20256.24606087757,2870.791002606273
4693.6875216588405,8913.585116098538,19050.43650274712,2168.186267398151
4670.374652191956,8941.43538968985,18581.429848841413,2000.615239216714
5145.438628845051,9006.098986399054,19572.88617764547,2663.0538896386493
5397.968637701111,9003.014445664221,20574.84782634352,3124.840930085293
5156.681556306071,8959.853227121022,20293.34995667338,2887.2418865253794
4695.386254237444,8911.059368975088,19086.691032253628,2182.401976871726
4660.741050331718,8942.620032145982,18576.40070633897,1985.3042942648285
5135.268585117887,9011.798681235156,19539.984409807257,2638.37756375999
5403.400111603751,9016.470195826316,20565.907128561397,3121.175243994623
5166.829248288781,8970.067974337098,20322.630741909838,2900.6082297096527
4704.595172953031,8918.390741156429,19128.93582927416,2200.573945113891
4644.983070490726,8945.615165902993,18568.75640973525,1970.619198157692
5110.279334816853,9013.609172536037,19499.86302850998,2606.2357552332587
5391.643094020259,9013.631524280492,20549.188023708823,3107.987714765992
5173.288902436364,8970.850285393035,20345.138948576325,2912.409950782055
4717.916812648394,8922.950497025311,19166.442056470165,2221.562233157424
4642.68084081183,8945.190482758342,18564.464874799836,1964.3607097102056
5102.657389957594,9014.50324231425,19454.578394243526,2585.716853823287
5391.598390531349,9014.21266963633,20518.25320938268,3101.393950151676
5182.095489751755,8969.464477236805,20355.97954463715,2922.982325909415
4725.69521971884,8922.078778991554,19189.3302427924,2240.494160711069
4632.555500573576,8944.452875191317,18548.841005425573,1961.72320386448
5073.533066932329,9007.30598059964,19393.69224234727,2563.432164601346
5381.763622971013,9011.441053323872,20484.39031653289,3103.025627496914
5189.985655544479,8967.363413258006,20365.546091264023,2946.138733165113
4725.203481340824,8910.9029067639,19212.01726341453,2261.080117354408
4621.401980090378,8935.735694853747,18546.31525830213,1961.2314654864629
5060.680813870527,9004.936695687378,19363.65149779934,2544.4778853032453
5386.859820706824,9017.096044671063,20475.04728735057,3094.576668092808
5213.74555990047,8979.858038408523,20390.960024709704,2958.9239309935488
4760.206313157834,8925.967982526778,19251.2445749336,2287.1869548782056
4619.233860878213,8928.627840116958,18529.797319149653,1947.52984613536
5049.214368964955,8994.699596726847,19311.974264618668,2522.372010036947
5390.927838197689,9007.283628855184,20449.745112627163,3095.47073787102
5224.921432128123,8968.972738858789,20415.74810931064,2977.8111550582835
4761.793287014161,8909.315932907573,19286.359165472888,2306.208289409672
4617.378666088423,8926.81734881608,18534.938220374373,1951.709622348502
5042.195921205988,8993.805526948634,19288.86256085188,2508.491576730201
5390.547858541949,9006.50131779925,20433.026007774595,3085.166583677123
5233.0351153654,8966.715212668803,20425.448766404246,2977.8782102916493
4779.428813389399,8917.161395211388,19323.2618955686,2321.854510528387
4607.230974105713,8922.48111039175,18534.625295952,1934.4317238845497
5018.65953429455,8989.983378646777,19255.26788893556,2476.8638583259417
5378.634378747271,9010.390521334471,20415.926923266285,3074.348339360755
5239.315955557341,8976.125297084487,20452.159101028337,2998.3971117016213
4783.452127391354,8919.351866168006,19366.087837944968,2350.889426575831
4592.411767531845,8924.649229603914,18543.253069311748,1941.8748547881669
4995.860754950137,8995.101928127042,19222.701397264173,2463.6316256084
5376.555666512927,9019.21946039432,20402.404117870825,3077.499935328953
5249.597758006783,8980.39448027545,20474.93552862829,3013.998629331425
4792.795156573672,8917.742540567224,19388.30547193354,2363.0711273039733
4591.048311120071,8920.916488279878,18530.06554008312,1932.1518459501085
4986.450670534453,8990.028082135688,19179.204902554146,2437.10010493995
5367.838486175357,9009.45174806735,20372.184559367248,3060.065574653813
5251.318842329842,8968.436296991862,20490.760563702654,3017.105521810713
4802.384054944999,8912.489880620227,19437.009923101657,2385.2887612925483
4574.977406856705,8905.940819494823,18540.928487888395,1925.468674357972
4963.204856300933,8977.354643029528,19148.60536439483,2410.702694738233
5368.620797231293,9008.267105611218,20358.952326649705,3052.0412983943584
5274.698767030092,8980.39448027545,20517.71676751575,3031.2988795398333
4827.865043624049,8920.447101646318,19479.70175501129,2406.724084225188
4588.969598885728,8915.552069610605,18551.94789790486,1930.0507819713096
4964.344795268154,8988.374053045995,19121.000959992525,2394.698845708233
5372.666462977703,9016.760768504237,20338.43342523973,3046.006327391425
5283.930037490134,8979.321596541595,20539.42031138185,3048.241501836956
4841.298442041689,8919.821252801568,19526.886287556445,2436.2507386506486
4585.058043606048,8912.713398064781,18571.4833225588,1931.5707005942704
4943.714135135905,8980.841515164557,19095.184695146643,2367.9661593396854
5359.881265149268,9005.11550964302,20312.103070271383,3028.013173104903
5284.33236889033,8961.44020097735,20545.74585506271,3044.776981446383
4847.95926188937,8901.470470603761,19551.987296579755,2442.688041053777
4583.314607538535,8901.157546181386,18568.354078335055,1925.4016191246055
4923.664620359495,8965.798791146135,19039.595906686296,2334.3267839344485
5345.978480098067,8994.118451371009,20260.24702313507,3005.1696902715794
5295.754110306992,8964.97177660129,20545.67879982934,3056.8692751967046
4870.065137155669,8908.175993940353,19593.40507905544,2478.0037972931623
4588.746081441174,8898.296522891107,18587.174247166426,1937.516264619382
4923.709323848406,8966.134067312965,19018.629970387217,2320.759275050077
5358.316643037396,9000.801622963147,20242.432682804192,2994.507908166398
5318.843462329324,8970.850285393035,20559.380419180445,3058.0315659083803
4904.419768383476,8921.877613291457,19638.488547621797,2503.2836202721146
4597.709130967753,8904.555011338594,18597.94778799388,1944.0876774892424
4913.718094076883,8972.839590649557,18985.59409208228,2307.907021988276
5348.973613855078,9007.775367233202,20214.269484790504,2990.976332542459
5312.674380859659,8970.62676794848,20565.68361111684,3070.168563147612
4905.291486417233,8921.318819680075,19662.47196942234,2525.389495538413
4596.993875145183,8910.43352013034,18605.10034621958,1953.967148538488
4899.077701458657,8977.533456985171,18951.574737021296,2290.4503095686805
5346.9619568541,9011.195184134864,20179.73603960705,2980.381605670644
5334.065000303388,8980.05920410862,20579.11700953448,3083.400795865154
4928.78316983976,8927.15262498291,19706.057871110188,2548.7023650052984
4600.503099024666,8904.555011338594,18620.12071849355,1961.4996864199263
4885.666654785473,8964.301224267629,18917.890658127148,2275.251123339072
5338.0212590719775,8997.985303161777,20150.09762645932,2968.78105029834
5342.20103528512,8970.045622592643,20590.11406780649,3096.521269860419
4938.081495533168,8916.267325433175,19737.126795903063,2575.457403118301
4597.284447823101,8894.608485055982,18637.82330010215,1967.4452504450385
4866.958244676381,8956.321651497085,18896.8129631058,2250.530093971502
5329.952279323612,8997.091233383564,20130.6516087832,2955.079430947236
5349.308890021907,8971.073802837587,20613.024605873183,3105.3502089202657
4949.190312527456,8913.696874820815,19792.98380529688,2595.909249294907
4601.978314158716,8893.177973410842,18676.87179766557,1980.096337806742
4855.760020704272,8957.081610808566,18883.64778562162,2239.086000810385
5318.351723951308,8999.907553184934,20110.579742262333,2948.8209424997503
5353.153390068221,8973.420736005395,20632.068292149102,3118.649496871173
4965.752955168839,8916.356732410995,19842.135291354098,2622.999563574739
4602.67121823683,8888.484107075228,18702.486896811355,1986.6006954432364
4836.984555361814,8941.81536934559,18860.4019713881,2209.8722708072987
5310.5509651364055,8988.68697746837,20085.590491961306,2927.609137011664
5367.503210008527,8973.532494727671,20653.727132526292,3128.372505709232
4992.060958392734,8928.71724709478,19897.99230074791,2655.454296523845
4615.3893608319,8899.548220580606,18743.85997579813,2009.6229922322027
4834.235290793811,8956.746334641735,18853.4505788625,2209.7158085961114
5315.133072749743,9007.373035833009,20075.44279997859,2925.15044512158
