 EXG Channel 0, EXG Channel 1, EXG Channel 2, EXG Channel 3
9874.128982320904,13134.17561461635,-22079.299042141323,-27525.726261821543
12735.778121444955,14413.768281193768,-21843.599896860112,-26721.823420741966
12534.47831088046,13632.016018869404,-22199.81964824434,-27334.350625795203
9502.710044707066,12038.202528739275,-22516.946198576235,-28336.424033215528
8332.260946304912,12094.618331744472,-22449.846261721406,-28136.174754640437
9842.702429616742,13118.97642838674,-22092.330109158767,-27530.88951479072
12704.619789674258,14401.251304298796,-21852.13826324204,-26732.57460982497
12547.576433131271,13645.538824264864,-22190.49897080648,-27322.3477390227
9515.517594279956,12047.545557921596,-22508.18431474976,-28324.80112609877
8323.78963515635,12101.81559345908,-22450.002723932597,-28136.51003080726
9832.89001380086,13133.84033844952,-22091.972481247485,-27527.26853218896
12693.823897102344,14412.270714315262,-21850.014847518785,-26720.974054452665
12554.10314251222,13658.27931860439,-22191.124819651228,-27309.048451071794
9527.386370585726,12057.00034582619,-22500.38355593485,-28310.920692792024
8322.225013044479,12100.854468447504,-22445.42061631925,-28127.90460919197
9798.714196528696,13110.818041660554,-22103.99771976444,-27535.00223577049
12657.144684451188,14381.380603478028,-21864.63288839256,-26733.84865925892
12556.9641658025,13656.669993003608,-22196.600997042777,-27314.65873893008
9531.02970493194,12050.38422946742,-22508.63134963886,-28326.388099955097
8307.517565192886,12085.431764773342,-22444.63830526332,-28140.555696553674
9776.78713521804,13098.30106476558,-22092.84419928124,-27538.667921861164
12639.442102842582,14386.789725636212,-21841.252963692303,-26728.417185356284
12571.895131098643,13669.119914665212,-22168.504854262454,-27293.02225029734
9540.819769003365,12045.131569520425,-22489.475904640665,-28316.195704483474
8304.16480352459,12074.501761734697,-22428.00860738857,-28138.74520525279
9758.07872510895,13088.868628605442,-22081.08718169775,-27545.619314386764
12624.466434057527,14381.067679055654,-21833.74277755532,-26733.513383092093
12577.863046868211,13678.84292350327,-22167.610784484245,-27295.32447997624
9543.501978338,12060.621328427953,-22490.861712796894,-28322.610655142147
8301.303780234311,12093.657206732894,-22432.81423244646,-28145.58483905612
9730.74254164011,13091.059099562062,-22085.95986198901,-27545.93223880914
12594.425689509591,14387.169705291952,-21838.03431249074,-26727.076080688967
12584.993253349454,13704.100394737769,-22166.44849377257,-27276.48195940041
9547.927623740152,12064.130552307432,-22490.16880871878,-28312.954701537456
8281.991873024926,12068.712659920771,-22434.20004060269,-28142.03091168772
9705.06038726096,13070.383735940904,-22094.09589697074,-27551.07314003386
12566.195436262542,14363.275690469229,-21851.154786486004,-26742.38702564085
12585.01560509391,13695.047938233369,-22174.47277003202,-27283.29924145928
9542.205577159591,12045.466845687251,-22505.189180992747,-28327.438631944497
8282.304797447301,12067.57272095355,-22446.225279119644,-28148.602324557585
9691.20230569867,13062.82884631501,-22104.668272098097,-27553.21890750157
12541.228537705963,14346.690696083391,-21860.72133311288,-26743.124633207877
12588.122497573197,13693.550371354864,-22182.67586024712,-27273.039790754294
9547.614699317775,12042.829339841526,-22511.17944850677,-28316.79920158377
8266.099782717203,12049.2442905002,-22446.78407273103,-28146.36715011205
9672.404488611755,13057.196206712271,-22101.337862174256,-27554.58236391334
12529.583278844748,14355.273765954227,-21852.71940859788,-26742.610543085404
12599.655997712136,13708.973075029024,-22166.761418194943,-27259.047598725272
9561.875112280264,12050.987726567711,-22491.04052675253,-28304.01400375533
8276.448640400009,12057.559139437572,-22429.57322950044,-28144.66841753345
9655.037183169983,13044.120436205916,-22085.334013144256,-27563.6571721622
12502.738833753923,14342.26505068124,-21835.12858571155,-26756.423921158785
12606.026244881898,13724.887517081204,-22147.65067668565,-27261.12631095961
9566.479571638058,12059.637851671918,-22485.89962552781,-28317.91678880653
8247.056096441282,12037.196700238788,-22442.31372383997,-28167.109568966574
9616.011037351018,13030.19529941026,-22105.07060349829,-27577.58230895785
12472.698089205993,14342.488568125793,-21843.242268948827,-26749.360769910905
12603.902829158644,13730.944839828591,-22149.01413309743,-27241.926162472508
9572.022804262971,12061.984784839724,-22484.670279582773,-28303.477561888405
8245.15619816258,12035.542671149096,-22436.5469737705,-28151.731568781328
9595.603894663322,13017.00777018163,-22099.10268772873,-27574.25189903401
12452.46976047394,14330.55273658666,-21847.08676899514,-26758.033246759565
12620.01843691092,13746.3451917583,-22150.601106953756,-27239.646284538067
9595.358025474314,12074.01002335668,-22486.100791227916,-28300.30361417575
8239.411799837566,12028.993610023692,-22438.4468720492,-28161.43222587493
9574.012109519495,13007.351816576936,-22100.33203367377,-27584.444294505636
12420.819690325225,14318.415739347429,-21839.57658285816,-26768.695028864742
12609.513117016926,13742.455988223075,-22139.268772514915,-27244.07192994022
9587.42315619268,12070.120819821455,-22473.762628288583,-28310.20543696945
8226.53719503131,12029.440644912798,-22422.48772650811,-28173.34570566961
9564.17734195916,13019.131185904884,-22082.785914276352,-27588.109980596302
12409.93439077549,14328.094044696576,-21826.165536184973,-26768.42680793128
12629.45087307106,13764.003069877992,-22121.767356606408,-27226.5258105428
9608.165575047204,12087.130497351944,-22458.87636648135,-28294.76038155084
8225.307849086268,12031.988743780705,-22420.52077299604,-28164.136786954023
9533.868376477763,12995.304226315526,-22091.391335891647,-27588.73582944105
12389.929579487987,14316.962875957834,-21829.451242619903,-26766.32574395248
12644.493597089482,13778.263482840475,-22127.690568887065,-27218.076851138696
9621.37545602029,12084.358881039489,-22475.26019516709,-28300.37066940912
8225.330200830722,12025.462034399752,-22433.574191757943,-28177.63724060503
9526.335838596326,13005.831897953976,-22096.59929234973,-27592.490922509543
12369.20951237792,14316.828765491102,-21834.34627465561,-26773.366543455904
12647.667544802136,13792.21097138059,-22122.013225795417,-27214.277054581293
9624.86232815532,12101.72618648126,-22466.78888401853,-28300.97416650941
8209.125186100626,12021.550479120076,-22425.99695038759,-28181.973479029355
9493.54582948039,12985.894141899842,-22089.3126236573,-27605.499637782534
12351.037544135756,14316.225268390808,-21814.006187201285,-26782.39664821585
12657.88229201821,13809.332407633354,-22094.90055977113,-27210.119630112607
9634.987668393573,12107.515288295184,-22437.68691273772,-28293.79925653926
8209.952200645472,12018.980028507714,-22401.11945880884,-28179.939470283924
9483.241675286494,12980.954406375218,-22067.8102454913,-27605.83491394936
12332.418541004485,14309.519745054216,-21799.41049807197,-26784.25184300564
12665.92892002212,13821.49175661704,-22081.869492753685,-27207.705641711436
9631.94783114765,12105.034244660646,-22438.40216856029,-28306.629157856605
8206.554735488264,12024.210336710255,-22400.94064485319,-28189.52836865525
9466.611977411743,12981.312034286504,-22072.95114671602,-27615.960254187616
12308.368063970574,14296.153401869942,-21816.576637813647,-26794.980680344182
12676.724812594037,13822.676399073172,-22106.009376765414,-27201.00011837484
9655.99830818156,12119.004084945213,-22470.00753522009,-28300.281262431297
8195.401215005066,12018.175365707322,-22454.137796656825,-28199.78781936024
9439.633421854189,12968.213912035691,-22132.831470111785,-27625.66091128122
12289.011453272278,14290.34194831156,-21874.110028041607,-26799.383974001885
12682.022176029945,13828.532556120465,-22162.87221465972,-27197.021507861795
9652.556139535443,12113.952590698313,-22520.41071896681,-28298.44841938596
8183.219514276924,12011.89452551538,-22494.102715742916,-28193.529330912752
9412.297238385348,12963.408286977805,-22175.120970621225,-27625.213876392118
12258.836598257614,14286.653910476436,-21902.80966792222,-26797.752296656647
12684.860847575766,13848.067980774402,-22175.90328167716,-27182.112894310107
9658.926386705209,12125.329628626065,-22541.89074538836,-28293.93336700599
8167.908569325039,12004.965484734235,-22512.22998049617,-28199.877226338056
9395.824002721787,12964.548225945024,-22170.047124629877,-27622.486963568565
12249.985307453311,14292.599474501549,-21890.42680149398,-26792.7231541542
12702.764594884467,13857.612175656815,-22156.4796157455,-27167.18192901396
9678.01477647004,12131.11873043999,-22516.141535775845,-28283.11512268962
8177.341005485178,12012.162746448845,-22486.99486100613,-28199.34078447113
9384.603427005224,12964.212949778192,-22150.221127298013,-27628.499582827044
12226.493624030783,14287.816201188112,-21867.315097727194,-26799.942767613265
12706.564391441869,13873.101934564344,-22123.33197871828,-27162.398655700526
9696.343206923391,12149.73773357126,-22482.07747722596,-28278.10833193163
8179.352662486156,12009.502888858664,-22453.467244323165,-28198.178493759453
9362.654013950112,12945.258670480094,-22119.778051349887,-27630.91357122821
12201.16909756292,14279.501352250738,-21844.71748408288,-26799.56278795753
12709.023083331953,13884.210751558632,-22101.76254531891,-27152.697998606924
9700.388872669802,12149.089532982056,-22467.88411949684,-28278.667125543016
8159.683127365485,11993.208467150744,-22447.25345936459,-28211.0083950768
9333.7532083694,12931.579402873444,-22120.49330717245,-27645.397501635256
12174.682280383382,14263.162227053908,-21841.767053814776,-26815.29841605406
12716.42151074666,13890.111612094834,-22096.912216772107,-27153.36855094058
9717.309143222468,12157.113809241511,-22462.76557001657,-28278.331849376187
8169.495543181365,11993.364929361933,-22440.279715094533,-28213.221217777875
9319.291629706817,12920.738806812622,-22116.13471700367,-27646.06805396892
12153.515178384208,14261.999936342232,-21836.62615259005,-26813.465573008725
12711.638237433224,13886.736498682085,-22100.37673716268,-27151.736873595342
9719.879593834828,12147.63666959246,-22461.02213394906,-28272.47569232889
8190.148555058069,12004.741967289685,-22427.829793432928,-28191.405915189494
9328.768769355866,12931.065312750974,-22106.925798288084,-27635.048643952447
12143.725114312783,14264.63744218796,-21827.305475152192,-26807.743526428167
12724.870470150769,13911.65869374975,-22086.31748990029,-27134.771899553765
9732.463625963168,12159.438390664864,-22464.218433406168,-28268.83235798268
8177.072784551715,11997.924685230815,-22447.2981628535,-28200.86070309409
9296.381091640127,12920.47058587916,-22127.154127020134,-27639.787213776974
12105.146003382924,14254.221529271786,-21855.02163827677,-26814.136125342386
12722.903516638698,13923.795690988982,-22108.15514423313,-27127.46287911688
9736.486939965122,12164.579291889584,-22487.88893078434,-28261.05395091223
8168.757935614341,11989.252208382157,-22477.718887057174,-28200.39131646053
9274.87871347412,12909.60763807388,-22156.926650634607,-27643.11762370081
12077.00515711369,14244.118540777989,-21872.07601929617,-26813.242055564173
12723.305848038895,13931.32822887042,-22112.37962393518,-27110.184980652928
9752.11080933938,12174.9728530613,-22480.714020814183,-28250.83920369616
8151.301223194746,11976.712879742729,-22458.29522112551,-28203.90054034001
9237.193672322474,12893.559085554967,-22135.960714335528,-27651.16425170473
12057.2462150152,14249.661773402904,-21850.08190275215,-26818.025328877608
12739.689676724634,13962.084229240923,-22082.584748576253,-27098.718535747357
9762.102039110903,12193.725966659304,-22461.089189182425,-28250.615686251604
8155.905682552539,11994.348406117966,-22445.666485508264,-28209.48847645384
9222.866204126622,12897.35888211237,-22125.544801419357,-27657.512147130037
12040.392999695898,14242.665677388391,-21829.898277509008,-26827.055433637557
12758.129865900262,13972.366031690364,-22061.55175704381,-27098.852646214087
9781.995091676128,12207.047606354668,-22449.555689043485,-28251.956790918925
8144.014554502315,11984.08895541298,-22450.29329661051,-28227.83925865165
9208.002294063845,12889.111088408365,-22133.010284067423,-27671.593746136878
12021.438720397797,14226.304200447108,-21849.813681818687,-26839.10302389896
12754.866511209788,13957.792694305504,-22083.72468754348,-27101.42309682645
9779.804620719508,12200.342083018077,-22467.54884333001,-28253.20848860842
8142.047600990249,11986.167667647323,-22462.787921761028,-28222.92187487148
9181.671939095491,12875.16359986825,-22154.24444129997,-27675.46059792764
11994.594275306974,14217.0058747537,-21869.48321693936,-26843.79689023458
12763.069601424886,13975.405868936286,-22089.9161207576,-27093.17530312244
9781.145725386828,12196.31876901612,-22478.344735901923,-28249.1181193731
8113.504423320821,11962.452466780242,-22475.528416100555,-28228.666273196493
9154.33575562665,12866.334660808405,-22153.931516877597,-27675.34883920537
11970.32028082851,14214.703645074804,-21863.112969769594,-26844.31098035705
12761.99671769103,13980.0997352719,-22084.015260221397,-27085.866282685554
9783.783231232552,12202.443146996877,-22469.96283173118,-28243.865459426102
8123.808577514717,11980.825600722505,-22462.340886871923,-28215.43404047895
9161.376555130071,12883.83607671691,-22147.561269707832,-27664.3294291889
11972.287234340578,14228.24880221472,-21850.88656555254,-26831.190506361785
12785.33193890237,14009.402872252807,-22071.36417285969,-27064.699180686377
9799.876487240374,12215.585972736597,-22468.085285196936,-28238.031654123268
8125.350847882134,11976.310548342532,-22456.663543780272,-28209.1084967981
9143.89749096602,12877.823457458431,-22135.17840327959,-27653.84646103936
11947.968536373202,14218.034054998643,-21838.503699124303,-26827.390709804386
12789.265845926506,14010.833383897949,-22055.785006974344,-27052.361017747047
9825.223365452692,12227.61121125355,-22447.991066931616,-28215.165819545487
8131.408170629522,11979.596254777463,-22439.273886594045,-28199.96663331588
9124.674990734458,12864.390059040792,-22127.04236829786,-27652.594763349865
11921.191146515745,14204.488897858728,-21834.994475244817,-26821.333387056995
12772.636148051755,14002.227962282654,-22054.153329629105,-27038.54763967367
9819.031932238571,12223.029103640212,-22442.023151162048,-28207.76739213078
8120.70168503543,11984.22306587971,-22432.00956964607,-28199.541950171228
9096.735310165324,12859.427971771716,-22123.197868251547,-27660.03789425348
11885.96479725418,14196.106993687989,-21828.780690286243,-26838.901858198868
12781.845066767344,14029.20651784021,-22038.708274210487,-27043.576782176115
9832.398275422844,12235.479025301818,-22439.00566566058,-28220.910217870503
8107.849431973628,11960.619623734909,-22440.972619172648,-28221.759584159805
9077.736327378312,12849.995535611575,-22125.43304269708,-27675.795874094478
11868.195160412211,14201.449060612806,-21824.89148675102,-26842.85811696745
12794.429098895682,14049.367791338896,-22032.136861340627,-27025.315406956128
9857.23106351269,12254.634470300016,-22427.31570331045,-28196.14448501402
8110.732807008363,11958.809132434028,-22436.234049348124,-28210.024918320767
9065.50992316126,12839.356105250848,-22128.31641773181,-27666.966935034627
11848.235052613623,14187.836848239524,-21823.84095476162,-26834.76678547464
12795.837258796366,14048.607832027415,-22025.945428126503,-27016.66528185192
9866.752906650652,12253.785104010714,-22429.126194611337,-28191.69648786741
8115.024341943782,11960.3737545459,-22436.703435981686,-28205.934549085447
9042.129998461009,12825.788596366478,-22130.99862706645,-27676.689943872687
11821.703531945172,14175.252816111186,-21824.265637906272,-26850.524765315626
12793.892657028757,14051.938241951257,-22023.21851530296,-27024.667206366925
9874.151334065358,12261.272938403245,-22416.095127593893,-28199.49724668232
8112.520946564788,11956.104571354936,-22421.995988130093,-28218.004491091317
9021.92402147341,12808.465994413616,-22125.053063041338,-27691.822074868927
11783.727918115606,14151.60467047747,-21832.26756242127,-26877.23509993972
12784.929607502176,14056.073314675488,-22023.620846703157,-27036.379520461505
9879.3816422679,12267.933758250923,-22423.046520119493,-28205.57692117416
8106.865955217595,11949.98019337418,-22431.40607254578,-28227.235761551357
9003.30501834214,12801.58165712138,-22123.175516507094,-27690.81624636844
11769.623967364309,14152.766961189149,-21817.60481805859,-26864.02521896663
12794.58556110687,14063.136465923366,-22009.44984071849,-27013.44663065036
9883.919046392328,12259.909481991468,-22418.2408950616,-28202.58178741715
8101.79210922624,11946.806245661528,-22433.529488269032,-28227.503982484817
9000.332236329585,12808.197773480151,-22128.65169389864,-27685.80945561045
11756.123513713304,14150.308269299065,-21821.27050414926,-26859.398407864384
12802.140450732762,14072.45714336123,-22005.426526716536,-26996.794581031158
9893.284427319102,12268.29138616221,-22416.1398310828,-28185.952089542403
8094.550144022721,11948.773199173596,-22434.311799324965,-28222.139563815545
8964.144762056441,12795.211409951617,-22138.978199836994,-27690.257452757058
11721.165385385202,14137.545423215082,-21831.999341487808,-26863.712294544257
12788.550590103936,14071.384259627372,-22017.719986166954,-26996.30284265314
9893.597351741477,12269.990118740812,-22425.974598643137,-28184.700391852904
8070.969053622372,11929.483643708663,-22441.50906103957,-28230.49911624183
8934.86397681999,12786.270712169497,-22136.966542836017,-27691.442095213188
11684.329710522856,14127.777710888116,-21834.43568163344,-26873.27884117113
12775.273653897484,14072.568902083503,-22017.004730344383,-26997.75570604273
9876.90059863336,12263.530464593228,-22422.063043363454,-28186.06384826468
8054.987556336828,11922.398140716332,-22427.807441688477,-28229.269770296785
8903.23625841573,12769.439848594648,-22119.465126927516,-27691.62090916883
11646.912890304671,14106.878829822404,-21816.17430641345,-26876.00575399468
12773.932549230163,14071.384259627372,-21993.378936455123,-26987.585662315567
9896.503078520664,12274.214598442864,-22403.24287453209,-28175.089141737124
8067.482181487344,11936.524443212083,-22416.944493883195,-28220.73140391486
8895.882534489934,12773.016127707497,-22116.13471700367,-27691.352688235365
11640.095608245803,14107.907010067343,-21808.954692954387,-26873.5917655935
12794.049119239942,14086.0246522456,-21984.281776461816,-26971.648868518936
9921.559384055065,12287.33507243813,-22395.82209537293,-28161.499281108296
8062.810666896185,11924.879184350872,-22417.81621191695,-28227.10165108462
8873.843714457002,12757.436961822148,-22123.264923484912,-27708.20590355467
11617.63210506822,14099.860382063436,-21812.530972067238,-26886.77929482213
12801.58165712138,14103.257847220642,-21979.073820003727,-26971.380647585476
9929.985991714717,12290.598427128603,-22400.538313453,-28172.33987716912
8073.405393768,11923.06869304999,-22418.285598550512,-28230.63322670856
8869.596883010494,12747.043400650433,-22131.44566195556,-27715.20199956918
11596.308540857855,14079.02855623109,-21826.769033285265,-26899.98917579522
12803.72742458909,14100.732100097192,-21993.04366028829,-26972.7664557417
9946.705096567286,12301.506078422795,-22417.883267150315,-28170.730551568337
8058.273262771758,11911.78106210006,-22447.85695646488,-28248.2687530838
8842.439513497295,12741.433112792149,-22152.52335697691,-27725.1932293407
11568.726488200007,14081.68841382127,-21836.69320782342,-26906.024146798158
12802.38631992177,14112.55617291405,-21990.92024456504,-26964.04927540413
9950.706058824786,12299.896752822013,-22415.692796193696,-28166.930755010937
8070.812591411185,11928.07548380798,-22436.144642370306,-28237.383453534065
8836.739818661192,12740.13671161374,-22145.48255747349,-27719.67234846024
11551.158017058136,14072.1218671944,-21834.681550822443,-26905.93473982033
12800.709939087625,14116.311265982542,-21993.02130854384,-26962.328191081077
9963.513608397676,12302.467203434371,-22418.66557820625,-28160.96283924137
8064.64350994152,11908.249486476125,-22444.30302909649,-28241.406767536017
8821.764149876137,12729.966667886576,-22143.20267953905,-27718.39829902629
11537.411694218124,14072.837123016969,-21823.03629196123,-26896.435248426827
12814.9256485612,14142.932193628812,-21976.011631013356,-26941.71988269328
9986.759422631196,12332.776168915769,-22400.82888613092,-28146.81418500116
8077.920446147972,11921.101739537924,-22427.89684866629,-28236.265866311296
8814.723350372715,12726.725664940555,-22135.960714335528,-27716.92308389224
11522.27956322188,14070.959576482725,-21825.40557687349,-26908.68400438833
12824.49219518807,14147.46959775324,-21974.894043790584,-26944.89383040593
10003.50087922822,12328.39522700253,-22407.802630400973,-28147.79766175719
8076.445231013922,11905.567277141488,-22438.983313916127,-28245.13950886005
8792.371605917408,12706.765557141967,-22151.38341800969,-27736.30204633499
11494.071661719285,14049.188977383254,-21842.817585804176,-26924.17376329586
12825.11804403282,14151.537615244106,-21991.389631198603,-26940.80346117061
10021.538737003651,12350.63521273556,-22416.609217716363,-28141.785042498715
8075.93114089145,11915.759672613103,-22445.33120934143,-28250.41452055151
8776.21129467622,12712.621714189258,-22159.988839624984,-27738.20194461369
11473.709222520498,14058.643765287849,-21841.923516025963,-26926.05130983011
12823.933401576687,14167.18383636282,-21983.007727027863,-26939.127080336464
10028.534833018164,12348.802369690226,-22414.843429904395,-28142.85792623257
8064.285882030235,11897.274779948566,-22449.80155823249,-28257.880003199574
8748.785704229558,12692.32633022384,-22163.00632512645,-27744.460433061176
11438.527576747843,14031.486395774651,-21848.405521918005,-26938.300065791616
12824.894526588265,14169.687231741817,-21981.80073282728,-26945.00558912821
10044.046943670148,12357.519550027797,-22404.91925536624,-28147.708254779373
8070.522018733266,11899.01821601608,-22442.49253779561,-28266.01603818131
8743.287175093554,12692.393385457204,-22153.775054666407,-27751.68004652024
11422.993114351406,14027.083102116956,-21835.352103156103,-26941.183440826357
12834.014038326031,14179.209074879776,-21961.572404095223,-26928.13002206445
10061.168379922912,12366.504951298828,-22395.19624652818,-28141.67328377644
8074.478277501855,11899.085271249449,-22438.670389493756,-28269.45820682743
8728.57972724196,12684.659681875668,-22158.647734957663,-27760.28546813553
11396.036910538303,14018.857660157402,-21841.40942590349,-26950.61587698649
12825.073340543908,14184.774659249148,-21972.703572833965,-26925.71603366328
10065.303452647144,12377.569064804204,-22407.176781556223,-28135.168926139944
8067.079850087149,11900.895762550326,-22442.96192442917,-28268.02769518229
8697.86843036037,12671.06982124684,-22166.761418194943,-27761.87244199186
11367.001994490862,14015.124918833366,-21843.264620693284,-26947.28546706265
12829.63309641279,14204.153621691898,-21964.321668663222,-26911.7014898898
10086.738775579784,12398.60205633665,-22397.699641907173,-28119.05331838767
8080.222675826869,11916.11730052439,-22438.290409838013,-28258.058817155223
8703.746939152115,12687.945388310598,-22156.4796157455,-27754.02697968805
11365.526779356813,14019.707026446704,-21827.953675741395,-26949.05125487462
12837.456206972149,14204.578304836548,-21949.122482433617,-26915.031899813643
10093.109022749546,12389.996634721356,-22389.451848203167,-28133.76076623926
8072.421917011967,11898.191201471234,-22430.51200276757,-28276.4766545864
8681.52930516354,12670.8910072912,-22163.72158094902,-27773.763570042083
11337.430636576491,14004.731357661649,-21841.6552950925,-26967.13381613896
12832.136491791784,14202.030205968644,-21963.69581981848,-26919.85987661599
10105.156613010957,12388.767288776316,-22413.56938047044,-28133.38078658352
8069.73970767733,11882.92496000826,-22462.02796244955,-28288.97127973691
8661.837418298413,12645.78999826789,-22188.15203763867,-27787.59929985992
11309.513307751811,13986.559389419484,-21859.201414489915,-26980.075476178587
12831.48829120258,14216.558839864594,-21979.96788978194,-26916.395356225417
10115.639581160496,12401.843059282668,-22428.500345766588,-28127.70344349187
8062.184818051436,11881.919131507771,-22480.177578947256,-28285.88673900208
8641.922013988735,12648.271041902428,-22205.832267502818,-27778.792712544528
11288.502667963823,13985.91118883028,-21883.274243268283,-26974.28637436466
12831.600049924857,14218.749310821211,-22000.08445979172,-26910.874475344957
10133.520976724742,12414.717664088925,-22437.73161622663,-28119.366242810043
8072.980710623349,11893.765556069084,-22478.50119811311,-28283.942137234462
8642.078476199922,12664.02902174342,-22208.737994282008,-27783.061895735493
11284.009967328308,14001.19978203771,-21890.82913289417,-26982.936499468866
12861.104352605862,14256.255538017218,-21995.480000433923,-26896.345841449005
10171.2507213653,12447.172397038032,-22436.92695342624,-28105.731678692304
8099.512231291799,11910.819937088483,-22488.514779629088,-28279.292974387765
8631.103769672367,12657.748181551478,-22228.6981020806,-27795.7129830972
11247.934251777442,13984.525380674051,-21904.843676667653,-26996.10167695304
12842.485349474591,14253.550976938126,-22002.02906155933,-26896.949338549297
10171.58599753213,12448.446446471984,-22442.06785465096,-28111.61018748405
8077.316949047679,11892.893838035328,-22498.41660242279,-28302.091753732177
8601.152432102255,12638.637440042192,-22225.92648576814,-27808.11820126989
11214.45133858339,13966.62163336535,-21894.0701358402,-27010.362089915525
12828.962544079131,14246.085494290051,-21992.93190156602,-26904.817152597567
10174.245855122312,12454.03438258581,-22430.53435451202,-28113.75595495176
8075.394699024523,11900.1581549833,-22480.73637255864,-28299.74482056437
8578.867742880315,12631.998971938963,-22211.509610594465,-27803.044355278536
11193.440698795404,13968.700345599693,-21875.09350479764,-27001.6225578335
12840.607802940343,14276.036831860163,-21964.58988959669,-26883.38182966493
10187.321625628663,12461.969251867444,-22415.67044444924,-28094.71226867584
8078.211018825891,11896.73833808164,-22470.141645686825,-28293.10635246114
8577.884266124282,12639.486806331492,-22199.462020333056,-27804.430163434765
11179.381451533014,13961.167807718257,-21860.833091835157,-27004.34947065705
12834.997515082065,14272.795828914146,-21950.083607445195,-26879.85025404099
10190.786146019238,12468.875940904134,-22399.554836696963,-28093.95230936436
8073.2042280679025,11891.865657790382,-22458.78695950353,-28297.80021879676
8551.2186349891,12617.693855487569,-22199.193799399596,-27816.65656765182
11145.384448216491,13938.32432488493,-21860.251946479315,-27018.25225570825
12837.746779650066,14276.528570238184,-21928.55887753473,-26869.389637635904
10211.349750918122,12476.497885763394,-22382.343993466377,-28082.79878888116
8078.054556614704,11885.808335042992,-22446.426444819743,-28294.31334666173
8533.44899814713,12608.7755094499,-22186.5874155268,-27804.78779134605
11126.743093340769,13940.537147586008,-21852.071208008678,-27005.981148002287
12837.076227316407,14285.82689593159,-21928.760043234837,-26860.65010555388
10225.07372201368,12487.316130079762,-22375.124380007317,-28074.260422499232
8071.639605956031,11877.985224483637,-22438.715092982664,-28291.07234371571
8524.128320709267,12605.333340803783,-22180.463037546044,-27805.257177979613
11121.468081649316,13945.454531366177,-21849.299591696214,-27005.95879625783
12846.642773943278,14301.607227517035,-21938.37129335061,-26850.345951359985
10238.149492520037,12503.878772721146,-22397.319662251437,-28067.08551252908
8088.045786386227,11903.041530018036,-22458.83166299244,-28283.74097153437
8514.070035704379,12608.30612281634,-22206.72633728103,-27805.88302682436
11087.24756088824,13923.572173544428,-21879.13917054405,-27015.972377773807
12843.513529719536,14305.697596752358,-21939.48888057338,-26844.534497801604
10262.110562576125,12524.48708110894,-22386.76963886853,-28052.869803055502
8089.766870709285,11909.4117771878,-22447.722845998152,-28283.986840723377
8500.72604426456,12612.01651239592,-22198.612654043754,-27809.83928559295
11068.33798507905,13926.008513690056,-21872.411295463004,-27031.84211633708
12837.925593605709,14314.9288672124,-21938.77362475081,-26856.40327410737
10261.484713731375,12519.927325240056,-22395.17389478373,-28070.84060559757
8082.5919607391315,11893.16205896879,-22460.66450603777,-28305.71273633393
8483.895180689715,12599.879515156688,-22205.765212269453,-27831.296960270043
11032.575193950555,13914.139737384288,-21876.6134234206,-27052.562183447146
12830.571869679914,14313.051320678154,-21936.35963634964,-26857.20793690776
10292.665397246528,12530.05266547831,-22389.138923780796,-28059.41886418091
8097.478222546366,11895.129012480857,-22461.469168838164,-28309.445477657973
8461.655194956684,12582.221637036995,-22217.16460194166,-27846.89847789985
11007.943571560809,13895.31956855292,-21882.17900778997,-27062.419302751936
12836.338619749382,14316.828765491102,-21942.081682930195,-26852.245849638686
10309.51861256583,12542.860215051202,-22395.710336650653,-28054.724997845293
8097.008835912805,11894.190239213734,-22470.92395674276,-28308.75257357986
8450.72519191804,12580.031166080376,-22219.01979673145,-27835.78966090556
10979.422745635837,13884.74719342556,-21880.726144400374,-27050.43876772389
12832.941154592176,14327.64700980747,-21925.988426922373,-26832.576314518014
10324.203708672969,12551.085657010752,-22383.86391208934,-28038.63174183747
8103.4908418048435,11889.362262411389,-22467.16886367427,-28304.371631666618
8443.215005781056,12577.281901512371,-22213.05188096188,-27830.82757363648
10968.045707708086,13886.334167281888,-21876.300498998226,-27050.930506101908
12826.615610911324,14333.41375987694,-21933.34215084817,-26833.80566046305
10320.3368568822,12552.38205818916,-22389.42949645871,-28034.250799924237
8085.140059607037,11876.688823305229,-22456.998819947104,-28297.666108330028
8418.963363047047,12563.669689139091,-22208.648587304186,-27827.54186720155
10949.225538876715,13885.775373670504,-21871.606632662613,-27044.716721143333
12811.72934910409,14339.918117513433,-21921.987464664875,-26823.30034056906
10333.27851692182,12572.766849132402,-22371.88337706129,-28020.90680848441
8084.514210762288,11876.085326204937,-22452.573174544952,-28299.40954439754
8412.14608098818,12566.173084518086,-22206.435764603117,-27825.06082356701
10943.25762310715,13890.26807430602,-21858.62026913408,-27041.58747691959
12826.906183589244,14350.401085662972,-21906.18478133497,-26816.88538991039
10343.895595538092,12575.605520678226,-22370.005830527047,-28028.059366710117
8093.901943433517,11893.407928157798,-22454.227203634644,-28308.439649157484
8397.259819180945,12564.429648450572,-22215.22000017405,-27838.00248360664
10914.82620416,13872.297271763957,-21876.524016442778,-27058.284230027704
12829.096654545863,14358.850045067078,-21914.47727852789,-26814.69491895377
10358.71480211196,12587.11666907271,-22375.14673175177,-28022.80670676312
8092.136155621548,11884.266064675578,-22450.85209022189,-28309.289015446782
8401.104319227257,12562.552101916326,-22200.33373836681,-27835.387329505367
10910.132337824383,13871.55966419693,-21853.23349872035,-27057.41251199395
12829.92366909071,14365.935548059411,-21893.064307339708,-26812.83972416398
10369.823619106248,12595.498573243449,-22352.90674601874,-28015.385927603955
8095.198344611925,11889.809297300497,-22428.67915972223,-28303.052878743754
8378.350243371755,12560.58514840426,-22182.608805013755,-27833.420375993297
10879.91277932081,13865.189417027166,-21844.76218757179,-27061.05584634016
12827.621439411812,14374.60802490807,-21880.65908916701,-26800.7250786692
10385.872171625158,12611.234201339985,-22333.79600450945,-27993.347107571022
8094.12546087807,11892.536210124044,-22417.726804939128,-28292.994593738866
8358.166618128613,12551.756209344412,-22178.943118923085,-27828.525343957583
10850.944918506731,13856.516940178508,-21841.789405559237,-27059.960610861854
12828.560212678936,14390.634225682525,-21868.589147161147,-26786.978755829183
10410.794366692826,12636.804596996855,-22333.12545217579,-27986.462770278788
8099.668693502987,11897.475945648664,-22424.544086998,-28304.863370044637
8349.918824424603,12557.38884894715,-22182.34058408029,-27838.293056284558
10833.532909576048,13861.568434425406,-21841.8564607926,-27069.035419110707
12814.992703794564,14389.404879737483,-21874.5123594418,-26795.628880933396
10405.988741634936,12632.893041717178,-22333.773652764998,-27987.088619123533
8102.440309815444,11903.153288740312,-22425.527563754036,-28296.436762384983
8332.104484093725,12546.548252886329,-22200.02081394444,-27843.478660998186
10805.012083651076,13844.067018516902,-21859.5590424012,-27077.953765148373
12814.7244828611,14396.17745830744,-21878.982708332864,-26794.31012801053
10419.846823197226,12640.626745298714,-22344.569545336908,-27995.93990992784
8096.382987068056,11888.132916466346,-22440.547936028,-28318.36382369564
8315.988876341447,12533.00309574641,-22199.126744166228,-27848.731320945182
10787.42126076475,13835.796873068435,-21850.148957985515,-27076.031515125214
12813.96452354962,14398.144411819509,-21877.19456877644,-26791.96319484272
10415.44352953953,12629.316762604329,-22350.336295406378,-28002.980709431256
8083.821306684174,11875.727698293653,-22439.63151450533,-28317.1344777506
8299.31447497779,12531.796101545824,-22201.76425001195,-27848.75367268964
10776.737126915114,13843.351762694332,-21854.52989989876,-27078.914890159955
12823.7769393655,14417.053987628698,-21867.42685644947,-26773.902985322835
10447.674745044082,12660.653908330669,-22334.17598416519,-27973.52111023916
8088.403414297511,11881.382689640845,-22437.463395293165,-28318.050899273265
8279.823753812761,12520.28495315134,-22206.748689025484,-27863.28230658559
10739.700286352669,13822.139957206246,-21854.641658621036,-27093.75644847828
12794.227933195583,14409.029711369243,-21866.62219364908,-26785.525892439597
10437.817625739292,12652.897853004675,-22336.18764116617,-27978.550252741607
8083.351920050612,11870.54209358002,-22435.988180159115,-28315.90513180556
8266.703279817495,12505.66691227757,-22206.3910611142,-27862.65645774084
10719.986047743088,13805.622018053771,-21854.909879554496,-27101.043117170702
12797.066604741409,14406.19103982342,-21861.883623824557,-26788.319860496507
10461.26460567291,12664.45370488807,-22322.016635181502,-27974.839863162026
8091.912638176995,11875.615939571377,-22419.24672356209,-28316.396870183573
8252.331108132734,12504.214048887974,-22197.91974996564,-27864.824576953004
10699.534201566485,13809.48886984454,-21846.885603295043,-27092.75061997779
12791.81394479441,14420.630266741548,-21853.009981275794,-26761.229546216677
10466.0702307308,12674.020251514945,-22319.088556657854,-27953.62805767394
8089.476298031366,11874.297186648511,-22422.241857319103,-28308.68551834649
8235.634355024618,12496.480345306438,-22206.368709369744,-27865.15985311984
10675.371965810296,13795.764898748985,-21854.73106559885,-27099.143218892008
12782.225046423084,14413.768281193768,-21860.698981368423,-26767.644496875346
10491.819440343314,12695.544981425404,-22334.287742887467,-27955.796176886102
8095.891248690039,11886.031852487547,-22429.3944155448,-28314.76519283833
8231.923965445038,12503.655255276592,-22195.885741220205,-27857.18028034929
10653.087276588354,13786.086593399836,-21853.904051054007,-27107.79334399621
12779.118153943797,14418.417444040471,-21851.89239405303,-26762.88357530637
10490.724204865004,12687.69951912159,-22322.374263092788,-27949.11300529397
8083.776603195263,11872.263177903078,-22425.86283992086,-28319.861390574148
8209.214593078446,12497.396766829106,-22203.239465146,-27868.75848397714
10635.138825790742,13786.846552711317,-21855.379266188054,-27110.475553330845
12779.654595810724,14430.152109879507,-21844.963353271887,-26753.361732168407
10511.578382441803,12705.580914685836,-22316.22753336758,-27938.317112722056
8091.286789332246,11872.643157558818,-22421.839525918906,-28318.497934162373
8200.877392396616,12483.918664922556,-22192.86825571874,-27865.450425797757
10614.038779024932,13774.955424661091,-21841.47648113686,-27116.37641386705
12776.950034731632,14438.33284835015,-21837.900202024008,-26763.39766542884
10525.503519237462,12716.37680725775,-22312.204219365623,-27936.1936969988
8086.9952543968275,11860.595567297409,-22428.16506959976,-28317.290939961786
8186.304055011757,12474.240359573409,-22202.43480234561,-27860.01895189512
10593.13989795922,13757.319898285854,-21849.47840565186,-27109.514428319268
12760.365040345794,14414.818813183168,-21847.734969584344,-26760.894270049845
10531.337324540296,12715.28157177944,-22313.254751355023,-27935.23257198722
8089.163373608992,11860.282642875034,-22426.712206210163,-28324.17527725402
8165.874560579606,12456.962461109457,-22217.58928508631,-27879.35321084896
10566.206045890576,13750.592023204808,-21865.012868048296,-27124.02071047076
12750.23970010754,14420.339694063628,-21852.652353364512,-26757.9661915262
10538.378124043718,12719.03666484793,-22324.788251493963,-27930.42694692933
8089.0516148867155,11860.975546953148,-22435.295276081,-28317.469753917427
8154.542226140765,12461.835141400712,-22215.22000017405,-27868.51261478813
10538.914565910643,13740.243165522,-21859.536690656747,-27122.299626147706
12756.38642983275,14440.81389198469,-21833.98864674433,-26743.169336696785
10559.366412087253,12736.493377267523,-22308.493829786043,-27920.391013668897
8084.536562506743,11853.800636982996,-22432.970694657648,-28338.12276579413
8119.181766412469,12440.332763234706,-22211.93429373912,-27898.03926921359
10510.192574285576,13730.1401770282,-21849.90308879651,-27140.89627753452
12748.362153573296,14446.066551931686,-21826.903143752,-26743.459909374706
10575.258502394976,12750.127941385264,-22299.240207581548,-27914.91483627735
8091.420899798978,11859.522683563551,-22417.838563661404,-28335.440556459496
8129.597679328643,12451.151007551076,-22203.910017479662,-27888.53977782009
10509.186745785088,13730.408397961664,-21852.31707719768,-27141.76799556828
12747.445732050626,14442.266755374283,-21832.89341126602,-26751.14890946733
10589.72008105756,12756.565243788393,-22304.716384973097,-27916.14418222239
8099.199306869425,11857.131046906836,-22424.43232827572,-28332.87010584713
8111.917449464495,12440.332763234706,-22216.941084497103,-27896.072315701524
10469.35593716573,13716.95264779957,-21865.839882593144,-27163.27037373428
12728.938487641632,14441.104464662609,-21839.66598983598,-26761.18484272776
10595.464479382574,12772.591444562846,-22298.189675592148,-27909.14808620788
8096.137117879048,11858.785075996528,-22416.519810738544,-28332.065443046744
8097.902905691017,12428.732207862402,-22203.93236922412,-27895.37941162341
10458.045954471345,13716.505612910463,-21846.72914108385,-27152.429777673457
12723.685827694637,14452.637964801546,-21818.923570981453,-26747.93025826577
10597.073804983354,12773.999604463532,-22290.54537898843,-27908.298719918577
8095.891248690039,11869.379802868343,-22407.75792691206,-28333.540658180795
8097.36646382409,12450.212234283952,-22194.544636552888,-27887.288080130587
10435.940079205046,13706.00029301647,-21850.37247543007,-27158.33063820966
12722.635295705237,14457.130665437064,-21814.6990912794,-26739.034263972557
10622.308924473396,12791.478668627582,-22284.21983530758,-27893.211292411244
8103.647304016031,11859.25446263009,-22410.842467646893,-28332.534829680302
8075.484106002344,12422.74194034838,-22202.14422966769,-27895.312356390044
10413.34246556073,13699.361824913243,-21852.965277786887,-27153.56971664068
12714.722778168056,14462.495084106336,-21818.923570981453,-26722.82924924245
10622.644200640229,12797.20071520814,-22291.998242378027,-27876.112207902934
8085.944722407427,11851.96779393766,-22424.85701142037,-28338.61450417215
8040.838902096618,12408.83915529718,-22225.613561345766,-27912.09851647598
10373.981043574937,13678.686461292084,-21865.057571537207,-27163.359780712104
12693.041586046407,14454.00142121332,-21814.94496046841,-26731.81465051349
10628.098026287322,12794.540857617958,-22283.258710296,-27882.929489961803
8092.225562599369,11852.079552659936,-22415.424575260236,-28341.60963792916
8036.9273468169395,12411.208440209442,-22202.926540723627,-27911.04798448658
10364.414496948064,13680.631063059696,-21841.364722414583,-27179.65420242002
12691.812240101366,14454.940194480443,-21800.148105639,-26747.080891976464
10653.288442288453,12811.327017703894,-22263.902099597704,-27889.0315161981
8103.423786571478,11857.175750395743,-22393.56456918294,-28351.42205374504
8033.082846770627,12409.26383844183,-22187.906168449663,-27916.97119676724
10348.678868851528,13675.311347879331,-21836.201469445405,-27182.13524605456
12698.540115182414,14479.77298257029,-21791.475628790336,-26733.468679603186
10665.9171779057,12835.221032526617,-22267.724247899565,-27875.39695208037
8110.665751774997,11871.212645913678,-22402.39350824279,-28341.296713506785
8022.555175132177,12411.49901288736,-22205.787564013903,-27916.23358920021
10329.769293042338,13675.780734512897,-21850.46188240789,-27183.99044084435
12684.391460942205,14479.929444781475,-21805.26665511926,-26732.14992668032
10664.039631371455,12841.568927951925,-22281.515274228488,-27871.597155522963
8114.867879732595,11882.701442563706,-22409.61312170185,-28329.249123245376
8017.615439607554,12419.165661235533,-22218.68452056462,-27907.89638851838
10312.08906317819,13674.104353678746,-21869.84084485064,-27186.15856005652
12685.576103398336,14488.49016290786,-21821.806946016182,-26722.56102830899
10683.977387425588,12846.463959987635,-22291.95353888912,-27863.08114088549
8107.715321506896,11860.103828919391,-22428.388587044312,-28347.577553698728
7994.8390120075965,12398.244428425363,-22226.26176193497,-27919.38518516841
10286.965702410424,13657.98874592647,-21872.8136268632,-27188.48314147987
12676.03190851592,14483.997462272342,-21821.49402159381,-26716.213132883684
10698.908352721734,12855.382306025303,-22294.07695461237,-27846.339684288465
8114.666714032497,11867.099924933902,-22433.730653969127,-28331.75251862437
7997.476517853323,12412.393082665574,-22233.101395738293,-27908.410478640853
10276.393327283064,13664.13547565168,-21875.205263519914,-27187.790237401758
12677.194199227595,14496.91677056751,-21811.592198800117,-26710.111106647382
10720.433082632197,12879.49983829258,-22279.01187884949,-27841.51170748612
8122.802749014229,11868.932767979237,-22412.027110103027,-28339.32975999472
7979.1704391444255,12390.220152165908,-22224.272456678445,-27926.78361258312
10251.582890937674,13646.589356254264,-21867.739780871845,-27197.356784028627
12653.054315215864,14482.231674460374,-21812.46391683387,-26716.61546428388
10713.034655217489,12866.804047441969,-22280.665907939187,-27842.517535986608
8116.32074312219,11865.088267932924,-22418.732633439617,-28347.510498465363
7972.286101852192,12395.293998157264,-22218.572761842344,-27923.453202659275
10223.754969090816,13633.357123536722,-21866.242213993337,-27206.90097891104
12647.98046922451,14488.937197796966,-21801.824486473142,-26713.933254949243
10754.430085948718,12899.437594346717,-22265.220852520568,-27822.333910743462
8129.08358920617,11855.611128283874,-22413.52467698153,-28343.26366701885
7953.153008598449,12367.086096654666,-22213.5436193399,-27921.195676469288
10213.24964919682,13632.150129336134,-21855.08869351014,-27193.89226363805
12649.053352958364,14499.375462457594,-21793.286120091216,-26701.259815843085
10760.263891251552,12901.516306581058,-22259.99054431803,-27819.74110838665
8137.912528266017,11861.355526608888,-22404.583979199408,-28340.98378908441
7956.058735377638,12378.530189815783,-22209.296787893392,-27928.750566095183
10202.744329302828,13633.513585747907,-21845.209222460893,-27206.029260877283
12650.059181458852,14513.05473006424,-21774.98004138232,-26701.259815843085
10781.878028139834,12930.350056928404,-22246.668904622664,-27810.12985827087
8148.619013860109,11879.72866055115,-22400.739479153097,-28339.396815228083
7941.083066592582,12372.785791490767,-22218.237485675512,-27934.42790918683
10175.475201067353,13615.587486694752,-21854.909879554496,-27207.79504868925
12641.78903601039,14505.54454392726,-21785.21714034285,-26695.068382628964
10796.965455647169,12933.144024985317,-22259.92348908466,-27806.486523924654
8156.285662208279,11878.342852394922,-22414.016415359547,-28341.05084431778
7935.293964778658,12370.30474785623,-22226.999369501995,-27931.343368452
10151.827055433638,13606.490326701443,-21881.41904847849,-27223.575380274702
12620.890154944678,14499.286055479772,-21807.79240224271,-26708.412374068783
10793.679749212237,12927.936068527231,-22270.87584386776,-27803.379631445365
8140.527682367287,11866.719945278162,-22427.293351566,-28341.386120484607
7913.523365679189,12360.849959951634,-22238.443462663112,-27925.308397449066
10121.607496930064,13592.587541650242,-21875.831112364664,-27213.897074925557
12601.48884075747,14491.038261775764,-21796.46006780387,-26700.030469898044
10790.61756022186,12926.304391181991,-22253.17326225916,-27802.820837833984
8128.725961294886,11852.548939293498,-22398.928987852218,-28351.75732991187
7891.573952624078,12339.571099230185,-22213.96830248455,-27943.86034534697
10105.223668244324,13590.3076637158,-21861.03425753525,-27236.405281592048
12600.63947446817,14514.954628342944,-21783.45135253088,-26708.479429302148
10807.224906352152,12950.623089149369,-22255.02845704895,-27803.871369823384
8148.887234793572,11868.753954023596,-22403.13111580981,-28348.42691998803
7892.423318913379,12347.662430723003,-22217.231657175023,-27938.540630166608
10094.740700094784,13589.480649170951,-21856.47450166637,-27230.05738616674
12606.897962915657,14520.654323179046,-21777.461085016857,-26697.59412975241
10838.897328245324,12975.433525494758,-22248.07706452335,-27786.83934054844
8160.04075527677,11884.511933864587,-22401.47708672012,-28342.95074259648
7889.696406089832,12361.319346585196,-22217.83515427532,-27935.85842083197
10073.104211462049,13584.675024113065,-21872.56775767419,-27235.95824670294
12583.942721360056,14516.8768783661,-21793.26376834676,-26705.216074611675
10850.944918506731,12997.42764203878,-22253.754407615,-27783.46422713569
8159.973700043404,11887.462364132689,-22411.96005486966,-28353.05373109028
7872.932597748351,12352.311593569708,-22229.838041047817,-27948.21893551576
10041.163568635411,13570.504018128398,-21884.123609557584,-27250.06219745424
12566.284843240364,14508.025587561797,-21799.969291683352,-26707.250083357107
10848.173302194276,12989.649234968334,-22259.92348908466,-27781.54197711253
8158.587891887176,11878.320500650469,-22419.53729624001,-28357.34526602569
7853.374821349957,12331.546822970728,-22242.73499759853,-27957.27139202016
10025.673809727885,13562.792666291318,-21884.682403168965,-27245.658903796542
12561.546273415835,14512.11595679712,-21801.444506817403,-26698.75642046409
10866.635843114358,12999.171078106294,-22259.007067561997,-27766.990991472125
8157.626766875597,11866.898759233804,-22425.25934282057,-28356.361789269664
7847.943347447318,12329.892793881036,-22247.518270911965,-27959.372455998957
10007.859469397006,13558.724648800451,-21882.06724906769,-27254.666656812034
12552.694982611536,14522.956552857942,-21789.821599700645,-26690.866254671368
10886.663006146311,13025.09910167445,-22247.674733123156,-27751.747101753608
8174.368223472622,11891.440974645731,-22419.85022066238,-28350.930315367023
7845.5517107906,12344.756703943816,-22244.43373017713,-27947.81660411556
9995.387195990945,13562.166817446569,-21886.179970047477,-27244.608371807142
12545.162444730096,14520.20728828994,-21786.71470722136,-26682.84197841191
10897.257733018128,13026.909592975331,-22243.60671563229,-27739.230124858637
8165.449877434955,11875.235959915632,-22418.15148808378,-28351.980847356423
7819.064893611061,12322.807290888702,-22254.380256459743,-27969.028409603645
9972.297843968612,13550.610965563175,-21886.47054272539,-27259.561688847745
12544.313078440797,14529.997352361364,-21776.432904771915,-26684.361897034876
10908.858288390433,13040.76767453762,-22238.33170394084,-27738.268999847056
8170.479019937399,11881.181523940746,-22417.99502587259,-28353.27724853483
7802.412843991858,12307.786918614736,-22250.580459902343,-27970.168348570867
9935.328058639534,13521.598401260186,-21878.5133216993,-27267.764779062843
12528.510395110894,14526.666942437523,-21763.245375543283,-26684.965394135168
10919.765939684625,13050.021296742118,-22221.836116532817,-27738.91720043626
8182.034871820792,11893.005596757605,-22395.37506048382,-28349.70096942198
7807.598448705488,12317.889907108534,-22235.425977161645,-27965.63094444644
9932.82466326054,13532.930735699028,-21875.249967008825,-27271.072837242227
12522.207203174496,14522.218945290915,-21769.414457012947,-26689.145170348307
10928.594878744469,13048.054343230053,-22232.699064338096,-27739.58775276992
8180.313787497734,11880.198047184713,-22403.91342686575,-28358.351094526184
7790.879343852919,12306.177593013954,-22244.031398776937,-27980.897185909416
9918.564250298054,13526.515785040354,-21881.776676389774,-27282.338116447703
12525.224688675964,14531.11493958413,-21768.721552934832,-26690.1509988488
10940.754227728155,13056.659764845344,-22228.273418935947,-27736.48086029063
8174.345871728167,11869.625672057353,-22415.31281653796,-28366.95651614148
7776.887151823897,12297.259246976286,-22249.172300001657,-27980.338392298032
9889.328168550512,13514.758767456862,-21887.47637122588,-27292.59756715269
12506.09159542222,14532.59015471818,-21767.69337268989,-26699.739897220123
10956.288690124597,13072.820076086531,-22225.03241598993,-27737.5984475134
8184.337101499689,11874.431297115245,-22413.47997349262,-28382.468626793463
7758.178741714805,12280.361328168074,-22256.235451249537,-28004.746497243228
9859.309775747037,13493.90458988006,-21894.316005029203,-27304.06401205826
12490.512429536871,14523.962381358431,-21763.60300345457,-26696.36478380737
10965.83288500701,13081.15727676836,-22212.470735606043,-27726.355520052377
8187.913380612538,11880.466268118176,-22401.43238323121,-28369.594021987203
7753.551930612556,12286.329243937642,-22245.618372633264,-27997.14690412842
9859.108610046937,13516.837479691209,-21881.79902813423,-27303.773439380344
12488.366662069162,14543.16252984554,-21770.15206457997,-26700.76807746507
10991.872667297444,13107.666445692355,-22220.40560488768,-27723.87447641784
8209.259296567358,11894.16788746928,-22406.95326411167,-28375.628992990136
7748.6568985768445,12293.14652599651,-22256.749541372006,-28006.82520947757
9824.70927533022,13498.643159704588,-21892.23729279486,-27313.518799962854
12468.048926359288,14534.82532916371,-21762.6865819319,-26695.828341940447
11002.713263358268,13119.401111531392,-22217.231657175023,-27708.474124488133
8210.980380890416,11896.291303192533,-22414.597560715385,-28366.28596380782
7734.262375147627,12278.126153722544,-22259.632916406743,-27996.87868319496
9806.26908615459,13481.164095540536,-21889.778600904778,-27309.942520850007
12456.98481285391,14526.510480226336,-21766.8887098895,-26701.349222820907
11004.300237214597,13111.98033237223,-22217.231657175023,-27714.71026119116
8208.298171555778,11889.25050368911,-22410.14956356878,-28378.75823721388
7728.294459378059,12272.649976330991,-22246.266573222467,-27995.31406108309
9774.753126472608,13455.727810350396,-21893.734859673365,-27315.41869824156
12431.727341619417,14505.589247416168,-21769.72738143532,-26698.309385574983
11010.625780895449,13118.864669664465,-22209.45325010458,-27693.900787103277
8205.235982565402,11875.727698293653,-22397.699641907173,-28365.74952194089
7712.424720814792,12255.126208678032,-22238.756387085486,-28001.0584594081
9768.78521070304,13465.741391866371,-21867.13628377155,-27312.8482476292
12438.052885300263,14532.321933784717,-21737.38440720849,-26687.267623814063
11034.855071884998,13144.03273392114,-22187.19091262709,-27683.015487553537
8216.523613515332,11892.06682349048,-22390.345917981376,-28365.34719054069
7713.497604548646,12272.0464792307,-22234.5989626168,-27991.134284869942
9743.751256913098,13455.5266446503,-21879.42974322197,-27315.463401730467
12418.31629494623,14524.096491825165,-21743.50878518925,-26689.39103953732
11038.140778319928,13147.653716522898,-22183.413467814145,-27681.22734799711
8219.585802505708,11891.262160690088,-22376.510188163546,-28363.715513195457
7701.964104409708,12266.391487883508,-22222.372558399744,-27996.65516575041
9727.903870094284,13454.051429516248,-21863.738818614343,-27320.246675043905
12421.289076958785,14533.975962874409,-21728.62252338201,-26679.31040278797
11073.031851414664,13164.730449286752,-22172.23759558649,-27658.16034771924
8235.455541068977,11888.02115774407,-22377.694830619675,-28360.47451024944
7689.156554836817,12251.080542931622,-22237.191764973613,-28014.69302352584
9714.604582143376,13450.2739847033,-21868.74560937233,-27333.545962994813
12414.36003617764,14535.138253586085,-21732.28820947268,-26691.916786660768
11090.354453367529,13173.805257535609,-22169.756551951952,-27659.792025064475
8244.642108040109,11889.54107636703,-22369.33527819339,-28361.100359094187
7688.083671102962,12249.85119698658,-22221.5455438549,-28003.807723976104
9684.429727128712,13421.12730993358,-21863.42589419197,-27333.389500783625
12379.871294483102,14505.05280554924,-21731.751767605758,-26690.03924012652
11079.066822417595,13170.676013311866,-22167.25315657296,-27647.14093770277
8228.638259010108,11887.708233321697,-22370.94460379417,-28355.020684602343
7664.457877213702,12244.486778317309,-22229.12278522525,-28005.193532132333
9671.510418833544,13427.430501869978,-21871.04783905123,-27328.36035828118
12380.139515416566,14528.700951182956,-21731.01416003873,-26678.505739987584
11089.259217889216,13186.813972808595,-22174.09279037628,-27644.23521092358
8227.543023531798,11880.332157651445,-22382.67926963321,-28364.22960331793
7659.339327733437,12235.926060190925,-22236.72237834005,-28014.69302352584
9655.014831425528,13422.356655878622,-21867.09158028264,-27333.59066648372
12376.987919448367,14531.8301954067,-21727.81786058162,-26673.074266084943
11114.606096101536,13208.003426552228,-22169.28716531839,-27632.09821368435
8247.436076097021,11900.3593206834,-22377.80658934195,-28353.590172957203
7659.004051566608,12242.89980446098,-22234.82248006135,-28002.645433264428
9633.6242119818,13413.840641241151,-21875.18291177546,-27337.725739207955
12355.8655209381,14521.280172023797,-21739.12784327601,-26684.6971732017
11130.63229687599,13219.626333668988,-22181.334755579803,-27634.780423018983
8261.003584981392,11907.333064953456,-22391.50820869305,-28363.46964400645
7640.832083324442,12224.459615285352,-22252.12273026976,-28021.01856720669
9608.813775636409,13392.69589098643,-21886.96228110341,-27349.28159109135
12342.096846353632,14518.620314433612,-21735.931543818897,-26685.412429024276
11127.883032307987,13225.66130467192,-22172.036429886397,-27632.880524740285
8254.25335815589,11900.560486383496,-22388.17779876921,-28367.18003358603
7637.836949567431,12227.27593508672,-22250.35694245779,-28015.520038070685
9591.290007983447,13390.728937474363,-21890.38209800507,-27348.87925969115
12326.562383957194,14513.68057890899,-21735.171584507418,-26677.164635320263
11140.601174903057,13227.896479117451,-22165.308554805342,-27614.641501264752
8260.824771025751,11892.558561868496,-22379.080638775904,-28358.52990848183
7621.341362159415,12214.535440747197,-22239.493994652512,-28015.40827934841
9568.93826352814,13384.962187404892,-21873.350068730124,-27347.89578293512
12309.91033433799,14516.11691905462,-21719.480659899797,-26678.23751905412
11145.764427872233,13234.825519898595,-22158.42421751311,-27616.98843443256
8266.21154143948,11900.247561961123,-22377.94069980868,-28359.0439986043
7624.98469650563,12228.058246142657,-22244.74665459951,-28014.24598863673
9554.163760443183,13384.582207749154,-21884.637699680057,-27355.070692905272
12305.462337191384,14522.621276691114,-21732.087043772583,-26678.7963126655
11172.720631685334,13260.977060911306,-22160.994668125477,-27598.928224912677
8283.109460247691,11908.025969031569,-22370.56462413843,-28347.66696067655
7612.802995777488,12206.779385421203,-22249.596983146308,-28023.186686418856
9540.618603303266,13367.304309285202,-21888.661013682013,-27364.547832554323
12295.76168009778,14513.16648878652,-21735.417453696427,-26688.921652903755
11173.704108441369,13254.875034675008,-22170.91884266363,-27610.014690162505
8276.135715977636,11901.722777095172,-22391.32939473741,-28362.486167250416
7604.152870673284,12207.785213921692,-22269.69120141163,-28029.82515452208
9524.726512995545,13374.635681466543,-21911.079813370685,-27369.822844245773
12286.306892193186,14529.863241894633,-21745.989828823786,-26678.841016154413
11199.02863490923,13287.352119368568,-22168.750723451463,-27583.59492821633
8286.126945749158,11914.776195857072,-22399.823057630427,-28361.435635261016
7580.549428528479,12197.816335894626,-22273.580404946853,-28035.94953250284
9495.199858570082,13355.97197484636,-21908.554066247238,-27375.36607687069
12261.787028525714,14514.73111089839,-21750.21430852584,-26685.725353446647
11205.26477161226,13288.62616880252,-22171.120008363727,-27580.398628759223
8298.710977877496,11912.988056300648,-22392.06700230444,-28352.7408066679
7583.633969263312,12196.631693438494,-22258.73884662853,-28033.69200631285
9473.518666448435,13353.155655044991,-21897.601711464133,-27386.117265953693
12245.0902754176,14516.295733010262,-21734.45632868485,-26697.549426263504
11212.819661238154,13293.521200838231,-22155.13851107818,-27589.42873351917
8307.919896593083,11909.076501020969,-22372.17394973921,-28362.32970503923
7586.986730931608,12187.825106123104,-22248.03236103444,-28044.59965760704
9464.600320410767,13339.364628716068,-21896.26060679681,-27397.5166556259
12246.699601018385,14524.342361014173,-21730.902401316453,-26700.85748444289
11238.345353406115,13316.364683671556,-22151.47282498751,-27580.21981480358
8323.722579922984,11919.60417265942,-22388.44601970268,-28371.784492943825
7576.079079637418,12185.299358999651,-22269.22181477807,-28059.575326392096
9441.86859629972,13330.960372800871,-21914.00789189433,-27407.753754586432
12234.56260377915,14519.894363867566,-21748.11324454704,-26698.75642046409
11257.970185037871,13327.182927987926,-22171.14236010818,-27570.675619921163
8331.210414315512,11920.721759882184,-22406.886208878303,-28364.363713784664
7580.817649461944,12189.836763124082,-22289.18192257666,-28042.36448316151
9437.53235787539,13333.620230391054,-21933.31979910372,-27394.32035616879
12238.384752081009,14531.24905005086,-21761.524291220223,-26685.971222635657
11273.504647434313,13347.031277064238,-22186.922691693628,-27560.662038405186
8336.820702173794,11930.0647890645,-22430.46729927865,-28367.358847541676
7560.231692818606,12184.69586189936,-22316.45105081213,-28056.848413568547
9402.775395247389,13323.919573297451,-21957.99612498237,-27409.63130112068
12204.41010050894,14516.92158185501,-21777.282271061216,-26693.928443661745
11269.704850876911,13344.013791562773,-22199.10439242177,-27553.68829413513
8320.615687443697,11908.204782987212,-22446.82877621994,-28373.32676331124
7531.554404682447,12154.386896417964,-22328.56569630691,-28067.778416607194
9376.981482145964,13297.812735773652,-21963.76287505184,-27421.589484404267
12185.16524853292,14493.228732732385,-21782.0431926302,-26704.54552227801
11282.020662071784,13336.30243972569,-22190.566026039844,-27553.755349368497
8334.36201028371,11901.990998028636,-22437.552802270988,-28374.310240067272
7537.745837896567,12153.246957450743,-22320.83199272537,-28071.265288742223
9365.738554684944,13293.096517693582,-21962.7346948069,-27429.01026356343
12168.98258554728,14488.266645463304,-21775.985869882807,-26704.72433623366
11281.4618684604,13336.749474614797,-22183.07819164732,-27549.64262838872
8329.198757314534,11892.916189779782,-22426.421633532245,-28373.03619063332
7516.288163219472,12139.12065495499,-22308.09149838585,-28068.046637540658
9340.190510772529,13293.565904327144,-21944.182746908995,-27423.399975705142
12170.703669870338,14523.001256346854,-21751.980096337807,-26687.826417425447
11318.185784600471,13381.475315269869,-22154.378551766706,-27514.30452040488
8354.79150471586,11925.236812262156,-22404.87455187733,-28353.27724853483
7519.596221398858,12143.367486401496,-22294.613396479297,-28057.898945557947
9330.713371123478,13276.28800586319,-21934.59384853767,-27414.7722023454
12146.183806202866,14494.502782166335,-21755.60107893957,-26693.23553958363
11314.877726421086,13381.721184458876,-22161.128778592203,-27524.429860643133
8353.852731448738,11922.375788971876,-22409.03197634601,-28364.497824251397
7527.955773825142,12154.945690029346,-22298.636710481253,-28064.872689828004
9321.124472752152,13276.802095985664,-21933.364502592623,-27422.103574526736
12130.984619973258,14490.792392586756,-21737.45146244186,-26684.8983389018
11328.04290390526,13384.64926298252,-22136.564211435823,-27509.051860457883
8360.580606529786,11913.569201656486,-22394.95037733917,-28360.36275152716
7502.966523524109,12126.737788526749,-22287.527893486964,-28067.532547418185
9283.484135089417,13253.5786334966,-21930.01174092433,-27428.250304251946
12106.1071283945,14478.186008713965,-21744.7828346232,-26696.94592916321
11332.893232452065,13391.243027596836,-22146.980124351998,-27509.25302615798
8367.12966765519,11913.703312123218,-22407.02031934504,-28357.881707892622
7492.975293752586,12116.344227355032,-22308.404422808224,-28071.824082353603
9269.201370382472,13253.757447452244,-21950.01655221183,-27431.781879875885
12099.066328891078,14492.736994354367,-21760.652573186468,-26691.38034479384
11343.979697701896,13409.45969932791,-22161.396999525667,-27498.390078352702
8384.452269608053,11935.228042033676,-22415.469278749144,-28353.836042146213
7504.441738658159,12142.316954412096,-22307.778573963475,-28066.906698573435
9257.891387688089,13255.679697475398,-21952.65405805756,-27434.19586827706
12081.475506004752,14484.19862797244,-21762.93245112091,-26700.164580364773
11357.457799608446,13417.886306987562,-22160.122950091714,-27496.959566707563
8378.059670693836,11924.07452155048,-22422.55478174148,-28364.006085873378
7480.435965113159,12118.311180867098,-22311.08663214286,-28075.69093414437
9229.884651885588,13236.680714688388,-21947.33434287719,-27438.48740321248
12060.084886561024,14476.95666276892,-21747.59915442457,-26698.845827441917
11359.67062230952,13428.145757692548,-22141.10161556025,-27491.237520127004
8381.300673639855,11927.673152407784,-22403.846371632382,-28362.17324282804
7475.071546443885,12118.244125633732,-22296.446239524637,-28079.714248146327
9211.891497599066,13233.037380342172,-21931.174031636005,-27441.99662709196
12050.33952597851,14481.918750038,-21738.61375315353,-26700.43280129824
11374.646291094576,13438.628725842089,-22140.85574637124,-27489.96347069305
8398.04213023688,11935.69742866724,-22393.11753429384,-28353.54546946829
7478.6478255567345,12119.406416345408,-22280.73296317255,-28071.421750953406
9199.553334659737,13225.19191803836,-21925.96607517792,-27442.443661981066
12036.794368838591,14473.380383656073,-21728.5778198931,-26692.09560061641
11395.746337860386,13452.553862637742,-22118.79457459385,-27461.822624423818
8402.601886105764,11928.634277419362,-22392.67049940473,-28352.51728922335
7463.985081194053,12098.01579690168,-22297.250902325024,-28077.009687067235
9180.263779194804,13212.697292887842,-21941.38877885208,-27442.89069687017
12028.211298967755,14478.43187790297,-21742.34649447757,-26689.59220523741
11401.647198396588,13466.456647688943,-22136.22893526899,-27461.26383081244
8410.939086787592,11946.292155539057,-22405.47804897762,-28342.66016991856
7456.117267145785,12109.30342785161,-22311.868943198795,-28069.253631741245
9153.933424226454,13204.829478839574,-21963.449950629467,-27445.014112593428
12012.252153426669,14477.314290680206,-21754.282326016702,-26685.77005693556
11419.863870127663,13480.962929840438,-22143.09092081677,-27444.745891659964
8415.834118823304,11946.046286350049,-22425.169935842747,-28346.03528333131
7449.456447298104,12111.24802961922,-22331.65023704174,-28075.55682367764
9141.170578142472,13213.010217310217,-21975.20696821296,-27445.17057480461
11986.212371136233,14476.934311024466,-21768.29686979018,-26690.66508897127
11419.30507651628,13490.037738089291,-22149.260002286435,-27436.81102237833
8427.300563728877,11955.232853321178,-22414.53050548202,-28331.55135292427
7455.558473534403,12114.310218609598,-22312.003053665525,-28069.03011429669
9135.090903650633,13207.712853874307,-21951.24589815687,-27444.075339326304
11979.819772222016,14477.046069746742,-21745.587497423592,-26689.078115114942
11438.21465232547,13503.359377784656,-22124.650731641144,-27432.698301398552
8450.72519191804,11967.392202304864,-22395.37506048382,-28329.83026860121
7445.880168185255,12107.649398761916,-22315.33346358937,-28081.055352813644
9104.804289913687,13199.129784003471,-21958.48786336039,-27460.369761034224
11962.631280735885,14472.218092944397,-21737.96555256433,-26691.42504828275
11453.033858899338,13513.887049423103,-22115.03948152536,-27422.751775115943
8454.10030533079,11962.787742947072,-22387.82017085793,-28335.06057680376
7440.515749515981,12098.842811446526,-22302.347100060837,-28086.777399394203
9095.7965368982,13193.430089167368,-21942.595773052668,-27467.18704309309
11957.982117889182,14481.516418637804,-21728.086081515085,-26694.42018203976
11470.736440507942,13536.507014811876,-22109.071565755792,-27414.81690583431
8453.116828574757,11966.811056949027,-22386.479066190608,-28336.424033215528
7422.813167907378,12091.846715432015,-22291.4618005111,-28088.36437325053
9066.135772006008,13178.901455271418,-21932.604543281144,-27470.606859994758
11930.668286164797,14469.15590395402,-21715.591456364567,-26700.231635598146
11469.41768758508,13543.39135210411,-22088.731478301463,-27409.13956274266
8459.464724000063,11971.102591884446,-22372.017487528025,-28332.98186456941
7417.940487616121,12088.784526441636,-22295.418059279687,-28092.4323907414
9056.79274282369,13179.616711093988,-21943.53454631979,-27473.512586773944
11924.342742483945,14474.319156923197,-21719.905343044444,-26697.70588847469
11466.400202083612,13535.747055500397,-22091.950129503028,-27406.345594685747
8463.24216881301,11970.2755773396,-22371.168121238723,-28327.103355777665
7419.952144617098,12094.037186388636,-22280.017707349984,-28079.401323723952
9035.938565246888,13170.787772034142,-21927.48599380088,-27472.77497920692
11907.40012018682,14467.8147992867,-21708.28243592768,-26696.118914618364
11482.381699369156,13551.616794063664,-22081.22129216448,-27394.789742802357
8468.874808415749,11969.716783728218,-22362.227423456603,-28326.23163774391
7403.098929297796,12072.691270433816,-22279.68243118315,-28088.386724994987
9014.54794580316,13154.359239859492,-21921.58513326468,-27474.25019434097
11888.73641356664,14460.10344744962,-21699.38644163447,-26697.728240219145
11494.406937886111,13557.718820299962,-22077.95793747401,-27394.23094919097
8465.879674658738,11961.044306879558,-22372.79979858396,-28336.06640530425
7396.41575770566,12077.183971069331,-22291.39474527773,-28105.172885080923
9012.625695780003,13166.093905698528,-21919.171144863503,-27483.123836889725
11882.656739074797,14451.609784556602,-21685.10367692753,-26686.686478458225
11507.214487459005,13563.329108158245,-22057.68490525304,-27376.774236771376
8476.362642808275,11969.98500466168,-22347.69878956065,-28321.94010280849
7381.194219731596,12064.331718007532,-22269.17711128916,-28088.34202150608
8970.894988881944,13139.025943163151,-21921.786298964777,-27480.732200233007
11849.754971236584,14453.822607257678,-21685.997746705743,-26694.107257617383
11496.6644640761,13583.199808979012,-22053.99686741792,-27375.83546350425
8453.228587297033,11977.539894287574,-22350.336295406378,-28331.104318035166
7349.477094349515,12075.86521814647,-22272.93220435765,-28100.255501300755
8931.712380851792,13148.570138045568,-21911.459793026424,-27495.05966842886
11807.443118982688,14451.47567408987,-21690.44574385235,-26723.56685680948
11482.716975535986,13597.97431206397,-22058.534271542343,-27395.32618466928
8439.99635457949,11986.435888580789,-22357.69001933217,-28344.493012963896
7308.819271185312,12058.632023171427,-22290.075992354872,-28116.90755091996
8883.611426783971,13125.525489512143,-21947.40139811056,-27506.92844473463
11776.66476686773,14436.231784371352,-21729.38248269349,-26726.986673711144
11482.292292391336,13594.554495162309,-22083.389411376647,-27384.150312441627
8428.887537585204,11976.019975664614,-22377.89599631977,-28346.079986820223
7293.01658785541,12050.406581211875,-22298.301434314424,-28121.75787946676
8871.13915337791,13122.709169710775,-21939.935915462484,-27506.436706356613
11774.228426722102,14445.038371686742,-21714.4738691418,-26715.05084217201
11521.89958356614,13626.271620544388,-22079.969594474984,-27359.004599929405
8475.088593374323,12001.880943999404,-22388.557778424954,-28336.69225414899
7302.449024015549,12048.394924210896,-22312.494792043544,-28125.0882893906
8844.428818753817,13100.916218866852,-21949.658924300544,-27509.76711628045
11755.810589290928,14435.941211693433,-21709.78000280619,-26701.81860945447
11521.050217276836,13624.952867621529,-22067.832597235752,-27341.12320436516
8474.574503251852,11997.008263708149,-22371.212824727638,-28312.977053281917
7311.188556097574,12056.061572559069,-22306.281007084966,-28099.87552164501
8845.389943765396,13103.777242157132,-21966.087456475198,-27505.63204355622
11743.248908907046,14427.358141822597,-21740.893631087976,-26723.56685680948
11542.28437450938,13636.039332871358,-22088.463257368,-27341.972570654463
8493.037044171935,11997.969388719725,-22393.00577557156,-28315.32398644972
7307.858146173733,12041.421179940842,-22324.005940438023,-28106.961024637345
8834.75051340467,13091.662596662354,-21978.179750225518,-27507.263720901457
11735.537557069963,14413.410653282484,-21740.22307875432,-26715.74374625013
11545.547729199854,13627.1656903226,-22096.17460920508,-27344.721835222463
8486.823259213359,11982.926664701305,-22408.36142401236,-28333.40654771406
7291.429613999083,12027.18311872281,-22344.86011801483,-28127.591684769595
8814.656295139348,13083.437154702802,-21992.060183532263,-27521.05474723038
11722.662952263709,14422.641923742523,-21753.343552749586,-26720.14703990782
11555.985993860484,13647.997516154948,-22098.678004584075,-27332.60718972769
8498.312055863387,11994.460164840242,-22406.08154607792,-28330.590227912693
7298.760986180424,12031.072322258036,-22331.493774830557,-28119.70151897687
8811.817623593524,13082.341919224493,-21980.414924671048,-27511.68936630361
11708.98368465706,14410.929609647945,-21750.86250911504,-26719.163563151786
11557.729429927997,13642.99072539696,-22102.94718777504,-27334.194163584016
8504.838765244338,11995.197772407268,-22410.507191480065,-28325.7846028548
7292.837773899767,12026.311400689054,-22338.959257478626,-28125.334158579608
8780.771050545103,13062.068887003528,-21989.0426980308,-27533.571724125355
11679.59114069833,14400.200772309396,-21744.55931717865,-26733.98276972565
11581.288168583891,13662.123818650702,-22081.89184449814,-27325.186410568527
8528.59866960033,11998.818755009026,-22401.790011142497,-28330.79139361279
7304.930067650088,12029.32888619052,-22339.6745133012,-28132.598475527582
8787.118945970411,13067.522712650623,-21994.809448100263,-27529.771927567952
11681.669852932677,14402.927685132943,-21753.54471844968,-26730.361787123897
11592.24052336699,13671.220978644013,-22091.726612058475,-27324.538209979324
8536.533538881962,12000.495135843175,-22408.942569368195,-28336.06640530425
7299.252724558441,12016.498984873177,-22344.122510447804,-28144.51195532226
8769.662233550815,13056.749171823163,-21993.289529477304,-27550.02260804446
11659.653384644198,14393.025862339242,-21750.43782597039,-26745.40451114232
11606.925619474128,13680.56400782633,-22084.551702088324,-27318.83851514322
8551.464504178108,12000.964522476736,-22406.416822244744,-28336.0887570487
7289.149736064642,11998.371720119922,-22346.84942327135,-28153.72087403785
8750.707954252715,13034.308020390035,-22001.62673015913,-27558.35980872629
11652.92550956315,14386.253283769283,-21766.128750578016,-26758.882613048867
11627.042189483904,13691.47165912052,-22098.85681853972,-27321.78894541132
8570.374079987298,11999.623417809418,-22426.935723654715,-28337.9886553274
7305.153585094641,11997.99174046418,-22369.42468517121,-28151.619810059048
8750.752657741627,13029.837671498975,-22018.32348326725,-27553.420073201665
11640.341477434811,14370.897635328489,-21768.67684944592,-26750.165432711296
11635.938183777116,13689.102374208258,-22096.80045804983,-27307.26031151537
8595.60919947734,12008.98879873619,-22417.81621191695,-28328.46681218944
7300.72793969249,11986.458240325244,-22358.874661788304,-28162.30394390869
8734.234718589154,13014.996113180652,-22011.12622155264,-27571.145006554725
11634.552375620888,14379.23483601032,-21761.59134645359,-26759.799034571533
11653.73017236354,13710.470641907532,-22093.29123417035,-27311.61890168416
8598.09024311188,12008.94409524728,-22420.386662529312,-28334.680597148013
7305.868840917211,11989.073394426512,-22365.289612446977,-28156.2466211613
8724.176433584265,13014.549078291546,-22024.22434380345,-27558.628029659754
11616.2910004009,14373.199865007386,-21774.30948904866,-26747.2150024432
11651.494997918013,13711.56587738584,-22103.394222664145,-27292.217587496947
8589.484821496586,11997.14237417488,-22434.222392347147,-28331.238428501896
7287.763927908412,11977.763411732129,-22378.83476958689,-28163.332124153632
8701.735282151138,13011.53159279008,-22025.543096726316,-27565.78058788545
11595.928561202118,14363.70037361388,-21772.9907361258,-26756.513328136603
11659.608681155289,13720.975961801523,-22093.04536498134,-27290.161227007065
8602.538240258484,12011.738063304194,-22426.4439852767,-28325.516381921338
7286.914561619111,11980.713842000228,-22369.75996133804,-28157.0959874506
8678.690633617716,12999.081671128471,-22017.34000651121,-27565.06533206288
11568.19004633308,14357.710106099858,-21758.551509207668,-26753.786415313058
11668.772896381965,13733.247069507488,-22070.26893738138,-27275.07379949973
8621.380760834309,12013.749720305172,-22399.62189193033,-28319.90609406305
7288.725052919991,11967.74983021615,-22347.028237226998,-28162.840385775613
8666.084249744923,12981.088516841952,-22004.6442156606,-27575.391838001236
11551.515644969422,14342.60032684807,-21754.93052660591,-26770.48316842117
11681.491038977032,13740.869014366748,-22062.356419844204,-27279.745314090887
8641.989069222102,12029.798272824082,-22393.02812731601,-28323.81764934273
7301.107919348231,11977.383432076387,-22344.457786614632,-28169.344743412108
8672.901531803791,12988.799868679032,-22005.82885811673,-27582.03030610446
11552.789694403376,14348.03180075071,-21755.444616728382,-26771.91368006631
11684.173248311668,13740.757255644472,-22077.577957818263,-27285.199139737982
8633.204833651165,12018.153013962868,-22418.598522972887,-28341.542582695794
7284.075890073287,11968.196865105256,-22368.552967137453,-28181.034705762235
8637.898699986781,12976.61816795089,-22025.476041492944,-27590.23339631956
11517.406882930623,14336.028913978207,-21771.5378727362,-26772.33836321096
11693.98566412755,13763.53368324443,-22082.785914276352,-27266.758950562355
8657.456476385174,12049.33369747802,-22420.788993929506,-28318.69909986247
7284.366462751206,11980.736193744684,-22383.595691155875,-28176.921984782457
8627.974525448624,12986.67645295578,-22048.610097004188,-27592.60268123182
11503.727615323976,14345.528405371717,-21797.06356490416,-26782.798979616044
11697.673701962674,13772.787305448926,-22107.551647132837,-27270.7375610754
8660.697479331193,12043.030505541625,-22450.58386928843,-28323.594131898182
7278.130326048175,11971.683737240284,-22414.798726415484,-28174.798569059203
8613.267077597033,12977.311072029004,-22080.28251889736,-27594.971966144083
11500.330150166768,14346.333068172107,-21814.56498081267,-26773.1206742669
11717.589106272351,13789.34994809031,-22114.972426291995,-27247.02236020832
8668.744107335104,12041.868214829949,-22466.431256107244,-28315.97218703892
7272.743555634446,11954.2717283096,-22413.167049070245,-28180.72178133986
8589.03778660748,12946.7562373586,-22066.69265826853,-27604.7173267266
11476.816114999783,14326.372960373516,-21804.30553010768,-26792.410229731828
11722.238269119058,13788.411174823186,-22105.741155831955,-27255.31485740124
8677.662453372772,12040.57181365154,-22453.087264667425,-28322.70006211997
7279.24791327094,11959.256167323134,-22410.66365369125,-28186.466179664872
8597.419690778219,12965.598757934424,-22059.92007969857,-27595.262538822
11482.18053366906,14341.616850092036,-21787.117038621556,-26768.113883508908
11752.524882855998,13811.232305912055,-22082.22712066497,-27222.994234918864
8711.950029367212,12062.00713658418,-22432.300142323988,-28301.80118105426
7292.323683777295,11961.692507468762,-22392.55874068245,-28173.14453996951
8592.79287967597,12957.28390899705,-22048.07365513726,-27591.261576564502
11467.629548028654,14328.8316522636,-21786.22296884334,-26777.00987780212
11754.536539856976,13811.768747778982,-22086.920987000583,-27235.757081002845
8714.855756146402,12061.62715692844,-22436.92695342624,-28309.84780905817
7282.019529583398,11950.002545118636,-22395.933854095205,-28179.939470283924
8561.366326971809,12934.12750174135,-22056.92494594156,-27606.952501172127
11435.554794735288,14312.06784392212,-21793.77785846923,-26786.39761047335
11758.001060247549,13817.557849592908,-22085.378716633168,-27227.68810125448
8722.0083143721,12056.329793492532,-22437.15047087079,-28312.12768699261
7277.34801499224,11944.504015982631,-22394.81626687244,-28185.48270290884
8550.436323933163,12932.27230695156,-22053.482777295445,-27604.76203021551
11431.352666777691,14318.952181214356,-21785.10538162057,-26784.855340105933
11766.4276679072,13829.270163687488,-22074.158140916603,-27221.63077850709
8719.795491671026,12050.406581211875,-22423.71707245315,-28311.99357652588
7272.855314356722,11932.992867588147,-22373.738571851085,-28183.694563352416
8532.845501046837,12921.811690546476,-22033.366207285668,-27609.634710506765
11405.134070531616,14315.062977679132,-21763.75946566576,-26785.86116860642
11767.813476063428,13840.893070804248,-22053.61688776218,-27208.08562136717
8730.211404587199,12070.746668666205,-22416.31864503845,-28299.096619975167
7272.944721334544,11947.02976310608,-22395.19624652818,-28180.63237436204
8511.946619981125,12913.452138120192,-22065.217443134483,-27607.75716397252
11380.4353929085,14296.041643147666,-21787.631128744026,-26782.97779357169
11769.914540042228,13841.854195815826,-22063.87633846716,-27195.792161916757
8743.77891347157,12076.379308268944,-22419.22437181764,-28291.966413493923
7269.524904432882,11946.247452050144,-22385.94262432368,-28186.153255242494
8497.73091050755,12912.915696253263,-22055.76265522989,-27615.356757087324
11365.951462501462,14296.667491992412,-21781.26088157426,-26793.170189043307
11780.66572912523,13855.287594233463,-22056.455559308,-27199.86017940762
8740.403800058819,12070.456095988286,-22414.32933978192,-28305.60097761166
7263.15465726312,11937.2173472902,-22377.225443986117,-28191.76354310078
8481.928227177648,12900.577533313935,-22046.3525708142,-27627.51610607101
11346.952479714451,14286.408041287428,-21776.87993966102,-26811.006881118643
11775.502476156054,13847.822111585392,-22056.58966977473,-27209.69494696796
8760.386259601863,12071.976014611248,-22414.26228454856,-28308.149076479564
7265.367479964195,11923.381617472363,-22387.82017085793,-28211.79070613273
8468.718346204561,12891.055690175974,-22050.64410574962,-27642.290609155967
11328.691104494466,14277.132067338476,-21776.36584953855,-26813.26440730863
11802.682197413707,13872.65489967524,-22048.58774525973,-27190.472446736392
8780.838105778468,12086.370538040464,-22415.446927004687,-28291.83230302719
7262.618215396192,11922.107568038413,-22399.4877814636,-28199.541950171228
8454.457933242074,12887.12178315184,-22071.587690304244,-27637.306170142438
11322.611430002622,14282.183561585374,-21790.760372967765,-26801.10505832494
11807.018435838036,13878.55576021144,-22068.07846642476,-27175.80970237371
8780.50282961164,12091.53379100964,-22444.92887794124,-28285.283241901787
7256.449133926527,11926.287344251556,-22417.458584005664,-28191.62943263405
8452.535683218919,12897.738861768112,-22080.148408430625,-27618.86598096681
11311.815537430708,14283.9717011418,-21800.528085294736,-26792.45493322074
11814.595677208386,13892.100917351356,-22060.300059354315,-27163.449187689926
8791.768108817114,12101.547372525618,-22418.17383982824,-28278.443608098463
7262.193532251541,11933.082274565968,-22387.842522602383,-28195.183360002444
8428.932241074115,12879.924521437231,-22052.70046623951,-27631.65117879524
11284.255836517315,14267.520817222694,-21773.21425357035,-26805.64246244937
11810.348845761877,13896.124231353311,-22038.79768118831,-27166.980763313863
8796.93136178629,12102.910828937393,-22404.87455187733,-28276.096674930654
7250.570625134782,11917.257239491611,-22382.27693823301,-28196.032726291745
8414.627124622719,12872.995480656084,-22052.96868717297,-27640.99420797756
11271.18006601096,14266.9173201224,-21773.728343692823,-26814.06907010902
11814.662732441751,13895.677196464205,-22038.082425365737,-27166.31021098021
8809.69420787027,12109.191669129334,-22401.09710706438,-28273.52622431829
7255.599767637225,11927.650800663328,-22381.22640624361,-28190.802418089203
8396.298694169367,12868.97216665413,-22058.89189945363,-27633.819298007405
11246.03435349874,14258.53541595166,-21784.32307056464,-26813.68909045328
11826.285639558511,13921.51581305454,-22043.044512634817,-27155.491966663834
8809.69420787027,12110.599829030018,-22413.837601403902,-28276.141378419565
7245.675593099069,11916.631390646862,-22397.72199365163,-28196.189188502933
8379.08785093878,12858.109218848853,-22076.639184551143,-27643.698769056653
11227.594164323113,14249.192386769342,-21789.75454446728,-26816.97479688821
11821.278848800524,13910.831679204905,-22035.824899175757,-27146.506565392803
8798.07130075351,12088.15867759689,-22415.58103747142,-28283.11512268962
7224.732008544446,11899.129974738356,-22392.737554638097,-28209.89080785404
8355.260891349422,12863.741858451587,-22057.439036064035,-27642.268257411517
11210.606838537078,14264.43627648786,-21769.414457012947,-26808.950520628758
11837.10388387488,13939.37485687433,-22025.14076532612,-27137.431757143942
8831.420103480828,12126.849547249025,-22395.933854095205,-28264.36200909162
7234.119741215675,11904.114413751891,-22370.6316793718,-28195.49628442482
8346.834283689772,12845.569890209425,-22046.330219069747,-27639.22842016559
11193.463050539858,14247.091322790542,-21763.692410432388,-26813.532628242094
11840.903680432282,13939.464263852153,-22015.21659078796,-27133.76607105328
8840.807836152058,12123.675599536373,-22393.3857552273,-28267.82652948219
7234.186796449041,11900.091099749936,-22379.505321920555,-28207.43211596395
8328.684667192063,12834.125797048308,-22052.6557627506,-27648.102062714348
11166.216274048838,14226.371255680471,-21762.820692398636,-26821.06516612353
11843.429427555731,13937.273792895532,-22006.32059649475,-27121.472611602858
8847.401600766374,12123.988523958746,-22386.970804568627,-28252.739101974857
7221.1333776871425,11891.105698478905,-22373.693868362174,-28200.793647860726
8312.926687351071,12825.408616710738,-22053.54983252881,-27645.48690861308
11154.816884376633,14231.266287716186,-21766.82165465613,-26816.08072711
11852.191311382212,13960.05022049549,-22006.208837772472,-27107.45806782938
8854.397696780885,12136.058465964612,-22387.328432479917,-28252.20266010793
7236.667840083581,11904.427338174264,-22372.17394973921,-28195.406877447
8307.65167565962,12822.63700039828,-22047.26899233687,-27646.71625455812
11149.564224429634,14232.450930172316,-21752.44948297137,-26818.829991678
11874.721869793162,13983.966587062669,-21987.723945107933,-27102.36187009357
8878.76109823717,12152.509349883718,-22374.699696862663,-28245.49713677134
7231.258717925396,11903.622675373874,-22360.66280134473,-28197.86556933708
8296.967541809981,12828.58256442339,-22039.35647479969,-27643.341141145367
11134.163872499928,14227.15356673641,-21757.478625473814,-26821.86982892392
11871.369108124863,13975.204703236188,-22003.83955286021,-27108.262730629773
8887.232409385731,12157.40438191943,-22382.634566144297,-28246.570020505194
7233.225671437463,11906.394291686333,-22372.66568811723,-28207.02978456376
8281.410727669088,12823.955753321145,-22059.048361664816,-27660.14965297576
11110.851003033044,14221.990313767234,-21767.514558734245,-26838.25365760966
11869.089230190424,13984.011290551578,-21999.12333478014,-27109.626187041544
8888.148830908398,12158.87959705348,-22385.495589434577,-28252.44852929694
7225.961354489488,11898.459422404698,-22377.359554452843,-28210.360194487595
8258.097858202203,12808.77891883599,-22049.25829759339,-27653.935868017183
11088.47690683328,14212.557877607094,-21754.863471372544,-26825.759032459144
11875.146552937813,13992.43789821123,-21986.807523585263,-27091.27540484374
8884.61725528446,12150.87767253848,-22379.95235680966,-28246.659427483017
7217.288877640829,11884.936617009238,-22372.28570846149,-28214.24939802282
8254.20865466698,12811.170555492708,-22054.086274395737,-27666.81047282344
11074.28354910416,14207.662845571382,-21766.82165465613,-26848.08842517
11890.189276956236,13998.718738403171,-21993.647157388583,-27099.254977614284
8919.128348723454,12172.178885004389,-22385.71910687913,-28248.045235639245
7230.5211103583715,11894.100832235914,-22385.853217345863,-28221.24549403733
8237.087218414214,12799.167668720209,-22073.55464381631,-27679.081580529404
11056.580967495558,14199.61621756747,-21779.58450074011,-26853.296381628083
11895.576047369965,14009.380520508352,-22001.58202667022,-27093.242358355805
8921.877613291457,12164.333422700576,-22397.92315935173,-28251.68856998546
7219.009961963888,11875.928863993748,-22400.94064485319,-28233.226029065376
8212.187375091002,12772.47968584057,-22087.792705034342,-27689.944528334683
11036.509100974692,14182.13715340342,-21793.30847183567,-26861.968858476743
11899.755823583106,14010.363997264383,-22009.561599440767,-27091.767143221758
8930.036000017644,12167.619129135506,-22398.504304707563,-28247.754662961324
7212.170328160564,11867.837532500927,-22396.738516895595,-28229.78386041926
8189.768575402329,12759.158046145209,-22079.857835752708,-27689.139865534293
11010.826946595544,14171.85535095398,-21770.576747724623,-26852.17879440532
11895.665454347783,14017.337741534442,-21987.20985498546,-27069.68361969991
8946.509235681206,12179.97964381929,-22383.10395277786,-28227.63809295155
7218.071188696765,11874.498352348608,-22377.47131317512,-28214.897598612024
8182.4372032209885,12761.90731071321,-22068.41374259159,-27683.95426082066
10999.6957778568,14167.787333463111,-21771.76139018076,-26861.03008520962
11907.802451587017,14020.802261925017,-21990.29439572029,-27070.73415168931
8947.045677548133,12169.02728903619,-22395.79974362847,-28235.997645377836
7220.753398031402,11867.569311567464,-22394.704508150164,-28223.39126150504
8185.81231663374,12764.835389236856,-22079.299042141323,-27677.651068884265
10987.98346376222,14167.22853985173,-21784.12190486454,-26856.26916364064
11908.69652136523,14027.127805605864,-21995.5917591562,-27071.36000053406
8961.887235866456,12177.342137973565,-22392.692851149182,-28235.30474129972
7212.99734270541,11859.142703907812,-22390.68119414821,-28234.20950582141
8159.526665154299,12745.165854116183,-22082.160065431603,-27691.218577768635
10962.16719891634,14144.005077362666,-21788.21227409986,-26860.381884620416
11904.382634685357,14022.836270670448,-22000.620901658644,-27062.709875429857
8950.264328749696,12168.289681469165,-22403.466391976643,-28238.21046807891
7200.480365810438,11845.262270601068,-22406.193304800192,-28236.82465992268
8138.001935243838,12729.743150442024,-22099.125039473183,-27699.15344705027
10939.480178294203,14140.831129650012,-21790.24628284529,-26869.009657980165
11902.92977129576,14030.033532385056,-21990.18263699801,-27064.296849286184
8953.527683440172,12169.876655325492,-22391.10587729286,-28238.121061101087
7204.704845512491,11843.67529674474,-22384.91444407874,-28227.16870631799
8140.751199811841,12736.04634237842,-22070.917137970584,-27682.94843232017
10933.534614269092,14140.562908716547,-21773.92950939292,-26860.851271253978
11921.749940127129,14047.49024480465,-21970.021363499327,-27039.7322821298
8987.435279778872,12189.389728234975,-22368.08358050389,-28214.74113640084
7207.275296124852,11841.797750210497,-22377.89599631977,-28229.69445344144
8114.800824499229,12719.9530863706,-22077.309736884803,-27700.09222031739
10906.287837778073,14132.51628071264,-21768.60979421256,-26869.814320780555
11916.564335413495,14054.642803030349,-21974.514064134844,-27043.308561242648
8984.194276832852,12196.74345216077,-22389.071868547424,-28224.03946209425
7205.196583890508,11857.309860862477,-22388.46837144713,-28231.236723808852
8107.625914529075,12730.458406264594,-22081.645975309133,-27690.68213590171
10890.686320148268,14134.818510391537,-21774.82357917113,-26866.28274515662
11927.203765774222,14071.339556138464,-21963.069970973727,-27025.94125580088
9002.232134608286,12200.833821396092,-22373.738571851085,-28213.757659644805
7209.354008359195,11843.071799644447,-22382.65691788875,-28239.842145424147
8086.9952543968275,12718.388464258727,-22082.31652764279,-27714.35263327988
10870.569750138491,14133.991495846689,-21772.476646003324,-26885.9969837662
11941.531233970074,14080.235550431677,-21961.281831417306,-27026.678863367903
9035.826806524612,12218.268182071231,-22382.96984231113,-28208.281482253253
7205.598915290704,11838.243822842102,-22399.01839483004,-28247.26292458331
8060.97782385085,12695.075594791842,-22094.00648999292,-27725.461450274164
10853.738886563646,14126.973048087722,-21772.54370123669,-26891.584919880024
11947.78972241756,14100.486230908184,-21953.34696213567,-27022.990825532772
9049.774295064724,12241.04460967119,-22369.67055436022,-28204.884017096047
7210.002208948399,11848.235052613623,-22395.352708739367,-28248.2687530838
8049.332564989635,12696.193182014607,-22097.582769105768,-27719.717051949152
10826.581517050448,14110.678626379804,-21792.50380903528,-26892.523693147148
11954.450542265242,14113.07026303652,-21962.019438984327,-27009.55742711513
9063.297100460184,12255.148560422487,-22372.82215032842,-28185.81797907567
7210.6280577931475,11850.023192170049,-22396.313833750944,-28234.14245058804
8060.240216283824,12708.307827509385,-22092.151295203126,-27709.99404311109
10830.04603744102,14115.059568293043,-21780.433867029413,-26886.46637039976
11944.951050871738,14097.044062262066,-21959.381933138604,-27014.69832833985
9053.082353244108,12227.745321720282,-22375.01262128504,-28205.666328151983
7208.683456025536,11832.968811150648,-22389.876531347814,-28246.95000016093
8042.492931186311,12693.622731402247,-22083.23294916546,-27715.425517013733
10809.437729053228,14103.45901292074,-21768.11805583454,-26887.874530300443
11942.492358981654,14095.725309339205,-21942.05933118574,-27014.43010740639
9058.759696335756,12228.840557198591,-22360.215766455625,-28220.17261030348
7229.090598713232,11847.273927602046,-22370.31875494942,-28248.2687530838
8047.589128922121,12688.615940644258,-22065.105684412203,-27717.079546103425
10806.129670873845,14095.16651572782,-21757.59038419609,-26896.010565282177
11959.770257445603,14103.682530365291,-21942.931049219496,-27014.0277760062
9082.005510569275,12240.37405733753,-22366.80953106994,-28203.69937463992
7223.480310854949,11838.780264709028,-22392.67049940473,-28253.476709541883
8032.30053571469,12684.03383303092,-22104.17653372008,-27725.86378167436
10792.51745850056,14096.373509928408,-21790.06746888965,-26898.13398100543
11961.044306879558,14120.93807708479,-21965.64042158609,-27002.874255523
9063.162989993452,12239.94937419288,-22401.700604164675,-28210.941339843437
7212.773825260857,11837.617973997352,-22426.55574399897,-28261.92566894599
8020.677628597931,12683.966777797554,-22130.95392357754,-27735.385624812323
10766.432972721215,14081.107268465432,-21826.14318444052,-26916.12713529195
11970.074411639502,14124.514356197638,-21991.143762009597,-26998.40390663194
9105.854821903087,12263.619871571049,-22411.06598509145,-28188.43313317694
7223.435607366038,11840.389590309813,-22431.942514412705,-28251.19683160744
8012.094558727093,12681.821010329844,-22137.54768819185,-27724.030938629025
10759.88391159581,14088.908027280337,-21826.970198985364,-26899.497437417205
11969.247397094656,14131.577507445516,-21993.222474243936,-26987.786828015665
9101.697397434402,12256.33320287862,-22404.963958855147,-28186.04149652022
7227.14599694562,11841.127197876836,-22419.783165429017,-28247.173517605486
8002.125680700026,12679.07174576184,-22125.969484564004,-27731.675235232746
10737.129835740308,14076.368698640908,-21815.481402335336,-26917.870571359465
11972.80132446305,14143.066304095544,-21978.64913685908,-26992.32423214009
9137.281374607252,12288.743232338817,-22392.58109242691,-28175.424417903952
7236.6901918280355,11848.01153516907,-22412.071813591934,-28254.706055486928
7991.508602083755,12673.595568370292,-22121.05210078384,-27738.53722078052
10737.621574118326,14087.946902268755,-21804.28317836323,-26906.426478198347
11985.51946705812,14153.593975733991,-21976.77159032483,-26984.344659369548
9138.600127530111,12283.959959025378,-22400.24774077508,-28184.58863313063
7230.655220825103,11835.941593163205,-22418.598522972887,-28248.626380995083
7978.857514722052,12662.464399631548,-22128.159955520627,-27727.562514252964
10709.346617382362,14066.265710147109,-21814.676739534945,-26907.387603209925
11978.36690883242,14150.688248954804,-21974.357601923657,-26972.69940050833
9141.14822639802,12281.545970624204,-22396.67146166223,-28174.17272021445
7219.926383486555,11827.067950614448,-22418.129136339325,-28258.21527936641
7959.567959257121,12652.964908238044,-22126.7741473644,-27742.91816269376
10682.368061824807,14053.033477429568,-21813.670911034456,-26926.09601331902
11975.37177507541,14145.837920408,-21956.69972380397,-26970.933612696364
9140.90235720901,12277.343842666609,-22377.87364457532,-28166.997810244306
7215.858365995689,11824.63161046882,-22405.27688327752,-28250.28041008477
7938.534967724678,12633.16126265064,-22120.76152810592,-27741.331188837437
10661.513884248005,14031.77696845257,-21801.60096902859,-26922.76560339518
11980.378565833398,14158.444304280794,-21946.976714965906,-26966.91029869441
9156.302709138718,12296.320473709164,-22371.19047298318,-28171.06582773517
7216.104235184698,11824.899831402285,-22397.02908957352,-28264.47376781389
7942.558281726633,12646.460550601549,-22104.534161631367,-27742.806403971485
10669.225236085083,14046.015029670602,-21787.675832232933,-26925.403109240902
12000.025749209612,14162.80289444958,-21939.95826720694,-26964.809234715613
9170.898398268033,12287.469182904862,-22378.32067946442,-28176.96668827137
7219.255831152896,11812.159337062758,-22417.927970639223,-28270.17346265
7926.66619141891,12624.824061968811,-22131.15508927764,-27751.03184593104
10646.694677674135,14029.027703884569,-21809.40172784349,-26931.03574884364
11998.61758930893,14167.027374151634,-21957.81731102673,-26961.8141009586
9182.901285040532,12287.692700349417,-22393.00577557156,-28172.4516358914
7221.468653853972,11804.023302081026,-22417.68210145022,-28266.485424814877
7918.038418059161,12616.30804733134,-22129.27754274339,-27742.806403971485
10637.843386869836,14023.618581726383,-21802.919721951454,-26914.87543760245
12013.012112738146,14181.220731880752,-21939.33241836219,-26927.48182147525
9202.05673003873,12307.161069769989,-22373.269185217523,-28142.880277977023
7232.242194681429,11815.221526053134,-22406.394470500287,-28255.086035142667
7915.669133146898,12615.838660697778,-22123.51079267392,-27748.21552612967
10615.558697647892,14002.67499717176,-21809.28996912121,-26941.71988269328
11997.70116778626,14167.787333463111,-21944.741540520376,-26954.460377032803
9199.978017804387,12307.33988372563,-22368.128283992803,-28158.45944386237
7232.599822592714,11814.52862197502,-22400.38185124181,-28265.63605852557
7896.066653259594,12607.859087927234,-22118.52635366039,-27760.10665417989
10598.057281739388,14005.491316973128,-21791.207407856877,-26939.86468790349
12014.822604039027,14191.211961652276,-21917.96415066292,-26935.170821567877
9223.894384371566,12315.721787896371,-22356.63948734277,-28146.81418500116
7233.426837137561,11805.274999770523,-22399.063098318948,-28265.948982947943
7892.4680224022895,12602.897000658157,-22120.76152810592,-27762.654753047795
10586.724947300549,14002.652645427304,-21800.12575389454,-26952.42636828737
12016.610743595453,14191.524886074649,-21933.54331654827,-26947.263115318197
9234.35500077665,12315.945305340923,-22369.625850871307,-28161.05224621919
7244.781523320857,11809.566534705942,-22408.00379610107,-28278.37655286509
7874.117240204483,12589.26243654042,-22135.6254381687,-27784.29124168053
10549.933975927112,13980.546770161009,-21817.515411080767,-26979.49433082275
12001.858592254948,14193.268322142165,-21937.365464850125,-26956.85201368952
9231.270460041816,12321.555593199206,-22373.559757895444,-28169.38944690102
7214.651371795103,11789.338205973889,-22418.30795029497,-28301.197683953964
7848.725658503254,12581.43932598106,-22132.116214289217,-27791.756724328607
10523.760083169947,13972.120162501356,-21810.20639064388,-26988.94911872734
11993.18611540629,14190.206133151789,-21930.838755469176,-26963.04344690364
9240.613489224135,12328.19406130243,-22365.80370256945,-28169.747074812305
7232.130435959153,11801.89988635777,-22401.924121609227,-28294.11218096163
7853.397173094413,12588.323663273295,-22113.16193499112,-27785.095904480924
10532.767836185436,13988.90632258729,-21783.250186830785,-26970.151301640428
12014.554383105564,14217.519964876172,-21905.514229001317,-26938.41182451389
9267.16736163704,12348.198872589932,-22348.861080272327,-28151.26218214777
7239.640622096136,11805.833793381906,-22393.00577557156,-28289.127741948098
7848.122161402961,12587.720166173,-22112.156106490627,-27778.32332591097
10514.059426076345,13983.541903918018,-21790.290986334203,-26968.58667952856
12013.2356301827,14219.397511410418,-21911.549200004247,-26931.527487221658
9264.97689068042,12342.856805665111,-22354.94075476417,-28151.37394087004
7226.408389378595,11796.535467688498,-22396.71616515114,-28287.853692514145
7832.498292028701,12583.048651581845,-22120.873286828195,-27778.725657311163
10503.934085838093,13980.77028760556,-21793.97902416933,-26974.48754006476
12015.940191261792,14228.807595826102,-21903.837848167164,-26929.538181965137
9279.729042020925,12355.038506393255,-22352.258545429533,-28145.786004756214
7225.514319600382,11787.259493739546,-22409.03197634601,-28297.353183907653
7809.163070817361,12560.562796659804,-22130.372778221703,-27792.762552829096
10469.534751121371,13955.51281637106,-21799.209332371876,-26985.55165357013
12001.56801957703,14211.820270040069,-21910.655130226038,-26936.78014716865
9275.392803596593,12340.264003308295,-22345.262449415022,-28145.58483905612
7223.457959110494,11782.56562740393,-22384.46740918963,-28291.854654771647
7805.899716126885,12558.148808258631,-22105.98702502096,-27787.040506248537
10461.35401265073,13947.130912200322,-21781.17147459644,-26988.90441523843
12017.057778484555,14218.570496865572,-21891.5667404612,-26932.533315722147
9291.396652626592,12344.555538243716,-22341.730873791086,-28152.871507748547
7221.692171298525,11771.099182498358,-22383.95331906716,-28304.75161132236
7785.470221694734,12538.501624882416,-22113.5195629024,-27803.67020412329
10438.35406760622,13935.28448763901,-21786.84881768809,-26999.096810710053
12010.84399352598,14222.280886445153,-21897.355842275127,-26934.70143493431
9300.002074241886,12351.752799958324,-22343.85428951434,-28146.56831581215
7224.463787610983,11767.925234785704,-22391.10587729286,-28304.75161132236
7774.696680867277,12535.171214958576,-22113.63132162468,-27804.430163434765
10423.19958486552,13933.876327738326,-21779.60685248457,-27006.472886380303
12019.002380252168,14234.328476706563,-21882.17900778997,-26929.76169940969
9320.878603563144,12371.601149034635,-22325.50350731653,-28136.867658718547
7217.780616018846,11767.835827807883,-22385.87556909032,-28310.808934069748
7753.216654445727,12523.011865974888,-22120.448603683544,-27818.69057639725
10403.82062242277,13920.286467109498,-21789.4416200449,-27017.268778952217
12007.155955690856,14227.24297371423,-21889.37626950458,-26938.076548347064
9321.88443206363,12371.243521123351,-22332.14197541976,-28148.0435309462
7238.366572662184,11791.66278739724,-22374.96791779613,-28310.76423058084
7766.672404607822,12544.938927285544,-22109.742118089453,-27812.901474583326
10406.2569625684,13937.631420806816,-21779.629204229022,-27009.088040481573
12032.52518564763,14260.882349119467,-21880.90495835602,-26918.116440548474
9351.768714400378,12392.634140567085,-22331.71729227511,-28135.548905795684
7229.962316746988,11770.160409231235,-22388.110743535846,-28317.737974850894
7745.214729930727,12518.966200228477,-22119.934513561075,-27819.85286710893
10375.612720920171,13902.47212677862,-21790.760372967765,-27020.82270632061
12024.053874499068,14241.592793654538,-21878.870949610588,-26919.45754521579
9358.407182503604,12380.698309027948,-22321.18962063666,-28132.598475527582
7231.19166269203,11753.240138678568,-22383.72980162261,-28318.520285906827
7718.48204356218,12488.23255160243,-22129.389301465668,-27830.782870147574
10347.00248801738,13879.494533478564,-21790.536855523213,-27027.19295349037
12012.90035401587,14232.428578427862,-21875.406429220013,-26918.47406845976
9356.686098180544,12373.9704339469,-22321.077861914386,-28131.27972260472
7228.129473701653,11751.072019466405,-22376.554891652453,-28315.100469005167
7718.124415650895,12493.216990615963,-22112.60314137973,-27820.232846764666
10340.922813525536,13880.969748612612,-21785.999451398784,-27029.94221805837
12015.448452883777,14239.15645350891,-21883.318946757197,-26926.073661574563
9367.549045985825,12379.267797382809,-22334.33244637638,-28132.66553076095
7237.584261606248,11754.245967179057,-22386.300252234967,-28317.35799519515
7710.010732413618,12490.311263836771,-22120.538010661367,-27825.70902415622
10319.33102838171,13875.113591565325,-21791.98971891281,-27033.07146228212
12014.37556914992,14248.186558268852,-21884.213016535406,-26913.08729804603
9372.28761581035,12391.31538764422,-22331.426719597188,-28127.94931268088
7239.52886337386,11757.08463872488,-22386.09908653487,-28316.86625681713
7710.457767302724,12484.700975978492,-22126.14829851965,-27828.07830906848
10316.738226024894,13871.000870585547,-21793.26376834676,-27035.038415794184
12016.498984873177,14248.946517580334,-21876.076981553677,-26909.935702077837
9391.264246852905,12399.540829603771,-22318.23919036856,-28124.61890275704
7246.681421599558,11761.84556029386,-22372.3304119504,-28317.62621612861
7700.131261364372,12486.556170768285,-22107.35048143273,-27823.920884599796
10298.32038859372,13871.582015941383,-21773.59423322609,-27035.64191289448
12013.213278438245,14263.29633752064,-21850.104254496608,-26902.872550829958
9390.57134277479,12403.161812205532,-22297.04973662493,-28108.391536282485
7242.948680275522,11756.883473024784,-22357.75707456554,-28305.26570144483
7683.859191400909,12479.940054409512,-22102.589559863754,-27817.08125079647
10274.51578074882,13856.02520180049,-21771.35905878056,-27025.06953776712
12008.675874313818,14252.835721115556,-21853.81464407619,-26891.33905069102
9408.877421483689,12409.710873330936,-22300.335443059856,-28101.238978056783
7238.925366273566,11746.556967086432,-22358.919365277216,-28316.285111461297
7672.795077895532,12473.569807239748,-22097.672176083583,-27830.4699457252
10265.575082966696,13857.478065190086,-21772.20842506986,-27041.40866296395
12018.175365707322,14268.63840444546,-21852.98762953134,-26889.34974543449
9421.528508845391,12411.32019893172,-22307.39859430773,-28105.172885080923
7247.53078788886,11741.237251906068,-22371.481045661098,-28320.487239418893
7652.924377074764,12448.692315660992,-22128.42817645409,-27839.81297490752
10238.909451831514,13832.0641317444,-21799.142277138508,-27049.54469794568
12024.366798921445,14266.962023611311,-21863.448245936423,-26881.70544883078
9440.885119543687,12421.490242658883,-22327.20223989513,-28097.12625707701
7246.77082857738,11735.448150092145,-22393.13988603829,-28324.734070865405
7644.117789759373,12447.664135416047,-22134.28433350138,-27841.04232085256
10213.383759663551,13828.018465997991,-21800.23751261681,-27055.91494511544
12007.357121390954,14268.481942234272,-21865.549309915223,-26885.92992853283
9437.48765438648,12424.50772816035,-22320.25084736953,-28090.93482386289
7247.083752999753,11746.020525219505,-22383.841560344885,-28313.22292247092
7636.562900133479,12457.811827398757,-22130.372778221703,-27832.995692848646
10200.3079891572,13834.142843978743,-21797.4435445599,-27051.712817157844
12007.021845224124,14286.989186643266,-21858.37439994507,-26876.38573365041
9441.578023621802,12433.247260242377,-22311.690129243158,-28088.61024243954
7240.020601751877,11740.834920505871,-22377.94069980868,-28324.264684231843
7624.247088938605,12453.36383025215,-22125.14247001916,-27841.869335397405
10187.366329117576,13828.152576464723,-21788.301681077683,-27057.39016024949
12002.015054466136,14290.900741922946,-21847.28793469524,-26873.256489426672
9448.39530568067,12449.385219739106,-22301.117754115792,-28078.9766405793
7242.322831430773,11750.446170621655,-22368.77648458201,-28310.36189918064
7613.942934744708,12447.597080182682,-22116.939379804066,-27832.347492259443
10177.933892957435,13824.017503740492,-21778.757486195267,-27049.231773523305
12015.1355284614,14297.583913515082,-21841.07414973666,-26865.768655034142
9470.21060826905,12451.620394184638,-22307.756222219017,-28083.44698947036
7244.267433198385,11741.728990284086,-22377.538368408488,-28327.21511449994
7602.275324139038,12442.456178957962,-22126.66238864212,-27848.41839652281
10150.731819955328,13815.076805958368,-21793.330823580127,-27068.633087710517
11999.064624198036,14299.841439705067,-21860.92249881297,-26879.51497787416
9468.511875690449,12460.628147200126,-22316.65221651223,-28086.84445462757
7242.591052364237,11745.864063008315,-22380.846426587872,-28327.28216973331
7587.858448965365,12439.617507412137,-22130.66335089962,-27852.866393669417
10114.834918360106,13797.530686560953,-21799.79047772771,-27081.37358205004
11981.339690844976,14290.565465756115,-21852.42883591996,-26877.391562150904
9471.261140258448,12464.47264724644,-22306.6162832518,-28079.915413846426
7230.722276058469,11733.861176235816,-22379.505321920555,-28329.9867308124
7572.011062146553,12422.02668452581,-22132.40678696713,-27850.69827445725
10115.639581160496,13791.607474280296,-21792.10147763509,-27068.49897724378
12001.433909110296,14301.294303094664,-21847.17617597296,-26858.325524130527
9496.518611492946,12478.04015613081,-22306.63863499625,-28067.66665788492
7245.832055310257,11745.238214163568,-22380.779371354507,-28331.79722211328
7572.21222784665,12426.497033416872,-22128.472879943,-27852.866393669417
10095.411252428445,13782.398555564709,-21794.537817780714,-27081.39593379449
11988.13462115939,14288.911436666422,-21846.393864917027,-26869.23317542472
9487.130878821716,12459.46585648845,-22310.4160798092,-28080.049524313155
7236.5113778723935,11726.909783710216,-22389.25068250307,-28337.69808264948
7552.7215066816225,12409.330893675196,-22142.174499294106,-27854.36396054792
10076.792249297172,13777.34706131781,-21802.6962045069,-27078.378448293028
11989.453374082254,14303.9765124293,-21854.03816152074,-26856.26916364064
9514.377655312735,12486.019728901354,-22309.03027165297,-28059.865899070013
7252.649337369125,11736.364571614811,-22380.98053705461,-28326.388099955097
7546.977108356608,12405.68755932898,-22135.04429281286,-27855.861527426427
10067.046888714658,13772.787305448926,-21792.7943817132,-27082.73703846181
11995.935379974291,14313.230134633795,-21832.379321143548,-26852.536422316603
9514.802338457386,12482.577560255237,-22286.25384405301,-28054.657942611928
7251.822322824279,11733.74941751354,-22355.70071407565,-28323.303559220265
7542.305593765449,12404.614675595129,-22109.25037971144,-27857.627315238395
10053.144103663455,13767.400535035198,-21769.92854713542,-27087.07327688614
11990.168629904823,14306.748128741758,-21810.519315066256,-26851.21766939374
9533.98013520004,12490.892409192613,-22274.340364258333,-28057.56366939112
7255.756229848413,11728.295591866445,-22357.086522231883,-28340.15677453957
7531.889680849276,12389.661358554526,-22117.69933911554,-27872.670039256816
10033.742789476251,13737.96328758756,-21791.7438497238,-27109.335614363627
11990.012167693636,14293.73941346877,-21837.29670492372,-26866.26039341216
9547.949975484607,12492.702900493492,-22289.69601269913,-28059.307105458636
7266.619177653692,11726.4180453322,-22380.15352250976,-28342.995446085388
7537.678782663201,12384.565160818716,-22155.429083756106,-27880.873129471915
10036.045019155148,13741.137235300212,-21813.98383545683,-27105.6475765285
11999.958693976248,14309.49739330976,-21848.763149829287,-26851.620000793937
9559.170551201172,12499.22960987444,-22317.054547912427,-28054.23325946728
7257.72318336048,11716.136242882758,-22405.187476299703,-28345.32002750874
7519.998552799053,12379.848942738648,-22165.75558969445,-27870.65838225584
10020.622315480983,13741.42780797813,-21820.08586169313,-27098.539721791716
11997.052967197058,14312.11254741103,-21854.17227198747,-26840.80175647757
9571.888693796242,12506.33746461123,-22315.89225720075,-28037.849430781534
7269.659014899614,11726.4180453322,-22399.19720878568,-28328.33270172271
7518.277468475994,12386.800335264246,-22167.320211806324,-27868.28909734358
10013.3132950441,13749.832063893327,-21824.33269313964,-27096.550416535192
12000.606894565452,14330.776254031212,-21854.306382454204,-26833.582143018502
9577.878961310264,12512.260676891883,-22324.22945788258,-28038.20705869282
7267.982634065465,11722.528841796977,-22400.851237875373,-28335.95464658197
7519.7750353545,12387.604998064638,-22151.785749409886,-27864.444597297264
10007.45713799681,13745.562880702362,-21810.31814936616,-27104.26176837227
12008.3853016359,14336.811225034146,-21837.453167134903,-26836.487869797693
9596.743833630542,12530.05266547831,-22293.786381934453,-28035.65895982492
7275.716337647002,11727.692094766153,-22373.068019517425,-28335.686425648502
7516.019942286008,12389.102564943145,-22125.723615375,-27864.33283857499
9995.767175646684,13746.121674313748,-21790.51450377876,-27105.60287303959
12004.496098100675,14345.304887927165,-21824.93619023993,-26837.00195992017
9614.71463617261,12544.111912740698,-22289.763067932498,-28030.518058600195
7282.287750516863,11722.55119354143,-22373.447999173164,-28341.542582695794
7486.493287860548,12353.831512192668,-22141.19102253807,-27882.10247541696
9964.83236132054,13712.459947164054,-21793.286120091216,-27109.872056230557
12001.009225965649,14334.464291866338,-21808.84293423211,-26822.56273300204
9627.589240978868,12545.67653485257,-22269.82531187836,-28017.285825882653
7281.326625505284,11719.98074292907,-22360.551042622454,-28338.07806230522
7483.542857592447,12358.883006439568,-22131.24449625546,-27873.832329968493
9948.672050079353,13706.447327905576,-21792.12382937954,-27113.001300454296
11993.052004939558,14328.518727841229,-21815.83903024662,-26836.35375933096
9619.43085425268,12530.522052111872,-22280.64355619473,-28036.955361003325
7267.647357898636,11701.987588642549,-22368.73178109309,-28351.26559153385
7462.532217804458,12340.129892841564,-22146.175461551604,-27893.077181944514
9929.091921936504,13698.355996412754,-21806.07131791965,-27136.73885306583
11985.072432169012,14326.64118130698,-21825.18205942894,-26840.913515199845
9629.91382240222,12535.551194614316,-22289.85247491032,-28029.623988821982
7280.946645849543,11711.956466669615,-22380.488798676583,-28349.969190355445
7463.694508516134,12351.909262169513,-22149.282354030893,-27885.90227197436
9920.911183465862,13699.361824913243,-21808.954692954387,-27123.19369592592
11999.511659087142,14353.820902564634,-21822.25398090529,-26808.950520628758
9651.81853196842,12567.693003141048,-22299.55313200392,-28003.807723976104
7277.504477203426,11711.50943178051,-22401.544141953487,-28343.66599841905
7449.478799042559,12333.692590438435,-22172.259947330946,-27886.57282430802
9898.112404121448,13683.425031116609,-21822.32103613866,-27125.652387816
11974.812981464029,14340.342800658083,-21830.7029403094,-26825.267294081128
9646.14118887677,12571.24693050944,-22295.01572787949,-28009.462715323298
7277.191552781052,11727.803853488427,-22381.96401381064,-28338.033358816312
7445.656650740701,12355.798465704736,-22142.532127205388,-27881.096646916467
9886.891828404883,13695.204400444556,-21795.96832942585,-27131.77676579676
11972.689565740771,14348.545890873182,-21806.40659408648,-26821.489849268182
9661.094505917372,12583.562741704314,-22259.811730362384,-27998.845636707025
7276.63275916967,11719.60076327333,-22354.82899604189,-28342.88368736311
7427.797606920912,12338.386456774051,-22129.590467165766,-27886.32695511901
9866.127057805905,13678.999385714458,-21790.782724712222,-27140.24807694532
11972.063716896024,14347.137730972498,-21801.37745158404,-26825.02142489212
9666.570683308924,12574.44322996655,-22265.153797287203,-28008.05455542261
7278.376195237183,11703.351045054324,-22364.552004879955,-28350.70679792247
7410.005618334487,12311.96669482788,-22145.974295851505,-27893.680679044806
9839.32731620399,13654.479522046986,-21808.88763772102,-27141.678588590457
11960.84314117946,14344.656687337958,-21815.61551280207,-26819.433488778293
9661.67565127321,12570.308157242318,-22279.12363757177,-28011.697889768828
7269.480200943971,11697.897219407228,-22376.309022463443,-28353.94780086849
7392.727719870534,12305.954075569402,-22160.90526114765,-27904.49892336117
9827.682057342776,13660.17921688309,-21804.50669580778,-27143.37732116906
11964.642937736862,14356.614870621548,-21803.83614347412,-26810.179866573795
9681.34518639388,12587.697814428546,-22269.914718856184,-27995.60463376101
7279.091451059753,11702.144050853736,-22367.79300782597,-28347.398739743083
7388.74910935749,12301.617837145071,-22157.731313435,-27897.56988258003
9814.740397303152,13646.768170209903,-21807.56888479816,-27142.75147232431
11960.820789435003,14348.344725173083,-21797.711765493368,-26809.218741562217
9682.39571838328,12580.58995969176,-22267.523082199463,-27995.47052329428
7284.925256362589,11706.972027656082,-22368.82118807092,-28347.957533354467
7390.246676235995,12308.099843037113,-22145.929592362598,-27893.2336441557
9803.206897164217,13642.521338763398,-21798.337614338117,-27140.628056601057
11969.98500466168,14360.437018923403,-21796.951806181885,-26792.700802409745
9714.090492020903,12603.120518102707,-22262.493939697026,-27973.565813728077
7291.474317487993,11700.914704908697,-22367.547138636965,-28345.18591704201
7383.943484299599,12297.616874887572,-22144.476728973,-27890.03734469859
9796.926056972272,13636.531071249376,-21791.810904957165,-27131.79911754121
11968.710955227729,14358.26889971124,-21786.17826535443,-26785.525892439597
9726.540413682513,12606.003893137444,-22255.27432623796,-27967.48613923623
7304.0136461274205,11707.352007311823,-22360.975725767104,-28337.452213460478
7387.095080267797,12304.81413660218,-22147.427159241102,-27889.210330153743
9789.75114700212,13635.122911348692,-21803.09853590709,-27149.0099607718
11961.80426619104,14354.826731065124,-21801.95859693988,-26806.02244210511
9730.40726547328,12606.808555937834,-22260.079951295847,-27980.830130676048
7286.221657540997,11683.815620400384,-22360.551042622454,-28362.17324282804
7359.31186190985,12280.33897642362,-22141.95098184955,-27913.439621143298
9762.929053655753,13622.829451898271,-21796.16949512595,-27159.60468764361
11958.138580100367,14359.565300889648,-21793.97902416933,-26797.79700014556
9727.948573583197,12607.97084664951,-22264.170320531168,-27977.097389352013
7282.757137150424,11691.03523385945,-22366.89893804776,-28364.140196340108
7355.69087930809,12291.134868995532,-22146.48838597398,-27911.986757753704
9748.64628894881,13618.60497219622,-21803.41146032947,-27168.8136063592
11949.846082907448,14357.933623544412,-21792.861436946565,-26804.25665429314
9742.521910968057,12625.427559069103,-22255.78841636043,-27971.040066604623
7278.555009192826,11684.12854482276,-22369.603499126853,-28364.743693440403
7325.672486504613,12265.989156483312,-22150.80227265385,-27918.02172875664
9722.91943108075,13606.69149240154,-21804.327881852136,-27171.160539527005
11947.387391017366,14354.804379320669,-21794.42605905844,-26801.797962403056
9747.841626148418,12626.858070714245,-22263.16449203068,-27977.477369007756
7293.105994833231,11698.187792085148,-22364.529653135494,-28362.17324282804
7340.648155289669,12281.52361887975,-22143.85088012825,-27907.538760607094
9722.20417525818,13606.244457512434,-21798.35996608257,-27160.789330099746
11953.17649283129,14374.496266185794,-21783.29489031969,-26782.664869149317
9768.718155469674,12641.721980777023,-22251.47452968056,-27952.242249517712
7295.564686723314,11687.973044869072,-22364.015563013025,-28351.75732991187
7330.567518540325,12268.447848373396,-22147.91889761912,-27905.52710360612
9701.975846526127,13593.906294573104,-21802.65150101799,-27161.8622138336
11935.451559478232,14358.26889971124,-21787.519370021742,-26785.36943022841
9771.3556613154,12635.955230707554,-22247.853547078797,-27944.240325002716
7294.000064611443,11681.5580942104,-22366.965993281126,-28348.829251388222
7312.976695653999,12257.38373486802,-22156.18904306758,-27910.645653086383
9677.72420379212,13578.64005311013,-21815.7496232688,-27177.30726925221
11924.02981806157,14349.55171937367,-21794.493114291803,-26792.790209387567
9769.4557630367,12626.992181180976,-22259.141178028727,-27950.565868683563
7290.669654687603,11670.292815004925,-22368.865891559828,-28352.51728922335
7319.279887590395,12256.33320287862,-22145.303743517845,-27904.275405916625
9676.919540991728,13573.11917222967,-21797.28708234872,-27169.70767613741
11927.427283218776,14349.261146695751,-21777.93047165042,-26785.30237499504
9779.5587515305,12628.31093410384,-22250.02166629096,-27950.27529600564
7293.553029722337,11662.44735270111,-22367.301269447955,-28360.31804803825
7295.899962890144,12228.0358943982,-22152.322191276813,-27919.698109590783
9664.648433285764,13567.240663437924,-21788.391088055505,-27171.317001738196
11933.12697805488,14362.56043464666,-21767.82748315662,-26775.95934581272
9808.973647233684,12652.115541948742,-22235.69419809511,-27929.08584226201
7308.841622929767,11671.991547583528,-22356.259507687035,-28349.879783377623
7293.240105299963,12224.481967029807,-22152.165729065626,-27918.04408050109
9636.90991841673,13539.412741591066,-21802.04800391769,-27187.05262983473
11922.018161060592,14350.535196129704,-21773.59423322609,-26785.07885755049
9807.69959779973,12652.853149515766,-22244.076102265848,-27941.647522645897
7317.312934078328,11681.893370377227,-22357.3770949098,-28358.976943370933
7303.790128682867,12239.502339303774,-22141.682760916086,-27913.73019382122
9638.653354484244,13540.329163113734,-21790.06746888965,-27176.25673726281
11925.817957617994,14351.36221067455,-21759.7361516638,-26765.49872940764
9819.255449683124,12651.60145182627,-22232.25202944899,-27923.229685214723
7302.650189715647,11654.44542818611,-22359.56756586642,-28350.48328047792
7291.094337832254,12216.457690770352,-22142.5768306943,-27904.67773731682
