Sample Index	 EXG Channel 0	 EXG Channel 1	 EXG Channel 2	 EXG Channel 3	 EXG Channel 4	 EXG Channel 5	 EXG Channel 6	 EXG Channel 7
0	0	0	0	0	0	0	0	0
1	12847.87212	23193.46645	-40867.79545	-37958.20182	-17444.21779	-187500.0224	14661.64913	-10983.51311
2	13171.65949	23432.18308	-40921.84197	-37977.67019	-17680.20751	-187500.0224	14633.79885	-11099.56337
3	13936.62559	24460.81036	-40998.37434	-38017.5457	-17945.76859	-187500.0224	14114.41137	-11370.04183
4	14166.53564	25073.80695	-40969.18296	-38026.82168	-17855.26637	-187500.0224	13831.6171	-11488.30491
5	13123.0668	23814.28615	-40836.03362	-37950.91515	-17488.25073	-187500.0224	14075.7205	-11363.98451
6	12839.35611	23166.82317	-40869.18126	-37963.25331	-17460.57927	-187500.0224	14645.04178	-11053.00469
7	13165.46806	23403.6399	-40929.15099	-37986.83441	-17697.3066	-187500.0224	14631.54133	-11159.26488
8	13913.15626	24412.30707	-41004.1858	-38035.89648	-17971.45074	-187500.0224	14099.59216	-11442.43913
9	14170.13427	25047.27543	-40965.36082	-38034.24246	-17878.28867	-187500.0224	13813.51218	-11556.27657
10	13148.59249	23810.55341	-40821.70615	-37939.3146	-17498.93486	-187500.0224	14068.32207	-11413.8736
11	12841.59128	23148.0477	-40874.09864	-37972.97632	-17487.8484	-187500.0224	14638.33626	-11118.11532
12	13149.64302	23375.16378	-40938.2705	-37999.39609	-17730.63305	-187500.0224	14623.96409	-11224.73314
13	13899.07466	24385.64144	-41009.72903	-38053.64377	-18005.91713	-187500.0224	14093.93717	-11517.27277
14	14148.49778	25029.77401	-40993.00992	-38060.14813	-17933.60924	-187500.0224	13784.25375	-11633.94888
15	13124.02792	23805.74778	-40855.5467	-37970.40587	-17557.18351	-187500.0224	14038.66131	-11490.92007
16	12827.28616	23133.78729	-40886.48151	-37982.36406	-17525.42168	-187500.0224	14621.30423	-11166.14922
17	13152.97343	23356.03069	-40951.6592	-38021.12198	-17768.80983	-187500.0224	14615.82805	-11277.57266
18	13881.90852	24344.96127	-41041.55791	-38086.94787	-18062.46705	-187500.0224	14068.52324	-11598.94605
19	14157.1479	25014.37366	-41023.65417	-38084.57858	-17988.92981	-187500.0224	13755.82233	-11711.84471
20	13156.57206	23802.84206	-40873.80807	-37984.8004	-17608.12314	-187500.0224	14013.04621	-11572.43688
21	12837.07623	23111.32379	-40913.59418	-38011.57779	-17581.52456	-187500.0224	14599.98066	-11276.38802
22	13142.95985	23329.11919	-41001.54829	-38059.23171	-17827.21494	-187500.0224	14604.98746	-11374.66864
23	13862.84248	24311.81363	-41091.71523	-38130.95845	-18113.29491	-187500.0224	14056.31918	-11697.94192
24	14174.89519	25021.9509	-41024.59294	-38078.99065	-17995.38946	-187500.0224	13761.05264	-11743.74065
25	13170.40779	23818.95766	-40882.65936	-37981.55939	-17607.49729	-187500.0224	14012.3086	-11583.14336
26	12816.02088	23094.35881	-40937.64465	-38045.95477	-17590.71113	-187500.0224	14581.83105	-11301.48903
27	13114.46138	23292.43997	-41004.76694	-38065.64666	-17825.98559	-187500.0224	14584.58031	-11368.11958
28	13849.90082	24278.1519	-41076.24782	-38108.20438	-18089.13268	-187500.0224	14051.33474	-11629.25501
29	14148.85541	24985.31639	-41050.4092	-38124.4541	-18014.70137	-187500.0224	13727.97206	-11749.28388
30	13174.58757	23819.27059	-40886.61562	-38019.4456	-17609.01721	-187500.0224	13997.73526	-11610.56895
31	12823.95575	23089.1285	-40926.53584	-38033.88483	-17562.52558	-187500.0224	14578.7018	-11277.93029
32	13132.96862	23294.78691	-40976.15671	-38038.55634	-17768.54161	-187500.0224	14612.29648	-11328.24407
33	13843.8882	24242.65733	-41051.99618	-38076.95664	-18035.42144	-187500.0224	14057.1462	-11592.37463
34	14182.1148	24980.04138	-41014.28878	-38091.30646	-17958.15145	-187500.0224	13738.81265	-11717.83498
35	13212.58553	23824.67971	-40866.09672	-38004.58169	-17565.18544	-187500.0224	13996.2824	-11590.29592
36	12839.49022	23065.79328	-40906.8216	-38021.72548	-17521.35366	-187500.0224	14569.44818	-11257.36669
37	13139.65179	23260.87931	-40961.80689	-38044.05487	-17735.17045	-187500.0224	14611.69298	-11295.54347
38	13854.92997	24210.06849	-41024.81646	-38055.72248	-17991.20968	-187500.0224	14067.74093	-11553.66141
39	14198.0516	24953.77808	-41013.52883	-38084.82445	-17937.40904	-187500.0224	13723.54641	-11691.50462
40	13233.57382	23814.28615	-40854.20559	-38001.69832	-17534.29532	-187500.0224	13980.52442	-11567.27362
41	12863.60775	23080.59014	-40895.55632	-38012.51656	-17476.85134	-187500.0224	14587.41898	-11223.5932
42	13143.51864	23262.51099	-40963.86325	-38051.05097	-17704.07918	-187500.0224	14623.87468	-11305.60175
43	13828.82313	24178.06079	-41023.87768	-38079.97412	-17968.47796	-187500.0224	14066.44452	-11570.29111
44	14185.28875	24939.47297	-40989.18778	-38061.71275	-17895.72303	-187500.0224	13725.62512	-11623.55532
45	13229.79638	23815.58255	-40841.28628	-37978.78778	-17505.21571	-187500.0224	13976.67992	-11488.26021
46	12844.00527	23052.40459	-40874.67979	-38012.24834	-17456.84653	-187500.0224	14574.87966	-11186.3552
47	13139.80825	23237.14176	-40933.55428	-38039.29395	-17674.95485	-187500.0224	14633.32947	-11233.58443
48	13830.14188	24152.87038	-41008.96907	-38059.36582	-17952.74233	-187500.0224	14081.48725	-11514.09882
49	14201.02438	24931.60515	-40987.33258	-38077.1131	-17904.46256	-187500.0224	13729.44727	-11641.50377
50	13244.8838	23817.99654	-40842.02389	-37993.91991	-17513.91053	-187500.0224	13966.84515	-11510.14257
51	12857.30456	23059.71361	-40871.23762	-38005.87809	-17446.45297	-187500.0224	14582.88158	-11174.10644
52	13140.92584	23238.63932	-40936.52707	-38028.18513	-17662.52728	-187500.0224	14649.84741	-11213.62432
53	13828.77843	24136.77712	-40998.70962	-38063.6797	-17932.02227	-187500.0224	14098.11695	-11497.84911
54	14230.52868	24939.60708	-40975.73203	-38083.28218	-17884.56951	-187500.0224	13749.51914	-11625.41051
55	13278.12085	23839.16364	-40835.60894	-37993.96461	-17497.59376	-187500.0224	13980.3009	-11505.4934
56	12873.12959	23060.8759	-40856.30665	-37998.16674	-17426.11288	-187500.0224	14595.59972	-11177.19098
57	13151.20764	23227.3964	-40905.63695	-38002.92766	-17633.06768	-187500.0224	14675.82013	-11198.40279
58	13825.8727	24125.75771	-40979.82239	-38017.43394	-17897.39941	-187500.0224	14130.59403	-11427.21759
59	14234.06026	24947.18432	-40967.97597	-38064.90905	-17866.62106	-187500.0224	13770.8427	-11587.81488
60	13279.21608	23850.31716	-40827.74113	-37986.47678	-17486.66376	-187500.0224	13985.91119	-11498.43025
61	12842.08302	23033.51736	-40862.14046	-37987.70612	-17420.05556	-187500.0224	14575.81843	-11174.50877
62	13136.47784	23209.85028	-40901.47953	-37989.82954	-17614.1134	-187500.0224	14673.83083	-11150.503
63	13800.34701	24087.96091	-40967.10425	-38038.10931	-17888.48107	-187500.0224	14127.53184	-11446.50715
64	14219.44221	24923.67028	-40955.48135	-38098.14609	-17879.02628	-187500.0224	13766.23824	-11684.75439
65	13296.15871	23866.05279	-40807.06576	-37954.1338	-17471.03989	-187500.0224	13997.02001	-11461.34871
66	12871.05088	23064.18396	-40840.1687	-37966.38256	-17390.55126	-187500.0224	14619.6949	-11110.00164
67	13135.82964	23211.99604	-40873.45044	-38009.67789	-17588.74417	-187500.0224	14712.34288	-11132.21927
68	13785.79602	24071.64414	-40956.30836	-38034.44362	-17878.86982	-187500.0224	14156.25383	-11408.30802
69	14211.26148	24912.71793	-40954.07319	-38068.57473	-17862.64245	-187500.0224	13760.82912	-11574.76146
70	13291.37543	23868.75735	-40830.73626	-38033.5272	-17496.1856	-187500.0224	13982.91606	-11526.28053
71	12851.91779	23053.1869	-40815.15709	-37971.00937	-17379.15187	-187500.0224	14609.23429	-11068.85208
72	13116.42833	23192.52767	-40871.75171	-37978.51956	-17584.94438	-187500.0224	14703.37983	-11036.4644
73	13772.31792	24052.93573	-40970.41231	-38084.24331	-17904.12729	-187500.0224	14155.02449	-11440.1369
74	14220.93978	24918.99877	-40976.91667	-38077.73895	-17873.99714	-187500.0224	13758.23632	-11522.14545
75	13301.2549	23882.70484	-40813.74893	-37980.03947	-17468.35768	-187500.0224	13963.33593	-11345.16434
76	12843.46883	23037.8536	-40825.97534	-37991.2824	-17389.97011	-187500.0224	14590.32471	-11023.74625
77	13111.33213	23184.21283	-40867.48253	-38018.43977	-17582.39628	-187500.0224	14714.84628	-11034.6092
78	13741.13724	24020.50334	-40963.05859	-38090.43474	-17890.53743	-187500.0224	14157.99727	-11344.13616
79	14231.37805	24917.00946	-40961.49396	-38101.70002	-17875.00297	-187500.0224	13771.51326	-11486.53912
80	13331.76504	23906.68826	-40802.28249	-37977.71489	-17470.54815	-187500.0224	13978.84804	-11278.46673
81	12854.48824	23048.0907	-40828.0764	-38021.45726	-17389.836	-187500.0224	14595.86794	-10968.93978
82	13130.28641	23189.77841	-40890.52718	-38053.26379	-17597.3496	-187500.0224	14722.53528	-10969.61033
83	13767.26642	24020.30218	-40973.80978	-38091.30646	-17892.39262	-187500.0224	14166.55799	-11245.29675
84	14238.08357	24926.95599	-40989.23248	-38127.87391	-17904.03788	-187500.0224	13758.23632	-11422.54608
85	13350.78637	23941.31111	-40800.15907	-38002.86061	-17484.94267	-187500.0224	13968.14155	-11260.49593
86	12868.43572	23074.13048	-40799.80144	-37992.69056	-17375.35207	-187500.0224	14595.08563	-10893.30147
87	13119.71404	23205.11171	-40873.15987	-38032.99076	-17584.02796	-187500.0224	14733.77821	-10906.31019
88	13748.93799	24029.01936	-40945.9148	-38081.31523	-17873.03601	-187500.0224	14188.21683	-11221.78271
89	14242.15159	24953.73338	-40945.49012	-38086.83611	-17866.17403	-187500.0224	13783.11381	-11329.38401
90	13360.64349	23979.10791	-40787.37388	-37995.48453	-17470.74932	-187500.0224	13980.54677	-11208.19285
91	12858.82447	23090.00022	-40814.21832	-38016.18225	-17377.58724	-187500.0224	14596.44909	-10864.17715
92	13104.51485	23208.62093	-40893.16468	-38060.25989	-17591.47109	-187500.0224	14734.67228	-10882.14795
93	13717.44439	24009.99802	-40950.65337	-38076.12962	-17863.8718	-187500.0224	14184.32762	-11164.56224
94	14235.40136	24949.21833	-40952.75443	-38107.06444	-17870.55497	-187500.0224	13781.14686	-11302.02547
95	13377.38495	24008.12048	-40809.23388	-38023.87125	-17477.81247	-187500.0224	13978.06573	-11197.10638
96	12865.17237	23114.92242	-40825.10362	-38018.37272	-17368.93712	-187500.0224	14598.39369	-10844.37351
97	13096.42352	23212.86776	-40884.26869	-38035.09182	-17564.0902	-187500.0224	14742.56244	-10823.78755
98	13709.68833	24011.78616	-40966.52311	-38097.5873	-17867.24691	-187500.0224	14198.141	-11151.68764
99	14228.56173	24951.83348	-40947.92646	-38112.71943	-17871.18082	-187500.0224	13779.47048	-11292.32482
100	13368.55601	24011.42854	-40809.47975	-38044.83718	-17496.25266	-187500.0224	13955.60222	-11244.26857
101	12852.67774	23106.98755	-40800.22613	-37990.90242	-17353.87204	-187500.0224	14583.93211	-10795.69141
102	13100.06685	23214.49944	-40868.57776	-38028.87804	-17551.84144	-187500.0224	14747.36807	-10768.80226
103	13701.79817	23997.07872	-40942.51733	-38083.30453	-17845.96805	-187500.0224	14207.0817	-11099.29515
104	14236.85422	24970.43013	-40949.1558	-38133.41715	-17872.9019	-187500.0224	13793.88735	-11275.13632
105	13392.71824	24054.5227	-40795.17463	-38032.99076	-17482.57339	-187500.0224	13968.7674	-11157.5885
106	12861.0373	23130.90392	-40792.02304	-38017.94803	-17352.77681	-187500.0224	14591.82228	-10793.12096
107	13100.6927	23232.04556	-40863.16864	-38053.08498	-17553.92016	-187500.0224	14766.76938	-10770.36688
108	13686.50957	23993.54714	-40928.18987	-38059.36582	-17831.59588	-187500.0224	14224.15843	-11050.546
109	14224.42665	24968.0385	-40939.58925	-38103.64462	-17860.98842	-187500.0224	13796.92719	-11211.88089
110	13393.4335	24064.17865	-40793.20768	-38038.10931	-17485.23325	-187500.0224	13956.38453	-11143.12692
111	12849.32498	23126.72414	-40783.61878	-38011.57779	-17345.33368	-187500.0224	14581.18285	-10793.45623
112	13091.14851	23230.48094	-40851.63514	-38043.7643	-17546.49938	-187500.0224	14776.023	-10785.74488
113	13693.66213	24006.5335	-40913.28125	-38052.97322	-17823.48219	-187500.0224	14256.412	-11048.71315
114	14250.37703	24991.77605	-40930.67091	-38094.94979	-17866.79988	-187500.0224	13819.07777	-11197.44166
115	13416.63461	24108.32335	-40782.50119	-38011.7119	-17482.03695	-187500.0224	13968.34272	-11106.33595
116	12852.34247	23154.08267	-40770.61007	-38003.01707	-17343.61259	-187500.0224	14587.41898	-10785.14138
117	13080.03969	23231.15149	-40849.69054	-38052.0568	-17547.92989	-187500.0224	14777.90055	-10772.80322
118	13677.2336	23996.40816	-40920.16559	-38079.34828	-17833.65224	-187500.0224	14269.55483	-11057.07271
119	14256.12143	25010.50681	-40937.19762	-38120.40843	-17880.5909	-187500.0224	13842.92708	-11221.6933
120	13433.01844	24139.12405	-40798.01331	-38021.92664	-17511.31773	-187500.0224	13969.84028	-11143.5069
121	12848.02858	23157.39073	-40803.0648	-38028.52041	-17377.49784	-187500.0224	14570.9681	-10817.43965
122	13076.61987	23237.14176	-40879.46306	-38070.49698	-17587.29131	-187500.0224	14781.05215	-10801.83814
123	13647.70694	23970.94953	-40963.68444	-38108.36084	-17888.86105	-187500.0224	14253.50627	-11111.4098
124	14239.04469	25000.38147	-40957.91769	-38110.10428	-17907.16713	-187500.0224	13828.13022	-11227.81768
125	13434.91834	24160.53702	-40808.00454	-38029.74975	-17525.39933	-187500.0224	13961.14546	-11135.92966
126	12834.66224	23166.48789	-40807.95983	-38022.15016	-17386.10326	-187500.0224	14559.59106	-10816.90321
127	13066.53924	23243.4226	-40872.57872	-38043.98782	-17568.04646	-187500.0224	14782.57206	-10756.37469
128	13641.67197	23969.02728	-40944.55134	-38105.2316	-17865.50347	-187500.0224	14267.49847	-11097.19409
129	14240.9893	25001.23084	-40960.71165	-38110.32779	-17905.44604	-187500.0224	13829.47133	-11234.72437
130	13437.6229	24174.43981	-40823.36018	-38037.50581	-17536.30698	-187500.0224	13945.99097	-11151.88881
131	12823.62048	23165.68323	-40820.58857	-38034.71184	-17392.00412	-187500.0224	14537.59695	-10850.43083
132	13052.41293	23232.22437	-40874.41157	-38049.06166	-17569.74519	-187500.0224	14769.87627	-10790.5058
133	13629.17735	23955.01273	-40938.49402	-38066.51837	-17854.57347	-187500.0224	14272.81818	-11073.07655
134	14247.13603	25009.56804	-40962.81272	-38105.94685	-17915.34786	-187500.0224	13837.56266	-11237.09366
135	13462.92507	24213.46595	-40828.61284	-38031.31438	-17547.28169	-187500.0224	13948.13674	-11187.98687
136	12825.27451	23180.0554	-40820.09683	-38029.01215	-17396.20625	-187500.0224	14531.2714	-10871.68734
137	13043.74046	23234.57131	-40873.49515	-38037.79638	-17562.12325	-187500.0224	14773.00552	-10775.70895
138	13615.811	23953.33635	-40950.02752	-38072.26277	-17859.82613	-187500.0224	14280.50718	-11066.92983
139	14234.6861	25005.00828	-40971.68636	-38115.69221	-17923.32744	-187500.0224	13834.63458	-11240.55818
140	13469.65295	24230.27447	-40814.5983	-38024.94413	-17540.30794	-187500.0224	13939.35251	-11166.55155
141	12822.65935	23193.15352	-40804.51766	-38034.84595	-17389.45602	-187500.0224	14525.81758	-10875.59889
142	13041.14765	23244.18256	-40886.3921	-38086.52319	-17581.81513	-187500.0224	14773.63137	-10843.14416
143	13608.92667	23948.62013	-40945.51247	-38064.79729	-17859.91554	-187500.0224	14289.80551	-11081.74903
144	14231.04277	25013.41254	-40973.31804	-38109.52313	-17927.75308	-187500.0224	13837.98734	-11240.8711
145	13461.20399	24243.21613	-40839.36403	-38050.04514	-17568.60525	-187500.0224	13917.82778	-11207.03056
146	12826.83913	23206.89985	-40807.26693	-38011.7119	-17386.46089	-187500.0224	14517.32391	-10854.58825
147	13035.82794	23247.3118	-40870.63412	-38046.60297	-17567.53237	-187500.0224	14775.57597	-10787.60007
148	13591.73818	23935.70083	-40942.49498	-38085.78558	-17866.33049	-187500.0224	14290.94545	-11096.88116
149	14237.92711	25013.81487	-40964.73497	-38104.40458	-17924.80265	-187500.0224	13841.36246	-11231.57277
150	13499.53723	24283.02458	-40818.46515	-38020.71965	-17549.22629	-187500.0224	13929.58479	-11158.79549
151	12830.68363	23222.32255	-40809.03272	-38019.69147	-17383.21988	-187500.0224	14512.31712	-10853.9177
152	13033.32454	23259.09117	-40882.81582	-38063.65735	-17564.29137	-187500.0224	14781.78975	-10802.19576
153	13570.54872	23929.19647	-40949.1111	-38084.98092	-17857.18863	-187500.0224	14296.28751	-11100.45744
154	14223.04085	25013.63605	-40976.49198	-38127.6504	-17937.54315	-187500.0224	13839.66372	-11279.29375
155	13495.8939	24305.13046	-40835.58659	-38059.47757	-17571.46628	-187500.0224	13916.66548	-11237.80891
156	12810.99174	23223.52954	-40815.78294	-38024.87707	-17391.89236	-187500.0224	14491.95468	-10894.12849
157	13018.68415	23249.2117	-40882.94993	-38040.568	-17558.72578	-187500.0224	14771.28443	-10778.9723
158	13569.11821	23921.73099	-40944.57369	-38072.46394	-17843.37525	-187500.0224	14300.51199	-11074.64118
159	14219.44221	25012.22789	-40971.03816	-38110.95364	-17925.40615	-187500.0224	13839.32845	-11270.77773
160	13500.72187	24315.07698	-40820.3874	-38005.02873	-17551.305	-187500.0224	13906.18252	-11185.43877
161	12821.76528	23245.56836	-40805.74701	-38010.4155	-17375.21796	-187500.0224	14494.6816	-10891.0663
162	13019.9582	23263.338	-40868.89069	-38038.55634	-17550.27682	-187500.0224	14779.48752	-10822.4688
163	13567.48653	23920.70281	-40940.8186	-38082.43282	-17845.69983	-187500.0224	14310.05619	-11117.60123
164	14226.59477	25012.07143	-40977.09548	-38115.53575	-17940.67239	-187500.0224	13834.2546	-11285.41813
165	13533.57894	24349.40926	-40823.82957	-38019.71382	-17562.1903	-187500.0224	13901.62276	-11209.64571
166	12831.26477	23257.30303	-40799.73439	-38019.4903	-17380.51532	-187500.0224	14483.43867	-10914.75915
167	13016.38192	23261.03577	-40869.98592	-38040.99268	-17553.07079	-187500.0224	14776.31358	-10792.74098
168	13550.43215	23904.49779	-40921.93138	-38051.81093	-17833.02639	-187500.0224	14314.57124	-11075.53525
169	14226.23715	25012.65258	-40957.24713	-38094.36865	-17928.46834	-187500.0224	13844.60346	-11240.60288
170	13536.9317	24370.12933	-40835.13955	-38052.45913	-17583.44681	-187500.0224	13892.5703	-11220.73218
171	12833.34349	23274.62563	-40798.46034	-38018.32801	-17380.2024	-187500.0224	14479.08008	-10886.23832
172	13012.15744	23271.47404	-40872.60108	-38041.64088	-17544.84535	-187500.0224	14781.96857	-10785.99075
173	13528.37098	23896.9876	-40928.32398	-38056.61655	-17824.75624	-187500.0224	14323.80251	-11060.96191
174	14209.42863	25008.09282	-40975.03912	-38124.11882	-17933.56454	-187500.0224	13844.08937	-11264.96628
175	13547.34761	24393.12928	-40840.30281	-38066.58543	-17579.4235	-187500.0224	13890.11161	-11219.68165
176	12829.74486	23286.91909	-40804.20474	-38016.71869	-17370.12176	-187500.0224	14480.30942	-10862.2102
177	13004.93783	23277.75488	-40879.59717	-38052.86146	-17543.45954	-187500.0224	14792.13861	-10756.93348
178	13521.08431	23902.6873	-40932.14612	-38068.93236	-17827.4161	-187500.0224	14345.37194	-11050.56835
179	14212.51317	25023.02379	-40970.25585	-38119.64847	-17940.47122	-187500.0224	13854.92997	-11267.89436
180	13555.46129	24426.54513	-40837.79941	-38048.50287	-17585.2573	-187500.0224	13894.51491	-11203.45428
181	12817.25023	23297.58087	-40808.07159	-38020.38437	-17381.87878	-187500.0224	14466.63016	-10874.54836
182	12994.03018	23278.35837	-40876.93732	-38045.73125	-17546.70054	-187500.0224	14783.17556	-10754.87712
183	13508.92496	23892.36079	-40944.99838	-38092.37934	-17847.21975	-187500.0224	14335.82775	-11084.09596
184	14208.02047	25020.76626	-40990.7524	-38141.59788	-17962.17477	-187500.0224	13850.68313	-11295.65523
185	13577.83539	24460.07275	-40842.40387	-38044.94894	-17591.87342	-187500.0224	13886.87061	-11205.44359
186	12833.14232	23325.18528	-40792.20185	-38014.32705	-17373.92156	-187500.0224	14465.69138	-10882.43853
187	12999.19343	23295.70333	-40875.93149	-38058.51645	-17540.79968	-187500.0224	14794.5973	-10773.54083
188	13504.72283	23901.18973	-40938.09169	-38081.53875	-17828.69015	-187500.0224	14355.43023	-11061.16308
189	14207.1264	25033.70792	-40982.21403	-38126.75633	-17951.7365	-187500.0224	13863.08835	-11253.81276
190	13588.2066	24493.3992	-40849.98111	-38056.66125	-17607.65375	-187500.0224	13888.54699	-11202.60491
191	12831.30948	23348.25228	-40802.93069	-38024.76532	-17385.67858	-187500.0224	14458.8741	-10911.13817
192	12993.24787	23310.43313	-40868.15308	-38039.13749	-17535.36821	-187500.0224	14802.30866	-10737.12984
193	13496.00565	23906.62121	-40923.13837	-38062.00332	-17816.95548	-187500.0224	14373.15516	-11014.17971
194	14202.56665	25040.90518	-40981.1635	-38122.44244	-17949.7025	-187500.0224	13867.11167	-11240.73699
195	13599.6954	24521.96473	-40857.67011	-38040.65741	-17606.40205	-187500.0224	13876.92408	-11177.25804
196	12829.58839	23367.36302	-40818.77808	-38013.12006	-17381.92348	-187500.0224	14441.19387	-10864.55713
197	12989.40337	23326.92871	-40885.40863	-38091.41822	-17546.58878	-187500.0224	14799.71585	-10810.95765
198	13490.10479	23912.05268	-40929.01688	-38046.9606	-17808.1489	-187500.0224	14375.01036	-11017.46541
199	14206.90289	25050.1141	-40978.28012	-38086.63494	-17932.84928	-187500.0224	13869.01157	-11197.15109
200	13623.54471	24562.80137	-40854.65263	-38042.44555	-17601.59643	-187500.0224	13882.2438	-11174.10644
201	12835.75747	23393.51456	-40811.64787	-38015.98108	-17377.25197	-187500.0224	14443.89843	-10871.82145
202	12976.90874	23330.30383	-40900.89839	-38073.64858	-17541.0232	-187500.0224	14794.12792	-10761.605
203	13465.76374	23903.939	-40957.64946	-38111.89242	-17825.96324	-187500.0224	14373.13281	-11060.62663
204	14194.60943	25051.3658	-40992.58524	-38107.1762	-17941.63352	-187500.0224	13869.77152	-11244.51443
205	13628.70796	24583.92377	-40858.56418	-38027.60399	-17595.82968	-187500.0224	13874.21952	-11175.84988
206	12845.0111	23415.97806	-40800.24848	-38003.73232	-17361.18106	-187500.0224	14444.77015	-10865.38415
207	12985.76003	23349.8169	-40881.65353	-38055.87894	-17519.65493	-187500.0224	14812.03166	-10761.09091
208	13463.19329	23906.50945	-40955.48135	-38069.15588	-17807.00896	-187500.0224	14386.58856	-11034.54215
209	14197.87278	25060.23944	-40986.61733	-38116.96626	-17942.57229	-187500.0224	13882.8473	-11243.48625
210	13652.57962	24623.82163	-40848.03651	-38048.9052	-17607.51964	-187500.0224	13884.7919	-11217.22295
211	12851.33664	23439.00036	-40797.90155	-37998.47966	-17362.52217	-187500.0224	14439.83042	-10871.1509
212	12979.0098	23354.37666	-40891.64476	-38056.5942	-17524.3488	-187500.0224	14804.11915	-10742.89659
213	13455.37018	23906.26358	-40946.96533	-38083.5057	-17812.30632	-187500.0224	14396.98212	-11039.43718
214	14195.57055	25062.92165	-40968.51241	-38108.24908	-17943.91339	-187500.0224	13895.36427	-11233.1374
215	13670.28221	24654.06354	-40845.93545	-38043.38432	-17617.44381	-187500.0224	13887.18353	-11214.22782
216	12857.8857	23460.25687	-40800.40494	-38006.43689	-17381.31999	-187500.0224	14434.82362	-10910.37821
217	12994.52192	23385.04325	-40864.93443	-38026.62051	-17514.64814	-187500.0224	14825.66623	-10736.32517
218	13461.74043	23925.77665	-40925.79823	-38049.53105	-17801.62219	-187500.0224	14422.59722	-11018.42654
219	14205.67354	25086.23452	-40981.63289	-38111.69125	-17957.81618	-187500.0224	13903.00857	-11246.32493
220	13688.72239	24697.0683	-40857.06661	-38047.96643	-17636.80042	-187500.0224	13878.13108	-11217.06649
221	12858.04216	23490.25291	-40802.90834	-38002.90531	-17387.2432	-187500.0224	14419.40092	-10899.76113
222	12986.83292	23399.32601	-40850.98694	-38036.36587	-17512.50237	-187500.0224	14829.86836	-10736.14636
223	13451.07865	23925.17315	-40917.57279	-38057.08594	-17801.53278	-187500.0224	14431.3144	-11035.8162
224	14200.06325	25084.73695	-40973.00511	-38097.67671	-17955.581	-187500.0224	13907.32246	-11244.73795
225	13698.06542	24717.07311	-40858.43007	-38042.04321	-17641.40488	-187500.0224	13870.46443	-11228.75646
226	12863.6748	23508.38018	-40799.51087	-38023.69243	-17389.47837	-187500.0224	14417.41162	-10941.0001
227	12978.67453	23406.99266	-40852.46215	-38033.23663	-17509.99898	-187500.0224	14829.86836	-10756.28528
228	13424.97181	23921.46276	-40921.10436	-38065.06551	-17800.01286	-187500.0224	14435.58358	-11036.26323
229	14173.75525	25078.36671	-40985.96912	-38105.74569	-17964.27583	-187500.0224	13900.10284	-11250.30354
230	13698.06542	24740.81066	-40861.82754	-38058.5388	-17649.18329	-187500.0224	13861.38962	-11242.61454
231	12857.46102	23521.99239	-40783.70819	-38012.62832	-17384.0469	-187500.0224	14411.35429	-10915.74263
232	12971.67843	23405.40569	-40858.7877	-38038.73516	-17520.05726	-187500.0224	14826.38148	-10743.70125
233	13427.25169	23920.90397	-40923.80892	-38042.64671	-17803.7456	-187500.0224	14442.98201	-11018.15832
234	14177.08566	25081.58536	-40976.69315	-38116.04984	-17975.4517	-187500.0224	13909.60233	-11274.01874
235	13715.0304	24765.64345	-40854.04913	-38061.57864	-17667.69054	-187500.0224	13863.58009	-11256.18205
236	12868.27926	23541.21489	-40781.9871	-37987.14733	-17391.84766	-187500.0224	14406.86159	-10922.00111
237	12972.99719	23411.70888	-40859.97234	-38038.69045	-17528.61798	-187500.0224	14826.24737	-10760.28624
238	13420.85909	23909.86221	-40922.40076	-38073.49212	-17820.3306	-187500.0224	14446.13361	-11053.42937
239	14172.59296	25064.37451	-40984.09158	-38110.99835	-17989.84623	-187500.0224	13896.59362	-11254.17039
240	13735.01286	24778.76392	-40867.7731	-38066.11604	-17688.9694	-187500.0224	13850.37021	-11253.03045
241	12874.58245	23547.85336	-40806.37286	-38024.22887	-17421.46372	-187500.0224	14388.95784	-10967.64338
242	12970.00205	23411.57477	-40871.32703	-38053.01792	-17543.63835	-187500.0224	14820.99471	-10768.66815
243	13407.15747	23900.69799	-40934.20248	-38073.08979	-17827.48316	-187500.0224	14446.42418	-11043.5499
244	14164.70279	25064.57568	-40987.75726	-38124.5435	-17992.19316	-187500.0224	13899.32053	-11263.62518
245	13744.15472	24807.55297	-40869.51654	-38042.49025	-17679.53696	-187500.0224	13839.10493	-11240.20055
246	12878.58342	23566.91939	-40785.094	-37993.38347	-17403.00118	-187500.0224	14384.59925	-10933.44521
247	12962.8942	23414.25698	-40870.16474	-38057.75649	-17539.95032	-187500.0224	14817.70901	-10770.09866
248	13399.49082	23897.50169	-40929.66508	-38073.33566	-17818.27424	-187500.0224	14451.47567	-11031.85994
249	14160.09833	25059.72535	-40978.86127	-38101.4318	-17984.79473	-187500.0224	13902.82975	-11243.91094
250	13753.83303	24828.76478	-40876.53498	-38064.70788	-17691.5622	-187500.0224	13838.21086	-11260.18301
251	12873.68838	23579.97281	-40810.32912	-38017.99274	-17411.22662	-187500.0224	14367.67898	-10973.00779
252	12958.80383	23420.51547	-40862.05105	-38034.57773	-17519.58788	-187500.0224	14823.27459	-10768.66815
253	13390.46072	23896.13824	-40919.78561	-38055.20839	-17794.53669	-187500.0224	14470.09468	-11021.35462
254	14156.94674	25060.3065	-40974.14505	-38109.97017	-17975.3623	-187500.0224	13910.16113	-11270.50951
255	13770.77565	24852.77055	-40858.81005	-38027.1346	-17674.01608	-187500.0224	13834.52282	-11233.36091
0	12889.87105	23603.77742	-40782.68001	-37979.39127	-17386.84087	-187500.0224	14375.5915	-10929.60071
1	12959.34027	23429.05383	-40860.24056	-38022.10546	-17511.38479	-187500.0224	14826.26973	-10752.46313
2	13383.08464	23887.04108	-40919.27152	-38056.61655	-17796.90597	-187500.0224	14475.72732	-11031.74818
3	14151.44821	25049.64471	-40977.76603	-38108.24908	-17975.3623	-187500.0224	13910.96579	-11257.41139
4	13784.16434	24867.18742	-40862.05105	-38035.87413	-17674.55252	-187500.0224	13830.79008	-11233.67384
5	12884.01489	23608.6948	-40802.23779	-38007.8674	-17395.98273	-187500.0224	14356.99485	-10968.13511
6	12942.4647	23425.25404	-40871.05881	-38049.91103	-17510.17779	-187500.0224	14819.25128	-10769.78573
7	13363.99625	23882.28016	-40927.18404	-38054.78371	-17782.46674	-187500.0224	14478.0966	-11013.10682
8	14132.80685	25042.93919	-40985.49974	-38099.37544	-17965.1252	-187500.0224	13910.56346	-11236.53486
9	13793.97676	24890.65676	-40855.27847	-38037.43875	-17668.51755	-187500.0224	13831.90767	-11224.68844
10	12889.53577	23627.44792	-40783.70819	-37972.90927	-17379.28598	-187500.0224	14356.05608	-10939.16725
11	12942.39765	23433.63594	-40867.46018	-38030.35325	-17497.41495	-187500.0224	14822.51463	-10745.91407
12	13355.99433	23881.5649	-40920.47851	-38054.71665	-17774.80009	-187500.0224	14494.79335	-11015.54316
13	14116.37832	25037.12774	-40984.02452	-38120.31902	-17968.3662	-187500.0224	13921.11348	-11282.31123
14	13787.11477	24907.95701	-40873.53985	-38048.18994	-17686.75657	-187500.0224	13826.96793	-11263.2899
15	12878.24814	23638.1544	-40793.56531	-37981.20177	-17382.32581	-187500.0224	14345.439	-10928.43842
16	12926.3938	23435.55819	-40866.65551	-38034.75655	-17496.81145	-187500.0224	14825.71093	-10750.04914
17	13341.5104	23874.07707	-40917.39397	-38044.83718	-17769.7486	-187500.0224	14504.62812	-10983.87074
18	14109.51634	25021.9509	-40985.92442	-38096.00033	-17971.62956	-187500.0224	13916.03964	-11216.01596
19	13812.66282	24927.38067	-40865.96261	-38059.27641	-17699.54177	-187500.0224	13824.91157	-11248.5601
20	12899.92933	23660.01441	-40788.13383	-38006.6604	-17405.48222	-187500.0224	14347.87534	-10976.09234
21	12929.23247	23437.14517	-40861.20169	-38034.33186	-17507.22736	-187500.0224	14826.71676	-10755.32416
22	13332.74851	23864.57758	-40919.80796	-38052.32502	-17782.10912	-187500.0224	14508.29381	-10996.18655
23	14108.73402	25018.21816	-40976.53669	-38104.27047	-17979.45267	-187500.0224	13934.2116	-11242.79335
24	13823.99515	24947.36313	-40874.61273	-38062.56212	-17707.20842	-187500.0224	13826.90088	-11258.32781
25	12904.24322	23676.44294	-40793.4759	-37990.12011	-17398.64259	-187500.0224	14335.8501	-10982.86491
26	12926.52791	23440.49793	-40870.76823	-38043.1608	-17507.0262	-187500.0224	14819.07246	-10785.67782
27	13321.77381	23857.60383	-40926.58054	-38068.083	-17787.92057	-187500.0224	14507.80207	-11045.24863
28	14094.18304	25010.99855	-40986.63968	-38097.69906	-17982.91719	-187500.0224	13932.75874	-11243.24039
29	13823.25754	24962.24939	-40873.02576	-38065.5349	-17720.32889	-187500.0224	13818.31781	-11264.42984
30	12906.6125	23697.27477	-40787.79856	-38007.50977	-17406.73392	-187500.0224	14340.9463	-10978.30516
31	12927.22081	23452.14319	-40858.47477	-38050.73804	-17511.36243	-187500.0224	14834.2493	-10766.1871
32	13318.64456	23861.44833	-40920.97025	-38079.14711	-17794.49198	-187500.0224	14537.77576	-11007.38478
33	14086.38228	25003.17544	-40972.58043	-38098.07904	-17992.75196	-187500.0224	13943.08525	-11260.71945
34	13840.91542	24984.84701	-40860.84406	-38031.78376	-17715.29975	-187500.0224	13823.70458	-11256.00323
35	12913.80977	23714.3515	-40783.26115	-37983.41459	-17405.214	-187500.0224	14330.50803	-10973.99127
36	12915.01676	23455.36184	-40854.45146	-38029.638	-17505.39452	-187500.0224	14817.55254	-10768.31052
37	13310.86615	23859.59314	-40889.47664	-38036.41057	-17768.36279	-187500.0224	14526.97987	-11002.02036
38	14092.17138	25006.84112	-40957.31419	-38090.68061	-17978.06686	-187500.0224	13949.25433	-11257.5008
39	13857.67923	25005.36591	-40859.4359	-38039.24925	-17716.48439	-187500.0224	13814.24979	-11258.57368
40	12918.50363	23727.71784	-40764.75391	-38004.55934	-17400.18486	-187500.0224	14315.80059	-11002.26623
41	12924.35979	23460.74861	-40837.15121	-38007.06273	-17483.80273	-187500.0224	14822.78285	-10733.39709
42	13313.32485	23859.90606	-40905.83812	-38030.88969	-17760.91966	-187500.0224	14534.73592	-10973.656
43	14086.20347	25002.32607	-40965.47257	-38074.5203	-17972.88125	-187500.0224	13953.03177	-11219.77105
44	13870.7103	25033.95379	-40874.61273	-38055.56602	-17729.58252	-187500.0224	13812.28284	-11260.00419
45	12928.74073	23758.11622	-40774.56633	-37979.27952	-17396.07214	-187500.0224	14308.31275	-10974.25949
46	12912.02163	23472.66209	-40847.45536	-38004.49228	-17482.28282	-187500.0224	14817.99958	-10725.68574
47	13290.70488	23862.18594	-40905.18992	-38045.48538	-17758.93036	-187500.0224	14542.31316	-10983.66958
48	14066.24336	25001.45435	-40954.22965	-38079.84001	-17963.96291	-187500.0224	13963.44769	-11218.51936
49	13872.54314	25051.49991	-40867.41547	-38030.19679	-17724.55337	-187500.0224	13809.1983	-11231.57277
50	12935.04392	23773.65068	-40773.26992	-37982.36406	-17399.4249	-187500.0224	14298.56739	-10964.04475
51	12932.89816	23492.24222	-40828.94812	-38009.90141	-17473.56563	-187500.0224	14829.1084	-10719.60607
52	13302.52895	23863.68351	-40888.292	-38024.94413	-17747.9333	-187500.0224	14557.89233	-10954.94759
53	14066.51158	24988.37858	-40962.83507	-38090.5912	-17977.86569	-187500.0224	13957.65858	-11211.76913
54	13892.99499	25068.35312	-40875.77502	-38056.57185	-17745.85459	-187500.0224	13803.38684	-11261.43471
55	12942.97879	23791.71089	-40782.61295	-38000.33486	-17422.4919	-187500.0224	14291.88422	-11001.8639
56	12913.47449	23487.77187	-40858.2289	-38036.05295	-17507.0709	-187500.0224	14816.90434	-10756.84407
57	13289.98963	23862.92355	-40909.88379	-38047.27352	-17770.95559	-187500.0224	14559.16638	-10970.72792
58	14063.96348	24994.3912	-40966.29959	-38095.62035	-17985.5994	-187500.0224	13967.67217	-11217.58058
59	13908.99884	25100.58434	-40862.87807	-38040.36683	-17739.43964	-187500.0224	13810.04766	-11240.2229
60	12954.80287	23820.45523	-40778.56729	-37976.57495	-17406.13042	-187500.0224	14290.16313	-10964.00004
61	12913.5639	23498.25484	-40856.35136	-38031.47084	-17483.53451	-187500.0224	14819.60891	-10723.45057
62	13282.41238	23858.4979	-40906.30751	-38046.9606	-17751.06254	-187500.0224	14567.05654	-10964.51413
63	14056.34154	24979.48259	-40967.81951	-38076.44255	-17970.42256	-187500.0224	13966.08519	-11225.62721
64	13929.13776	25120.74561	-40862.5875	-38037.61757	-17733.91875	-187500.0224	13809.31006	-11248.76127
65	12967.11868	23841.39882	-40762.92107	-37974.54095	-17396.56388	-187500.0224	14287.88326	-10992.99025
66	12918.77185	23508.7378	-40842.8062	-38020.80906	-17467.91064	-187500.0224	14822.20171	-10745.08706
67	13288.60382	23869.18203	-40895.84689	-38028.22984	-17731.05773	-187500.0224	14584.75913	-10942.22944
68	14052.96642	24984.13175	-40962.47744	-38076.39785	-17956.87741	-187500.0224	13985.19593	-11213.17729
69	13938.74901	25146.74069	-40869.96357	-38044.79248	-17730.67775	-187500.0224	13812.55106	-11256.49497
70	12973.7795	23863.48234	-40774.2087	-37984.68864	-17396.2733	-187500.0224	14275.00865	-10994.95721
71	12919.77768	23517.56674	-40836.57006	-38017.16572	-17455.63954	-187500.0224	14819.16187	-10736.41458
72	13285.96631	23871.17134	-40882.83818	-38021.18904	-17712.05875	-187500.0224	14598.32664	-10931.3665
73	14051.17828	24981.65071	-40958.72235	-38072.10631	-17946.68501	-187500.0224	13993.33197	-11198.04516
74	13956.60805	25166.03025	-40866.07437	-38042.98199	-17723.05581	-187500.0224	13812.30519	-11244.62619
75	12981.06617	23882.92836	-40771.39238	-37994.52341	-17389.56778	-187500.0224	14268.75016	-11013.53151
76	12912.55807	23526.84272	-40842.73915	-38032.07434	-17457.18181	-187500.0224	14818.73719	-10741.30961
77	13270.87888	23873.183	-40892.20356	-38025.94996	-17713.84689	-187500.0224	14602.86404	-10933.44521
78	14033.25218	24975.74985	-40966.389	-38099.21898	-17954.06109	-187500.0224	13998.40581	-11215.59128
79	13954.77521	25183.44226	-40884.80513	-38058.40469	-17749.07324	-187500.0224	13802.40337	-11251.01879
80	12990.25273	23911.29272	-40774.78984	-37986.52148	-17405.92926	-187500.0224	14262.67049	-10997.19238
81	12914.3015	23538.68914	-40832.30088	-38015.19877	-17458.47821	-187500.0224	14822.13465	-10728.70323
82	13267.12379	23869.18203	-40890.1919	-38024.65356	-17719.88186	-187500.0224	14607.49085	-10923.29752
83	14030.2347	24968.17261	-40962.20922	-38088.35603	-17962.15242	-187500.0224	14005.73719	-11198.64866
84	13971.71783	25206.91159	-40877.04907	-38055.05193	-17754.72823	-187500.0224	13814.04863	-11255.44444
85	12995.14776	23930.02348	-40771.97352	-37992.73527	-17404.96813	-187500.0224	14259.63065	-11016.30312
86	12905.9643	23543.27125	-40838.80524	-38039.9198	-17465.40725	-187500.0224	14816.16674	-10773.29496
87	13257.06551	23871.81954	-40894.93047	-38041.84205	-17726.74384	-187500.0224	14614.66576	-10935.07688
88	14017.36009	24961.60119	-40966.61251	-38079.46003	-17968.09798	-187500.0224	14009.42522	-11201.64379
89	13974.22123	25220.09912	-40889.47664	-38056.88477	-17767.87105	-187500.0224	13801.19637	-11247.12959
90	12995.97478	23945.08856	-40783.48467	-38005.9228	-17422.4472	-187500.0224	14240.67637	-11028.95421
91	12900.62224	23547.62984	-40845.9578	-38034.71184	-17470.01171	-187500.0224	14808.54479	-10759.19101
92	13246.33667	23872.24422	-40895.44456	-38048.3017	-17725.58155	-187500.0224	14627.3839	-10955.26051
93	14001.40095	24957.95786	-40962.90212	-38077.64954	-17964.00761	-187500.0224	14022.21042	-11199.94506
94	13990.64976	25246.89886	-40886.19094	-38058.85173	-17771.46969	-187500.0224	13808.81832	-11244.64855
95	13008.69292	23973.51998	-40782.72471	-37998.18909	-17424.45885	-187500.0224	14236.89893	-11014.47028
96	12896.55422	23560.48209	-40843.43205	-38031.13556	-17469.67643	-187500.0224	14804.85675	-10751.27849
97	13240.74873	23873.183	-40897.65738	-38051.78857	-17729.73898	-187500.0224	14627.24979	-10943.07881
98	13995.54479	24951.05117	-40965.58433	-38087.9537	-17969.90847	-187500.0224	14020.55639	-11206.9635
99	13989.80039	25259.50524	-40885.18511	-38066.8313	-17781.68443	-187500.0224	13798.82709	-11267.46968
100	13004.75901	23990.14968	-40776.35447	-38008.11327	-17427.5881	-187500.0224	14226.9077	-11040.46536
101	12884.52898	23560.37033	-40847.23185	-38027.60399	-17469.63173	-187500.0224	14798.3971	-10760.21919
102	13230.17636	23872.64656	-40895.22104	-38042.78082	-17722.9664	-187500.0224	14636.23519	-10945.62691
103	13980.3456	24945.0609	-40962.79037	-38089.09364	-17968.72383	-187500.0224	14026.3902	-11212.17146
104	13998.85285	25279.68887	-40898.28323	-38074.25208	-17791.42979	-187500.0224	13796.4131	-11274.53283
105	13024.11562	24017.86584	-40775.32628	-37989.11428	-17427.29752	-187500.0224	14222.37029	-11034.49744
106	12891.63684	23570.27216	-40836.61477	-38024.81002	-17465.51901	-187500.0224	14799.17941	-10762.9461
107	13229.52816	23869.58437	-40891.82358	-38046.20064	-17717.46787	-187500.0224	14639.74442	-10937.71439
108	13981.99963	24936.7237	-40962.32098	-38084.7574	-17964.07467	-187500.0224	14028.9383	-11199.07334
109	14014.8567	25293.72576	-40894.23757	-38062.60682	-17792.68149	-187500.0224	13791.51807	-11271.78356
110	13032.38577	24035.14374	-40771.79471	-37985.98504	-17427.07401	-187500.0224	14212.89315	-11031.4129
111	12888.55229	23578.22938	-40829.73043	-38025.34646	-17457.07005	-187500.0224	14799.82761	-10751.39025
112	13219.62633	23873.8759	-40879.46306	-38035.33769	-17708.16954	-187500.0224	14653.37898	-10920.88353
113	13961.25721	24927.53713	-40951.61449	-38073.78269	-17959.67137	-187500.0224	14037.25315	-11199.65448
114	14015.88488	25311.42835	-40884.93924	-38052.92851	-17783.62903	-187500.0224	13792.63565	-11263.13344
115	13036.47614	24058.47896	-40763.47986	-37979.52538	-17415.60756	-187500.0224	14211.5297	-11042.2088
116	12879.74571	23583.035	-40816.72172	-38013.053	-17443.03315	-187500.0224	14799.71585	-10757.78285
117	13205.65649	23868.51148	-40884.38045	-38039.22689	-17703.83331	-187500.0224	14655.52475	-10931.90294
118	13948.82964	24919.37875	-40959.23644	-38081.91873	-17955.33513	-187500.0224	14041.18705	-11212.6185
119	14022.94803	25328.75095	-40896.15982	-38057.82355	-17792.03329	-187500.0224	13791.07103	-11284.03232
120	13039.29246	24082.17181	-40777.89674	-37986.25326	-17428.54922	-187500.0224	14198.16335	-11066.46044
121	12878.06933	23600.02233	-40827.96464	-38010.34844	-17445.31303	-187500.0224	14798.3971	-10764.95776
122	13201.65553	23880.71553	-40889.32018	-38029.23566	-17698.75946	-187500.0224	14667.88526	-10929.37719
123	13936.26796	24919.91519	-40962.5892	-38074.60971	-17955.31278	-187500.0224	14052.25117	-11213.82549
124	14025.8314	25345.22418	-40904.60877	-38070.22876	-17804.55027	-187500.0224	13788.29942	-11298.06921
125	13042.06408	24100.12026	-40783.93171	-37992.22118	-17435.43356	-187500.0224	14190.3626	-11078.17275
126	12868.21221	23600.55877	-40844.43788	-38028.11808	-17461.31688	-187500.0224	14789.88109	-10791.08695
127	13193.85477	23873.96531	-40905.68166	-38042.98199	-17714.56214	-187500.0224	14668.55582	-10950.6784
128	13929.6742	24904.64895	-40976.44728	-38087.28314	-17972.166	-187500.0224	14050.97712	-11232.73507
129	14037.63313	25354.94719	-40915.44937	-38067.97124	-17822.14109	-187500.0224	13781.52684	-11309.69212
130	13054.04461	24115.81118	-40792.55948	-37993.38347	-17452.51029	-187500.0224	14172.92823	-11099.78689
131	12867.76517	23599.7094	-40840.70514	-38015.22112	-17461.60745	-187500.0224	14778.23583	-10796.71959
132	13194.8606	23867.63976	-40892.20356	-38026.59816	-17705.88967	-187500.0224	14671.55095	-10953.29356
133	13929.38363	24889.96385	-40952.12858	-38056.12481	-17958.37497	-187500.0224	14056.20743	-11236.02077
134	14050.91006	25360.57983	-40891.55536	-38047.18412	-17809.46765	-187500.0224	13780.40925	-11326.50063
135	13068.6403	24130.33982	-40761.04352	-37968.23775	-17430.38206	-187500.0224	14169.48607	-11120.19403
136	12878.27049	23606.88431	-40807.66926	-37988.95782	-17434.7183	-187500.0224	14782.52736	-10820.39008
137	13197.63222	23868.15385	-40867.70604	-37995.55159	-17680.36397	-187500.0224	14686.12429	-10966.48109
138	13925.785	24881.76076	-40938.02463	-38029.41448	-17936.29145	-187500.0224	14070.26667	-11240.71464
139	14071.47367	25379.80233	-40892.00239	-38026.91108	-17804.66203	-187500.0224	13785.75132	-11331.12744
140	13093.0484	24161.29698	-40776.1086	-37955.67607	-17428.19159	-187500.0224	14171.85535	-11131.23579
141	12879.0528	23620.16125	-40824.29896	-37980.75473	-17431.49965	-187500.0224	14785.34368	-10828.72728
142	13189.04915	23874.97114	-40888.73904	-38000.84895	-17680.00635	-187500.0224	14691.64517	-10977.99223
143	13904.41673	24877.58099	-40968.24419	-38047.40763	-17953.83757	-187500.0224	14066.57863	-11293.21889
144	14061.70595	25392.11814	-40921.17142	-38047.78761	-17825.89618	-187500.0224	13765.85826	-11371.89703
145	13087.70634	24183.55932	-40802.48365	-37971.38935	-17450.31982	-187500.0224	14146.55318	-11167.66914
146	12871.90025	23629.66074	-40840.74984	-37980.3524	-17442.3626	-187500.0224	14765.87531	-10856.64461
147	13178.34266	23872.95948	-40905.45814	-38006.43689	-17694.95966	-187500.0224	14674.92606	-11003.71909
148	13891.98916	24865.22047	-40978.28012	-38050.62628	-17958.48673	-187500.0224	14054.57575	-11297.04103
149	14069.21614	25404.29984	-40931.8332	-38051.60976	-17833.33931	-187500.0224	13758.661	-11381.41887
150	13098.45753	24197.77503	-40806.10464	-37977.98311	-17456.77947	-187500.0224	14126.10133	-11194.58064
151	12866.91581	23627.31381	-40855.32318	-38007.24155	-17450.94567	-187500.0224	14742.6742	-10894.59788
152	13177.31448	23873.58533	-40901.21131	-38007.01803	-17683.49322	-187500.0224	14676.31187	-10999.62872
153	13892.07857	24864.3711	-40958.83411	-38046.11123	-17940.78415	-187500.0224	14069.64082	-11285.77576
154	14079.94498	25423.5447	-40912.96833	-38035.38239	-17819.28007	-187500.0224	13763.39957	-11373.4393
155	13103.66548	24223.81481	-40783.26115	-37949.93168	-17433.39955	-187500.0224	14124.76023	-11159.93543
156	12866.96051	23639.94254	-40824.25425	-37971.38935	-17420.41319	-187500.0224	14748.73152	-10852.08486
157	13169.53607	23875.19465	-40882.88288	-37990.27657	-17665.03068	-187500.0224	14689.78997	-10983.9378
158	13875.42652	24853.19523	-40950.80983	-38027.51458	-17932.75987	-187500.0224	14075.96637	-11264.20632
159	14094.63007	25438.20744	-40907.69332	-38025.8829	-17821.85052	-187500.0224	13766.17119	-11364.47625
160	13125.63725	24250.90513	-40772.86759	-37943.47202	-17431.76787	-187500.0224	14121.2957	-11166.08216
161	12868.771	23650.62668	-40824.94716	-37980.77708	-17420.70376	-187500.0224	14748.30684	-10859.21506
162	13166.87622	23876.20048	-40887.44263	-38002.30181	-17665.3436	-187500.0224	14698.70832	-10984.89892
163	13868.67629	24841.77349	-40948.32879	-38025.32411	-17931.2176	-187500.0224	14087.96925	-11280.47839
164	14105.64948	25450.79147	-40911.04608	-38039.24925	-17830.79121	-187500.0224	13772.0497	-11387.63265
165	13133.86269	24269.14415	-40789.78786	-37957.30775	-17448.53168	-187500.0224	14110.34335	-11191.63021
166	12866.84875	23654.80645	-40830.71391	-37976.44084	-17426.44816	-187500.0224	14733.91232	-10863.21603
167	13164.68575	23877.56394	-40886.36975	-38001.09482	-17666.64	-187500.0224	14700.25059	-10977.96988
168	13862.08252	24834.48682	-40948.48525	-38024.25123	-17928.73656	-187500.0224	14090.38324	-11272.02943
169	14119.73108	25466.30358	-40892.89646	-38018.21625	-17820.75528	-187500.0224	13771.98264	-11370.69003
170	13154.5157	24298.60375	-40762.42933	-37941.21449	-17435.85824	-187500.0224	14110.29865	-11179.22499
171	12867.29579	23663.52363	-40808.8539	-37959.25235	-17407.8068	-187500.0224	14736.30395	-10850.92257
172	13163.27759	23881.18492	-40871.93052	-37989.76248	-17650.36793	-187500.0224	14710.44299	-10970.16912
173	13856.584	24828.27304	-40935.40948	-38020.07145	-17919.46059	-187500.0224	14102.56494	-11269.16841
174	14125.38607	25474.909	-40892.44943	-38014.63998	-17821.98463	-187500.0224	13773.54726	-11353.27802
175	13165.08808	24318.4968	-40766.69851	-37947.96472	-17439.1216	-187500.0224	14100.35212	-11178.48738
176	12867.22873	23671.72672	-40813.45836	-37976.59731	-17411.91952	-187500.0224	14727.13974	-10870.70386
177	13149.73243	23876.49106	-40874.00924	-37999.46314	-17649.18329	-187500.0224	14711.3147	-10976.98641
178	13833.38288	24813.38678	-40940.1257	-38038.69045	-17919.52764	-187500.0224	14106.78942	-11275.58336
179	14120.31223	25483.98381	-40903.24532	-38021.92664	-17822.69988	-187500.0224	13770.32861	-11357.12252
180	13164.64104	24339.77566	-40773.29228	-37938.77815	-17433.62307	-187500.0224	14089.8021	-11178.7109
181	12855.13644	23675.12419	-40812.87722	-37959.00648	-17397.03326	-187500.0224	14722.60233	-10855.88465
182	13147.58666	23881.85547	-40871.55054	-37984.35336	-17632.21832	-187500.0224	14724.01049	-10953.94176
183	13832.24295	24812.4033	-40934.76128	-38011.62249	-17906.65304	-187500.0224	14120.73691	-11245.76613
184	14131.35399	25502.69222	-40910.82256	-38021.81489	-17830.47829	-187500.0224	13769.59101	-11355.84847
185	13179.28143	24371.85042	-40770.49831	-37948.43411	-17441.7144	-187500.0224	14083.07422	-11188.14334
186	12855.62818	23692.98323	-40796.78396	-37956.36898	-17395.35688	-187500.0224	14721.03771	-10855.48232
187	13145.46325	23890.66206	-40853.6468	-37976.10557	-17620.66247	-187500.0224	14736.2369	-10936.75327
188	13820.8212	24807.2624	-40929.10629	-38006.86157	-17896.5724	-187500.0224	14135.19849	-11241.85458
189	14136.40548	25516.59501	-40902.95475	-38012.18128	-17825.20328	-187500.0224	13780.76688	-11342.97387
190	13190.99375	24400.23713	-40764.79861	-37938.48758	-17432.23726	-187500.0224	14085.33175	-11179.47086
191	12854.62235	23706.6178	-40796.78396	-37950.33401	-17379.75536	-187500.0224	14723.56346	-10845.24522
192	13137.48367	23896.78644	-40859.79353	-37971.09878	-17609.86657	-187500.0224	14743.3224	-10926.3597
193	13809.48887	24802.03209	-40926.737	-38002.10065	-17884.4801	-187500.0224	14140.13823	-11229.9411
194	14142.84279	25530.52014	-40902.70888	-38020.33967	-17822.40931	-187500.0224	13782.84559	-11347.80185
195	13203.33191	24424.89111	-40772.84524	-37948.70233	-17438.33929	-187500.0224	14075.117	-11188.07628
196	12854.80116	23716.74314	-40799.93556	-37958.02301	-17384.11395	-187500.0224	14714.13102	-10847.50275
197	13131.49341	23899.04397	-40861.24639	-37977.24551	-17616.88502	-187500.0224	14747.25631	-10923.20811
198	13794.66966	24791.95145	-40935.56594	-38013.14241	-17900.86393	-187500.0224	14146.50847	-11228.6447
199	14145.23442	25541.80778	-40919.15976	-38031.09086	-17850.4831	-187500.0224	13779.0905	-11352.65217
200	13211.535	24450.01447	-40778.12025	-37955.58667	-17459.52874	-187500.0224	14068.27737	-11197.68753
201	12851.58251	23725.72854	-40808.94331	-37970.0706	-17398.79905	-187500.0224	14709.77243	-10860.15384
202	13127.47009	23903.31315	-40872.48932	-37995.48453	-17622.74118	-187500.0224	14750.3185	-10930.49478
203	13783.78436	24787.81638	-40950.31809	-38034.64479	-17907.23418	-187500.0224	14150.19651	-11241.40754
204	14152.67755	25560.89617	-40923.56305	-38040.23272	-17849.92431	-187500.0224	13780.54336	-11352.9204
205	13220.45335	24481.77629	-40786.90449	-37960.21348	-17455.55013	-187500.0224	14055.64863	-11196.81581
206	12847.96153	23741.19595	-40811.62552	-37966.76254	-17385.65622	-187500.0224	14694.12621	-10854.29768
207	13134.13091	23919.22759	-40867.23666	-37982.47582	-17604.92684	-187500.0224	14761.74024	-10906.3996
208	13785.79602	24792.66671	-40937.08586	-38015.6011	-17887.05056	-187500.0224	14169.46371	-11213.51257
209	14173.7776	25584.43255	-40918.42215	-38026.62051	-17837.63085	-187500.0224	13790.08756	-11333.98847
210	13247.67777	24517.38262	-40783.86465	-37956.10076	-17448.7552	-187500.0224	14056.67681	-11187.20456
211	12857.05869	23760.88783	-40806.48462	-37968.93066	-17383.04107	-187500.0224	14697.97071	-10856.97989
212	13131.94044	23931.09637	-40873.62926	-37991.26005	-17610.00068	-187500.0224	14767.14936	-10904.45499
213	13778.79992	24795.19246	-40948.97699	-38033.10252	-17897.55588	-187500.0224	14173.86701	-11223.30263
214	14174.29169	25597.39656	-40930.29093	-38033.12487	-17856.33926	-187500.0224	13786.8242	-11350.68522
215	13259.5689	24546.41754	-40782.74706	-37946.60127	-17456.51125	-187500.0224	14049.39014	-11182.68951
216	12858.4892	23774.16477	-40803.19891	-37959.00648	-17378.21309	-187500.0224	14693.36625	-10849.24619
217	13130.62169	23936.99723	-40871.21527	-37985.87328	-17598.33307	-187500.0224	14771.77617	-10897.72712
218	13775.2907	24794.41014	-40938.09169	-38012.82948	-17882.33434	-187500.0224	14187.05454	-11204.46011
219	14182.20421	25613.48982	-40929.3298	-38033.16957	-17856.04869	-187500.0224	13795.83195	-11336.53657
220	13275.39394	24575.36305	-40789.78786	-37955.07258	-17461.74156	-187500.0224	14048.2055	-11193.26188
221	12859.02564	23784.78185	-40808.02689	-37962.18043	-17378.66013	-187500.0224	14689.25353	-10854.70001
222	13120.98809	23936.21492	-40878.99368	-37997.98793	-17602.69166	-187500.0224	14775.39715	-10911.56285
223	13752.38016	24781.89317	-40945.62423	-38018.7527	-17886.13413	-187500.0224	14190.76493	-11209.22103
224	14176.72803	25620.01653	-40934.96244	-38039.80804	-17862.03895	-187500.0224	13789.48406	-11352.94275
225	13275.50569	24594.36203	-40793.14063	-37956.16781	-17466.54719	-187500.0224	14030.43586	-11208.88575
226	12848.38621	23789.83334	-40810.46323	-37964.41561	-17377.34138	-187500.0224	14670.52277	-10867.44051
227	13113.88023	23938.11481	-40879.88775	-37995.0822	-17599.31655	-187500.0224	14770.34566	-10904.32088
228	13742.70186	24768.14684	-40945.73598	-38030.2862	-17887.85522	-187500.0224	14190.42965	-11222.52032
229	14186.83102	25628.46549	-40934.13543	-38052.03444	-17869.41503	-187500.0224	13788.14295	-11360.18471
230	13291.73306	24623.59811	-40801.41077	-37982.96755	-17485.9485	-187500.0224	14020.77991	-11229.9858
231	12851.76132	23807.93825	-40812.25137	-37987.68377	-17395.66981	-187500.0224	14667.41588	-10896.87775
232	13107.86761	23945.31208	-40871.75171	-37995.37277	-17604.61391	-187500.0224	14781.1192	-10908.70183
233	13733.87292	24766.24695	-40935.45418	-38027.98397	-17888.2352	-187500.0224	14202.38783	-11214.5631
234	14190.67552	25638.99316	-40930.89443	-38058.13647	-17879.31685	-187500.0224	13790.7134	-11368.67838
235	13302.84188	24646.59806	-40788.78203	-37972.35047	-17484.89797	-187500.0224	14014.63318	-11239.21707
236	12837.65737	23807.80414	-40803.24361	-37973.33395	-17384.82921	-187500.0224	14654.72009	-10896.34131
237	13093.49544	23941.0876	-40867.05784	-37996.40095	-17596.00849	-187500.0224	14779.48752	-10913.61921
238	13714.67277	24754.95932	-40938.09169	-38026.17348	-17886.62587	-187500.0224	14206.74642	-11231.90805
239	14182.89711	25644.93872	-40939.27633	-38049.48634	-17883.0943	-187500.0224	13787.91944	-11376.90382
240	13307.75926	24670.73794	-40796.42633	-37974.98798	-17490.88824	-187500.0224	14006.29598	-11256.87495
241	12837.3668	23820.92462	-40803.7577	-37979.50303	-17388.18197	-187500.0224	14652.14964	-10912.72514
242	13088.39924	23946.47437	-40864.30858	-37996.80328	-17599.18244	-187500.0224	14784.85194	-10917.95545
243	13702.9381	24748.3432	-40934.47071	-38027.91691	-17882.31199	-187500.0224	14211.39559	-11221.73801
244	14186.29458	25654.14764	-40933.57664	-38055.38721	-17881.32851	-187500.0224	13786.8689	-11368.3878
245	13322.17614	24696.12952	-40789.85492	-37977.98311	-17494.48687	-187500.0224	13997.64585	-11254.88564
246	12834.50578	23824.27738	-40797.61097	-37970.24941	-17388.42784	-187500.0224	14637.0175	-10915.40735
247	13085.13589	23946.2732	-40860.6876	-37988.30962	-17590.93465	-187500.0224	14782.39325	-10909.70765
248	13694.93618	24736.58618	-40928.0334	-38014.10353	-17874.64534	-187500.0224	14213.92133	-11215.65833
249	14193.67065	25660.78611	-40933.28606	-38041.19385	-17881.44027	-187500.0224	13787.78533	-11360.40823
250	13340.70573	24729.25481	-40794.34762	-37964.34855	-17491.84936	-187500.0224	14012.50976	-11225.78367
251	12840.54075	23841.89055	-40807.26693	-37968.126	-17389.63483	-187500.0224	14643.23129	-10901.07988
252	13080.55378	23945.82617	-40878.83721	-37991.59533	-17596.16495	-187500.0224	14783.39908	-10908.05363
253	13676.65245	24727.69019	-40951.36862	-38033.21428	-17885.28477	-187500.0224	14224.33725	-11212.73025
254	14182.33832	25656.42752	-40944.0596	-38053.15203	-17892.23616	-187500.0224	13779.60459	-11371.40529
255	13345.28784	24742.62115	-40785.27281	-37962.96274	-17487.58018	-187500.0224	13996.2824	-11237.7195
0	12828.85079	23839.38716	-40794.99582	-37969.89178	-17377.74371	-187500.0224	14630.24493	-10909.52884
1	13067.3439	23934.85146	-40863.8839	-37994.85868	-17586.82192	-187500.0224	14776.76061	-10904.87968
2	13664.78368	24702.07509	-40925.21708	-38020.36202	-17865.83875	-187500.0224	14219.71044	-11212.95377
3	14193.53654	25657.14278	-40929.53097	-38041.03739	-17881.35086	-187500.0224	13783.44909	-11360.02825
4	13359.54825	24754.7805	-40779.66252	-37965.0191	-17495.17977	-187500.0224	13974.26593	-11249.34241
5	12833.43289	23840.39299	-40788.04443	-37965.48849	-17378.48131	-187500.0224	14613.41406	-10917.9778
6	13080.7773	23939.03124	-40854.25029	-37990.79066	-17578.01534	-187500.0224	14786.48362	-10902.30923
7	13677.12184	24700.59987	-40912.43189	-38011.89071	-17862.03895	-187500.0224	14236.56365	-11195.45236
8	14216.40238	25662.66366	-40924.50183	-38038.6681	-17892.05735	-187500.0224	13789.46171	-11341.18573
9	13397.76974	24780.9991	-40780.40013	-37960.14642	-17505.8192	-187500.0224	13969.01327	-11241.83223
10	12855.22584	23850.18305	-40790.39136	-37961.68869	-17381.02941	-187500.0224	14604.04868	-10907.22661
11	13088.17572	23941.46758	-40852.48451	-37987.72848	-17576.71894	-187500.0224	14792.0045	-10886.66301
12	13672.1374	24694.92253	-40917.03634	-38013.41063	-17866.39754	-187500.0224	14247.91834	-11199.78859
13	14214.59189	25668.60922	-40928.5922	-38043.63019	-17901.64624	-187500.0224	13794.33439	-11357.92719
14	13397.9262	24799.70751	-40782.88117	-37962.87334	-17514.24581	-187500.0224	13965.23583	-11249.61063
15	12843.40177	23856.30743	-40788.08913	-37949.32818	-17380.47062	-187500.0224	14600.87473	-10906.37724
16	13078.43036	23944.2839	-40855.72551	-37981.91702	-17575.93662	-187500.0224	14801.34753	-10883.89139
17	13661.07329	24683.76901	-40913.52712	-38007.04038	-17860.29552	-187500.0224	14262.55873	-11194.06655
18	14219.84455	25670.12914	-40926.0441	-38037.99755	-17895.90185	-187500.0224	13803.94564	-11354.66383
19	13419.27212	24822.57334	-40782.45649	-37958.64886	-17506.64622	-187500.0224	13962.82184	-11248.71656
20	12858.42214	23869.3832	-40779.55076	-37951.69746	-17365.27143	-187500.0224	14600.31594	-10903.11389
21	13076.23989	23938.00306	-40855.6361	-37989.11428	-17568.94053	-187500.0224	14803.42624	-10878.39286
22	13650.38915	24665.1053	-40912.32013	-38009.05204	-17851.80185	-187500.0224	14269.8007	-11186.08697
23	14221.38682	25667.78221	-40931.60968	-38040.5233	-17891.31974	-187500.0224	13808.43834	-11352.3616
24	13425.26238	24837.12433	-40788.51381	-37963.1192	-17510.53542	-187500.0224	13958.28443	-11265.21215
25	12844.78758	23862.14124	-40782.56825	-37952.68094	-17364.10914	-187500.0224	14593.69982	-10929.71247
26	13068.48384	23931.31988	-40855.88197	-37983.74986	-17560.22335	-187500.0224	14812.29988	-10897.68242
27	13633.91592	24651.20252	-40915.35996	-37995.50688	-17841.81062	-187500.0224	14278.92021	-11188.21039
28	14215.73183	25667.20106	-40931.7885	-38031.64965	-17889.15162	-187500.0224	13811.58993	-11357.05547
29	13441.15447	24862.94059	-40785.49633	-37957.95595	-17506.378	-187500.0224	13957.65858	-11270.75538
30	12851.26959	23881.02846	-40783.37291	-37947.0036	-17357.80595	-187500.0224	14586.86019	-10931.4112
31	13071.7919	23948.06134	-40849.01999	-37973.66923	-17544.8677	-187500.0224	14817.37373	-10876.44826
32	13634.96645	24656.23166	-40911.56017	-37996.62447	-17833.54048	-187500.0224	14290.00667	-11180.32022
33	14226.14774	25677.9299	-40934.3813	-38031.40378	-17891.99029	-187500.0224	13810.76292	-11348.53945
34	13463.77444	24892.64606	-40790.52547	-37953.95499	-17512.61413	-187500.0224	13945.02985	-11257.79137
35	12861.50668	23896.67468	-40785.45163	-37949.19407	-17362.09749	-187500.0224	14576.19841	-10928.08079
36	13078.54212	23954.72216	-40854.3844	-37985.4933	-17551.77439	-187500.0224	14815.76441	-10879.71161
37	13631.21136	24651.6272	-40920.81379	-38015.73521	-17844.33637	-187500.0224	14291.14661	-11199.76624
38	14231.37805	25681.90851	-40943.45611	-38043.22786	-17906.63068	-187500.0224	13811.8358	-11367.62784
39	13479.17479	24915.28838	-40805.72466	-37970.74115	-17532.32837	-187500.0224	13937.16203	-11281.30541
40	12861.14906	23903.35785	-40794.30292	-37966.89665	-17372.75927	-187500.0224	14566.02836	-10951.34895
41	13074.54116	23953.53752	-40855.34553	-37998.68083	-17555.77535	-187500.0224	14821.06177	-10894.84374
42	13623.81293	24637.72442	-40920.21029	-38009.99081	-17842.7494	-187500.0224	14304.17768	-11192.43487
43	14241.70455	25679.44982	-40944.35018	-38047.98878	-17911.27985	-187500.0224	13819.16718	-11372.12054
44	13505.63926	24938.98123	-40803.35537	-37973.40101	-17536.39639	-187500.0224	13934.32336	-11287.45214
45	12876.30354	23917.21593	-40785.094	-37955.09493	-17367.21603	-187500.0224	14561.64742	-10942.76588
46	13084.33122	23955.99621	-40854.74203	-37987.70612	-17553.96486	-187500.0224	14819.31833	-10886.43949
47	13624.19291	24627.57672	-40921.37258	-38014.26	-17846.30333	-187500.0224	14304.55766	-11203.0743
48	14245.12437	25681.70734	-40943.83609	-38046.04418	-17919.6841	-187500.0224	13816.90965	-11376.18856
49	13522.8054	24964.12694	-40786.9939	-37962.85098	-17537.8716	-187500.0224	13933.38459	-11284.14408
50	12878.9634	23930.09054	-40777.94144	-37958.49239	-17366.8137	-187500.0224	14556.41711	-10951.2372
51	13077.15631	23963.77462	-40858.07244	-37998.16674	-17553.2049	-187500.0224	14824.54864	-10881.81268
52	13604.00928	24624.55924	-40922.22195	-38016.47282	-17843.97874	-187500.0224	14313.45365	-11185.63994
53	14236.00486	25688.54698	-40936.86234	-38046.02182	-17911.72688	-187500.0224	13824.68806	-11369.08071
54	13529.01918	24992.84893	-40791.08426	-37948.50116	-17531.45665	-187500.0224	13924.68976	-11283.02649
55	12874.00131	23942.4734	-40776.44387	-37941.57212	-17353.55912	-187500.0224	14542.46963	-10943.5482
56	13071.59073	23967.08268	-40839.34168	-37973.9151	-17528.10389	-187500.0224	14823.05107	-10865.65237
57	13598.37664	24620.58063	-40898.5291	-37997.29502	-17813.82624	-187500.0224	14323.53429	-11164.36108
58	14234.19437	25689.68692	-40930.29093	-38035.4271	-17894.58309	-187500.0224	13824.6657	-11353.36743
59	13543.65957	25014.79834	-40782.94823	-37944.52255	-17515.11753	-187500.0224	13918.34187	-11273.03526
60	12879.94687	23955.05744	-40758.51777	-37929.34572	-17330.24625	-187500.0224	14537.08286	-10935.3004
61	13073.44592	23972.67061	-40828.36697	-37959.67704	-17510.33425	-187500.0224	14829.91306	-10854.83412
62	13595.87325	24615.0821	-40890.8401	-37984.10749	-17801.57748	-187500.0224	14336.4983	-11161.16478
63	14246.59958	25693.73258	-40918.55626	-38023.20069	-17888.2352	-187500.0224	13836.31096	-11347.73479
64	13562.50209	25039.07234	-40781.56242	-37950.08814	-17518.47029	-187500.0224	13918.54303	-11282.91473
65	12881.77972	23962.58997	-40754.3827	-37930.57506	-17329.26277	-187500.0224	14535.96527	-10942.78824
66	13069.69083	23969.09433	-40825.50595	-37968.70714	-17504.43339	-187500.0224	14835.501	-10857.51633
67	13584.94325	24599.01119	-40885.18511	-37986.72265	-17795.22959	-187500.0224	14348.09886	-11156.58267
68	14237.56948	25681.68499	-40925.12768	-38037.50581	-17898.09232	-187500.0224	13838.43438	-11365.45972
69	13571.15222	25050.0694	-40787.70915	-37960.99579	-17534.0271	-187500.0224	13913.26802	-11287.42978
70	12880.3045	23967.01562	-40761.02117	-37940.92392	-17338.65051	-187500.0224	14529.59502	-10947.63857
71	13060.14664	23970.23427	-40838.3582	-37982.76639	-17515.4528	-187500.0224	14837.51265	-10865.4959
72	13571.37574	24590.94221	-40900.07137	-37998.79259	-17802.91859	-187500.0224	14350.49049	-11172.363
73	14243.11271	25687.58585	-40932.28023	-38035.09182	-17901.73565	-187500.0224	13845.38577	-11353.97093
74	13581.72459	25078.76904	-40802.64012	-37979.19011	-17546.7676	-187500.0224	13910.96579	-11308.66394
75	12872.52609	23980.76194	-40773.06876	-37949.28347	-17346.33951	-187500.0224	14519.53674	-10973.67835
76	13047.22733	23969.96605	-40850.07052	-37988.98017	-17519.2526	-187500.0224	14833.80226	-10878.10229
77	13553.33788	24582.87324	-40905.94988	-38006.10161	-17805.75726	-187500.0224	14359.63236	-11174.50877
78	14230.7522	25685.82007	-40935.85651	-38035.71767	-17906.58598	-187500.0224	13848.60442	-11364.74447
79	13593.05693	25102.32778	-40797.49922	-37966.42726	-17548.37692	-187500.0224	13912.06103	-11302.71838
80	12877.64464	23998.41982	-40773.44874	-37952.7927	-17346.13834	-187500.0224	14528.94682	-10970.61616
81	13049.93189	23984.6735	-40842.26976	-37981.78291	-17511.94358	-187500.0224	14859.97616	-10865.67472
82	13549.78395	24587.20947	-40900.83133	-37996.06568	-17797.15184	-187500.0224	14391.01421	-11162.10355
83	14219.55397	25681.84145	-40943.74668	-38045.73125	-17913.8503	-187500.0224	13849.5432	-11367.00199
84	13596.43204	25125.79711	-40808.94331	-37977.64784	-17551.39441	-187500.0224	13907.34481	-11298.89623
85	12868.03339	24012.32261	-40772.42056	-37948.03178	-17340.19278	-187500.0224	14523.00126	-10964.0671
86	13032.87751	23981.05252	-40843.72262	-37980.08418	-17506.19918	-187500.0224	14852.73419	-10856.97989
87	13526.38167	24570.51272	-40902.70888	-37999.19492	-17790.60278	-187500.0224	14382.83347	-11160.96361
88	14219.03988	25686.93765	-40940.37157	-38035.36004	-17902.69678	-187500.0224	13858.77447	-11352.27219
89	13610.71481	25150.49579	-40805.27762	-37968.84125	-17551.88615	-187500.0224	13904.55084	-11305.04296
90	12872.12376	24021.39741	-40767.27966	-37946.86949	-17337.86819	-187500.0224	14509.65726	-10978.10399
91	13040.41005	23989.92616	-40837.39708	-37975.27855	-17494.66568	-187500.0224	14857.71863	-10845.04406
92	13530.33793	24570.64683	-40901.14425	-37997.27267	-17786.08773	-187500.0224	14395.70807	-11140.19884
93	14228.58408	25688.97166	-40940.37157	-38040.18802	-17905.02136	-187500.0224	13867.64811	-11347.57833
94	13634.92175	25173.96512	-40814.84417	-37979.6595	-17561.29623	-187500.0224	13898.58292	-11308.50748
95	12883.99254	24035.70253	-40781.85299	-37959.2747	-17344.43961	-187500.0224	14496.76031	-10983.78134
96	13044.14279	23994.28475	-40854.56322	-37989.56132	-17499.91834	-187500.0224	14852.37656	-10846.40751
97	13527.78983	24565.93061	-40915.40467	-38011.19781	-17788.34525	-187500.0224	14398.90437	-11149.8548
98	14234.23907	25692.86086	-40951.34627	-38055.20839	-17914.83377	-187500.0224	13867.60341	-11359.87179
99	13662.25793	25202.41889	-40811.26789	-37973.46806	-17565.02897	-187500.0224	13897.37593	-11309.28979
100	12900.37637	24048.823	-40773.24757	-37953.75382	-17343.6573	-187500.0224	14492.2229	-10989.01164
101	13045.48389	23991.96017	-40854.27265	-37997.94322	-17504.65691	-187500.0224	14850.45431	-10861.07026
102	13521.24077	24555.20178	-40910.73315	-38012.58361	-17791.67566	-187500.0224	14405.16286	-11147.70903
103	14228.8076	25686.2671	-40954.27435	-38056.39303	-17923.90858	-187500.0224	13867.20107	-11355.71436
104	13667.28707	25221.70844	-40822.80139	-37991.97531	-17582.95507	-187500.0224	13885.4848	-11317.60464
105	12893.24616	24058.59072	-40780.24367	-37961.66634	-17353.49206	-187500.0224	14477.58251	-10994.42077
106	13036.45379	23995.15647	-40854.42911	-38003.32999	-17506.19918	-187500.0224	14848.93439	-10853.85065
107	13509.75198	24551.93842	-40903.42413	-38010.86253	-17786.46771	-187500.0224	14414.81881	-11139.70711
108	14214.05544	25682.95904	-40949.02169	-38056.90712	-17921.82987	-187500.0224	13868.25161	-11349.29941
109	13664.80603	25238.27109	-40816.07351	-37987.10263	-17581.30104	-187500.0224	13874.35363	-11309.11098
110	12892.24033	24073.96872	-40758.11544	-37945.23781	-17339.00813	-187500.0224	14470.58642	-10982.82021
111	13035.89499	24004.27598	-40825.66241	-37984.97921	-17485.79204	-187500.0224	14857.40571	-10841.51248
112	13500.20778	24546.574	-40886.83914	-37998.07733	-17769.61449	-187500.0224	14425.54765	-11130.20761
113	14215.44125	25679.85215	-40934.69422	-38037.28229	-17908.12825	-187500.0224	13876.05236	-11341.31984
114	13687.22483	25263.17093	-40811.29024	-37981.89467	-17578.10474	-187500.0224	13875.8065	-11318.34225
115	12895.50369	24083.22234	-40759.21068	-37943.13674	-17336.32592	-187500.0224	14463.9703	-10985.81534
116	13028.2954	24001.21379	-40830.73626	-37969.89178	-17480.27116	-187500.0224	14856.82456	-10824.65927
117	13488.2496	24536.3369	-40886.05683	-37986.05209	-17762.41723	-187500.0224	14434.44364	-11114.33788
118	14211.95438	25677.54992	-40933.7778	-38030.19679	-17905.66956	-187500.0224	13882.78024	-11323.75137
119	13706.15676	25289.0766	-40808.47392	-37975.2562	-17576.13779	-187500.0224	13876.61116	-11303.6348
120	12904.82436	24100.63435	-40753.95802	-37938.17466	-17333.30844	-187500.0224	14461.35515	-10980.96502
121	13029.07771	24003.65013	-40821.5944	-37966.85195	-17474.50441	-187500.0224	14856.0646	-10821.08299
122	13483.8463	24528.08911	-40878.30077	-37989.20369	-17758.32686	-187500.0224	14440.38921	-11110.29221
123	14218.99518	25676.54409	-40925.01592	-38035.65062	-17907.68122	-187500.0224	13889.99985	-11321.73971
124	13726.67566	25312.1436	-40805.47879	-37987.05792	-17593.34863	-187500.0224	13874.75596	-11306.16055
125	12912.04398	24112.92781	-40751.07464	-37949.75286	-17345.95953	-187500.0224	14450.76042	-10999.94165
126	13033.45865	24009.52864	-40815.55942	-37979.57009	-17478.93005	-187500.0224	14859.35031	-10835.87984
127	13480.85117	24524.1105	-40880.15597	-37995.70805	-17761.43375	-187500.0224	14447.2959	-11110.31456
128	14216.55884	25674.6889	-40926.51348	-38037.70698	-17908.26236	-187500.0224	13893.75495	-11325.38305
129	13744.60176	25336.26113	-40794.86171	-37972.52929	-17580.0717	-187500.0224	13877.7511	-11304.37241
130	12918.1013	24124.77423	-40742.96096	-37935.13482	-17328.88279	-187500.0224	14448.83817	-10994.59958
131	13032.1846	24012.8367	-40817.90636	-37970.96467	-17466.90482	-187500.0224	14866.16759	-10830.00133
132	13476.55964	24518.25434	-40883.08404	-37990.92477	-17754.14708	-187500.0224	14461.55631	-11104.77133
133	14217.72113	25669.88327	-40935.76711	-38036.96937	-17913.895	-187500.0224	13900.14755	-11326.72415
134	13756.22466	25354.9919	-40817.21345	-37980.73238	-17601.43996	-187500.0224	13865.70351	-11305.13237
135	12915.68731	24134.54194	-40767.41377	-37953.26209	-17348.70879	-187500.0224	14424.00538	-11005.35077
136	13028.02718	24011.76381	-40827.78583	-37981.6041	-17476.3596	-187500.0224	14851.79542	-10833.57761
137	13475.95614	24515.63919	-40882.99464	-37997.7197	-17755.0188	-187500.0224	14467.25601	-11101.61973
138	14218.21287	25669.39153	-40940.43862	-38041.37266	-17917.80656	-187500.0224	13903.43325	-11314.76597
139	13776.63181	25379.57881	-40821.23677	-37988.60019	-17605.64209	-187500.0224	13859.31091	-11310.34032
140	12923.55513	24150.41168	-40761.26704	-37952.1892	-17340.28218	-187500.0224	14416.67401	-11017.59953
141	13016.44898	24016.97177	-40834.37959	-37994.90339	-17471.2187	-187500.0224	14849.44848	-10839.85845
142	13454.92315	24508.30782	-40881.96646	-37989.00252	-17748.60385	-187500.0224	14469.17826	-11094.06484
143	14209.42863	25665.7482	-40930.04506	-38034.42127	-17918.03007	-187500.0224	13908.97648	-11322.2091
144	13788.32177	25404.92569	-40813.32425	-37977.60313	-17613.97929	-187500.0224	13860.89788	-11315.59298
145	12929.27717	24170.28238	-40754.40505	-37940.6557	-17349.58051	-187500.0224	14412.49423	-11014.135
146	13020.18172	24025.73365	-40822.80139	-37981.13471	-17480.87466	-187500.0224	14852.13069	-10833.84583
147	13453.13501	24510.56534	-40882.43584	-37997.11621	-17763.71363	-187500.0224	14477.98484	-11095.18243
148	14203.72894	25668.89979	-40941.5115	-38044.25604	-17937.87842	-187500.0224	13911.99397	-11323.66196
149	13799.51999	25430.18316	-40825.01421	-37985.82858	-17636.55456	-187500.0224	13855.26524	-11326.0983
150	12932.00409	24187.1803	-40762.74225	-37947.31652	-17371.46287	-187500.0224	14402.52535	-11042.40996
151	13018.25947	24031.34394	-40821.66145	-37972.50694	-17489.05539	-187500.0224	14856.91397	-10836.46099
152	13448.32938	24502.80929	-40877.25024	-37988.19786	-17772.00613	-187500.0224	14490.81474	-11100.36803
153	14206.16528	25658.30507	-40941.10917	-38040.23272	-17951.11066	-187500.0224	13921.89579	-11328.15466
154	13823.30225	25447.32695	-40823.71781	-37983.74986	-17652.53605	-187500.0224	13857.81334	-11334.81548
155	12948.05264	24201.66423	-40752.08047	-37936.2077	-17367.43955	-187500.0224	14401.87715	-11042.11939
156	13026.21669	24034.78611	-40827.83053	-37974.04921	-17486.14967	-187500.0224	14855.61757	-10837.95855
157	13451.7045	24497.35546	-40887.84497	-37989.986	-17763.46776	-187500.0224	14494.39102	-11095.16008
158	14210.50152	25657.67922	-40947.36766	-38039.20454	-17940.44887	-187500.0224	13926.20968	-11324.109
159	13835.01456	25467.53293	-40833.7761	-37985.80623	-17648.69155	-187500.0224	13846.07868	-11330.27808
160	12951.20423	24212.706	-40751.2311	-37938.84521	-17360.44346	-187500.0224	14386.87913	-11038.83368
161	13017.11953	24030.60633	-40823.65076	-37976.77612	-17473.92326	-187500.0224	14850.20844	-10840.17138
162	13440.46157	24488.303	-40873.49515	-37984.10749	-17746.94982	-187500.0224	14505.52219	-11089.90742
163	14204.42184	25650.39255	-40932.59316	-38028.05102	-17930.12237	-187500.0224	13937.51966	-11314.5648
164	13850.16904	25489.68351	-40823.49429	-37978.69837	-17645.13763	-187500.0224	13852.40422	-11317.04585
165	12951.31599	24227.25698	-40746.93957	-37934.9113	-17358.4318	-187500.0224	14379.74893	-11032.17286
166	13004.22257	24033.78028	-40824.8354	-37980.46416	-17475.0185	-187500.0224	14846.05102	-10831.4542
167	13421.6414	24484.10088	-40878.92662	-37990.83537	-17749.52027	-187500.0224	14510.50663	-11093.55075
168	14192.93305	25649.54318	-40930.98383	-38025.1453	-17929.07184	-187500.0224	13947.15326	-11311.74848
169	13856.24872	25511.56587	-40823.42724	-37981.51469	-17646.83636	-187500.0224	13851.55485	-11323.37139
170	12950.62309	24243.32789	-40738.24474	-37932.65378	-17347.61355	-187500.0224	14374.87625	-11041.24767
171	12998.94756	24038.4518	-40802.86363	-37965.26497	-17451.43741	-187500.0224	14851.43779	-10827.20737
172	13417.104	24484.4585	-40859.45825	-37978.00547	-17725.80507	-187500.0224	14521.6378	-11078.46333
173	14186.11576	25645.34106	-40924.61359	-38020.80906	-17917.80656	-187500.0224	13945.83451	-11306.36171
174	13871.00087	25536.59982	-40811.60317	-37966.76254	-17632.66535	-187500.0224	13849.74436	-11326.79121
175	12955.58518	24261.99159	-40733.97556	-37916.02408	-17336.013	-187500.0224	14361.28639	-11038.02902
176	13002.41208	24049.82883	-40804.54001	-37957.77714	-17444.24015	-187500.0224	14846.92274	-10821.79824
177	13406.57632	24478.93762	-40864.50975	-37978.78778	-17726.49798	-187500.0224	14528.09745	-11076.854
178	14175.09635	25638.14379	-40929.82154	-38022.37368	-17922.32161	-187500.0224	13953.74703	-11312.46374
179	13873.63838	25551.59784	-40822.37671	-37974.51859	-17649.47386	-187500.0224	13841.78714	-11324.64544
180	12949.05847	24272.83219	-40739.6082	-37925.00948	-17345.89247	-187500.0224	14347.94239	-11037.93961
181	12982.8096	24047.5266	-40808.67509	-37963.78976	-17448.17405	-187500.0224	14838.67494	-10819.04898
182	13387.95732	24473.70732	-40867.10255	-37977.7596	-17724.3075	-187500.0224	14529.14799	-11052.82587
183	14160.43361	25631.17005	-40936.90705	-38033.79542	-17930.27883	-187500.0224	13954.75286	-11299.94676
184	13880.09803	25571.96028	-40827.85288	-37980.12888	-17661.85673	-187500.0224	13839.14963	-11317.13525
185	12950.73485	24286.98084	-40750.47114	-37936.99002	-17359.50468	-187500.0224	14334.19607	-11046.25446
186	12979.50154	24048.04069	-40821.84027	-37977.06669	-17456.17598	-187500.0224	14831.45533	-10823.65344
187	13386.92914	24472.58973	-40874.121	-37992.24353	-17728.95667	-187500.0224	14546.6047	-11062.1242
188	14156.34324	25622.67639	-40944.6184	-38042.98199	-17943.68988	-187500.0224	13960.51961	-11314.63186
189	13896.21364	25594.0438	-40849.01999	-38009.29791	-17682.10741	-187500.0224	13843.8435	-11325.58421
190	12961.77661	24314.40643	-40763.07753	-37957.21834	-17376.31319	-187500.0224	14351.40691	-11048.84726
191	12966.42577	24046.65489	-40830.28922	-37989.15899	-17476.78429	-187500.0224	14820.97236	-10843.56884
192	13369.91946	24461.05623	-40885.11805	-37996.9821	-17738.54557	-187500.0224	14533.64069	-11066.68396
193	14148.1625	25614.87563	-40943.38905	-38037.99755	-17944.36043	-187500.0224	13954.79756	-11315.72709
194	13904.32732	25606.44902	-40842.158	-37998.9714	-17685.30371	-187500.0224	13822.13996	-11346.55015
195	12960.61432	24313.19944	-40757.28843	-37947.54004	-17372.49105	-187500.0224	14307.15046	-11078.77625
196	12967.63277	24043.50329	-40829.68573	-37983.63811	-17466.97187	-187500.0224	14810.89172	-10842.83124
197	13362.31987	24447.68988	-40873.27163	-37986.27561	-17730.6107	-187500.0224	14535.20531	-11065.78989
198	14145.03326	25605.35379	-40931.16265	-38030.17444	-17932.89398	-187500.0224	13965.43699	-11301.7349
199	13918.38657	25622.98931	-40830.13276	-37993.89756	-17677.14532	-187500.0224	13828.30904	-11338.21295
200	12970.73966	24332.35488	-40735.8084	-37926.32823	-17354.69906	-187500.0224	14311.442	-11058.43616
201	12969.53266	24055.84145	-40815.11239	-37963.96857	-17444.39661	-187500.0224	14822.40287	-10808.83423
202	13355.48024	24451.46733	-40876.24441	-37987.32614	-17720.82063	-187500.0224	14547.56582	-11047.46146
203	14135.42201	25598.73767	-40935.25302	-38023.983	-17930.07766	-187500.0224	13971.02493	-11285.30637
204	13930.9706	25639.73077	-40844.21436	-37988.48843	-17686.30954	-187500.0224	13819.05542	-11318.3199
205	12974.02537	24344.67069	-40747.58777	-37927.93756	-17360.57757	-187500.0224	14291.97363	-11059.01731
206	12960.9943	24057.42843	-40813.14544	-37964.70618	-17440.48505	-187500.0224	14819.16187	-10813.90808
207	13345.06432	24445.9688	-40866.5214	-37975.07739	-17701.17345	-187500.0224	14561.24509	-11027.97073
208	14126.9507	25596.6366	-40920.85849	-38013.83531	-17906.11659	-187500.0224	13990.5827	-11268.72137
209	13938.90547	25668.69863	-40835.51953	-37985.69447	-17666.52824	-187500.0224	13836.53448	-11313.42486
210	12972.12547	24367.67064	-40748.30303	-37935.58186	-17348.90996	-187500.0224	14299.10383	-11072.07073
211	12946.66683	24058.65777	-40818.33104	-37964.46031	-17429.5774	-187500.0224	14817.6643	-10817.46201
212	13326.91471	24437.43043	-40866.56611	-37968.93066	-17689.99758	-187500.0224	14569.87286	-11023.29922
213	14104.71071	25576.40828	-40939.43279	-38021.59137	-17912.21862	-187500.0224	13990.94033	-11278.64555
214	13942.90643	25676.56644	-40847.16479	-37991.21535	-17680.81101	-187500.0224	13832.10884	-11325.98654
215	12977.19931	24380.29938	-40746.649	-37923.40015	-17350.00519	-187500.0224	14293.58295	-11064.20291
216	12945.03515	24063.35164	-40818.26399	-37970.40587	-17428.16924	-187500.0224	14820.83825	-10820.90417
217	13323.13726	24437.11751	-40873.42809	-37986.54383	-17694.89261	-187500.0224	14576.69015	-11031.3682
218	14102.52024	25576.36357	-40947.01003	-38036.20941	-17919.39353	-187500.0224	13996.57297	-11285.7087
219	13952.76355	25698.09117	-40861.51461	-38006.90627	-17688.9694	-187500.0224	13827.41497	-11323.5502
220	12980.88735	24397.59963	-40753.0863	-37936.72179	-17351.50276	-187500.0224	14280.99892	-11070.28259
221	12944.81164	24066.34677	-40816.20763	-37965.53319	-17425.06235	-187500.0224	14814.04332	-10820.74771
222	13321.14796	24432.89303	-40872.89165	-37986.49913	-17690.44461	-187500.0224	14580.44524	-11032.15051
223	14095.47944	25562.86312	-40937.37643	-38029.45918	-17913.38091	-187500.0224	14003.3679	-11286.98275
224	13974.33299	25712.95508	-40851.36692	-37995.55159	-17688.07533	-187500.0224	13831.17006	-11329.18284
225	13007.41887	24418.67732	-40750.56055	-37938.57699	-17350.65339	-187500.0224	14281.93769	-11084.31948
226	12959.0497	24071.46532	-40817.72754	-37975.97146	-17420.32378	-187500.0224	14818.15604	-10826.78268
227	13328.23346	24424.71229	-40876.95967	-37994.97044	-17688.50001	-187500.0224	14589.5424	-11031.70348
228	14107.7282	25553.6542	-40935.36478	-38032.78959	-17911.25749	-187500.0224	14012.33095	-11286.53571
229	14001.17743	25730.63531	-40853.17741	-38005.3193	-17693.73032	-187500.0224	13832.19824	-11343.93499
230	13014.61613	24430.23317	-40756.64023	-37943.67319	-17358.92354	-187500.0224	14266.98438	-11096.41178
231	12950.77955	24071.68884	-40819.1357	-37971.9705	-17418.51329	-187500.0224	14811.51757	-10816.38912
232	13318.46575	24422.36536	-40870.05298	-37985.91798	-17678.91111	-187500.0224	14601.14295	-11023.52274
233	14099.54746	25545.317	-40935.90122	-38029.41448	-17907.21183	-187500.0224	14020.22112	-11285.59694
234	14011.59334	25746.72857	-40856.57488	-37997.87617	-17696.63604	-187500.0224	13827.99611	-11344.73966
235	13032.76575	24451.82496	-40750.4935	-37936.7665	-17353.51442	-187500.0224	14258.9601	-11102.13382
236	12967.99039	24083.75878	-40810.73145	-37968.95301	-17414.28881	-187500.0224	14811.80815	-10829.57665
237	13332.72616	24430.65786	-40862.5875	-37982.11819	-17674.99956	-187500.0224	14611.3577	-11020.46055
238	14103.95075	25543.48416	-40930.69326	-38025.39116	-17908.93291	-187500.0224	14024.69147	-11276.23156
239	14032.71574	25765.97342	-40857.89363	-37998.61377	-17702.11222	-187500.0224	13822.0729	-11337.22947
240	13047.54025	24473.32734	-40737.73065	-37922.37197	-17346.54067	-187500.0224	14258.42366	-11092.36611
241	12965.75522	24085.18929	-40803.08715	-37963.18626	-17403.98465	-187500.0224	14814.11038	-10817.46201
242	13329.59692	24423.92998	-40852.73038	-37966.98606	-17658.8616	-187500.0224	14623.47235	-10995.58306
243	14099.36864	25531.52597	-40924.99357	-38016.83045	-17896.39358	-187500.0224	14033.76627	-11266.39679
244	14047.91493	25781.26201	-40848.79647	-37996.06568	-17699.80999	-187500.0224	13822.60934	-11331.10509
245	13061.5548	24493.53331	-40739.6082	-37929.70335	-17349.4911	-187500.0224	14247.02427	-11090.68973
246	12970.35968	24097.14748	-40789.74316	-37963.20861	-17395.5804	-187500.0224	14816.2785	-10816.70205
247	13320.4774	24422.03008	-40843.87909	-37967.81307	-17652.26783	-187500.0224	14631.40722	-10985.36831
248	14081.57666	25523.5464	-40920.00913	-38018.1492	-17898.31583	-187500.0224	14038.5272	-11260.49593
249	14048.11609	25804.06079	-40845.19784	-37999.10551	-17705.39793	-187500.0224	13822.47523	-11326.45593
250	13059.76666	24519.86367	-40731.38276	-37936.09595	-17355.8837	-187500.0224	14243.76091	-11100.77037
251	12951.87479	24105.52938	-40799.46617	-37971.27759	-17408.27619	-187500.0224	14808.6789	-10828.61553
252	13298.63975	24426.85806	-40853.33387	-37975.54677	-17665.00833	-187500.0224	14633.66474	-10998.86876
253	14061.39303	25521.62415	-40922.26665	-38024.27358	-17908.97762	-187500.0224	14043.44458	-11277.48326
254	14053.74873	25825.9655	-40846.29307	-37996.69152	-17716.23852	-187500.0224	13827.14675	-11337.27417
255	13058.69377	24538.59443	-40741.37398	-37924.96478	-17361.49399	-187500.0224	14235.98251	-11114.44963
0	12940.78832	24111.36319	-40804.83059	-37967.00841	-17403.2247	-187500.0224	14808.16481	-10828.88375
1	13287.62034	24426.96982	-40852.55156	-37971.92579	-17653.8101	-187500.0224	14647.72399	-10990.44216
2	14043.19871	25510.51533	-40932.28023	-38022.95482	-17907.68122	-187500.0224	14051.33474	-11256.8526
3	14050.03834	25839.98005	-40865.1803	-38012.15893	-17729.56016	-187500.0224	13823.03403	-11319.63865
4	13061.33128	24561.79554	-40742.73744	-37936.52063	-17365.33849	-187500.0224	14232.80856	-11093.93073
5	12932.89816	24114.64889	-40802.61776	-37972.26107	-17403.82819	-187500.0224	14805.59436	-10818.7137
6	13275.77392	24416.86683	-40851.59044	-37977.37962	-17654.68182	-187500.0224	14649.8027	-10978.37221
7	14041.85761	25501.06055	-40909.12383	-38014.84114	-17892.97377	-187500.0224	14064.7905	-11239.35118
8	14067.33859	25850.39596	-40841.95684	-38002.05594	-17716.5738	-187500.0224	13829.69485	-11319.19161
9	13072.21658	24571.22798	-40725.68306	-37930.61977	-17355.79429	-187500.0224	14227.44414	-11100.47979
10	12934.70865	24113.91128	-40783.93171	-37954.782	-17389.25485	-187500.0224	14807.04722	-10798.99946
11	13279.48431	24415.74924	-40843.61086	-37973.64688	-17647.26104	-187500.0224	14660.24097	-10959.93202
12	14032.224	25486.73308	-40918.60097	-38028.81098	-17900.32749	-187500.0224	14061.92947	-11253.90217
13	14072.97123	25860.36484	-40845.53311	-38001.83243	-17726.36386	-187500.0224	13823.12343	-11321.09151
14	13077.71511	24586.38246	-40731.18159	-37930.44095	-17361.53869	-187500.0224	14216.08945	-11098.98223
15	12932.7864	24116.59349	-40783.39526	-37954.20086	-17386.34913	-187500.0224	14804.8344	-10801.3911
16	13267.61553	24408.41787	-40841.68861	-37972.0152	-17642.14249	-187500.0224	14671.5733	-10967.9116
17	14016.13075	25467.95761	-40911.58252	-38014.63998	-17895.3207	-187500.0224	14076.324	-11245.02852
18	14083.85653	25869.70787	-40854.60792	-37999.28433	-17731.39301	-187500.0224	13834.2546	-11306.71934
19	13095.37299	24613.27161	-40738.93764	-37937.81703	-17367.95364	-187500.0224	14241.39163	-11081.16789
20	12927.6455	24118.85102	-40794.7723	-37965.64495	-17404.65521	-187500.0224	14808.6342	-10812.9693
21	13255.81381	24403.81341	-40863.59332	-37992.22118	-17660.98501	-187500.0224	14676.35658	-10966.21286
22	13992.88493	25453.7419	-40950.4522	-38050.64864	-17928.87067	-187500.0224	14066.95861	-11267.7379
23	14074.17823	25881.46488	-40883.08404	-38032.18609	-17762.84191	-187500.0224	13807.85719	-11337.81062
24	13087.97456	24632.69527	-40745.66552	-37949.99873	-17383.08577	-187500.0224	14208.55692	-11109.17462
25	12916.02259	24127.6129	-40786.21158	-37957.19599	-17396.63093	-187500.0224	14793.14444	-10811.56114
26	13246.18021	24404.88629	-40837.68765	-37972.0599	-17641.29313	-187500.0224	14673.29439	-10968.29158
27	13987.63227	25450.85853	-40915.8517	-38022.35133	-17898.58406	-187500.0224	14076.43575	-11249.90121
28	14086.94107	25896.28409	-40851.25516	-38014.3047	-17741.22777	-187500.0224	13814.49566	-11326.45593
29	13085.04648	24637.32208	-40735.13785	-37947.54004	-17372.22283	-187500.0224	14185.3558	-11130.52054
30	12902.56684	24121.62264	-40788.20089	-37961.62164	-17382.21406	-187500.0224	14784.11434	-10816.09855
31	13235.8984	24398.15842	-40835.63129	-37970.60704	-17626.16099	-187500.0224	14684.06793	-10954.54525
32	13977.35047	25433.42417	-40907.53685	-38011.51073	-17886.24589	-187500.0224	14084.88471	-11250.43765
33	14100.75445	25902.90021	-40846.91892	-38001.49715	-17735.23751	-187500.0224	13817.22257	-11332.28974
34	13112.49442	24659.3609	-40715.71418	-37923.08723	-17353.67088	-187500.0224	14188.70857	-11115.05313
35	12922.88457	24133.24554	-40758.89775	-37943.56143	-17353.04503	-187500.0224	14796.47485	-10800.83231
36	13247.9907	24397.44316	-40817.97341	-37963.14156	-17598.95892	-187500.0224	14700.71998	-10949.80668
37	13983.74307	25424.8858	-40896.6292	-38007.2639	-17861.25664	-187500.0224	14096.73114	-11242.7263
38	14121.02748	25919.14993	-40840.72749	-37993.40582	-17715.70208	-187500.0224	13820.7765	-11324.98071
39	13128.43122	24679.96921	-40713.65782	-37915.55469	-17334.38132	-187500.0224	14183.94764	-11111.02982
40	12923.53277	24137.78295	-40757.15432	-37934.41956	-17333.73312	-187500.0224	14792.85387	-10797.25603
41	13245.95669	24398.35958	-40821.25912	-37949.66345	-17580.13875	-187500.0224	14708.69955	-10939.27901
42	13975.87526	25413.50876	-40886.81679	-37986.63324	-17843.08467	-187500.0224	14107.59409	-11231.90805
43	14135.89139	25929.00704	-40826.10945	-37980.28534	-17707.23077	-187500.0224	13827.75025	-11320.55507
44	13153.73339	24703.68441	-40695.95524	-37902.2107	-17324.5242	-187500.0224	14188.30623	-11108.63818
45	12931.19942	24141.87332	-40751.45462	-37938.88991	-17331.36384	-187500.0224	14788.33881	-10808.40955
46	13249.75649	24397.10789	-40807.24458	-37950.13284	-17573.18736	-187500.0224	14716.47796	-10936.28388
47	13974.02006	25405.21627	-40876.13265	-37984.8004	-17832.91463	-187500.0224	14117.16063	-11221.44743
48	14148.29661	25943.31216	-40829.48456	-37977.08904	-17709.93533	-187500.0224	13826.09622	-11311.65908
49	13162.22705	24723.44336	-40701.49847	-37900.2214	-17330.69328	-187500.0224	14175.58809	-11117.10949
50	12929.94773	24148.19886	-40752.63926	-37927.35641	-17332.8167	-187500.0224	14786.14834	-10795.75846
51	13241.32988	24390.2012	-40816.65466	-37949.79756	-17586.4643	-187500.0224	14718.57902	-10930.67359
52	13957.32331	25383.73624	-40881.74294	-37989.00252	-17852.20419	-187500.0224	14117.78648	-11221.17921
53	14146.03909	25940.94288	-40831.60798	-37986.65559	-17730.67775	-187500.0224	13819.54715	-11323.28198
54	13167.61382	24731.0206	-40706.63937	-37913.94537	-17349.73697	-187500.0224	14165.01572	-11133.51567
55	12925.11975	24143.41559	-40755.90262	-37943.13674	-17346.67478	-187500.0224	14780.29219	-10816.09855
56	13232.81386	24383.7639	-40811.82668	-37959.38646	-17590.68878	-187500.0224	14728.61495	-10936.12742
57	13941.14064	25367.66533	-40888.38141	-38004.7158	-17868.58801	-187500.0224	14123.53088	-11248.76127
58	14143.87097	25944.4074	-40847.65653	-38004.87226	-17755.48819	-187500.0224	13812.55106	-11341.63276
59	13168.73141	24747.13621	-40716.47414	-37926.30588	-17370.16647	-187500.0224	14153.99631	-11158.08024
60	12922.28108	24150.43404	-40761.08822	-37943.91906	-17351.81568	-187500.0224	14776.76061	-10830.04604
61	13226.64478	24383.02629	-40820.11918	-37953.41855	-17587.22426	-187500.0224	14733.48763	-10915.69792
62	13930.65768	25357.24942	-40891.10832	-37996.87034	-17856.67453	-187500.0224	14131.95749	-11219.52518
63	14154.44334	25954.15276	-40851.63514	-37996.57977	-17747.55332	-187500.0224	13816.21674	-11326.0536
64	13182.65655	24764.9729	-40717.41291	-37913.52068	-17362.09749	-187500.0224	14148.83305	-11135.46027
65	12919.66592	24150.97048	-40758.98716	-37936.02889	-17344.12668	-187500.0224	14771.77617	-10808.27544
66	13228.32116	24379.65117	-40817.66049	-37956.52544	-17584.02796	-187500.0224	14737.4886	-10922.55991
67	13931.97643	25346.6994	-40878.94897	-37992.5788	-17850.59486	-187500.0224	14135.13143	-11218.4523
68	14173.30821	25970.15661	-40837.6653	-37992.42234	-17750.39199	-187500.0224	13814.36155	-11328.6017
69	13198.95097	24793.11374	-40705.49944	-37911.44197	-17359.48233	-187500.0224	14139.11005	-11134.43209
70	12922.37048	24164.22506	-40738.71413	-37926.21647	-17328.61457	-187500.0224	14773.63137	-10796.80899
71	13218.93343	24379.9194	-40802.75188	-37953.4409	-17571.91331	-187500.0224	14751.63725	-10910.55702
72	13910.69757	25334.24948	-40873.65161	-37992.62351	-17843.3529	-187500.0224	14150.08475	-11212.19381
73	14172.41414	25977.33152	-40832.45734	-37986.45443	-17742.32301	-187500.0224	13823.03403	-11314.81067
74	13209.41159	24811.35277	-40697.22929	-37901.45074	-17349.4464	-187500.0224	14144.2733	-11120.21638
75	12921.52112	24167.24255	-40739.49644	-37928.31754	-17320.18796	-187500.0224	14772.15615	-10796.36196
76	13214.59719	24378.24301	-40808.78685	-37953.97734	-17562.59263	-187500.0224	14755.79467	-10906.01962
77	13899.85697	25318.89383	-40873.42809	-37985.69447	-17835.61919	-187500.0224	14153.59398	-11207.85757
78	14176.57157	25982.42771	-40840.66043	-37983.16872	-17747.10628	-187500.0224	13817.5355	-11305.73586
79	13217.05588	24830.50821	-40715.02128	-37909.51972	-17361.76221	-187500.0224	14130.86225	-11117.95886
80	12912.3122	24169.70124	-40758.33896	-37939.26989	-17333.19668	-187500.0224	14759.32625	-10794.26089
81	13208.02578	24377.63952	-40813.88304	-37954.87141	-17566.28067	-187500.0224	14757.76163	-10886.46184
82	13893.24086	25309.08141	-40874.92566	-37984.57688	-17838.61433	-187500.0224	14162.22175	-11193.66422
83	14177.89032	25987.05453	-40850.74107	-38000.71484	-17759.42209	-187500.0224	13816.12734	-11317.17996
84	13223.69435	24846.89204	-40714.0378	-37916.49347	-17368.35597	-187500.0224	14123.35207	-11128.6877
85	12915.53085	24173.72455	-40739.40703	-37929.1222	-17324.85948	-187500.0224	14758.40983	-10789.67879
86	13209.67981	24376.1643	-40797.87919	-37951.63041	-17558.83754	-187500.0224	14766.92584	-10879.64456
87	13881.32738	25294.2175	-40874.50097	-37985.91798	-17837.98848	-187500.0224	14161.90882	-11187.40573
88	14192.06133	25998.05158	-40835.65364	-37989.40486	-17756.9187	-187500.0224	13811.61229	-11307.45695
89	13243.87798	24871.4119	-40697.63162	-37907.93275	-17362.61158	-187500.0224	14112.08679	-11125.98313
90	12914.74854	24179.73717	-40741.93278	-37921.67907	-17320.47854	-187500.0224	14745.8705	-10788.27063
91	13207.28817	24377.01367	-40794.16881	-37930.44095	-17544.48772	-187500.0224	14774.90542	-10861.47259
92	13871.55966	25281.3876	-40871.34938	-37968.43892	-17828.86896	-187500.0224	14170.08956	-11177.79448
93	14195.63761	26002.96897	-40843.83438	-37974.42919	-17760.96437	-187500.0224	13808.97478	-11302.3384
94	13260.15005	24893.45072	-40692.8707	-37893.67233	-17359.79526	-187500.0224	14109.73985	-11130.18526
95	12918.59304	24186.46505	-40727.60531	-37919.86858	-17313.79537	-187500.0224	14746.5187	-10809.6836
96	13203.82365	24374.2197	-40798.46034	-37933.68196	-17548.33222	-187500.0224	14775.12893	-10885.2772
97	13873.41486	25275.50909	-40862.85572	-37966.20375	-17824.80095	-187500.0224	14178.13619	-11184.4553
98	14216.89412	26015.91063	-40831.96561	-37978.20663	-17761.12083	-187500.0224	13817.60255	-11302.69603
99	13278.61259	24913.79081	-40694.61414	-37903.35064	-17366.94781	-187500.0224	14104.75541	-11135.88496
100	12923.1528	24191.82947	-40726.73359	-37924.92007	-17311.85076	-187500.0224	14745.11054	-10800.38527
101	13196.38052	24366.50835	-40800.5614	-37948.16589	-17546.72289	-187500.0224	14785.27663	-10876.73883
102	13853.36534	25251.95035	-40876.51263	-37991.72944	-17832.02056	-187500.0224	14186.45104	-11202.67197
103	14213.83193	26010.34504	-40850.94224	-38000.62543	-17774.73304	-187500.0224	13813.71335	-11318.81163
104	13285.38517	24924.94433	-40717.81525	-37923.48956	-17378.28015	-187500.0224	14092.3502	-11140.82469
105	12917.74367	24193.05881	-40751.40992	-37932.63142	-17319.09273	-187500.0224	14731.7442	-10802.48634
106	13198.95097	24371.0234	-40803.22126	-37949.37288	-17538.27394	-187500.0224	14796.89953	-10862.9031
107	13854.46058	25249.24579	-40865.47087	-37975.8597	-17816.55315	-187500.0224	14206.61231	-11182.5554
108	14220.44804	26021.65503	-40851.03164	-37993.227	-17767.98281	-187500.0224	13821.80468	-11304.9312
109	13299.24325	24958.27078	-40719.53633	-37913.36422	-17372.5581	-187500.0224	14113.94198	-11116.97538
110	12918.36952	24203.00534	-40739.20587	-37922.26022	-17314.30946	-187500.0224	14745.31171	-10799.11122
111	13192.02193	24362.26152	-40798.08036	-37941.32625	-17534.40708	-187500.0224	14788.07059	-10863.79717
112	13837.56266	25227.09521	-40861.93929	-37975.63618	-17806.09254	-187500.0224	14196.57638	-11171.29012
113	14223.44318	26020.44803	-40841.24158	-37993.80815	-17761.23259	-187500.0224	13812.93104	-11297.8457
114	13304.4512	24961.02005	-40713.09903	-37916.56052	-17374.458	-187500.0224	14071.98776	-11135.61674
115	12915.37439	24197.03742	-40741.17282	-37939.60517	-17307.04514	-187500.0224	14718.42256	-10809.34832
116	13194.79355	24361.27804	-40798.5274	-37952.07744	-17523.41003	-187500.0224	14795.53608	-10848.39682
117	13836.06509	25218.19922	-40866.56611	-37984.04044	-17808.32771	-187500.0224	14206.25469	-11159.77897
118	14234.57435	26030.46161	-40854.76438	-38005.63222	-17770.12858	-187500.0224	13812.64047	-11302.3384
119	13328.25581	24991.12785	-40714.77541	-37914.37005	-17368.46773	-187500.0224	14069.48436	-11140.02003
120	12928.09253	24213.71182	-40728.67819	-37922.70725	-17290.12487	-187500.0224	14721.37299	-10790.88578
121	13192.24545	24367.06714	-40794.81701	-37944.61196	-17511.02716	-187500.0224	14805.01322	-10828.01203
122	13823.30225	25211.71721	-40858.76535	-37972.32812	-17792.79325	-187500.0224	14217.83289	-11137.60604
123	14235.35666	26041.52573	-40850.83048	-37997.89852	-17766.03821	-187500.0224	13817.31198	-11282.40064
124	13333.79904	25013.45724	-40717.54703	-37923.40015	-17377.56489	-187500.0224	14063.71761	-11145.25034
125	12915.70966	24217.69043	-40731.15924	-37921.56731	-17293.29882	-187500.0224	14710.19712	-10801.68167
126	13182.74596	24369.05645	-40791.21838	-37946.53421	-17507.7638	-187500.0224	14810.19882	-10841.53483
127	13811.41112	25203.35766	-40858.63124	-37974.47389	-17792.1674	-187500.0224	14224.87369	-11154.01222
128	14243.38093	26050.82405	-40848.41649	-37986.49913	-17768.22868	-187500.0224	13823.34695	-11289.95553
129	13349.10999	25038.67001	-40705.52179	-37909.96676	-17374.16743	-187500.0224	14065.77397	-11143.70807
130	12911.17226	24221.57964	-40730.77926	-37925.70238	-17291.68949	-187500.0224	14702.68693	-10807.8284
131	13173.80526	24364.5414	-40793.20768	-37952.81505	-17505.46157	-187500.0224	14812.92573	-10838.02561
132	13797.15071	25188.5161	-40852.23864	-37971.52346	-17786.44535	-187500.0224	14233.68028	-11141.91993
133	14240.27404	26051.36049	-40841.35334	-37983.95103	-17765.92645	-187500.0224	13821.78233	-11281.99831
134	13357.71541	25055.83615	-40701.76669	-37903.23888	-17371.59698	-187500.0224	14051.89354	-11134.90148
135	12907.90891	24227.10052	-40726.53243	-37917.67811	-17282.68174	-187500.0224	14696.5849	-10795.17732
136	13167.47971	24364.04966	-40784.40109	-37935.91713	-17492.81049	-187500.0224	14816.9267	-10818.60194
137	13789.03702	25176.53557	-40838.2688	-37954.40202	-17773.01196	-187500.0224	14239.11175	-11139.17066
138	14248.58889	26057.12724	-40833.01614	-37973.28925	-17757.70101	-187500.0224	13821.11178	-11270.46481
139	13371.99818	25077.91967	-40693.94358	-37906.63635	-17370.07706	-187500.0224	14048.65254	-11143.14927
140	12912.33455	24237.56114	-40712.51788	-37915.39823	-17278.83724	-187500.0224	14697.56838	-10804.27448
141	13157.55554	24359.89223	-40780.42248	-37938.0629	-17494.62098	-187500.0224	14818.37956	-10821.50767
142	13768.51812	25163.68331	-40845.19784	-37975.23385	-17782.13147	-187500.0224	14243.67151	-11140.3106
143	14240.27404	26057.82015	-40840.03459	-37996.49036	-17776.40942	-187500.0224	13819.81538	-11291.96719
144	13384.13517	25102.0372	-40692.71424	-37902.12129	-17380.22475	-187500.0224	14046.01503	-11147.9549
145	12916.69314	24247.79823	-40714.79776	-37911.93371	-17285.40865	-187500.0224	14692.44983	-10812.41051
146	13163.09877	24369.01174	-40790.39136	-37944.85783	-17502.98053	-187500.0224	14824.52629	-10835.3434
147	13764.38305	25161.22462	-40856.26195	-37970.65174	-17790.78159	-187500.0224	14247.71717	-11145.4068
148	14244.34206	26065.75502	-40859.61471	-37991.86355	-17792.68149	-187500.0224	13812.19343	-11287.09451
149	13392.69589	25125.7077	-40718.75402	-37916.62758	-17402.10711	-187500.0224	14026.30079	-11159.30959
150	12913.5639	24264.47264	-40730.68985	-37926.06001	-17297.38919	-187500.0224	14680.60341	-10813.30458
151	13159.32133	24379.00297	-40803.80241	-37949.84227	-17513.77642	-187500.0224	14825.10743	-10822.58055
152	13759.46567	25160.97875	-40865.64968	-37970.74115	-17799.63288	-187500.0224	14252.09811	-11133.85095
153	14247.78423	26076.77443	-40859.16768	-37997.6303	-17808.39477	-187500.0224	13812.72987	-11288.10034
154	13396.56274	25145.22077	-40726.57713	-37935.60421	-17429.5774	-187500.0224	14011.07925	-11175.11227
155	12902.6786	24266.93133	-40737.32832	-37944.12022	-17318.48923	-187500.0224	14661.20209	-10841.06545
156	13150.35828	24379.87469	-40791.68776	-37952.41272	-17516.7045	-187500.0224	14826.605	-10825.6651
157	13737.58331	25144.68433	-40862.49809	-37981.29117	-17805.42198	-187500.0224	14251.98635	-11139.37183
158	14248.1195	26082.94351	-40858.07244	-38000.916	-17812.6416	-187500.0224	13811.72404	-11287.09451
159	13409.32559	25170.72411	-40718.68696	-37920.71795	-17420.99433	-187500.0224	14008.35234	-11161.58946
160	12895.079	24269.83705	-40730.60044	-37926.17177	-17304.09471	-187500.0224	14655.5024	-10822.11117
161	13138.60126	24373.10211	-40800.18142	-37954.1338	-17510.75894	-187500.0224	14821.4641	-10820.47949
162	13728.73202	25133.95549	-40862.29692	-37976.70907	-17799.54348	-187500.0224	14257.57429	-11131.77224
163	14251.2264	26085.75983	-40864.15212	-38006.77216	-17819.88356	-187500.0224	13811.7911	-11287.07216
164	13425.19533	25197.21093	-40728.67819	-37940.29807	-17436.30528	-187500.0224	13998.51757	-11182.26483
165	12909.22766	24287.98667	-40722.21854	-37916.42641	-17302.1054	-187500.0224	14649.69094	-10821.88765
166	13151.83349	24385.7532	-40794.95112	-37952.45742	-17507.18266	-187500.0224	14833.48934	-10813.84102
167	13727.01093	25131.51915	-40865.40381	-37975.59148	-17795.319	-187500.0224	14269.37601	-11122.71978
168	14257.14961	26092.15243	-40861.91694	-37995.97627	-17814.5415	-187500.0224	13816.41791	-11285.37342
169	13442.60734	25219.98736	-40721.50328	-37921.34379	-17425.28587	-187500.0224	13994.40485	-11174.77699
170	12901.27044	24289.19366	-40738.60237	-37932.60907	-17305.43581	-187500.0224	14634.89409	-10843.88177
171	13130.68874	24377.93009	-40809.27858	-37964.84029	-17509.82016	-187500.0224	14820.79355	-10826.60387
172	13707.63197	25119.85154	-40862.87807	-37985.71682	-17792.68149	-187500.0224	14269.55483	-11131.66048
173	14255.13795	26093.06885	-40870.9694	-38003.4194	-17821.42583	-187500.0224	13811.25466	-11285.14991
174	13454.54317	25240.72978	-40737.19421	-37936.40887	-17441.08855	-187500.0224	13980.74794	-11182.6001
175	12906.81367	24300.79422	-40737.41773	-37937.63822	-17308.38624	-187500.0224	14627.40625	-10841.62424
176	13136.14257	24380.92522	-40811.402	-37967.03076	-17511.18362	-187500.0224	14826.0015	-10812.85755
177	13697.57369	25101.81369	-40869.74005	-37984.2416	-17798.85057	-187500.0224	14271.58883	-11131.77224
178	14248.0301	26085.75983	-40872.9587	-38008.00151	-17830.5677	-187500.0224	13802.89511	-11296.88457
179	13451.90566	25248.12821	-40731.82979	-37935.73832	-17442.98845	-187500.0224	13960.31844	-11187.38338
180	12892.95559	24292.94876	-40732.79092	-37929.21161	-17303.3124	-187500.0224	14604.78629	-10839.81375
181	13121.05514	24368.11767	-40799.84615	-37963.92387	-17502.51114	-187500.0224	14820.7712	-10814.75744
182	13683.80501	25086.36863	-40861.78283	-37982.67698	-17792.50268	-187500.0224	14278.02614	-11135.32616
183	14250.86877	26086.67625	-40875.21623	-38008.67206	-17832.98169	-187500.0224	13807.52192	-11297.62218
184	13467.30601	25269.94351	-40740.3458	-37939.38165	-17452.95733	-187500.0224	13958.79852	-11202.02377
185	12893.91671	24300.90598	-40735.07079	-37938.46523	-17310.64377	-187500.0224	14604.42866	-10872.58141
186	13122.4186	24369.86111	-40798.48269	-37967.03076	-17503.53932	-187500.0224	14830.18128	-10826.38035
187	13680.49695	25073.15875	-40861.51461	-37980.44181	-17791.11687	-187500.0224	14286.31863	-11130.6323
188	14257.46253	26078.98725	-40878.23372	-38011.62249	-17841.85533	-187500.0224	13805.75613	-11307.09932
189	13487.10966	25285.03094	-40740.45756	-37944.34374	-17464.89316	-187500.0224	13947.93558	-11205.30948
190	12899.37054	24306.51627	-40738.78118	-37948.81409	-17317.88573	-187500.0224	14590.63764	-10875.50949
191	13116.92007	24367.1789	-40801.8131	-37958.69356	-17505.79685	-187500.0224	14830.02482	-10824.18988
192	13663.53198	25057.78075	-40862.65455	-37980.17359	-17795.83309	-187500.0224	14292.37596	-11137.44958
193	14248.47713	26075.99212	-40884.91689	-38021.92664	-17858.23916	-187500.0224	13808.99713	-11324.82425
194	13494.91042	25304.14168	-40744.97262	-37946.42245	-17475.33142	-187500.0224	13945.0969	-11224.46492
195	12897.38123	24311.99244	-40742.33511	-37936.96766	-17316.27641	-187500.0224	14582.85923	-10872.40259
196	13113.23203	24368.11767	-40806.954	-37966.2261	-17504.25458	-187500.0224	14829.55543	-10819.60777
197	13655.66416	25051.00817	-40864.86737	-37991.17064	-17797.66593	-187500.0224	14300.71316	-11140.37766
198	14251.60638	26078.80844	-40885.29687	-38019.73617	-17859.31204	-187500.0224	13812.64047	-11317.96227
199	13508.67909	25329.55561	-40751.07464	-37950.9375	-17480.67349	-187500.0224	13937.65377	-11226.27541
200	12896.57657	24327.61631	-40735.33901	-37936.38652	-17311.78371	-187500.0224	14579.9535	-10880.8292
201	13104.89483	24372.38686	-40800.62846	-37955.94429	-17495.85032	-187500.0224	14835.43394	-10813.75162
202	13636.79929	25042.98389	-40861.29109	-37979.23481	-17784.99249	-187500.0224	14310.12324	-11117.8471
203	14245.34789	26084.68695	-40881.43002	-38011.46603	-17851.10895	-187500.0224	13819.41304	-11295.67758
204	13515.60813	25354.88014	-40740.50227	-37927.69169	-17471.84455	-187500.0224	13939.08428	-11197.10638
205	12884.52898	24331.46081	-40734.13202	-37925.90355	-17309.01209	-187500.0224	14570.45401	-10859.46093
206	13087.97456	24369.39172	-40808.09394	-37967.63426	-17500.41008	-187500.0224	14838.36202	-10810.22004
207	13623.29884	25033.21618	-40868.28719	-37979.056	-17787.18296	-187500.0224	14319.8239	-11126.69839
208	14251.58402	26090.02901	-40886.28034	-38008.15797	-17853.6347	-187500.0224	13825.49272	-11293.57651
209	13536.84229	25384.33974	-40745.48671	-37940.43218	-17478.50537	-187500.0224	13940.64891	-11200.99559
210	12896.91185	24351.64444	-40737.19421	-37922.48373	-17307.98391	-187500.0224	14581.36166	-10848.64269
211	13094.16599	24373.79502	-40810.37382	-37956.95012	-17498.33137	-187500.0224	14841.02188	-10790.43875
212	13618.58262	25026.75653	-40869.58359	-37983.14637	-17791.11687	-187500.0224	14331.33505	-11103.1173
213	14239.71525	26080.32835	-40893.76818	-38018.1939	-17874.8465	-187500.0224	13818.85425	-11304.43946
214	13538.65278	25400.09772	-40760.35062	-37949.70816	-17501.8853	-187500.0224	13929.6295	-11211.50091
215	12885.4454	24352.85143	-40733.68498	-37925.50122	-17318.46688	-187500.0224	14559.09932	-10867.68638
216	13075.0776	24366.44129	-40810.1056	-37962.40395	-17501.3265	-187500.0224	14826.09091	-10808.40955
217	13599.51658	25014.08309	-40866.11907	-37977.1561	-17788.50171	-187500.0224	14323.37783	-11114.09201
218	14236.87658	26083.07762	-40890.37071	-38005.43106	-17872.07489	-187500.0224	13823.9728	-11292.7495
219	13548.4652	25419.45433	-40755.20971	-37939.22519	-17504.32164	-187500.0224	13916.8443	-11212.30557
220	12884.7972	24357.52295	-40733.52852	-37927.95991	-17320.27737	-187500.0224	14541.39674	-10878.32581
221	13080.19615	24370.3752	-40800.80727	-37956.88307	-17499.3819	-187500.0224	14834.31635	-10800.85466
222	13595.64973	25001.96844	-40861.53696	-37978.87718	-17793.12853	-187500.0224	14332.27382	-11112.43798
223	14240.4305	26079.25547	-40895.86924	-38020.27261	-17885.97767	-187500.0224	13820.95531	-11311.41321
224	13569.00645	25441.62726	-40749.77824	-37936.54298	-17509.55194	-187500.0224	13911.47988	-11228.89057
225	12896.66598	24367.60358	-40724.9678	-37921.45555	-17315.09177	-187500.0224	14537.48519	-10891.58039
226	13085.3594	24368.83293	-40805.67995	-37967.43309	-17495.91738	-187500.0224	14837.64676	-10811.82937
227	13596.02971	24995.35233	-40856.10549	-37970.65174	-17779.40455	-187500.0224	14345.55076	-11105.82186
228	14247.06897	26077.84731	-40884.38045	-38006.03455	-17874.48888	-187500.0224	13832.42176	-11298.67271
229	13587.67016	25459.531	-40751.54403	-37939.49341	-17512.30121	-187500.0224	13908.30593	-11231.70689
230	12902.58919	24377.43835	-40722.73263	-37918.05809	-17316.16465	-187500.0224	14532.05371	-10892.22859
231	13083.19129	24370.75518	-40799.66733	-37960.23583	-17491.55879	-187500.0224	14842.40768	-10810.77883
232	13589.12302	24983.64001	-40863.9733	-37973.28925	-17780.34333	-187500.0224	14352.01041	-11114.31552
233	14253.55098	26078.00377	-40889.5437	-37998.83729	-17874.04184	-187500.0224	13835.08162	-11293.37535
234	13604.97041	25482.08391	-40752.30399	-37935.31363	-17512.74824	-187500.0224	13902.98622	-11220.32985
235	12901.27044	24385.01559	-40723.31378	-37920.91911	-17311.89547	-187500.0224	14520.00612	-10883.19849
236	13075.0776	24371.29162	-40795.48756	-37955.16198	-17479.66766	-187500.0224	14840.97717	-10791.33282
237	13568.71588	24969.46901	-40851.27751	-37961.33106	-17762.95367	-187500.0224	14356.95015	-11082.55369
238	14245.99609	26071.09708	-40879.3066	-38004.80521	-17867.96217	-187500.0224	13840.6472	-11281.93126
239	13619.6108	25500.38999	-40748.68301	-37942.10856	-17512.27886	-187500.0224	13902.18155	-11216.93238
240	12898.54352	24389.39654	-40727.09122	-37929.34572	-17309.57089	-187500.0224	14510.19371	-10881.87973
241	13067.07568	24365.56958	-40796.11341	-37963.81211	-17475.68905	-187500.0224	14841.31245	-10783.68852
242	13562.21152	24956.97438	-40842.29211	-37966.20375	-17755.13056	-187500.0224	14371.63524	-11081.45846
243	14240.9893	26062.3799	-40876.91496	-38005.05108	-17861.74838	-187500.0224	13845.85516	-11281.39481
244	13625.42225	25513.37636	-40749.64413	-37944.43315	-17507.60734	-187500.0224	13895.16311	-11220.08398
245	12896.9342	24393.77748	-40719.7375	-37929.54688	-17296.40571	-187500.0224	14505.18692	-10895.11197
246	13064.46052	24366.88833	-40787.06095	-37954.87141	-17452.75616	-187500.0224	14849.53789	-10787.44361
247	13557.85293	24949.5089	-40835.54188	-37959.16295	-17735.05869	-187500.0224	14386.99089	-11085.39237
248	14242.06218	26057.57428	-40886.16859	-38001.18423	-17856.60748	-187500.0224	13849.6326	-11280.67956
249	13644.533	25533.8282	-40756.03673	-37939.38165	-17507.20501	-187500.0224	13888.6364	-11229.22584
250	12916.2014	24408.172	-40709.36629	-37904.57999	-17283.30759	-187500.0224	14505.47749	-10871.86615
251	13080.93376	24372.69978	-40790.14549	-37949.21642	-17449.76103	-187500.0224	14855.3717	-10766.20946
252	13561.40686	24943.27276	-40841.88978	-37959.31941	-17732.71176	-187500.0224	14394.45637	-11063.53236
253	14251.67343	26056.21082	-40885.78861	-38007.08509	-17856.96511	-187500.0224	13855.44406	-11271.69416
254	13667.06355	25550.97199	-40758.20485	-37947.45063	-17514.96107	-187500.0224	13884.85895	-11224.28611
255	12921.02938	24414.72106	-40709.94743	-37911.1961	-17285.85568	-187500.0224	14493.98869	-10884.45018
0	13067.3439	24364.69786	-40783.03764	-37950.04343	-17443.03315	-187500.0224	14852.30951	-10756.88878
1	13539.43509	24927.82771	-40845.75663	-37971.03172	-17734.47755	-187500.0224	14395.32809	-11062.70535
2	14234.14966	26047.73951	-40889.81192	-38022.30662	-17864.18472	-187500.0224	13846.70452	-11289.28498
3	13667.39883	25574.21781	-40763.3681	-37954.87141	-17516.43628	-187500.0224	13867.75987	-11233.24916
4	12912.80394	24429.92025	-40711.93674	-37913.96772	-17279.70896	-187500.0224	14478.7001	-10892.56387
5	13063.56645	24375.04672	-40787.30682	-37943.74024	-17432.86311	-187500.0224	14853.04711	-10743.61184
6	13535.18826	24929.01235	-40849.73524	-37966.24845	-17724.06164	-187500.0224	14406.16869	-11047.46146
7	14235.80369	26051.80753	-40897.2327	-38012.76243	-17858.86501	-187500.0224	13857.47807	-11266.30739
8	13686.59898	25603.23037	-40768.93369	-37948.00943	-17515.16223	-187500.0224	13876.47705	-11215.41246
9	12920.24707	24445.45471	-40718.17287	-37913.76655	-17280.44656	-187500.0224	14479.70593	-10890.4181
10	13061.77831	24378.64535	-40797.09688	-37961.66634	-17437.2664	-187500.0224	14860.98198	-10762.76729
11	13522.62658	24919.08818	-40860.93347	-37985.38154	-17728.66609	-187500.0224	14417.65748	-11059.01731
12	14227.10886	26046.77839	-40912.40953	-38031.91787	-17869.45973	-187500.0224	13862.57426	-11272.81174
13	13692.72336	25622.31876	-40785.36222	-37960.90638	-17526.69573	-187500.0224	13872.6996	-11213.89254
14	12914.2568	24454.28365	-40739.49644	-37935.17952	-17286.59329	-187500.0224	14465.57962	-10891.49098
15	13056.07862	24379.67353	-40792.09009	-37965.6673	-17428.34806	-187500.0224	14863.82066	-10755.45827
16	13514.73642	24910.19218	-40850.98694	-37979.50303	-17712.99752	-187500.0224	14427.64871	-11050.70246
17	14229.34404	26040.34108	-40898.30558	-38024.72061	-17853.6347	-187500.0224	13868.8104	-11266.08387
18	13714.80688	25640.91541	-40773.13581	-37960.79462	-17521.82305	-187500.0224	13871.15733	-11225.40369
19	12926.37145	24464.40899	-40727.67237	-37930.61977	-17279.0384	-187500.0224	14465.64668	-10894.82139
20	13057.53148	24382.64631	-40806.84224	-37976.97729	-17429.68916	-187500.0224	14863.55243	-10760.24154
21	13509.17083	24907.28645	-40858.85475	-37986.45443	-17714.65155	-187500.0224	14439.0034	-11047.88614
22	14224.11373	26040.20697	-40910.53199	-38025.99466	-17861.39075	-187500.0224	13878.73457	-11259.89244
23	13725.44631	25666.57521	-40783.12704	-37968.72949	-17525.80166	-187500.0224	13874.17482	-11229.3823
24	12922.41519	24480.07756	-40729.52756	-37928.474	-17274.90333	-187500.0224	14462.87506	-10904.00796
25	13039.96301	24377.95244	-40807.42339	-37963.52154	-17423.76595	-187500.0224	14862.34544	-10749.89268
26	13489.94833	24894.27774	-40871.72936	-37983.5934	-17710.87411	-187500.0224	14441.43974	-11042.18644
27	14213.63076	26032.38386	-40916.90223	-38023.44656	-17863.8718	-187500.0224	13880.23214	-11260.49593
28	13732.19654	25682.71317	-40791.24073	-37967.05311	-17539.92796	-187500.0224	13866.70934	-11227.59416
29	12929.99243	24492.90746	-40737.753	-37930.50801	-17287.44266	-187500.0224	14455.76721	-10899.29174
30	13050.1107	24387.0049	-40816.65466	-37976.30673	-17435.00888	-187500.0224	14869.22978	-10748.93156
31	13496.05036	24894.34479	-40866.40964	-37986.85676	-17717.08789	-187500.0224	14460.97517	-11035.8609
32	14224.02432	26034.93196	-40916.76812	-38029.19096	-17871.71726	-187500.0224	13892.41384	-11257.70196
33	13757.9681	25708.14946	-40794.03469	-37977.78195	-17550.12036	-187500.0224	13865.05531	-11234.09852
34	12934.93216	24501.66935	-40742.2457	-37943.06969	-17297.81387	-187500.0224	14440.36686	-10922.17993
35	13047.38379	24385.105	-40814.21832	-37980.44181	-17437.19935	-187500.0224	14864.02182	-10755.01123
36	13484.80743	24879.7044	-40865.06854	-37979.34657	-17716.59615	-187500.0224	14457.64476	-11018.5383
37	14218.34698	26025.81245	-40910.97902	-38014.46116	-17872.58898	-187500.0224	13889.91045	-11241.80987
38	13776.96708	25730.74707	-40781.92005	-37959.65468	-17550.83562	-187500.0224	13867.33518	-11217.58058
39	12942.75528	24519.17076	-40730.064	-37930.64212	-17293.96937	-187500.0224	14442.8926	-10903.49387
40	13047.22733	24395.87854	-40806.2611	-37973.55747	-17428.68333	-187500.0224	14877.20935	-10730.82664
41	13483.93571	24890.09796	-40861.78283	-37986.38737	-17708.77304	-187500.0224	14490.65828	-11006.33425
42	14211.6191	26024.24783	-40917.12575	-38032.96841	-17884.4354	-187500.0224	13897.33123	-11259.62421
43	13784.16434	25748.94139	-40802.12603	-37978.4525	-17569.25345	-187500.0224	13859.89205	-11235.6855
44	12947.5609	24534.86169	-40738.80353	-37941.28155	-17301.72542	-187500.0224	14440.83624	-10922.71637
45	13043.24872	24391.00586	-40808.78685	-37978.09487	-17435.63472	-187500.0224	14863.57479	-10758.34164
46	13470.45761	24868.34972	-40867.30371	-37991.66238	-17721.89352	-187500.0224	14467.8148	-11036.19618
47	14205.22651	26013.40723	-40925.66412	-38037.95284	-17893.06317	-187500.0224	13886.82591	-11266.03916
48	13791.60747	25763.31356	-40807.71396	-37973.51277	-17581.16693	-187500.0224	13839.68608	-11239.06061
49	12942.75528	24538.75089	-40743.74327	-37930.99975	-17306.44164	-187500.0224	14410.30376	-10926.47146
50	13030.46352	24390.96116	-40812.36313	-37969.78002	-17432.34902	-187500.0224	14855.95284	-10747.41164
51	13449.51403	24858.06791	-40861.53696	-37978.76543	-17713.3328	-187500.0224	14475.99554	-11017.75599
52	14189.24501	26002.7678	-40917.23751	-38020.60789	-17888.30225	-187500.0224	13891.81034	-11250.92939
53	13792.23332	25776.09876	-40802.08132	-37972.30577	-17583.15624	-187500.0224	13832.66763	-11233.47267
54	12934.64159	24542.55069	-40732.74621	-37937.70527	-17304.54174	-187500.0224	14398.43498	-10924.52686
55	13020.40524	24382.75807	-40795.77813	-37963.61094	-17425.0847	-187500.0224	14857.361	-10730.91605
56	13437.22057	24842.66756	-40852.64097	-37969.53416	-17704.86149	-187500.0224	14485.00329	-11000.43339
57	14182.83006	25987.16628	-40911.20254	-38024.20652	-17892.10205	-187500.0224	13898.06883	-11253.79041
58	13811.43347	25792.48259	-40788.11148	-37970.16	-17591.42638	-187500.0224	13836.1545	-11250.46
59	12948.38791	24560.7003	-40719.04459	-37921.32144	-17306.17342	-187500.0224	14401.92186	-10938.67552
60	13020.11466	24390.2459	-40799.33206	-37960.45935	-17432.729	-187500.0224	14862.14427	-10751.16673
61	13434.56071	24844.05337	-40856.01608	-37976.75377	-17713.69043	-187500.0224	14496.73796	-11019.27591
62	14187.76979	25990.47434	-40915.2035	-38022.0384	-17895.41011	-187500.0224	13905.86959	-11252.80693
63	13830.11953	25815.90722	-40810.66439	-37982.22995	-17606.3797	-187500.0224	13828.35374	-11254.41626
64	12955.65223	24573.79843	-40743.11742	-37942.26503	-17323.80895	-187500.0224	14384.01811	-10962.43542
65	13025.83671	24392.81635	-40812.49724	-37972.59634	-17436.50644	-187500.0224	14854.7235	-10768.62344
66	13433.8231	24838.0184	-40867.84016	-37983.61575	-17712.23756	-187500.0224	14496.42503	-11020.32644
67	14174.35875	25977.89031	-40939.14222	-38042.31144	-17905.91543	-187500.0224	13891.63153	-11272.85645
68	13832.13119	25828.53595	-40823.36018	-37988.77901	-17613.97929	-187500.0224	13809.42181	-11270.04013
69	12954.13231	24581.46508	-40739.54114	-37930.44095	-17315.06941	-187500.0224	14369.51183	-10953.62883
70	13020.09231	24393.4869	-40806.79754	-37967.90248	-17427.27517	-187500.0224	14851.34838	-10749.53505
71	13425.30709	24828.4742	-40861.984	-37983.504	-17707.09666	-187500.0224	14501.00714	-11010.35756
72	14177.0186	25972.14591	-40926.89346	-38028.9898	-17900.77453	-187500.0224	13901.53335	-11253.701
73	13855.08643	25852.877	-40817.95106	-37981.40293	-17612.10175	-187500.0224	13815.09916	-11241.96634
74	12963.07301	24600.59817	-40751.76755	-37943.22615	-17322.42314	-187500.0224	14365.04148	-10949.60552
75	13012.40331	24395.2974	-40813.14544	-37973.55747	-17428.30335	-187500.0224	14849.76141	-10745.39998
76	13413.14774	24824.45089	-40844.1026	-37969.06477	-17690.62343	-187500.0224	14514.95463	-11000.6569
77	14166.0439	25969.32959	-40902.84299	-38014.79644	-17877.46166	-187500.0224	13916.30786	-11246.95078
78	13862.12723	25873.61942	-40800.00261	-37976.59731	-17594.17565	-187500.0224	13816.03793	-11251.8011
79	12971.14199	24615.17151	-40714.10486	-37920.31561	-17289.99076	-187500.0224	14362.29221	-10949.13613
80	13017.65597	24399.54423	-40788.22324	-37958.87237	-17397.88263	-187500.0224	14854.58939	-10735.20759
81	13414.13121	24819.26528	-40842.64974	-37973.89275	-17674.9772	-187500.0224	14521.01195	-10995.89598
82	14168.97198	25957.97491	-40895.13164	-38019.02092	-17868.09628	-187500.0224	13922.74516	-11242.54748
83	13883.65196	25886.40462	-40786.88214	-37960.77227	-17591.20287	-187500.0224	13819.27893	-11247.24135
84	12979.18862	24623.12873	-40710.26036	-37909.05033	-17291.1754	-187500.0224	14355.7208	-10959.19442
85	13011.19632	24394.44803	-40781.87535	-37954.53613	-17394.48516	-187500.0224	14855.03642	-10742.49425
86	13404.29645	24809.29641	-40834.37959	-37972.23872	-17665.18714	-187500.0224	14537.17226	-10996.1195
87	14163.71932	25948.60952	-40886.74973	-38006.77216	-17858.90971	-187500.0224	13935.88798	-11244.46973
88	13897.17476	25900.70974	-40786.81508	-37960.437	-17585.99491	-187500.0224	13821.15648	-11246.07906
89	12990.11862	24638.41732	-40710.7521	-37909.2515	-17278.3902	-187500.0224	14352.5692	-10947.52681
90	13020.85227	24403.23226	-40773.80637	-37943.06969	-17372.84867	-187500.0224	14863.91006	-10729.88787
91	13409.5044	24806.27892	-40825.12597	-37960.79462	-17649.9656	-187500.0224	14550.38214	-10982.7308
92	14167.3403	25942.48515	-40885.18511	-38002.97236	-17857.38979	-187500.0224	13945.99097	-11222.02858
93	13923.3263	25927.7777	-40774.32046	-37942.44384	-17581.27869	-187500.0224	13829.1584	-11214.78661
94	13004.26728	24657.34925	-40697.9669	-37903.5071	-17274.41159	-187500.0224	14351.74219	-10933.28875
95	13020.44994	24403.41108	-40773.89577	-37946.46715	-17373.02749	-187500.0224	14863.41832	-10709.68189
96	13400.45195	24798.20994	-40823.80722	-37958.49239	-17643.59535	-187500.0224	14560.39572	-10960.49082
97	14155.1586	25931.42103	-40885.83331	-38001.60891	-17847.66678	-187500.0224	13951.82478	-11219.41343
98	13927.68489	25941.72519	-40787.21741	-37966.65078	-17588.78888	-187500.0224	13821.53646	-11243.24039
99	13004.42374	24670.04504	-40697.51986	-37910.95023	-17270.6565	-187500.0224	14344.00849	-10959.97673
100	13008.33529	24401.66764	-40771.72765	-37948.16589	-17364.04209	-187500.0224	14862.81483	-10725.7528
101	13387.55499	24789.381	-40821.72851	-37954.06675	-17636.15222	-187500.0224	14572.46567	-10969.47622
102	14147.44725	25920.66984	-40886.03448	-38001.94418	-17850.84073	-187500.0224	13964.11824	-11239.93233
103	13938.72666	25953.79513	-40789.0279	-37966.02493	-17600.21062	-187500.0224	13822.49759	-11257.79137
104	13011.17396	24684.41721	-40690.21084	-37900.24375	-17270.56709	-187500.0224	14337.95116	-10961.45194
105	13008.69292	24407.94848	-40757.26608	-37938.6664	-17358.00712	-187500.0224	14865.63115	-10724.94814
106	13386.95149	24792.73376	-40810.97732	-37951.74217	-17629.87138	-187500.0224	14586.77078	-10956.08752
107	14138.5736	25915.17132	-40881.92175	-38003.26294	-17854.66288	-187500.0224	13971.44961	-11223.28028
108	13950.08134	25981.44424	-40782.21062	-37964.86264	-17602.31168	-187500.0224	13826.99029	-11252.11403
109	13012.09039	24712.11102	-40697.18459	-37905.20583	-17276.04327	-187500.0224	14328.98811	-10970.14677
110	13003.57437	24425.85223	-40761.08822	-37929.09985	-17352.26272	-187500.0224	14865.09471	-10718.91316
111	13376.33441	24798.56757	-40816.29703	-37946.80243	-17624.03758	-187500.0224	14597.54432	-10948.48793
112	14136.09256	25918.36761	-40886.23564	-37993.7858	-17849.96901	-187500.0224	13985.50886	-11204.08013
113	13963.82767	26001.4714	-40796.82866	-37963.45448	-17617.19794	-187500.0224	13821.17883	-11241.22873
114	13023.33331	24725.14209	-40701.43142	-37910.99494	-17291.53303	-187500.0224	14316.18056	-10970.43734
115	13002.88147	24419.79491	-40767.32436	-37949.10466	-17372.58045	-187500.0224	14859.73029	-10722.57885
116	13373.20517	24786.47528	-40820.02977	-37952.27861	-17640.10848	-187500.0224	14602.72993	-10946.43157
117	14130.52698	25902.05084	-40885.6992	-37994.4787	-17860.40728	-187500.0224	13987.43111	-11210.49508
118	13979.76446	26017.67642	-40797.05218	-37967.14252	-17627.07742	-187500.0224	13820.28476	-11252.78458
119	13027.31192	24737.01086	-40700.42559	-37904.24471	-17294.03642	-187500.0224	14309.5421	-10983.04373
120	12993.02435	24416.39744	-40767.2126	-37931.60324	-17367.32779	-187500.0224	14855.14818	-10717.48265
121	13356.86604	24774.76296	-40817.7946	-37947.76356	-17635.7946	-187500.0224	14607.91553	-10942.43061
122	14110.70098	25883.94593	-40886.74973	-37995.90921	-17863.38006	-187500.0224	13991.40972	-11217.44647
123	13980.03268	26027.55589	-40797.05218	-37967.18722	-17634.18527	-187500.0224	13817.49079	-11260.94297
124	13031.06702	24755.4287	-40692.42366	-37905.00467	-17290.12487	-187500.0224	14309.85502	-10990.64332
125	12986.6094	24417.31386	-40762.31757	-37939.09108	-17365.78552	-187500.0224	14857.62922	-10732.72654
126	13346.20426	24765.03995	-40817.32521	-37954.26791	-17629.20083	-187500.0224	14616.00687	-10943.83877
127	14101.89439	25866.35511	-40878.36783	-37997.31737	-17857.63566	-187500.0224	13992.66142	-11233.53973
128	13997.84702	26038.86587	-40789.83257	-37961.80045	-17629.91609	-187500.0224	13812.21578	-11272.02943
129	13042.93579	24763.20711	-40687.81921	-37891.50422	-17285.74393	-187500.0224	14293.27003	-10990.30805
130	12982.09435	24411.9718	-40760.99882	-37939.15813	-17361.15871	-187500.0224	14847.25801	-10735.56521
131	13332.5697	24750.80189	-40816.14057	-37957.12894	-17629.53611	-187500.0224	14613.16819	-10957.071
