Sample Index	 EXG Channel 0	 EXG Channel 1	 EXG Channel 2	 EXG Channel 3	 EXG Channel 4	 EXG Channel 5	 EXG Channel 6	 EXG Channel 7
0	-11679.36762	8638.524549	-39292.08687	-15774.90011	283.8448028	-187500.0224	-13200.22502	-893.3098189
1	-9737.939803	10318.81694	-39532.72576	-15766.04882	366.0768707	-187500.0224	-13194.10064	-863.9843302
2	-6634.042458	12989.29161	-39872.8746	-15860.26142	434.4732087	-187500.0224	-13387.44323	-889.0853392
3	-8293.145394	11445.30016	-39811.00497	-16144.06152	-325.8213789	-187500.0224	-13637.80512	-1328.341821
4	-11678.54061	8555.018432	-39342.80298	-15992.40494	-515.0288957	-187500.0224	-13417.7969	-1217.700686
5	-11725.36751	8600.392473	-39270.83037	-15776.55414	269.4055759	-187500.0224	-13200.29207	-892.1028247
6	-9899.967599	10180.75021	-39514.24086	-15771.14502	365.2945596	-187500.0224	-13191.93252	-868.3876238
7	-6709.501947	12928.15959	-39850.12053	-15836.56857	456.6014357	-187500.0224	-13364.26447	-849.4109928
8	-8068.935045	11639.00037	-39828.39463	-16131.85747	-267.8856573	-187500.0224	-13635.72641	-1286.29819
9	-11574.49324	8631.595508	-39373.42487	-16021.77513	-518.9180993	-187500.0224	-13448.5082	-1239.851265
10	-11761.42088	8559.712298	-39281.82742	-15789.02641	269.4502794	-187500.0224	-13216.85472	-906.2738307
11	-10028.98187	10060.69899	-39500.89687	-15764.68536	423.1855778	-187500.0224	-13192.71483	-865.7724697
12	-6807.804919	12836.1151	-39840.1293	-15827.53847	479.4225668	-187500.0224	-13355.86022	-858.2175801
13	-7838.130932	11837.01448	-39842.1186	-16108.47755	-151.4107169	-187500.0224	-13630.85373	-1264.527591
14	-11439.66752	8736.626355	-39384.95837	-16018.98116	-455.9532351	-187500.0224	-13463.34976	-1264.371129
15	-11807.57723	8510.225536	-39262.2473	-15785.67365	232.3016801	-187500.0224	-13218.39699	-926.1221798
16	-10197.73754	9911.63521	-39472.95719	-15759.74563	361.3159491	-187500.0224	-13184.64585	-883.3185891
17	-6924.883357	12740.76256	-39808.74745	-15800.80578	472.761747	-187500.0224	-13328.59109	-834.9941176
18	-7659.518142	11997.56706	-39854.59088	-16095.42413	-161.5807607	-187500.0224	-13626.36103	-1247.450858
19	-11364.36449	8796.596086	-39399.93404	-16031.52049	-598.4903095	-187500.0224	-13481.83465	-1293.540155
20	-11857.62279	8470.461782	-39257.1958	-15783.77375	179.1045283	-187500.0224	-13233.28325	-923.037639
21	-10345.37081	9790.578162	-39456.34984	-15763.2772	362.8582195	-187500.0224	-13188.98209	-879.3399786
22	-7060.647852	12634.12239	-39783.98171	-15798.12357	477.8802965	-187500.0224	-13311.73787	-823.505321
23	-7477.239666	12166.74741	-39866.10202	-16096.27349	-107.5565943	-187500.0224	-13619.72256	-1220.293489
24	-11242.01104	8902.141023	-39421.70464	-16058.72256	-616.3046499	-187500.0224	-13502.3312	-1303.576088
25	-11886.79181	8448.735887	-39239.80614	-15790.52398	153.9588158	-187500.0224	-13227.78472	-930.3466595
26	-10472.50753	9683.178029	-39436.5909	-15756.68344	371.7989173	-187500.0224	-13182.34362	-874.5567053
27	-7205.733026	12512.12657	-39770.01187	-15774.87776	480.9424854	-187500.0224	-13296.87396	-807.4344167
28	-7305.108882	12324.75189	-39881.90471	-16069.98784	-52.83952389	-187500.0224	-13608.21141	-1197.807634
29	-11101.30681	9025.321487	-39440.30129	-16057.53792	-612.795426	-187500.0224	-13511.20484	-1325.994888
30	-11905.79079	8437.425904	-39231.82657	-15772.93316	156.8645426	-187500.0224	-13226.89065	-928.379706
31	-10574.54325	9599.470746	-39432.99227	-15745.50757	436.5072175	-187500.0224	-13189.0715	-877.9318187
32	-7350.505275	12389.41549	-39767.62024	-15770.40741	511.765541	-187500.0224	-13291.95658	-824.466446
33	-7117.465987	12494.82632	-39894.10876	-16040.55059	57.75690767	-187500.0224	-13593.59337	-1154.288787
34	-10898.33062	9196.468794	-39477.69576	-16070.23371	-494.2194217	-187500.0224	-13533.71305	-1313.924946
35	-11935.18334	8402.378369	-39254.22302	-15806.63959	124.4768649	-187500.0224	-13249.30945	-963.2260756
36	-10723.78584	9467.662509	-39421.52583	-15758.18101	375.6657691	-187500.0224	-13184.39998	-891.812252
37	-7533.566062	12235.41197	-39742.34041	-15766.89819	474.7287005	-187500.0224	-13273.76226	-815.1681203
38	-6999.806404	12604.90866	-39909.4197	-16044.66332	53.48772448	-187500.0224	-13584.98795	-1148.633796
39	-10793.61269	9280.846629	-39502.66266	-16104.14131	-634.7001356	-187500.0224	-13550.74508	-1360.528333
40	-11971.28141	8365.788563	-39245.59525	-15821.59291	44.65878542	-187500.0224	-13263.01107	-960.3203488
41	-10830.00133	9371.326491	-39408.4277	-15774.54248	385.7017023	-187500.0224	-13193.98888	-878.2223914
42	-7701.65118	12080.62614	-39723.56495	-15783.95257	472.5382295	-187500.0224	-13267.01203	-821.4713122
43	-6861.292644	12719.57311	-39918.47216	-16040.6847	105.2990681	-187500.0224	-13576.27077	-1117.67663
44	-10616.18455	9425.842396	-39529.93179	-16118.33467	-629.2686617	-187500.0224	-13564.40199	-1357.041461
45	-11988.96164	8347.415429	-39245.6176	-15832.92524	4.425645402	-187500.0224	-13268.80017	-982.605038
46	-10931.18768	9288.088594	-39401.02928	-15770.45211	393.8153856	-187500.0224	-13194.59238	-886.0678537
47	-7875.100717	11938.82667	-39701.41437	-15764.23833	477.4556133	-187500.0224	-13247.61072	-815.3022308
48	-6744.013041	12836.40567	-39915.7229	-16011.49333	163.0783275	-187500.0224	-13546.5206	-1099.750531
49	-10422.70785	9595.67095	-39553.64699	-16106.77881	-601.8207195	-187500.0224	-13566.97244	-1356.974406
50	-11978.9257	8354.411525	-39244.9694	-15819.87182	3.218651202	-187500.0224	-13269.18015	-979.7440147
51	-11009.95523	9220.63103	-39389.1605	-15759.90209	443.0115751	-187500.0224	-13188.98209	-879.7870135
52	-8053.132362	11782.83385	-39707.85167	-15768.284	501.5507938	-187500.0224	-13253.55628	-833.7647717
53	-6645.933586	12926.93024	-39946.16597	-16004.72075	227.1831306	-187500.0224	-13557.83058	-1086.406539
54	-10198.74337	9790.868734	-39609.504	-16136.43958	-481.2777616	-187500.0224	-13612.36884	-1381.538973
55	-11983.15018	8344.979089	-39281.96153	-15865.87171	-19.02133453	-187500.0224	-13309.05566	-1051.291949
56	-11129.73823	9113.297953	-39402.5939	-15783.39377	385.7017023	-187500.0224	-13208.53987	-932.6041857
57	-8257.650823	11601.96353	-39694.50768	-15771.99438	449.8959124	-187500.0224	-13252.23753	-862.9114464
58	-6566.517838	12995.5948	-39953.5644	-15993.65663	245.8468373	-187500.0224	-13543.95015	-1084.707807
59	-10029.94299	9922.565213	-39641.91403	-16151.81758	-585.8839257	-187500.0224	-13621.80127	-1425.19193
60	-11993.58845	8325.26485	-39286.20837	-15874.27597	-128.7683998	-187500.0224	-13322.15379	-1090.809833
61	-11201.26381	9050.176626	-39397.22948	-15783.63964	391.937839	-187500.0224	-13216.18417	-934.8840636
62	-8438.498788	11441.58977	-39689.56795	-15780.15277	441.4916565	-187500.0224	-13254.83033	-868.6558448
63	-6500.535488	13056.65976	-39961.2981	-15986.45937	280.4696894	-187500.0224	-13534.78593	-1063.831277
64	-9823.502281	10099.97101	-39680.24727	-16172.47059	-572.0705476	-187500.0224	-13642.0296	-1429.885796
65	-11987.8664	8322.493234	-39303.57567	-15908.38473	-184.4912987	-187500.0224	-13345.31019	-1108.780635
66	-11289.70966	8969.509181	-39393.40733	-15807.57836	376.2022109	-187500.0224	-13226.57773	-940.1143718
67	-8634.56829	11270.57657	-39672.71473	-15794.05556	426.3371737	-187500.0224	-13247.40955	-886.2243159
68	-6466.516133	13093.49544	-39962.37099	-15978.56921	312.8350154	-187500.0224	-13515.47402	-1049.012071
69	-9613.462938	10281.98126	-39707.20347	-16174.19167	-534.1396372	-187500.0224	-13648.44455	-1416.854729
70	-11957.19981	8342.855673	-39309.0295	-15912.34099	-181.0491301	-187500.0224	-13358.8777	-1108.937098
71	-11347.2207	8920.335343	-39379.92923	-15786.12069	420.7268859	-187500.0224	-13224.99075	-918.4108279
72	-8810.185946	11117.28831	-39665.56217	-15784.64547	474.4828313	-187500.0224	-13252.17047	-888.7947665
73	-6444.030278	13116.80831	-39958.59354	-15950.74129	368.3791004	-187500.0224	-13506.95801	-1011.572899
74	-9359.345956	10501.07306	-39721.26272	-16155.19269	-392.7425018	-187500.0224	-13658.16756	-1369.849011
75	-11926.84614	8358.18897	-39321.39001	-15919.67236	-178.2328103	-187500.0224	-13379.88834	-1121.185854
76	-11432.93964	8844.160598	-39369.11099	-15780.37629	413.1496445	-187500.0224	-13226.06364	-911.0794557
77	-9007.015408	10946.76685	-39635.65554	-15774.05075	477.7908895	-187500.0224	-13238.13358	-866.621836
78	-6451.451057	13115.40015	-39936.26415	-15931.94347	402.8454903	-187500.0224	-13477.27489	-976.0336251
79	-9149.26191	10682.07749	-39735.7243	-16165.49685	-356.4432688	-187500.0224	-13654.32306	-1365.401014
80	-11894.57022	8376.048014	-39320.22772	-15947.65674	-212.8780142	-187500.0224	-13390.01368	-1144.431668
81	-11498.76553	8780.234609	-39335.78453	-15789.76402	407.9193363	-187500.0224	-13212.00439	-900.3059149
82	-9187.662207	10783.30854	-39595.86943	-15778.78932	477.7238342	-187500.0224	-13216.81001	-851.1767806
83	-6465.286787	13105.11835	-39913.75594	-15918.57712	426.5383394	-187500.0224	-13445.60247	-945.5234939
84	-8962.133105	10840.03727	-39752.06342	-16167.66497	-418.2458422	-187500.0224	-13642.94602	-1365.35631
85	-11878.18639	8384.698139	-39310.83999	-15949.22137	-344.6415478	-187500.0224	-13377.67552	-1138.463752
86	-11568.32416	8724.578765	-39320.04891	-15778.52109	369.720205	-187500.0224	-13203.28721	-877.0153972
87	-9390.839564	10612.20594	-39582.95013	-15772.08379	418.2234905	-187500.0224	-13211.64676	-854.8871702
88	-6504.827023	13080.44202	-39908.63739	-15891.73268	445.6267292	-187500.0224	-13433.04079	-911.6829528
89	-8745.209425	11034.07276	-39781.83595	-16152.26461	-373.743519	-187500.0224	-13653.69721	-1350.313586
90	-11838.55675	8415.58825	-39338.95848	-15962.56536	-393.3459989	-187500.0224	-13407.85037	-1185.961209
91	-11636.18405	8669.124087	-39318.68545	-15777.15764	353.4257833	-187500.0224	-13215.44656	-901.4682056
92	-9567.552455	10460.25878	-39567.9521	-15758.62804	422.2468045	-187500.0224	-13215.06658	-870.2428186
93	-6557.57714	13042.60052	-39896.76862	-15855.47815	475.4216046	-187500.0224	-13418.4451	-891.6334381
94	-8521.759036	11232.71271	-39796.99043	-16134.42792	-320.2110911	-187500.0224	-13650.9703	-1322.642126
95	-11762.382	8477.34612	-39330.55423	-15966.38751	-415.7424469	-187500.0224	-13416.23228	-1197.941744
96	-11682.8992	8627.482787	-39288.5106	-15769.91567	350.8106292	-187500.0224	-13217.86055	-881.7316153
97	-9737.492768	10313.40782	-39535.78794	-15770.34036	428.2817755	-187500.0224	-13211.57971	-859.3798708
98	-6632.857815	12986.6988	-39865.1856	-15861.80369	499.9861717	-187500.0224	-13396.83096	-872.1203652
99	-8314.379551	11421.65201	-39814.42479	-16148.95656	-265.4493172	-187500.0224	-13656.62529	-1313.187338
0	0	0	0	0	0	0	0	0
1	-8111.045731	9696.499669	-40216.71149	-16129.21996	4152.641195	-187500.0224	-13694.28798	-1419.916918
2	-8051.344222	9620.034351	-40352.63245	-16389.17075	3636.427657	-187500.0224	-14047.04321	-1748.822838
3	-12035.45326	6267.317387	-39957.56536	-16368.94242	3043.055897	-187500.0224	-14058.37554	-1870.304569
4	-13000.75805	5597.23444	-39720.72628	-16097.99458	3779.724691	-187500.0224	-13752.69309	-1458.339567
5	-11631.15491	6760.195704	-39880.29538	-16081.45429	4069.582113	-187500.0224	-13637.33573	-1420.699229
6	-8262.09882	9562.456258	-40196.75138	-16119.78753	4156.217474	-187500.0224	-13676.33953	-1389.026807
7	-7890.657531	9751.753181	-40372.03376	-16394.9375	3684.372149	-187500.0224	-14036.20261	-1728.86273
8	-11874.07367	6389.000283	-39994.5128	-16405.88986	3035.992746	-187500.0224	-14079.92263	-1882.776842
9	-13028.45186	5567.283102	-39739.94878	-16126.58246	3742.062001	-187500.0224	-13772.96612	-1494.147062
10	-11747.71926	6663.457354	-39895.56162	-16110.19863	4072.800764	-187500.0224	-13657.51936	-1446.537846
11	-8435.056619	9420.232108	-40197.24312	-16143.68154	4148.08144	-187500.0224	-13680.4746	-1411.087979
12	-7753.529579	9874.017224	-40397.44769	-16415.76933	3726.482836	-187500.0224	-14029.89942	-1728.125123
13	-11692.93513	6538.511102	-40031.92962	-16439.88686	3061.384328	-187500.0224	-14095.88177	-1899.607706
14	-13041.14765	5552.240378	-39744.21796	-16148.46482	3736.317603	-187500.0224	-13782.24209	-1492.738902
15	-11868.57514	6560.885198	-39885.10101	-16113.55139	4090.659808	-187500.0224	-13659.73218	-1434.691421
16	-8623.571232	9262.249978	-40178.31119	-16144.97794	4151.478905	-187500.0224	-13666.28124	-1406.975258
17	-7630.952612	9981.417356	-40396.62068	-16391.7412	3771.432194	-187500.0224	-14007.27946	-1681.275866
18	-11515.75285	6678.433022	-40050.79449	-16430.8344	3037.06563	-187500.0224	-14095.34533	-1892.589258
19	-13060.70543	5523.116055	-39747.9507	-16149.00126	3653.459686	-187500.0224	-13789.23819	-1510.977925
20	-11972.37664	6468.170162	-39868.00192	-16107.98581	4067.346939	-187500.0224	-13647.57283	-1426.510683
21	-8810.990609	9099.372816	-40173.17029	-16146.87784	4122.443989	-187500.0224	-13661.2074	-1408.092845
22	-7522.837224	10072.76894	-40407.34952	-16392.92585	3807.64202	-187500.0224	-13986.40293	-1696.296238
23	-11326.03125	6826.401571	-40076.49899	-16455.01899	3037.803237	-187500.0224	-14105.00128	-1922.898224
24	-13062.15829	5512.700142	-39750.85643	-16171.33065	3611.013724	-187500.0224	-13803.11862	-1546.27133
25	-12055.99452	6397.605705	-39853.40623	-16100.11799	4079.930971	-187500.0224	-13648.91394	-1427.740029
26	-8986.295341	8955.315823	-40140.22382	-16115.96538	4130.557672	-187500.0224	-13649.6739	-1398.369837
27	-7423.059037	10163.71818	-40402.83446	-16361.11931	3859.475715	-187500.0224	-13976.79168	-1666.903694
28	-11127.01131	6986.618875	-40113.11115	-16470.19583	3052.823609	-187500.0224	-14125.87781	-1939.729087
29	-13076.06108	5489.499031	-39765.51917	-16164.44631	3558.531828	-187500.0224	-13814.9874	-1538.71644
30	-12162.90291	6306.455291	-39848.26533	-16093.68069	4069.000968	-187500.0224	-13659.46396	-1425.013116
31	-9190.813803	8786.381338	-40129.29381	-16115.6301	4119.538262	-187500.0224	-13645.44942	-1396.849918
32	-7359.870656	10229.18644	-40398.76645	-16329.60335	3911.443521	-187500.0224	-13934.79275	-1606.688095
33	-10874.21308	7205.107177	-40125.11404	-16457.45533	3195.383036	-187500.0224	-14107.43762	-1901.485253
34	-13035.9844	5518.735113	-39770.95065	-16196.69988	3595.300447	-187500.0224	-13828.64431	-1598.015618
35	-12246.94547	6230.057029	-39865.29736	-16132.19275	4090.212773	-187500.0224	-13696.00906	-1472.778794
36	-9372.846409	8626.164034	-40132.93715	-16142.4969	4146.449762	-187500.0224	-13663.26376	-1431.383363
37	-7294.760024	10283.97057	-40394.22904	-16334.56544	3945.395821	-187500.0224	-13916.73254	-1598.395598
38	-10676.4672	7357.88135	-40158.26168	-16492.56992	3150.344271	-187500.0224	-14131.68927	-1934.744648
39	-13024.94264	5509.21327	-39784.11583	-16223.05259	3522.81374	-187500.0224	-13865.18942	-1610.577298
40	-12321.13091	6159.112592	-39842.0739	-16116.61358	4069.649168	-187500.0224	-13680.22873	-1428.924671
41	-9576.06847	8448.869997	-40100.34831	-16127.65534	4098.125291	-187500.0224	-13640.95672	-1406.058837
42	-7270.150753	10303.23777	-40392.77618	-16312.50427	3957.733984	-187500.0224	-13901.95804	-1571.104118
43	-10482.49876	7508.68857	-40192.10222	-16496.705	3116.861357	-187500.0224	-14143.33453	-1932.665936
44	-13021.41106	5497.143328	-39778.81846	-16238.27413	3427.595309	-187500.0224	-13868.54218	-1642.339127
45	-12391.33774	6093.778443	-39823.74547	-16121.15098	4064.843543	-187500.0224	-13693.77389	-1427.874139
46	-9751.931995	8294.039463	-40092.5252	-16147.50369	4103.824985	-187500.0224	-13655.39594	-1440.882855
47	-7243.46277	10322.90731	-40384.08135	-16319.96975	3997.095406	-187500.0224	-13881.70736	-1560.844667
48	-10250.93469	7692.822241	-40202.45107	-16503.70109	3154.613454	-187500.0224	-14133.00802	-1921.601823
49	-12996.10889	5502.239526	-39818.04577	-16273.38872	3376.521573	-187500.0224	-13907.16599	-1669.429442
50	-12473.86038	6021.403494	-39836.3742	-16155.81854	4045.084601	-187500.0224	-13709.01778	-1471.840021
51	-9947.018021	8130.491749	-40071.58161	-16141.13344	4090.033959	-187500.0224	-13631.8372	-1424.946061
52	-7247.262567	10332.71972	-40383.72372	-16289.99606	4024.677458	-187500.0224	-13853.85708	-1529.909853
53	-10025.22677	7897.094834	-40219.32664	-16499.20839	3204.435492	-187500.0224	-14121.13924	-1927.59209
54	-12936.18386	5560.532875	-39809.3733	-16286.75506	3398.113358	-187500.0224	-13896.57127	-1679.510078
55	-12534.63477	5980.052767	-39824.39367	-16131.54455	4079.372177	-187500.0224	-13704.52508	-1425.951889
56	-10127.86599	7984.087823	-40052.62733	-16136.48428	4147.120314	-187500.0224	-13641.18023	-1423.828474
57	-7268.854352	10317.52054	-40360.92494	-16286.57625	4073.605427	-187500.0224	-13837.83088	-1528.993431
58	-9768.6511	8108.408226	-40239.13029	-16512.55238	3334.388534	-187500.0224	-14132.96332	-1927.480331
59	-12872.45904	5597.390902	-39826.36062	-16312.05723	3404.729474	-187500.0224	-13922.81221	-1726.04641
60	-12606.02624	5911.634077	-39792.49773	-16135.4561	4038.043802	-187500.0224	-13691.78458	-1467.21321
61	-10326.43888	7811.219431	-40023.61477	-16136.32782	4081.696758	-187500.0224	-13638.54273	-1438.468866
62	-7309.601582	10285.37873	-40344.98815	-16274.79688	4075.102994	-187500.0224	-13829.80661	-1528.881672
63	-9580.650578	8260.534198	-40267.27113	-16510.71954	3270.484897	-187500.0224	-14150.80001	-1903.407503
64	-12843.82645	5611.20428	-39826.24886	-16308.19038	3266.640397	-187500.0224	-13946.75093	-1702.286506
65	-12655.55771	5873.256132	-39775.75627	-16149.09067	4029.863063	-187500.0224	-13705.3968	-1452.014023
66	-10494.30048	7676.527819	-40005.86748	-16151.54936	4096.314799	-187500.0224	-13642.54369	-1460.820611
67	-7359.8036	10254.71214	-40328.2914	-16254.21092	4111.513986	-187500.0224	-13809.37711	-1477.182088
68	-9353.288633	8455.731983	-40280.03398	-16513.3794	3326.945403	-187500.0224	-14135.69023	-1898.154843
69	-12771.04917	5663.440307	-39837.82707	-16325.89296	3237.828998	-187500.0224	-13955.57987	-1728.907434
70	-12718.7908	5817.175605	-39772.67173	-16132.37156	4009.567679	-187500.0224	-13711.94586	-1429.751686
71	-10672.42154	7523.574832	-39995.74214	-16151.83993	4091.33036	-187500.0224	-13644.35418	-1460.0383
72	-7433.34084	10194.85416	-40321.83174	-16251.55106	4133.016364	-187500.0224	-13792.90388	-1489.341437
73	-9102.122081	8670.196971	-40298.96591	-16499.76718	3457.993681	-187500.0224	-14127.82241	-1837.492208
74	-12662.12912	5746.812313	-39876.40618	-16354.77142	3309.198118	-187500.0224	-13988.07931	-1776.360187
75	-12773.84314	5762.749107	-39789.5026	-16157.98666	4005.678476	-187500.0224	-13737.69507	-1486.100434
76	-10825.32982	7393.197107	-39999.0949	-16155.95265	4141.644137	-187500.0224	-13663.71079	-1473.136422
77	-7528.447512	10117.96416	-40324.02221	-16243.39268	4152.171809	-187500.0224	-13788.81351	-1482.188878
78	-8894.630837	8847.021621	-40318.23311	-16481.05877	3496.55044	-187500.0224	-14118.50174	-1820.795455
79	-12564.74257	5821.578899	-39887.5597	-16351.88804	3286.28758	-187500.0224	-14002.78676	-1767.285379
80	-12822.27937	5724.706438	-39772.06823	-16138.56299	3977.001187	-187500.0224	-13741.24899	-1469.202515
81	-11012.50333	7237.986593	-39985.41564	-16150.2306	4075.930008	-187500.0224	-13671.15392	-1469.046053
82	-7640.697973	10026.36671	-40303.34685	-16223.7902	4142.806428	-187500.0224	-13773.45786	-1460.641797
83	-8718.029704	8994.364321	-40329.74426	-16476.20845	3466.532048	-187500.0224	-14115.37249	-1840.286176
84	-12506.60569	5857.811076	-39903.45179	-16378.57603	3131.412343	-187500.0224	-14026.18903	-1830.965499
85	-12879.16456	5676.024339	-39774.59398	-16157.67374	3924.429884	-187500.0224	-13762.28199	-1501.500786
86	-11161.41065	7116.929545	-39970.66348	-16145.76026	4083.261381	-187500.0224	-13666.88474	-1464.352186
87	-7762.671442	9935.685687	-40297.46834	-16215.67651	4155.993957	-187500.0224	-13761.7679	-1470.834192
88	-8519.12153	9170.808991	-40356.00756	-16465.61372	3520.75738	-187500.0224	-14102.16261	-1815.565147
89	-12387.69441	5952.2919	-39934.05133	-16379.93948	3110.044075	-187500.0224	-14033.38629	-1832.865397
90	-12915.53085	5642.943757	-39779.42196	-16144.46385	3897.563088	-187500.0224	-13761.87965	-1484.736977
91	-11305.6241	6996.051311	-39961.72279	-16151.70582	4083.060215	-187500.0224	-13670.41632	-1484.51346
92	-7897.675979	9826.408008	-40270.04275	-16208.05457	4158.966739	-187500.0224	-13742.16542	-1452.729279
93	-8332.551519	9337.575357	-40367.56341	-16469.94996	3568.724223	-187500.0224	-14091.45613	-1804.053998
94	-12234.89788	6081.95437	-39942.83556	-16400.74896	3130.294756	-187500.0224	-14041.47763	-1850.411516
95	-12933.14402	5633.131341	-39758.07604	-16155.59502	3907.509614	-187500.0224	-13759.37626	-1502.886594
96	-11416.91344	6912.925173	-39936.44296	-16146.14024	4149.780172	-187500.0224	-13665.23071	-1467.123803
97	-8036.770885	9716.727998	-40254.57534	-16204.09831	4189.499222	-187500.0224	-13726.96623	-1445.107334
98	-8143.723982	9502.575934	-40382.53908	-16480.32117	3667.451878	-187500.0224	-14085.84584	-1790.866469
99	-12065.82928	6217.249479	-39976.74316	-16413.02006	3215.43255	-187500.0224	-14068.61264	-1823.701182
100	-12972.46074	5589.500736	-39764.46864	-16161.92057	3878.184125	-187500.0224	-13770.28391	-1485.67575
101	-11559.24935	6786.615465	-39926.40703	-16143.12275	4144.482809	-187500.0224	-13660.84977	-1451.321119
102	-8202.017331	9575.800249	-40257.59283	-16197.37043	4189.566277	-187500.0224	-13718.09259	-1455.791468
103	-7981.852648	9638.765113	-40383.99194	-16443.41844	3715.731647	-187500.0224	-14047.5126	-1741.402059
104	-11911.28932	6331.891576	-39997.55263	-16434.96948	3206.871832	-187500.0224	-14067.3833	-1855.70888
105	-12991.63854	5559.303529	-39763.70868	-16182.57358	3848.322195	-187500.0224	-13768.92045	-1517.884614
106	-11670.62809	6683.216296	-39922.7637	-16158.29958	4150.361317	-187500.0224	-13669.29873	-1485.206364
107	-8359.351261	9436.392419	-40233.38589	-16196.61047	4191.488527	-187500.0224	-13693.84094	-1447.566026
108	-7845.261138	9750.657946	-40403.79559	-16440.08803	3725.745228	-187500.0224	-14033.98979	-1724.526492
109	-11779.16816	6431.155673	-40031.19201	-16455.7119	3094.576668	-187500.0224	-14086.09171	-1888.744758
110	-13011.41983	5540.952747	-39766.77087	-16184.1829	3786.787842	-187500.0224	-13783.15851	-1519.851568
111	-11792.51215	6584.510992	-39921.89198	-16156.10911	4111.469282	-187500.0224	-13667.66705	-1464.843925
112	-8531.482045	9297.610438	-40222.12061	-16186.57454	4166.655739	-187500.0224	-13690.97992	-1432.36684
113	-7704.08752	9877.660558	-40412.66923	-16434.70126	3768.884095	-187500.0224	-14022.6351	-1721.464303
114	-11600.82359	6573.916265	-40052.62733	-16471.06754	3080.38331	-187500.0224	-14099.16748	-1895.003247
115	-13024.07092	5521.484378	-39759.08187	-16187.2898	3736.608176	-187500.0224	-13794.06617	-1523.025515
116	-11889.2505	6498.702645	-39893.9523	-16146.56492	4125.573233	-187500.0224	-13672.27151	-1447.968358
117	-8710.787739	9144.791561	-40198.45011	-16179.26552	4168.443879	-187500.0224	-13692.56689	-1421.34743
118	-7592.708778	9975.672957	-40423.7557	-16421.42432	3815.487482	-187500.0224	-14020.82461	-1697.927916
119	-11419.77446	6719.068494	-40085.26088	-16489.79831	3089.368712	-187500.0224	-14115.73012	-1931.05661
120	-13037.97371	5504.765273	-39769.31897	-16207.8534	3701.024199	-187500.0224	-13819.90478	-1553.625054
121	-11992.85084	6418.705752	-39874.57334	-16146.9449	4132.435218	-187500.0224	-13670.68454	-1441.262834
122	-8891.032206	9001.874507	-40156.29472	-16164.71453	4171.28255	-187500.0224	-13658.56989	-1413.412561
123	-7480.36891	10082.71546	-40391.61389	-16390.89184	3869.735166	-187500.0224	-13969.4156	-1650.899845
124	-11217.24531	6893.076824	-40089.39595	-16482.86927	3104.657305	-187500.0224	-14118.45703	-1907.497872
125	-13040.74532	5506.039322	-39754.18684	-16200.56673	3659.561713	-187500.0224	-13811.36642	-1543.142085
126	-12090.14798	6346.643728	-39859.28474	-16138.49594	4137.106733	-187500.0224	-13658.21226	-1436.904244
127	-9089.135717	8842.238348	-40157.85934	-16171.80004	4162.073632	-187500.0224	-13664.4037	-1428.768209
128	-7409.692694	10150.39654	-40425.32032	-16383.15813	3902.59223	-187500.0224	-13982.1561	-1650.229293
129	-11013.37505	7061.541922	-40116.84389	-16479.00241	3123.902157	-187500.0224	-14117.27239	-1920.506587
130	-13034.84446	5506.285191	-39750.43175	-16198.9127	3623.933032	-187500.0224	-13817.73666	-1572.087595
131	-12164.624	6286.629294	-39846.92423	-16121.70978	4176.624617	-187500.0224	-13670.59513	-1431.293956
132	-9263.859303	8698.293114	-40130.14318	-16149.98474	4201.815033	-187500.0224	-13654.52423	-1421.682706
133	-7331.528644	10225.87838	-40394.45256	-16350.45753	3970.049795	-187500.0224	-13934.52453	-1613.93006
134	-10762.72258	7273.905846	-40126.83512	-16468.22887	3263.444097	-187500.0224	-14116.46773	-1897.372532
135	-13002.0321	5522.691372	-39773.5658	-16204.5677	3656.678338	-187500.0224	-13840.51309	-1581.989417
136	-12258.50132	6201.312685	-39845.00198	-16112.52321	4156.061012	-187500.0224	-13675.53487	-1433.439724
137	-9467.863675	8523.144844	-40109.35606	-16128.21414	4169.293245	-187500.0224	-13638.09569	-1411.244441
138	-7300.683236	10252.94635	-40397.78297	-16328.21755	3979.146955	-187500.0224	-13905.73548	-1599.401426
139	-10594.03397	7400.304961	-40173.84084	-16488.47955	3161.74366	-187500.0224	-14123.08384	-1923.881701
140	-13011.97863	5500.674903	-39773.40934	-16209.64154	3527.574662	-187500.0224	-13838.83671	-1602.77654
141	-12338.69938	6130.480007	-39825.77948	-16108.63401	4134.580986	-187500.0224	-13664.15783	-1433.797352
142	-9662.927349	8355.37265	-40092.45814	-16130.00228	4148.103791	-187500.0224	-13635.48054	-1413.032581
143	-7272.654149	10278.5838	-40396.10659	-16306.75987	4009.612383	-187500.0224	-13892.19032	-1573.965141
144	-10367.38728	7580.661187	-40209.04484	-16495.11802	3187.291704	-187500.0224	-14135.82434	-1941.673689
145	-12980.19445	5507.022799	-39799.7844	-16227.99232	3479.674873	-187500.0224	-13872.40903	-1621.61906
146	-12405.93343	6063.156553	-39831.16625	-16100.45327	4127.137855	-187500.0224	-13686.68839	-1419.246366
147	-9847.820979	8192.607247	-40093.01693	-16126.24718	4143.141704	-187500.0224	-13650.03152	-1426.197758
148	-7260.181875	10289.80437	-40397.15712	-16292.67827	4039.228444	-187500.0224	-13877.68404	-1547.232455
149	-10138.72893	7771.321567	-40222.0312	-16485.10444	3221.869853	-187500.0224	-14122.07802	-1911.498834
150	-12941.99532	5533.286099	-39812.32373	-16239.48112	3438.12298	-187500.0224	-13877.46052	-1651.771564
151	-12476.45318	6007.098378	-39819.20806	-16101.36969	4122.46634	-187500.0224	-13674.50669	-1436.703078
152	-10037.25201	8040.905957	-40065.6584	-16114.69133	4151.747126	-187500.0224	-13629.8479	-1431.740991
153	-7271.223637	10296.04051	-40381.19797	-16268.44898	4088.75991	-187500.0224	-13845.0952	-1543.365603
154	-9879.22518	8000.4493	-40244.18178	-16476.74489	3365.703328	-187500.0224	-14129.14117	-1887.940095
155	-12874.53775	5585.946809	-39836.53067	-16255.8426	3492.772996	-187500.0224	-13913.98328	-1667.574247
156	-12544.80482	5949.252063	-39817.48698	-16111.1374	4134.670393	-187500.0224	-13688.61064	-1469.604846
157	-10211.77443	7891.484546	-40051.73326	-16115.98773	4194.21544	-187500.0224	-13635.34643	-1457.289035
158	-7317.558803	10255.80737	-40372.10081	-16257.47427	4098.706436	-187500.0224	-13831.52769	-1526.534739
159	-9706.602658	8134.649174	-40266.06414	-16482.89162	3295.362389	-187500.0224	-14131.97984	-1903.76513
160	-12858.10922	5585.298608	-39832.68617	-16266.90671	3356.069726	-187500.0224	-13921.20289	-1704.655791
161	-12610.56365	5893.283295	-39802.53366	-16114.40076	4101.679218	-187500.0224	-13696.18788	-1468.621369
162	-10410.92848	7726.483968	-40038.61279	-16122.5815	4141.755896	-187500.0224	-13639.28034	-1443.00627
163	-7367.134972	10226.23601	-40355.13584	-16236.44128	4123.114541	-187500.0224	-13810.02531	-1487.352131
164	-9483.979283	8326.471844	-40286.42658	-16475.69436	3341.295223	-187500.0224	-14123.21796	-1889.996456
165	-12795.30082	5629.577414	-39866.81728	-16288.47614	3315.88129	-187500.0224	-13948.36026	-1734.070687
166	-12666.64418	5844.981175	-39795.9399	-16102.33082	4088.223468	-187500.0224	-13698.69127	-1448.437744
167	-10582.72399	7584.617446	-40013.10945	-16115.65246	4143.655794	-187500.0224	-13633.42418	-1447.700137
168	-7432.983212	10179.54322	-40340.65191	-16222.09146	4139.341907	-187500.0224	-13791.00398	-1492.493033
169	-9261.37826	8522.876623	-40307.83955	-16478.08599	3388.546811	-187500.0224	-14115.59601	-1897.216069
170	-12716.22035	5696.006798	-39875.10978	-16303.76474	3287.941609	-187500.0224	-13955.9822	-1739.055126
171	-12721.62947	5802.512861	-39802.39955	-16102.24141	4073.493668	-187500.0224	-13715.63389	-1434.937291
172	-10748.39511	7448.227101	-40017.19982	-16111.67385	4152.44003	-187500.0224	-13645.31531	-1441.285186
173	-7512.600125	10114.49964	-40329.23017	-16206.73581	4169.516762	-187500.0224	-13774.86602	-1471.325931
174	-9014.503242	8728.222099	-40308.4654	-16450.68275	3518.879833	-187500.0224	-14100.10625	-1857.340557
175	-12583.29452	5793.259238	-39880.04951	-16309.19621	3373.682901	-187500.0224	-13969.23679	-1771.599266
176	-12759.42627	5757.898779	-39787.44624	-16109.66219	4078.098128	-187500.0224	-13719.88073	-1448.147172
177	-10890.82043	7319.682219	-40002.71589	-16116.97121	4202.396179	-187500.0224	-13650.90324	-1441.240482
178	-7606.611563	10030.6359	-40327.82201	-16210.98265	4186.39233	-187500.0224	-13770.88741	-1471.348282
179	-8806.184984	8899.324703	-40339.84725	-16465.4349	3555.201418	-187500.0224	-14094.27245	-1840.263824
180	-12484.18689	5861.052079	-39907.4751	-16346.8589	3346.011441	-187500.0224	-13982.69254	-1797.706103
181	-12811.1035	5707.652057	-39779.9137	-16121.06158	4038.870816	-187500.0224	-13714.06927	-1459.166582
182	-11065.81224	7167.243322	-39973.18923	-16113.73021	4143.074649	-187500.0224	-13638.58743	-1433.283261
183	-7719.376113	9935.640983	-40294.24969	-16191.02254	4179.284475	-187500.0224	-13743.32771	-1432.053916
184	-8625.582889	9046.846217	-40341.79185	-16453.36496	3531.597976	-187500.0224	-14082.40367	-1810.692467
185	-12405.19582	5913.511624	-39918.29335	-16352.46919	3202.177966	-187500.0224	-14009.78285	-1802.310562
186	-12840.94308	5680.159411	-39763.70868	-16109.70689	4005.834938	-187500.0224	-13723.76993	-1457.244332
187	-11195.00532	7056.401021	-39962.48275	-16109.28221	4161.6713	-187500.0224	-13637.08986	-1427.874139
188	-7829.972545	9842.635374	-40282.13504	-16175.06339	4201.211536	-187500.0224	-13727.70384	-1414.619555
189	-8430.988602	9210.617448	-40358.57801	-16445.4748	3585.644494	-187500.0224	-14079.49794	-1790.352379
190	-12288.13974	6004.483223	-39940.95802	-16369.00948	3179.915628	-187500.0224	-14029.65355	-1816.973307
191	-12890.20632	5639.479237	-39776.40447	-16127.65534	3971.793231	-187500.0224	-13751.95548	-1465.223904
192	-11342.21391	6938.562624	-39953.74321	-16124.95078	4163.07946	-187500.0224	-13649.78566	-1449.555331
193	-7972.017881	9728.127388	-40268.45578	-16176.76213	4205.23485	-187500.0224	-13720.59598	-1431.33866
194	-8251.526445	9366.476162	-40383.05317	-16444.51367	3636.584119	-187500.0224	-14070.06551	-1803.249336
195	-12136.5502	6124.735609	-39955.88898	-16372.5187	3203.317905	-187500.0224	-14032.49222	-1810.379542
196	-12905.80784	5617.239251	-39761.36175	-16117.39589	3978.18583	-187500.0224	-13746.90399	-1452.282244
197	-11446.84243	6847.389859	-39933.15726	-16103.42605	4227.474836	-187500.0224	-13644.44359	-1428.90232
198	-8116.097226	9610.713674	-40257.03403	-16165.87683	4235.297946	-187500.0224	-13708.74956	-1433.462075
199	-8065.604635	9533.890728	-40379.29808	-16416.50694	3731.422571	-187500.0224	-14047.26673	-1752.510876
200	-11956.10457	6275.587532	-39978.93363	-16382.35347	3278.46447	-187500.0224	-14048.33961	-1816.615679
201	-12934.35102	5592.607628	-39762.76991	-16133.22093	3946.245187	-187500.0224	-13757.3646	-1478.590247
202	-11589.91594	6731.96545	-39926.22822	-16116.97121	4177.675149	-187500.0224	-13654.77009	-1454.383308
203	-8276.023957	9485.09687	-40229.87666	-16156.24322	4214.533176	-187500.0224	-13684.60967	-1428.298822
204	-7919.290116	9665.63191	-40382.24851	-16394.98221	3739.580958	-187500.0224	-14015.79547	-1719.653811
205	-11834.95812	6367.542609	-40004.10169	-16393.97638	3152.422983	-187500.0224	-14056.38624	-1852.691394
206	-12964.65998	5562.142201	-39755.84087	-16128.28119	3873.333797	-187500.0224	-13762.72902	-1484.625218
207	-11709.43072	6630.242661	-39915.49938	-16115.47364	4179.798565	-187500.0224	-13656.26766	-1449.376517
208	-8443.594985	9341.933947	-40210.94474	-16146.16259	4213.661458	-187500.0224	-13675.60192	-1410.752703
209	-7770.896884	9787.448917	-40388.28348	-16392.47881	3790.922915	-187500.0224	-14004.03845	-1698.442006
210	-11656.34533	6501.988352	-40032.84604	-16419.47972	3154.904026	-187500.0224	-14070.93722	-1873.277351
211	-12972.99719	5541.176264	-39770.3695	-16146.69903	3840.901415	-187500.0224	-13774.53074	-1498.952687
212	-11801.25169	6548.211759	-39907.11747	-16115.04896	4198.752844	-187500.0224	-13656.31237	-1434.4232
213	-8610.540165	9201.006198	-40201.19938	-16147.34723	4218.623545	-187500.0224	-13672.1374	-1401.856709
214	-7645.704764	9895.273733	-40410.43406	-16391.7412	3836.431067	-187500.0224	-14000.55158	-1686.908506
215	-11463.96386	6656.438906	-40064.65257	-16440.78093	3184.363626	-187500.0224	-14086.6952	-1892.186927
216	-12970.29262	5540.639823	-39772.2694	-16158.83603	3846.019965	-187500.0224	-13789.88639	-1507.71457
217	-11886.7024	6480.128346	-39890.30896	-16102.86726	4252.419383	-187500.0224	-13651.32793	-1406.684686
218	-8777.127716	9065.040537	-40175.60663	-16135.27729	4260.667176	-187500.0224	-13651.41733	-1381.76249
219	-7530.72739	9999.835193	-40400.93457	-16365.99199	3911.979963	-187500.0224	-13964.69938	-1638.360517
220	-11242.97216	6836.303393	-40075.76139	-16430.96851	3292.881345	-187500.0224	-14078.15684	-1855.686528
221	-12981.20028	5514.868261	-39772.73879	-16166.59208	3814.325191	-187500.0224	-13788.43353	-1526.422981
222	-12010.86635	6364.748641	-39877.50141	-16111.85266	4198.082292	-187500.0224	-13645.8741	-1431.495122
223	-8982.584951	8883.119688	-40161.65914	-16139.21119	4208.475853	-187500.0224	-13642.29782	-1404.04718
224	-7451.66927	10066.28693	-40404.95788	-16362.25925	3919.579556	-187500.0224	-13944.11343	-1633.890168
225	-11092.65668	6954.253549	-40102.11409	-16455.62249	3174.68532	-187500.0224	-14087.61163	-1887.694226
226	-12996.17594	5499.043226	-39762.99343	-16174.75047	3714.703466	-187500.0224	-13798.93885	-1530.669812
227	-12093.6125	6301.336742	-39863.64333	-16102.93431	4208.18528	-187500.0224	-13652.82549	-1414.887776
228	-9168.886741	8730.569032	-40146.90699	-16126.78362	4209.705199	-187500.0224	-13642.0743	-1402.013171
229	-7377.886162	10133.63274	-40410.27759	-16337.76174	3958.851571	-187500.0224	-13937.3185	-1609.638525
230	-10885.74658	7119.544699	-40133.98768	-16450.99568	3189.526879	-187500.0224	-14107.10235	-1891.874002
231	-12990.40919	5490.795432	-39773.07406	-16175.57748	3669.195315	-187500.0224	-13822.0282	-1546.226626
232	-12181.05253	6223.776188	-39851.32752	-16096.11703	4210.241641	-187500.0224	-13665.16366	-1406.818796
233	-9357.691927	8569.524714	-40133.38418	-16127.7224	4216.030743	-187500.0224	-13653.25018	-1412.339677
234	-7312.77553	10190.51793	-40406.90248	-16322.67431	4025.750342	-187500.0224	-13933.38459	-1592.718255
235	-10629.79676	7330.165187	-40146.3929	-16444.11134	3338.30009	-187500.0224	-14116.60184	-1855.172438
236	-12953.52882	5509.682656	-39780.40544	-16191.55898	3710.367228	-187500.0224	-13838.85906	-1562.006958
237	-12253.7851	6154.977519	-39842.0739	-16093.8595	4245.33388	-187500.0224	-13671.17628	-1414.194872
238	-9531.253222	8414.761235	-40111.47947	-16115.25012	4261.650653	-187500.0224	-13643.68363	-1403.846014
239	-7278.197381	10214.479	-40400.44283	-16302.22247	4054.829962	-187500.0224	-13898.29235	-1567.617246
240	-10443.83024	7472.501096	-40183.60855	-16463.93734	3274.999949	-187500.0224	-14117.04887	-1892.09752
241	-12943.58229	5504.09472	-39797.97391	-16207.78635	3620.870843	-187500.0224	-13855.84639	-1594.260525
242	-12332.35149	6083.206067	-39848.15357	-16102.08495	4219.517615	-187500.0224	-13681.14515	-1427.695325
243	-9729.580251	8244.239777	-40105.31039	-16123.9673	4217.416551	-187500.0224	-13645.2259	-1419.246366
244	-7256.896169	10235.66845	-40405.94136	-16292.56651	4084.937761	-187500.0224	-13889.48576	-1554.809696
245	-10236.80839	7642.530816	-40216.30916	-16472.72157	3280.207906	-187500.0224	-14133.18683	-1918.718448
246	-12927.31022	5512.409569	-39801.57254	-16213.19547	3552.161581	-187500.0224	-13877.92991	-1624.390677
247	-12407.02866	6026.276174	-39837.6706	-16088.49509	4215.382542	-187500.0224	-13699.13831	-1415.223052
248	-9922.40875	8087.084661	-40095.22976	-16116.21125	4219.428208	-187500.0224	-13663.55433	-1431.897453
249	-7260.941835	10240.29526	-40372.36904	-16266.23616	4119.627669	-187500.0224	-13858.05921	-1527.272347
250	-10013.06743	7828.743199	-40217.98554	-16464.38437	3317.736485	-187500.0224	-14127.57655	-1887.381302
251	-12887.85939	5535.029535	-39803.11481	-16226.60652	3513.381304	-187500.0224	-13892.86088	-1639.075773
252	-12471.73696	5970.128592	-39809.82033	-16086.50578	4211.023952	-187500.0224	-13689.3706	-1411.713828
253	-10097.40056	7936.90329	-40057.99175	-16110.91389	4223.876205	-187500.0224	-13644.06361	-1413.054933
254	-7270.396622	10235.89197	-40371.18439	-16257.42957	4150.294262	-187500.0224	-13849.34203	-1498.684466
255	-9781.615112	8020.632925	-40247.26632	-16468.98883	3362.015291	-187500.0224	-14132.71745	-1872.383281
0	-12821.67588	5578.593085	-39818.13518	-16238.5647	3518.365743	-187500.0224	-13914.9891	-1640.394526
1	-12520.08379	5927.079132	-39795.58227	-16082.79539	4234.739153	-187500.0224	-13697.64074	-1400.269735
2	-10258.57899	7806.324399	-40034.58947	-16106.30943	4283.242438	-187500.0224	-13642.70015	-1405.187119
3	-7307.992257	10212.98143	-40360.14263	-16248.22065	4189.968609	-187500.0224	-13832.77939	-1497.253954
4	-9528.906289	8238.070695	-40257.30226	-16466.6419	3486.559211	-187500.0224	-14127.0401	-1862.101479
5	-12751.42434	5629.242138	-39837.53649	-16267.89019	3529.98865	-187500.0224	-13935.39625	-1679.979465
6	-12602.31586	5851.999623	-39794.86701	-16098.66513	4187.219344	-187500.0224	-13702.75929	-1409.635116
7	-10465.6232	7627.823368	-40025.9617	-16110.89153	4215.717818	-187500.0224	-13644.5777	-1409.210433
8	-7374.309882	10162.48884	-40345.50224	-16224.79602	4191.488527	-187500.0224	-13809.04183	-1460.708852
9	-9350.896996	8391.314255	-40278.93874	-16459.19877	3432.959727	-187500.0224	-14120.40164	-1846.030575
10	-12725.56337	5649.895149	-39840.44222	-16270.90767	3387.362169	-187500.0224	-13945.72275	-1692.138814
11	-12665.43718	5810.403026	-39778.86317	-16086.93046	4161.53719	-187500.0224	-13708.10136	-1404.293049
12	-10640.48089	7496.976256	-40001.86652	-16104.63305	4218.780007	-187500.0224	-13640.21911	-1413.345505
13	-7452.272767	10117.58418	-40326.05622	-16209.86506	4207.850004	-187500.0224	-13783.96318	-1448.795372
14	-9139.002459	8578.711281	-40298.20595	-16457.58944	3472.209391	-187500.0224	-14110.9692	-1834.161798
15	-12649.79096	5710.155453	-39861.13994	-16292.00772	3352.001709	-187500.0224	-13957.45742	-1714.311744
16	-12720.84716	5769.074651	-39778.63965	-16092.45135	4144.147532	-187500.0224	-13708.25782	-1403.488386
17	-10811.11411	7357.479019	-39996.85973	-16109.99746	4219.517615	-187500.0224	-13646.34349	-1417.413523
18	-7544.451361	10044.1587	-40311.57229	-16205.70763	4224.949089	-187500.0224	-13769.03221	-1442.894512
19	-8924.962154	8758.352251	-40310.32059	-16456.15893	3527.127627	-187500.0224	-14099.50275	-1819.633164
20	-12539.41805	5791.716968	-39877.2779	-16302.04365	3369.05609	-187500.0224	-13977.12695	-1727.163998
21	-12752.7431	5734.608261	-39766.27913	-16089.74678	4159.61494	-187500.0224	-13719.70191	-1410.775055
22	-10937.46852	7245.362669	-39969.70236	-16097.41343	4290.149127	-187500.0224	-13645.15884	-1409.612764
23	-7640.161531	9959.17737	-40299.05531	-16186.50749	4263.394089	-187500.0224	-13761.05264	-1431.673936
24	-8696.862602	8948.811465	-40322.77051	-16427.21342	3644.854265	-187500.0224	-14093.49013	-1776.874277
25	-12410.04615	5886.331902	-39898.82498	-16300.99312	3419.548681	-187500.0224	-13993.35432	-1736.730544
26	-12803.97329	5680.941723	-39770.39185	-16081.40958	4122.041657	-187500.0224	-13726.5639	-1440.033488
27	-11110.24751	7097.528231	-39965.18731	-16081.76721	4233.509807	-187500.0224	-13644.91298	-1433.618538
28	-7763.565512	9863.400145	-40288.54999	-16153.87394	4255.772144	-187500.0224	-13740.84666	-1409.970392
29	-8524.105969	9098.14347	-40346.01633	-16415.09878	3626.21291	-187500.0224	-14082.2025	-1774.683806
30	-12331.97151	5942.30067	-39917.75691	-16315.78998	3275.871667	-187500.0224	-14006.25128	-1769.967588
31	-12841.05484	5650.141019	-39760.82531	-16074.39114	4076.84643	-187500.0224	-13730.38605	-1413.27845
32	-11247.39781	6984.920142	-39956.55953	-16083.10832	4241.690545	-187500.0224	-13648.86923	-1406.014133
33	-7890.38931	9764.314862	-40276.43535	-16152.46578	4266.724499	-187500.0224	-13726.98858	-1392.983066
34	-8340.978127	9257.958443	-40372.23493	-16422.51956	3668.837687	-187500.0224	-14076.99455	-1756.042451
35	-12208.9028	6036.043887	-39953.89968	-16357.92301	3245.316833	-187500.0224	-14032.33576	-1793.883955
36	-12882.47262	5611.71837	-39767.1285	-16111.22681	4036.23331	-187500.0224	-13747.82041	-1428.723506
37	-11387.63265	6868.981644	-39950.4128	-16108.38814	4237.622528	-187500.0224	-13651.88672	-1412.674953
38	-8040.391867	9643.682497	-40263.11371	-16162.03233	4261.404784	-187500.0224	-13710.91768	-1392.156052
39	-8165.718098	9413.392474	-40378.3593	-16422.92189	3716.335144	-187500.0224	-14055.82745	-1730.986146
40	-12055.63689	6161.884208	-39965.45553	-16371.02114	3263.488801	-187500.0224	-14034.36977	-1801.058865
41	-12901.22573	5593.881678	-39757.76312	-16115.36188	4039.675479	-187500.0224	-13744.5347	-1438.088887
42	-11491.12123	6786.324893	-39928.57515	-16103.94014	4302.397883	-187500.0224	-13647.43872	-1405.812968
43	-8181.677244	9528.459254	-40246.12638	-16156.48909	4297.636962	-187500.0224	-13701.73111	-1395.665276
44	-7986.390053	9569.519409	-40387.81409	-16409.64495	3812.157072	-187500.0224	-14040.65061	-1712.836529
45	-11870.74326	6310.232736	-40006.82861	-16386.5556	3348.80541	-187500.0224	-14059.40372	-1796.990847
46	-12934.75335	5558.945901	-39780.22662	-16130.51637	4000.202298	-187500.0224	-13764.4054	-1461.938198
47	-11643.00134	6657.556493	-39929.44687	-16108.94693	4240.148275	-187500.0224	-13653.20547	-1422.174444
48	-8355.23854	9387.263285	-40224.84752	-16145.51439	4270.032557	-187500.0224	-13685.83902	-1381.382511
49	-7853.665394	9686.664902	-40392.53031	-16400.95012	3816.202738	-187500.0224	-14025.47378	-1694.485747
50	-11752.68135	6400.265563	-40018.9209	-16403.90055	3214.761998	-187500.0224	-14063.35998	-1840.062659
51	-12964.03414	5535.185997	-39758.52308	-16126.98479	3927.626184	-187500.0224	-13766.57352	-1460.351224
52	-11747.6522	6578.811297	-39908.34682	-16097.48049	4259.728403	-187500.0224	-13658.83811	-1409.188081
53	-8525.827053	9254.650385	-40213.73871	-16134.8079	4278.973255	-187500.0224	-13688.96826	-1389.965581
54	-7716.805663	9817.489662	-40399.19113	-16376.94435	3875.948951	-187500.0224	-14014.23085	-1677.163145
55	-11579.25416	6549.552864	-40043.30665	-16407.52153	3224.216786	-187500.0224	-14084.41533	-1865.856572
56	-12980.88735	5519.673886	-39758.97011	-16124.63786	3895.730245	-187500.0224	-13784.11964	-1492.694198
57	-11851.96779	6492.600619	-39894.15346	-16080.56022	4273.184153	-187500.0224	-13662.79437	-1408.472825
58	-8696.437919	9114.102616	-40191.31991	-16115.29483	4290.931438	-187500.0224	-13677.99356	-1383.908258
59	-7594.2734	9927.549652	-40405.1814	-16356.67132	3932.610623	-187500.0224	-13999.32224	-1653.515
60	-11382.20118	6711.155976	-40065.77016	-16412.01424	3267.534467	-187500.0224	-14097.08877	-1866.817697
61	-12980.57443	5517.729284	-39765.07214	-16134.07029	3902.726341	-187500.0224	-13800.3023	-1502.976001
62	-11947.14152	6417.297592	-39888.11849	-16082.72834	4315.473654	-187500.0224	-13672.0927	-1410.529186
63	-8871.854409	8970.805582	-40186.04489	-16116.07714	4325.911918	-187500.0224	-13678.23943	-1395.285296
64	-7481.330035	10026.12084	-40417.00547	-16339.30401	4006.527842	-187500.0224	-13979.76446	-1635.007755
65	-11156.58267	6888.673531	-40101.91293	-16425.13471	3367.379709	-187500.0224	-14109.89632	-1866.951807
66	-12988.75517	5491.175412	-39776.8068	-16158.43369	3867.589398	-187500.0224	-13818.16135	-1536.145989
67	-12046.87501	6324.515501	-39871.75702	-16083.46594	4312.947907	-187500.0224	-13676.60775	-1414.910128
68	-9058.826752	8808.084882	-40163.0226	-16119.29579	4327.118913	-187500.0224	-13675.53487	-1408.606936
69	-7403.210688	10094.00309	-40405.2708	-16328.30695	4044.794028	-187500.0224	-13963.33593	-1618.601575
70	-10962.10014	7047.080344	-40119.66021	-16424.55356	3379.650817	-187500.0224	-14121.38511	-1865.767165
71	-12990.00686	5485.408662	-39778.90787	-16155.95265	3832.921843	-187500.0224	-13832.9135	-1551.367527
72	-12138.20423	6249.212474	-39857.80953	-16073.45236	4316.881814	-187500.0224	-13672.31621	-1420.587471
73	-9240.457027	8655.668337	-40135.03821	-16096.09468	4338.22773	-187500.0224	-13656.17825	-1394.346523
74	-7343.755048	10144.87566	-40405.78489	-16312.52662	4068.866857	-187500.0224	-13943.53228	-1601.033104
75	-10798.66419	7170.461973	-40142.34723	-16444.49132	3277.972731	-187500.0224	-14123.68734	-1897.171366
76	-13000.33337	5462.341662	-39773.09642	-16175.48808	3720.537272	-187500.0224	-13838.79201	-1565.896161
77	-12232.08156	6165.572246	-39848.5559	-16096.3182	4280.269656	-187500.0224	-13672.49503	-1432.053916
78	-9446.115428	8481.347082	-40119.5261	-16122.13446	4291.378473	-187500.0224	-13652.82549	-1402.147281
79	-7288.769756	10199.95036	-40394.49726	-16303.29535	4112.832738	-187500.0224	-13917.69366	-1553.826219
80	-10585.36149	7347.24192	-40167.00121	-16455.26486	3299.9892	-187500.0224	-14127.48714	-1894.936191
81	-12988.35283	5462.520476	-39775.53276	-16184.16055	3676.705501	-187500.0224	-13845.25166	-1586.392711
82	-12309.59741	6097.242963	-39831.63563	-16075.75459	4289.500927	-187500.0224	-13671.28803	-1390.412616
83	-9638.20632	8319.118121	-40096.90614	-16096.56407	4300.766206	-187500.0224	-13635.10056	-1384.06472
84	-7268.027338	10222.03388	-40395.01135	-16282.61999	4149.601358	-187500.0224	-13890.42454	-1548.215931
85	-10371.79057	7520.311477	-40196.34905	-16454.81783	3330.096999	-187500.0224	-14121.18395	-1900.077093
86	-12971.8796	5463.191028	-39797.10219	-16195.33642	3626.078799	-187500.0224	-13858.84152	-1608.073903
87	-12391.04717	6027.930203	-39833.69199	-16076.04516	4271.8654	-187500.0224	-13672.0927	-1407.265831
88	-9827.413836	8162.186523	-40089.3736	-16093.70304	4289.322113	-187500.0224	-13637.29103	-1403.443683
89	-7251.487047	10244.40798	-40388.28348	-16258.72597	4186.124109	-187500.0224	-13873.52662	-1523.360792
90	-10144.00394	7712.067093	-40218.65609	-16454.66136	3364.026948	-187500.0224	-14128.38121	-1886.822508
91	-12935.71448	5487.956761	-39806.31111	-16212.41316	3581.62118	-187500.0224	-13880.07568	-1622.870758
92	-12463.53387	5967.15581	-39826.20416	-16089.54562	4259.214313	-187500.0224	-13689.97409	-1416.541805
93	-10012.0616	8004.271448	-40072.11805	-16108.43284	4284.181211	-187500.0224	-13642.23077	-1427.136532
94	-7255.018622	10243.60332	-40372.5255	-16254.5909	4216.567185	-187500.0224	-13850.75019	-1508.273364
95	-9921.872308	7896.91602	-40232.67063	-16462.32801	3399.298	-187500.0224	-14124.15673	-1874.953732
96	-12899.05761	5508.945049	-39812.92722	-16231.14392	3535.286014	-187500.0224	-13895.7219	-1651.078659
97	-12530.32089	5909.711827	-39805.64056	-16075.73224	4250.497133	-187500.0224	-13685.99548	-1407.735218
98	-10195.65883	7852.145475	-40045.29596	-16083.75652	4293.166613	-187500.0224	-13633.24536	-1399.465072
99	-7285.193477	10225.43135	-40359.65089	-16224.68427	4256.532104	-187500.0224	-13830.90184	-1485.318123
100	-9662.234445	8116.745426	-40251.75902	-16445.83242	3536.336546	-187500.0224	-14123.62029	-1860.916836
101	-12810.70117	5574.860343	-39837.51414	-16239.8164	3600.530756	-187500.0224	-13916.33021	-1674.168011
102	-12585.90967	5861.052079	-39801.75135	-16077.36392	4265.651615	-187500.0224	-13687.58246	-1427.807084
103	-10359.89944	7714.21286	-40031.03555	-16083.06361	4335.567872	-187500.0224	-13629.95966	-1414.060761
104	-7331.215719	10189.86972	-40353.75003	-16208.90393	4276.805136	-187500.0224	-13811.99227	-1475.371596
105	-9440.728657	8303.203679	-40268.1205	-16430.58854	3573.820421	-187500.0224	-14117.67472	-1836.128752
106	-12747.80336	5615.898146	-39840.79985	-16242.74447	3568.321892	-187500.0224	-13937.22909	-1689.188384
107	-12644.94063	5806.402064	-39782.79707	-16064.04228	4253.000528	-187500.0224	-13701.6417	-1415.2007
108	-10531.6279	7568.323024	-40006.62744	-16076.98394	4344.195645	-187500.0224	-13641.40375	-1405.500043
109	-7392.012464	10142.46167	-40338.43909	-16200.1644	4303.806043	-187500.0224	-13800.68228	-1453.824515
110	-9224.542585	8483.023463	-40283.47615	-16439.79745	3613.427712	-187500.0224	-14109.73985	-1819.387295
111	-12675.27195	5668.044766	-39855.32848	-16269.18659	3535.442476	-187500.0224	-13949.5449	-1692.943477
112	-12703.5022	5756.557674	-39777.92439	-16085.63406	4230.559377	-187500.0224	-13700.03238	-1412.697305
113	-10701.99289	7426.009467	-39990.82476	-16094.88769	4339.39002	-187500.0224	-13633.55829	-1399.733293
114	-7472.143468	10081.50847	-40322.77051	-16191.96131	4314.289011	-187500.0224	-13778.66581	-1437.6195
115	-9038.509016	8638.815122	-40311.79581	-16444.35721	3571.384081	-187500.0224	-14113.29378	-1827.500978
116	-12622.56654	5701.102996	-39873.09812	-16286.6433	3390.893744	-187500.0224	-13971.09198	-1719.206777
117	-12752.49723	5715.229298	-39774.19165	-16079.91202	4184.470079	-187500.0224	-13715.41038	-1407.243479
118	-10875.0401	7280.343149	-39992.72466	-16099.22392	4283.711825	-187500.0224	-13647.97516	-1426.242462
119	-7563.718565	10009.98289	-40319.86479	-16188.13916	4318.737008	-187500.0224	-13772.42968	-1430.198721
120	-8823.753455	8820.959487	-40336.31567	-16443.15022	3622.346058	-187500.0224	-14112.2209	-1802.712894
121	-12525.06823	5771.131011	-39897.17095	-16303.67533	3361.992939	-187500.0224	-13992.72847	-1749.560445
122	-12798.83239	5670.995196	-39772.02353	-16073.83234	4167.326291	-187500.0224	-13724.21696	-1409.925688
123	-11031.07763	7148.266691	-39974.57504	-16082.9295	4290.797328	-187500.0224	-13651.77496	-1411.758532
124	-7671.833953	9919.994762	-40299.54705	-16164.3122	4334.539692	-187500.0224	-13763.55603	-1407.534052
125	-8618.787958	8993.246733	-40340.74132	-16430.16385	3674.604437	-187500.0224	-14100.0839	-1787.111376
126	-12415.03059	5854.681832	-39907.4304	-16319.27685	3336.534302	-187500.0224	-14005.80424	-1769.900533
127	-12840.31723	5635.858254	-39760.33357	-16077.20746	4138.157265	-187500.0224	-13727.59208	-1419.089904
128	-11177.30274	7029.556576	-39959.24174	-16083.17537	4297.324037	-187500.0224	-13647.34932	-1413.233747
129	-7798.791861	9821.915307	-40280.79394	-16155.59502	4345.693212	-187500.0224	-13738.20916	-1410.32802
130	-8430.675677	9159.655471	-40365.30588	-16427.39224	3726.102856	-187500.0224	-14093.33367	-1796.320295
131	-12300.45555	5945.742839	-39944.46724	-16341.0698	3315.523662	-187500.0224	-14032.224	-1793.973362
132	-12890.94393	5593.14407	-39768.64842	-16096.20644	4106.484843	-187500.0224	-13745.7864	-1431.539825
133	-11332.02151	6904.096234	-39950.23399	-16092.94308	4298.419273	-187500.0224	-13655.93239	-1430.489293
134	-7947.654479	9704.769815	-40262.21964	-16149.42594	4349.627119	-187500.0224	-13728.39674	-1405.365933
135	-8254.231006	9315.134205	-40367.63047	-16418.96563	3777.645979	-187500.0224	-14080.34731	-1759.238751
136	-12159.48309	6057.47921	-39951.57509	-16357.54303	3326.476017	-187500.0224	-14045.09861	-1810.111321
137	-12915.26263	5565.71848	-39758.836	-16101.90613	4108.094169	-187500.0224	-13757.25284	-1444.615596
138	-11448.87643	6801.27821	-39933.85016	-16098.3075	4338.451247	-187500.0224	-13662.03441	-1425.236633
139	-8084.156583	9584.405671	-40244.74057	-16150.00709	4372.336492	-187500.0224	-13718.62903	-1406.639982
140	-8085.967074	9452.664489	-40377.39818	-16414.65174	3828.093866	-187500.0224	-14068.38913	-1744.933634
141	-12029.10537	6151.736516	-39975.78203	-16375.96087	3287.069891	-187500.0224	-14060.72248	-1834.765295
142	-12956.34514	5524.613622	-39748.57655	-16101.61556	4050.896055	-187500.0224	-13760.47149	-1450.829381
143	-11573.66622	6697.677874	-39925.55766	-16090.12676	4362.479372	-187500.0224	-13663.57668	-1416.362991
144	-8247.1008	9451.211625	-40236.91746	-16140.30643	4385.680483	-187500.0224	-13698.98185	-1402.25904
145	-7911.422302	9606.198622	-40382.02499	-16391.29417	3923.826387	-187500.0224	-14035.35325	-1714.065875
146	-11824.09517	6319.084027	-40002.40296	-16386.53325	3414.318373	-187500.0224	-14070.49019	-1829.132656
147	-12977.08755	5498.953819	-39761.24999	-16131.23162	4054.472334	-187500.0224	-13771.60266	-1476.511535
148	-11700.31121	6590.724777	-39905.03876	-16106.08591	4366.390928	-187500.0224	-13654.47952	-1420.699229
149	-8424.327782	9304.94181	-40219.68427	-16151.70582	4390.530812	-187500.0224	-13691.13638	-1401.387322
150	-7786.274884	9716.035094	-40399.63816	-16395.98803	3968.082841	-187500.0224	-14025.65259	-1692.027055
151	-11667.54355	6443.873816	-40029.40387	-16411.90248	3414.877166	-187500.0224	-14079.6097	-1841.604929
152	-13003.14969	5470.90238	-39763.61928	-16149.78357	4020.34122	-187500.0224	-13783.5832	-1495.868146
153	-11816.02619	6491.415976	-39899.56259	-16105.63887	4370.481297	-187500.0224	-13661.8556	-1422.554424
154	-8597.53145	9161.555369	-40202.94281	-16140.30643	4396.252858	-187500.0224	-13683.87207	-1400.828529
155	-7663.496752	9828.687886	-40401.82863	-16378.17369	4013.0322	-187500.0224	-14010.47576	-1672.335168
156	-11496.21743	6587.260257	-40056.15891	-16416.84221	3416.33003	-187500.0224	-14098.2287	-1853.451354
157	-13024.51796	5452.506894	-39773.27523	-16150.20825	3982.320903	-187500.0224	-13803.94564	-1515.001239
158	-11925.79561	6405.473519	-39888.38671	-16096.47466	4372.31414	-187500.0224	-13665.43188	-1422.666183
159	-8772.746774	9021.700504	-40179.1382	-16123.43086	4401.66198	-187500.0224	-13669.79047	-1387.506889
160	-7548.54173	9932.243518	-40401.3816	-16353.16209	4056.640453	-187500.0224	-13989.37571	-1637.667613
161	-11302.9866	6742.649584	-40076.27548	-16415.34465	3423.460236	-187500.0224	-14104.50954	-1851.149124
162	-13027.20017	5442.158036	-39765.45212	-16152.39872	3946.915739	-187500.0224	-13812.484	-1525.014821
163	-12025.17146	6320.805111	-39870.21474	-16090.68556	4370.861276	-187500.0224	-13668.13644	-1412.987877
164	-8961.68607	8861.4832	-40158.95458	-16116.50182	4395.090567	-187500.0224	-13665.0519	-1386.076377
165	-7457.123096	10010.54168	-40396.66538	-16336.75591	4095.711302	-187500.0224	-13970.04145	-1618.735685
166	-11108.79464	6893.702673	-40096.72732	-16424.59827	3429.383448	-187500.0224	-14115.03722	-1860.268636
167	-13029.79297	5425.505987	-39770.99535	-16155.39386	3907.375503	-187500.0224	-13831.21477	-1534.648423
168	-12121.66394	6233.387438	-39857.27308	-16080.87314	4361.339433	-187500.0224	-13674.55139	-1419.514587
169	-9150.29009	8697.86843	-40142.52605	-16111.36092	4387.848602	-187500.0224	-13660.91682	-1397.855746
170	-7390.649008	10065.2364	-40408.4671	-16330.8774	4115.716114	-187500.0224	-13957.1892	-1609.236194
171	-10931.70177	7027.142588	-40135.32879	-16447.17353	3382.713006	-187500.0224	-14128.53767	-1883.112119
172	-13025.34497	5413.570155	-39784.76403	-16175.28691	3858.447535	-187500.0224	-13844.89403	-1549.020594
173	-12217.8882	6146.059173	-39863.73274	-16094.95474	4337.601881	-187500.0224	-13683.20151	-1424.521378
174	-9350.606424	8530.207995	-40134.32296	-16115.96538	4365.51921	-187500.0224	-13658.94987	-1398.638058
175	-7339.642327	10118.72412	-40411.93162	-16324.46245	4153.714079	-187500.0224	-13942.88408	-1590.036045
176	-10745.75761	7185.03531	-40161.43562	-16460.31636	3356.583817	-187500.0224	-14137.21015	-1898.825395
177	-13022.86393	5415.581812	-39778.48319	-16185.18873	3798.813081	-187500.0224	-13850.41491	-1565.11385
178	-12303.65185	6080.434451	-39845.82899	-16095.33472	4342.161637	-187500.0224	-13682.70978	-1417.190005
179	-9548.151141	8371.979996	-40107.70203	-16111.02564	4361.562951	-187500.0224	-13649.69625	-1393.340694
180	-7297.822213	10167.94266	-40392.37385	-16297.12627	4203.17849	-187500.0224	-13913.46919	-1549.579388
181	-10534.46657	7367.537304	-40173.37145	-16455.39897	3387.809204	-187500.0224	-14136.74076	-1889.974104
182	-13020.38288	5420.856824	-39785.92632	-16189.56967	3743.648975	-187500.0224	-13872.78901	-1597.948563
183	-12390.37661	6020.688238	-39842.69975	-16089.54562	4343.726259	-187500.0224	-13698.08778	-1436.34545
184	-9741.538434	8220.70339	-40101.68941	-16105.9518	4363.21698	-187500.0224	-13660.53684	-1398.191023
185	-7279.33732	10197.62578	-40396.10659	-16281.14477	4239.589481	-187500.0224	-13906.54014	-1536.213045
186	-10318.9287	7549.771076	-40206.85437	-16457.52239	3411.680867	-187500.0224	-14146.57553	-1896.746683
187	-12998.65699	5429.886929	-39802.57837	-16197.48219	3681.354664	-187500.0224	-13887.65292	-1613.371267
188	-12460.18111	5961.545522	-39832.37324	-16072.0442	4335.836093	-187500.0224	-13696.90313	-1410.529186
189	-9928.376666	8064.040013	-40088.79245	-16094.79828	4358.009023	-187500.0224	-13656.37942	-1405.835319
190	-7273.682329	10210.6345	-40397.33593	-16259.17301	4270.70311	-187500.0224	-13882.98141	-1519.225719
191	-10090.04683	7740.140884	-40240.42669	-16458.17059	3449.410611	-187500.0224	-14150.24121	-1887.962447
192	-12959.54144	5451.881045	-39827.83584	-16218.7387	3638.104038	-187500.0224	-13911.43518	-1637.578206
193	-12522.766	5907.901336	-39832.41794	-16080.20259	4330.494026	-187500.0224	-13705.12857	-1413.434912
194	-10110.74455	7912.204613	-40073.57092	-16100.72149	4354.030413	-187500.0224	-13656.40177	-1410.439779
195	-7289.797937	10201.20206	-40385.44481	-16254.76971	4294.306552	-187500.0224	-13869.68212	-1501.701951
196	-9867.535218	7928.208462	-40259.49273	-16474.12973	3482.871173	-187500.0224	-14157.55023	-1879.960523
197	-12920.24707	5481.072424	-39831.7921	-16246.11959	3590.33836	-187500.0224	-13933.42929	-1648.91054
198	-12599.32072	5849.898559	-39813.55307	-16089.18799	4315.205433	-187500.0224	-13714.60571	-1402.795482
199	-10304.35536	7755.116553	-40052.89555	-16110.95859	4350.722355	-187500.0224	-13659.53102	-1407.534052
200	-7333.137969	10176.50338	-40367.74222	-16243.6609	4318.267622	-187500.0224	-13847.95622	-1480.199573
201	-9651.773828	8115.180804	-40268.88046	-16463.80323	3524.825397	-187500.0224	-14142.44046	-1863.800211
202	-12861.1267	5524.323049	-39838.56467	-16254.41209	3569.528886	-187500.0224	-13936.96087	-1671.418747
203	-12656.16121	5799.718893	-39808.50158	-16093.23366	4312.523223	-187500.0224	-13710.76121	-1410.037447
204	-10476.82142	7610.232545	-40039.77508	-16103.80603	4353.851599	-187500.0224	-13647.8187	-1413.569023
205	-7379.026101	10143.4675	-40366.8258	-16221.37621	4345.223826	-187500.0224	-13825.47037	-1471.303579
206	-9430.3798	8300.454414	-40308.26423	-16462.70799	3565.796145	-187500.0224	-14146.35201	-1862.459107
207	-12806.34258	5558.16359	-39869.56654	-16271.93585	3511.816682	-187500.0224	-13965.21347	-1698.911393
208	-12716.9803	5743.616014	-39810.31207	-16090.17147	4283.242438	-187500.0224	-13726.49684	-1407.087017
209	-10647.90167	7463.71686	-40033.91892	-16105.10243	4349.135381	-187500.0224	-13664.20253	-1414.932479
210	-7442.728572	10091.09737	-40358.46625	-16213.70956	4360.91475	-187500.0224	-13821.69292	-1457.624311
211	-9203.509593	8489.39371	-40325.36332	-16459.08701	3611.013724	-187500.0224	-14151.82819	-1849.629205
212	-12722.79176	5619.072094	-39877.43436	-16285.48101	3476.724443	-187500.0224	-13992.4826	-1726.001707
213	-12770.69155	5699.538374	-39794.77761	-16086.63989	4261.293025	-187500.0224	-13739.84083	-1423.917881
214	-10815.36094	7329.159359	-40016.59632	-16095.62529	4350.431782	-187500.0224	-13669.25403	-1426.756552
215	-7536.337678	10023.95273	-40340.65191	-16191.1343	4376.382157	-187500.0224	-13800.65993	-1445.867294
216	-9001.941562	8666.352471	-40336.80741	-16443.99958	3658.578236	-187500.0224	-14135.39966	-1834.765295
217	-12640.17971	5684.249781	-39896.12042	-16292.52181	3459.290082	-187500.0224	-14003.3679	-1746.02887
218	-12817.67491	5661.94274	-39788.96615	-16073.2959	4269.160839	-187500.0224	-13740.91372	-1422.777942
219	-10961.00491	7208.079959	-39998.26789	-16080.56022	4410.803844	-187500.0224	-13664.33664	-1423.694363
220	-7630.058542	9947.107428	-40324.82688	-16167.55321	4416.90587	-187500.0224	-13782.935	-1439.094715
221	-8767.516466	8862.667842	-40345.21167	-16415.38935	3782.831583	-187500.0224	-14124.08967	-1797.79551
222	-12506.85155	5783.178602	-39915.18645	-16295.44989	3534.995441	-187500.0224	-14016.46602	-1752.890855
223	-12872.07906	5606.868041	-39788.16149	-16082.2813	4239.611833	-187500.0224	-13745.89816	-1442.268663
224	-11141.76347	7053.785867	-39983.82866	-16085.07527	4352.19757	-187500.0224	-13663.1073	-1432.053916
225	-7758.715184	9846.412819	-40300.99992	-16160.98179	4403.651286	-187500.0224	-13761.2091	-1420.229843
226	-8602.314723	9006.948353	-40359.91911	-16432.82371	3762.111516	-187500.0224	-14110.09748	-1793.392216
227	-12441.65152	5830.519596	-39933.26902	-16335.25835	3395.028817	-187500.0224	-14030.21235	-1785.323237
228	-12925.43267	5563.438602	-39779.77959	-16098.3075	4187.219344	-187500.0224	-13751.24022	-1432.679764
229	-11286.04398	6933.935813	-39976.45259	-16107.13644	4356.220884	-187500.0224	-13668.62818	-1430.019907
230	-7885.337816	9742.499559	-40300.73169	-16175.37632	4409.976829	-187500.0224	-13749.18386	-1417.033543
231	-8412.280191	9168.663224	-40394.16199	-16444.15604	3808.245517	-187500.0224	-14101.76028	-1783.31158
232	-12304.09888	5932.242385	-39969.74706	-16366.48373	3379.114375	-187500.0224	-14050.91006	-1814.671077
233	-12943.0682	5539.052849	-39784.67462	-16112.97025	4166.655739	-187500.0224	-13761.14205	-1447.946006
234	-11407.19043	6829.642574	-39972.07164	-16112.00912	4367.597922	-187500.0224	-13670.37161	-1435.071401
235	-8017.436626	9634.518282	-40289.06408	-16170.77186	4413.95544	-187500.0224	-13738.29856	-1416.22888
236	-8230.024067	9326.555947	-40404.82377	-16436.46704	3854.379517	-187500.0224	-14088.86332	-1766.726585
237	-12155.90682	6051.645404	-39992.90347	-16377.6596	3388.636218	-187500.0224	-14063.20352	-1825.668135
238	-12964.45882	5517.483415	-39791.4919	-16116.43477	4165.091117	-187500.0224	-13774.82131	-1457.601959
239	-11517.27277	6735.318212	-39963.26506	-16101.54851	4425.10896	-187500.0224	-13673.03147	-1426.823607
240	-8163.527627	9506.889821	-40276.25653	-16154.54449	4442.498617	-187500.0224	-13724.95457	-1413.27845
241	-8043.856388	9477.117297	-40406.83543	-16404.19112	3953.554208	-187500.0224	-14069.3279	-1730.963794
242	-11962.05014	6193.757796	-40007.63327	-16373.59159	3484.726368	-187500.0224	-14074.4688	-1821.823635
243	-12989.8504	5477.831421	-39778.75141	-16118.49113	4136.860864	-187500.0224	-13777.63763	-1476.198611
244	-11664.3249	6607.019199	-39931.21266	-16095.37942	4371.978864	-187500.0224	-13667.24237	-1434.222035
245	-8338.497083	9367.481991	-40238.92912	-16138.36183	4416.101207	-187500.0224	-13707.81078	-1397.922802
246	-7918.731322	9597.101462	-40402.99093	-16395.22808	3954.962367	-187500.0224	-14049.72542	-1708.679105
247	-11860.08148	6282.516573	-40023.61477	-16397.4856	3348.313671	-187500.0224	-14084.03535	-1856.558246
248	-13033.77158	5451.67988	-39767.10615	-16118.8264	4061.624892	-187500.0224	-13782.9797	-1475.751576
249	-11784.86786	6519.959154	-39919.16507	-16094.08302	4381.232486	-187500.0224	-13671.28803	-1429.259947
250	-8511.05255	9236.836044	-40227.48503	-16136.6631	4422.851434	-187500.0224	-13701.19467	-1400.783825
251	-7786.207829	9722.606507	-40415.37379	-16388.38844	4006.907822	-187500.0224	-14039.37656	-1694.351637
252	-11695.19266	6417.096426	-40045.69829	-16412.8189	3345.698517	-187500.0224	-14097.84873	-1873.254999
253	-13055.00574	5425.751856	-39767.03909	-16135.05377	4021.592918	-187500.0224	-13795.65314	-1501.701951
254	-11894.21259	6428.205243	-39905.10582	-16096.76523	4390.12848	-187500.0224	-13675.53487	-1435.496084
255	-8684.077404	9094.455432	-40197.15371	-16121.55332	4428.618184	-187500.0224	-13687.33659	-1401.655543
0	-7656.053621	9838.075619	-40410.14348	-16362.72864	4064.977654	-187500.0224	-14012.84504	-1673.676273
1	-11493.08818	6581.202934	-40066.93245	-16408.61677	3399.298	-187500.0224	-14103.2355	-1879.424081
2	-13047.40614	5425.282469	-39771.26357	-16130.00228	4040.189569	-187500.0224	-13805.3985	-1520.00803
3	-11976.77993	6353.908045	-39898.60146	-16084.00239	4446.745449	-187500.0224	-13676.04896	-1437.083058
4	-8848.474485	8948.36443	-40197.31017	-16113.23847	4471.153554	-187500.0224	-13685.70491	-1406.684686
5	-7537.76819	9930.947117	-40423.8451	-16342.27679	4139.811294	-187500.0224	-14000.26101	-1651.033956
6	-11278.31027	6745.823532	-40108.05966	-16417.37865	3481.775937	-187500.0224	-14126.41425	-1881.368683
7	-13065.42165	5391.643094	-39796.76691	-16151.30349	3994.659066	-187500.0224	-13834.56753	-1556.77665
8	-12104.22958	6236.60609	-39903.20592	-16096.54171	4390.575515	-187500.0224	-13694.06446	-1471.348282
9	-9051.271862	8771.048042	-40188.81651	-16114.49017	4423.276117	-187500.0224	-13686.219	-1426.175407
10	-7462.979253	9996.102452	-40434.95392	-16335.59362	4152.842361	-187500.0224	-13987.74403	-1640.372174
11	-11125.80432	6864.06426	-40137.49691	-16441.04915	3381.014273	-187500.0224	-14137.07604	-1914.359857
12	-13080.97846	5372.733518	-39793.97294	-16160.22183	3901.854623	-187500.0224	-13843.26236	-1560.978778
13	-12189.88147	6171.696624	-39892.47708	-16092.5184	4404.143024	-187500.0224	-13691.06933	-1443.922692
14	-9246.916681	8619.749083	-40172.54444	-16116.94886	4424.572518	-187500.0224	-13676.56305	-1419.827511
15	-7393.062996	10070.53376	-40433.52341	-16330.76564	4199.691617	-187500.0224	-13967.13572	-1619.428589
16	-10920.66001	7038.206701	-40160.42979	-16457.23181	3402.248431	-187500.0224	-14141.09935	-1917.690267
17	-13076.95515	5374.633416	-39797.30335	-16179.93607	3855.497105	-187500.0224	-13852.20305	-1577.586124
18	-12273.76756	6105.602515	-39880.04951	-16094.35124	4400.834966	-187500.0224	-13693.34921	-1432.992689
19	-9428.59166	8468.427774	-40150.97501	-16112.90319	4423.343172	-187500.0224	-13672.31621	-1411.982049
20	-7329.494635	10131.01758	-40432.31641	-16309.35267	4242.562263	-187500.0224	-13946.01332	-1597.121548
21	-10698.50602	7222.206261	-40197.73486	-16460.91985	3435.932509	-187500.0224	-14149.4589	-1925.759247
22	-13049.77543	5390.324341	-39811.38495	-16188.34033	3847.137552	-187500.0224	-13870.01739	-1594.506394
23	-12339.70521	6053.25473	-39864.80562	-16088.27157	4445.046716	-187500.0224	-13692.58925	-1425.795427
24	-9599.113119	8330.830435	-40129.02559	-16107.60583	4481.256542	-187500.0224	-13658.6593	-1418.084075
25	-7288.389777	10172.30125	-40419.08418	-16293.23707	4306.801177	-187500.0224	-13916.79959	-1595.422816
26	-10442.89147	7436.447732	-40202.38402	-16452.18032	3578.022549	-187500.0224	-14143.04395	-1904.569793
27	-13014.28086	5408.138681	-39816.52585	-16196.78929	3856.480581	-187500.0224	-13878.80163	-1616.344049
28	-12438.67873	5964.183028	-39853.22742	-16087.15398	4395.828175	-187500.0224	-13691.27049	-1444.28032
29	-9816.595592	8145.378011	-40107.00913	-16105.77298	4413.329591	-187500.0224	-13650.47856	-1426.801256
30	-7280.499611	10188.28275	-40409.45058	-16281.70357	4311.495043	-187500.0224	-13894.71607	-1549.847609
31	-10267.81026	7583.455155	-40229.7202	-16473.6827	3484.055815	-187500.0224	-14147.11197	-1909.487177
32	-13011.93392	5406.954039	-39813.24015	-16217.66582	3723.219481	-187500.0224	-13887.13883	-1634.381906
33	-12496.14507	5923.279336	-39833.0885	-16090.26087	4393.861222	-187500.0224	-13687.15777	-1428.209415
34	-9995.588362	8004.740835	-40089.26184	-16112.36675	4418.001106	-187500.0224	-13647.25991	-1424.834302
35	-7280.007873	10204.26425	-40398.54293	-16266.21381	4343.815666	-187500.0224	-13872.6549	-1526.199463
36	-10039.88952	7780.351672	-40252.85426	-16473.7274	3519.706848	-187500.0224	-14147.91663	-1896.634924
37	-12975.65704	5432.792656	-39829.55692	-16235.10018	3674.470326	-187500.0224	-13910.58581	-1654.230255
38	-12571.58221	5861.879094	-39828.37228	-16091.2667	4372.560009	-187500.0224	-13700.85939	-1426.555386
39	-10179.20794	7855.297071	-40072.52038	-16112.05382	4408.456911	-187500.0224	-13652.62433	-1428.209415
40	-7294.514155	10201.58204	-40389.82575	-16259.46358	4368.447288	-187500.0224	-13861.25551	-1521.952632
41	-9811.052359	7976.667044	-40266.48882	-16478.84595	3559.090621	-187500.0224	-14146.44142	-1903.943944
42	-12913.98858	5481.161831	-39838.2294	-16251.57341	3667.228361	-187500.0224	-13927.0814	-1670.502325
43	-12626.54515	5818.673172	-39825.46655	-16096.42996	4391.179012	-187500.0224	-13709.26365	-1428.924671
44	-10346.26488	7715.218689	-40064.22789	-16111.1374	4460.447068	-187500.0224	-13650.81384	-1425.504854
45	-7332.601527	10174.75995	-40386.0483	-16237.51417	4408.792187	-187500.0224	-13832.10884	-1497.030437
46	-9552.263862	8198.128128	-40290.36049	-16462.28331	3694.877469	-187500.0224	-14131.86808	-1865.476592
47	-12826.92854	5544.819599	-39856.96016	-16267.53256	3703.102911	-187500.0224	-13937.13968	-1704.968715
48	-12693.53332	5758.122296	-39814.91653	-16103.56016	4352.868122	-187500.0224	-13704.07804	-1459.300692
49	-10543.11669	7548.899358	-40042.16671	-16111.33857	4396.65519	-187500.0224	-13638.60978	-1448.191875
50	-7394.113528	10129.05063	-40363.04836	-16221.01858	4406.735826	-187500.0224	-13803.29744	-1475.237486
51	-9361.357613	8349.47179	-40314.81329	-16470.5311	3636.315898	-187500.0224	-14126.3919	-1876.20543
52	-12786.22601	5558.521218	-39878.73076	-16287.9397	3550.976938	-187500.0224	-13951.66832	-1731.053201
53	-12736.82865	5715.497519	-39813.48602	-16094.30654	4322.022715	-187500.0224	-13710.87297	-1432.74682
54	-10693.00749	7417.672267	-40036.95876	-16106.22002	4396.029341	-187500.0224	-13648.95864	-1432.098619
55	-7449.925834	10081.2626	-40360.85789	-16201.79608	4424.952498	-187500.0224	-13792.21097	-1457.020814
56	-9129.771188	8539.662783	-40336.76271	-16454.14727	3683.343969	-187500.0224	-14119.84284	-1856.401784
57	-12694.53915	5619.295611	-39893.48291	-16292.67827	3514.431836	-187500.0224	-13967.35924	-1753.85198
58	-12775.56423	5671.822211	-39796.5434	-16092.11607	4299.559212	-187500.0224	-13713.04109	-1444.839113
59	-10847.56981	7279.650245	-40011.52247	-16102.66609	4394.755291	-187500.0224	-13642.52134	-1438.804142
60	-7529.207472	10012.66509	-40340.4731	-16190.4861	4439.347022	-187500.0224	-13772.34027	-1444.861465
61	-8905.762006	8728.043285	-40344.94345	-16449.11813	3730.886129	-187500.0224	-14110.03043	-1837.559263
62	-12581.52873	5707.696761	-39901.88717	-16307.45277	3522.81374	-187500.0224	-13980.09974	-1765.273722
63	-12812.62342	5640.105085	-39791.29074	-16100.31916	4301.928497	-187500.0224	-13720.30541	-1445.979052
64	-10984.98833	7168.942054	-39993.46226	-16104.45423	4447.14778	-187500.0224	-13644.13066	-1434.199683
65	-7631.511406	9933.048181	-40316.33321	-16188.31798	4463.442202	-187500.0224	-13755.01767	-1446.180218
66	-8675.360224	8926.526776	-40346.53042	-16443.32903	3845.930558	-187500.0224	-14094.58537	-1812.435903
67	-12447.57473	5811.252393	-39922.47312	-16330.89975	3574.222752	-187500.0224	-13998.78579	-1783.646856
68	-12865.68646	5589.210163	-39790.70959	-16109.93041	4258.119077	-187500.0224	-13731.0566	-1469.426032
69	-11158.30376	7018.358352	-39983.96277	-16104.14131	4381.076024	-187500.0224	-13646.79052	-1462.854619
70	-7753.618986	9830.744246	-40304.71031	-16172.67176	4445.247882	-187500.0224	-13737.5386	-1451.008195
71	-8508.169175	9065.912255	-40373.15135	-16443.59725	3816.3592	-187500.0224	-14086.31522	-1811.988868
72	-12376.63029	5857.587559	-39946.85888	-16354.72671	3423.63905	-187500.0224	-14015.86253	-1817.442693
73	-12907.95361	5552.486247	-39784.29464	-16110.06452	4212.78974	-187500.0224	-13738.25386	-1459.948893
74	-11303.54539	6898.396539	-39974.82091	-16114.22194	4389.904963	-187500.0224	-13654.256	-1453.064555
75	-7890.009331	9720.661905	-40294.76378	-16171.353	4459.083612	-187500.0224	-13732.53181	-1431.85275
76	-8319.855728	9227.113036	-40391.32332	-16437.27171	3876.105413	-187500.0224	-14086.15876	-1796.610868
77	-12248.66655	5955.24233	-39972.8316	-16372.40694	3409.222175	-187500.0224	-14041.25411	-1847.103458
78	-12949.08082	5512.811901	-39790.57548	-16119.31814	4179.887972	-187500.0224	-13751.93313	-1476.82446
79	-11439.33224	6787.286018	-39971.87048	-16112.52321	4393.928277	-187500.0224	-13657.11703	-1458.987768
80	-8033.954565	9607.360912	-40284.05729	-16162.3676	4461.676414	-187500.0224	-13723.4123	-1425.549558
81	-8143.992203	9381.720052	-40405.06964	-16422.78778	3926.41919	-187500.0224	-14076.94984	-1757.227094
82	-12091.82436	6083.966027	-39994.91513	-16379.44774	3440.9393	-187500.0224	-14062.53297	-1834.497074
83	-12975.81351	5490.236639	-39783.8476	-16123.45321	4180.871449	-187500.0224	-13770.35097	-1471.102413
84	-11559.62933	6687.798403	-39956.17955	-16111.47268	4439.45878	-187500.0224	-13669.96928	-1440.368764
85	-8187.354587	9477.162001	-40276.92709	-16158.00901	4481.949446	-187500.0224	-13717.6679	-1419.872215
86	-7966.497	9529.710952	-40413.58565	-16412.72949	4015.110912	-187500.0224	-14057.43677	-1735.232977
87	-11917.01137	6215.550746	-40019.92673	-16402.96178	3492.840051	-187500.0224	-14073.79825	-1854.077203
88	-13007.32946	5446.762496	-39787.98268	-16144.01682	4131.630556	-187500.0224	-13778.79992	-1514.777722
89	-11700.15475	6559.767611	-39946.00951	-16118.46878	4379.958436	-187500.0224	-13670.43867	-1474.745747
90	-8354.47858	9336.256604	-40250.48497	-16143.36862	4450.321728	-187500.0224	-13705.28504	-1405.231822
91	-7833.258251	9649.113971	-40423.42042	-16397.55266	4015.312077	-187500.0224	-14047.49024	-1716.524567
92	-11799.55295	6307.684637	-40055.35424	-16412.64008	3367.089136	-187500.0224	-14098.38517	-1886.420177
93	-13043.85222	5416.721751	-39792.90006	-16134.42792	4051.633662	-187500.0224	-13800.39171	-1512.810768
94	-11810.61707	6472.573456	-39938.58873	-16102.33082	4386.641608	-187500.0224	-13683.17916	-1447.029584
95	-8522.809568	9198.659265	-40235.73282	-16130.78459	4451.50637	-187500.0224	-13701.06056	-1404.069531
96	-7697.180831	9764.560731	-40434.7304	-16377.43609	4068.26336	-187500.0224	-14034.79445	-1694.955134
97	-11624.60585	6441.504531	-40079.56118	-16418.71976	3371.648892	-187500.0224	-14111.32683	-1897.506642
98	-13065.95809	5387.910353	-39789.61435	-16140.5523	4009.187699	-187500.0224	-13804.1468	-1535.922472
99	-11924.36509	6376.684472	-39917.80161	-16097.25697	4389.413224	-187500.0224	-13674.35022	-1451.723451
100	-8704.775119	9050.914234	-40210.36359	-16121.41921	4450.589949	-187500.0224	-13680.4746	-1409.880985
101	-7582.292865	9872.56436	-40432.51758	-16366.26021	4114.509119	-187500.0224	-14008.32999	-1685.612105
102	-11436.58297	6598.056149	-40097.6661	-16431.30379	3395.654666	-187500.0224	-14111.79621	-1909.576584
103	-13063.87938	5384.714053	-39786.14983	-16142.98864	4010.528804	-187500.0224	-13806.27022	-1530.356888
104	-12009.97228	6304.041303	-39903.02711	-16085.25408	4440.308147	-187500.0224	-13672.15975	-1434.244386
105	-8876.123592	8904.711474	-40199.65711	-16112.76908	4487.917362	-187500.0224	-13675.19959	-1411.512662
106	-7469.952997	9969.012138	-40435.57977	-16342.72383	4189.253353	-187500.0224	-13988.19107	-1658.097107
107	-11201.04029	6786.92839	-40121.18013	-16427.16872	3516.845824	-187500.0224	-14122.23448	-1901.70877
108	-13059.43138	5371.504172	-39804.90295	-16161.0712	3989.741682	-187500.0224	-13829.80661	-1581.38592
109	-12123.34032	6199.055159	-39913.2195	-16103.4037	4388.317989	-187500.0224	-13687.35894	-1479.931352
110	-9083.190153	8725.294021	-40191.81164	-16111.89736	4433.31205	-187500.0224	-13677.45712	-1424.141398
111	-7397.131014	10029.94299	-40438.4855	-16325.17771	4199.110472	-187500.0224	-13969.30384	-1634.203092
112	-11046.81326	6902.710426	-40151.46675	-16446.27946	3403.298963	-187500.0224	-14129.5882	-1932.509474
113	-13076.84339	5348.034841	-39798.97974	-16159.66304	3885.470794	-187500.0224	-13833.49464	-1587.599705
114	-12205.48298	6131.754056	-39888.83375	-16078.01212	4397.906887	-187500.0224	-13681.32397	-1441.106372
115	-9261.51237	8578.57717	-40170.7563	-16101.95084	4441.224568	-187500.0224	-13666.9518	-1418.262889
116	-7322.967925	10105.40248	-40439.31251	-16307.63159	4248.150199	-187500.0224	-13953.88114	-1614.220633
117	-10838.495	7084.474812	-40177.93121	-16444.96071	3424.443713	-187500.0224	-14139.1771	-1942.456
118	-13070.22727	5356.908483	-39804.07593	-16168.60374	3838.062744	-187500.0224	-13853.14183	-1606.62104
119	-12290.91135	6070.644387	-39870.34886	-16076.02281	4394.978809	-187500.0224	-13687.73892	-1445.911997
120	-9452.351564	8429.871014	-40137.22868	-16091.19965	4437.91651	-187500.0224	-13658.90517	-1426.041296
121	-7277.504477	10160.52188	-40420.17942	-16288.45379	4291.937267	-187500.0224	-13932.35641	-1591.198336
122	-10621.86189	7272.0283	-40188.92827	-16448.08995	3473.282274	-187500.0224	-14145.74851	-1926.250985
123	-13041.0359	5379.774318	-39805.50644	-16187.69213	3852.278453	-187500.0224	-13878.84633	-1614.332392
124	-12364.44859	6014.295639	-39859.3518	-16087.3775	4438.251786	-187500.0224	-13699.51829	-1452.192837
125	-9638.85452	8279.510829	-40126.05281	-16105.75063	4489.638447	-187500.0224	-13663.44257	-1435.31727
126	-7252.55993	10186.76283	-40421.83345	-16288.52085	4349.202436	-187500.0224	-13916.44197	-1572.825202
127	-10377.37851	7474.333939	-40212.97875	-16460.13754	3608.040942	-187500.0224	-14143.15571	-1897.640753
128	-13023.37802	5381.942437	-39817.7552	-16210.82618	3848.813933	-187500.0224	-13879.67335	-1633.443133
129	-12460.89637	5929.046086	-39845.04668	-16087.22104	4427.724114	-187500.0224	-13685.28023	-1458.25016
130	-9840.601366	8107.715322	-40100.63888	-16095.40178	4490.331351	-187500.0224	-13647.66224	-1427.963546
131	-7260.360689	10181.44312	-40400.84516	-16265.96794	4365.13923	-187500.0224	-13885.21658	-1558.810658
132	-10203.92897	7607.818557	-40230.14489	-16462.1492	3525.987688	-187500.0224	-14144.78739	-1934.767
133	-13015.62196	5372.979387	-39818.47046	-16209.86506	3725.119379	-187500.0224	-13897.80061	-1653.716165
134	-12535.48414	5861.946149	-39836.55302	-16076.06752	4393.481242	-187500.0224	-13699.6971	-1433.126799
135	-10040.64948	7937.730305	-40090.11121	-16094.53006	4433.088533	-187500.0224	-13656.1559	-1429.148189
136	-7255.778582	10193.89304	-40405.2708	-16247.05836	4395.224678	-187500.0224	-13881.19327	-1525.663021
137	-9971.426126	7803.731597	-40260.05152	-16456.96359	3567.383119	-187500.0224	-14157.12555	-1906.916726
138	-12971.81254	5402.170766	-39832.90968	-16228.46171	3684.729777	-187500.0224	-13923.19219	-1684.271
139	-12599.36543	5808.279611	-39821.555	-16079.39793	4385.211096	-187500.0224	-13702.55812	-1440.391116
140	-10225.78898	7784.196172	-40065.85956	-16094.97709	4429.735771	-187500.0224	-13654.52423	-1428.030602
141	-7287.294541	10176.52573	-40378.29225	-16243.59384	4419.096341	-187500.0224	-13855.35465	-1521.304431
142	-9753.384859	7989.206372	-40266.13119	-16466.21722	3605.515195	-187500.0224	-14149.81653	-1898.020732
143	-12924.76212	5435.430161	-39837.44709	-16242.3645	3641.747372	-187500.0224	-13935.57506	-1696.18448
144	-12666.82299	5756.222398	-39813.50837	-16080.47081	4367.19559	-187500.0224	-13711.76704	-1442.000442
145	-10408.42508	7634.439484	-40051.39799	-16091.57963	4424.259594	-187500.0224	-13653.13842	-1436.59132
146	-7330.925146	10146.08266	-40380.92975	-16220.79506	4445.314937	-187500.0224	-13844.02232	-1493.565916
147	-9502.642989	8207.135881	-40297.55775	-16449.11813	3733.769504	-187500.0224	-14151.53762	-1871.355101
148	-12835.73512	5507.983924	-39867.0408	-16258.92714	3707.416798	-187500.0224	-13961.21251	-1738.049297
149	-12722.45648	5708.993162	-39816.10117	-16083.44359	4380.807803	-187500.0224	-13723.83699	-1467.772003
150	-10569.64821	7502.117157	-40039.19393	-16085.41055	4478.350816	-187500.0224	-13657.38525	-1425.638965
151	-7397.622752	10097.53467	-40373.28546	-16205.9535	4469.655987	-187500.0224	-13824.86687	-1484.692274
152	-9309.81449	8365.632101	-40323.68694	-16453.38731	3722.325411	-187500.0224	-14151.26939	-1882.48627
153	-12790.5399	5529.285136	-39882.99994	-16280.76479	3610.119654	-187500.0224	-13984.57008	-1751.303882
154	-12795.0773	5641.96028	-39817.64344	-16097.16756	4331.544558	-187500.0224	-13744.55705	-1479.506669
155	-10768.0423	7331.34983	-40031.90726	-16099.62625	4407.495786	-187500.0224	-13668.22584	-1486.726282
156	-7478.401956	10032.20052	-40357.16985	-16184.31701	4467.800792	-187500.0224	-13808.5948	-1467.369672
157	-9099.238706	8539.61808	-40349.79377	-16442.99375	3733.389525	-187500.0224	-14146.68729	-1864.113136
158	-12715.34863	5577.564904	-39904.07764	-16287.62678	3529.340449	-187500.0224	-13997.31058	-1778.595362
159	-12833.34349	5602.867079	-39806.78049	-16075.17345	4312.389113	-187500.0224	-13740.98077	-1442.760401
160	-10912.92631	7203.766072	-40018.89855	-16077.76625	4423.969021	-187500.0224	-13669.45519	-1436.367802
161	-7561.975129	9961.457248	-40346.53042	-16169.56486	4488.990246	-187500.0224	-13794.44615	-1452.550465
162	-8881.331549	8718.163814	-40360.29909	-16440.06567	3786.921953	-187500.0224	-14134.99732	-1856.021804
163	-12612.39649	5642.608481	-39919.81327	-16307.63159	3500.037313	-187500.0224	-14014.9461	-1802.511728
164	-12871.52027	5557.224817	-39795.09053	-16085.20938	4284.404729	-187500.0224	-13746.4346	-1469.984826
165	-11066.5722	7066.705175	-40003.09587	-16100.69914	4415.274193	-187500.0224	-13673.76908	-1477.740881
166	-7664.23436	9872.586712	-40329.34193	-16179.22082	4494.354665	-187500.0224	-13785.59486	-1468.129631
167	-8671.091041	8894.474375	-40374.76067	-16442.30085	3834.68763	-187500.0224	-14130.43757	-1845.002394
168	-12486.42206	5744.912415	-39932.64317	-16326.65292	3514.23067	-187500.0224	-14029.16181	-1814.894595
169	-12901.67277	5533.979003	-39788.27325	-16097.99458	4290.95379	-187500.0224	-13755.68822	-1474.343416
170	-11192.99366	6969.363328	-39981.97347	-16101.16853	4475.892124	-187500.0224	-13668.91875	-1455.232675
171	-7785.090242	9783.783231	-40310.87939	-16177.49973	4521.288517	-187500.0224	-13762.90783	-1454.249198
172	-8464.695032	9080.418537	-40382.18145	-16442.70318	3940.232568	-187500.0224	-14112.71264	-1816.36981
173	-12350.03172	5856.44762	-39963.62268	-16360.8958	3571.741709	-187500.0224	-14050.37362	-1833.893577
174	-12962.49187	5478.680787	-39796.69986	-16129.21996	4246.36206	-187500.0224	-13775.58127	-1502.238393
175	-11369.52774	6818.042018	-39970.14939	-16118.42407	4413.06137	-187500.0224	-13677.45712	-1473.538753
176	-7933.908157	9659.127552	-40289.82404	-16175.37632	4501.59663	-187500.0224	-13753.38599	-1449.309462
177	-8305.237687	9210.662152	-40393.82671	-16448.73815	3928.564957	-187500.0224	-14111.93032	-1811.76535
178	-12258.34486	5918.250193	-39976.07261	-16390.55656	3436.021916	-187500.0224	-14071.07134	-1867.24238
179	-12996.55592	5447.008365	-39785.16636	-16131.83512	4196.182394	-187500.0224	-13780.40925	-1495.309352
180	-11494.47399	6714.553441	-39968.31655	-16119.69812	4423.007896	-187500.0224	-13686.04019	-1463.994558
181	-8071.30433	9545.737153	-40280.59277	-16161.98762	4508.056284	-187500.0224	-13742.00895	-1436.457209
182	-8123.026266	9364.978595	-40411.6187	-16425.87232	3981.985626	-187500.0224	-14093.19956	-1768.559428
183	-12111.98564	6027.8855	-40009.64493	-16394.9375	3421.962669	-187500.0224	-14082.8507	-1873.813793
184	-13024.4956	5412.206699	-39786.23924	-16130.69518	4163.101812	-187500.0224	-13784.52197	-1510.307373
185	-11617.60975	6601.788891	-39949.04935	-16111.36092	4430.540434	-187500.0224	-13680.85458	-1464.285131
186	-8222.379771	9413.012494	-40258.4869	-16150.72234	4517.466368	-187500.0224	-13722.51823	-1421.034505
187	-7956.014032	9508.007408	-40414.65854	-16416.81986	4046.850389	-187500.0224	-14069.55142	-1750.074536
188	-11937.73144	6168.366214	-40029.06859	-16406.89569	3468.856629	-187500.0224	-14096.73114	-1880.988703
189	-13033.25749	5403.869498	-39791.13427	-16137.84774	4179.262123	-187500.0224	-13801.12932	-1507.647515
190	-11717.14207	6528.408114	-39930.07272	-16105.12478	4494.958162	-187500.0224	-13682.19569	-1445.867294
191	-8379.892514	9292.581295	-40238.63855	-16152.93517	4553.251511	-187500.0224	-13723.45701	-1427.963546
192	-7798.233068	9650.164503	-40415.82083	-16409.6673	4136.547939	-187500.0224	-14061.30362	-1734.137742
193	-11744.76883	6325.364867	-40046.39119	-16430.1415	3549.97111	-187500.0224	-14113.13732	-1880.04993
194	-13061.5548	5368.620797	-39788.20619	-16167.95554	4146.539169	-187500.0224	-13815.18856	-1524.500731
195	-11843.60824	6415.35299	-39922.47312	-16129.89052	4489.079653	-187500.0224	-13691.51636	-1461.781736
196	-8559.600539	9135.895566	-40225.40632	-16165.47449	4548.155314	-187500.0224	-13714.40455	-1427.315346
197	-7676.751337	9753.384859	-40422.86163	-16409.44378	4176.579914	-187500.0224	-14046.10444	-1702.577079
198	-11572.7051	6461.397584	-40069.23468	-16450.30277	3558.420069	-187500.0224	-14121.47452	-1900.1665
199	-13082.40897	5344.816189	-39785.18871	-16180.11489	4110.329343	-187500.0224	-13821.87174	-1552.574522
200	-11956.79748	6320.53689	-39905.64226	-16123.45321	4489.929019	-187500.0224	-13688.07419	-1463.055785
201	-8745.947033	8983.031986	-40206.13911	-16145.89437	4546.881264	-187500.0224	-13697.30546	-1429.997555
202	-7561.841018	9853.900654	-40423.30866	-16378.50897	4221.596327	-187500.0224	-14016.68954	-1687.377892
203	-11384.34695	6606.929792	-40095.22976	-16440.17743	3565.125592	-187500.0224	-14124.15673	-1917.891433
204	-13090.50031	5322.799721	-39792.7436	-16167.48615	4071.325549	-187500.0224	-13829.1584	-1579.84365
205	-12057.62619	6227.486578	-39904.14469	-16110.66802	4481.390653	-187500.0224	-13692.45514	-1473.11407
206	-8925.766817	8828.961412	-40191.38696	-16130.71753	4540.488665	-187500.0224	-13685.16847	-1431.875102
207	-7475.071546	9932.310573	-40437.07734	-16363.13097	4237.130789	-187500.0224	-13998.15994	-1677.47607
208	-11236.60192	6720.901337	-40132.60187	-16463.71382	3451.95871	-187500.0224	-14141.09935	-1944.020622
209	-13107.97937	5301.587916	-39793.54826	-16179.01965	3976.91178	-187500.0224	-13836.66859	-1593.768787
210	-12162.27706	6141.387658	-39892.45473	-16116.63593	4455.283815	-187500.0224	-13687.15777	-1475.55041
211	-9122.909203	8664.340814	-40171.65037	-16139.63588	4515.007676	-187500.0224	-13675.13253	-1432.232729
212	-7387.877391	10009.5135	-40422.61576	-16349.80933	4292.451357	-187500.0224	-13970.15321	-1633.53254
213	-11032.32932	6884.426699	-40143.93421	-16472.85568	3477.685568	-187500.0224	-14137.21015	-1925.692192
214	-13106.12418	5292.177831	-39798.93503	-16201.17023	3942.043059	-187500.0224	-13854.28177	-1589.633714
215	-12248.66655	6065.6823	-39873.5228	-16123.34146	4464.336272	-187500.0224	-13690.1082	-1461.06648
216	-9314.754226	8499.675512	-40142.61545	-16139.43471	4511.789025	-187500.0224	-13665.0519	-1425.996593
217	-7322.699704	10062.42008	-40414.56913	-16341.718	4335.076134	-187500.0224	-13945.85686	-1612.566604
218	-10812.38816	7057.339794	-40164.90014	-16479.85178	3509.805025	-187500.0224	-14138.39479	-1937.382154
219	-13089.71799	5294.703578	-39788.87675	-16203.29365	3905.989695	-187500.0224	-13851.64426	-1606.285764
220	-12325.4448	6000.191689	-39855.73081	-16110.51155	4468.963083	-187500.0224	-13679.7817	-1456.663186
221	-9499.200821	8346.208435	-40126.20927	-16125.48722	4511.20788	-187500.0224	-13647.8187	-1439.988785
222	-7276.409242	10109.78342	-40417.4078	-16308.99505	4370.302483	-187500.0224	-13921.09113	-1587.957333
223	-10599.84542	7235.974936	-40196.52786	-16472.22984	3531.821493	-187500.0224	-14144.318	-1929.939023
224	-13067.00862	5307.131148	-39796.0293	-16202.19841	3864.951892	-187500.0224	-13862.4625	-1627.855197
225	-12405.17347	5932.55531	-39845.58312	-16099.13452	4465.72208	-187500.0224	-13685.14612	-1463.748689
226	-9696.946704	8182.794831	-40117.15682	-16118.89346	4502.289534	-187500.0224	-13658.12286	-1443.654471
227	-7257.410259	10137.58899	-40411.6187	-16290.33134	4400.142062	-187500.0224	-13907.61303	-1569.271275
228	-10385.33573	7417.605211	-40215.23627	-16475.73906	3557.928331	-187500.0224	-14148.36367	-1933.336488
229	-13048.38962	5315.982439	-39811.83199	-16223.61138	3818.192043	-187500.0224	-13891.89975	-1652.285654
230	-12471.62521	5879.51462	-39842.47623	-16104.20836	4486.084519	-187500.0224	-13701.73111	-1447.923654
231	-9873.637244	8036.212091	-40099.83422	-16123.63203	4545.853084	-187500.0224	-13661.2074	-1435.339622
232	-7257.142038	10139.55595	-40410.4117	-16288.29733	4434.183769	-187500.0224	-13898.73939	-1571.819374
233	-10174.08939	7588.059615	-40240.22552	-16484.72446	3588.706683	-187500.0224	-14156.27619	-1950.346166
234	-13026.75313	5322.129169	-39820.88444	-16236.64245	3767.788859	-187500.0224	-13906.18252	-1670.144697
235	-12560.45104	5802.043474	-39833.66964	-16096.98875	4445.516103	-187500.0224	-13703.36279	-1446.873122
236	-10081.57552	7860.974414	-40077.05779	-16101.21323	4493.639409	-187500.0224	-13649.98682	-1437.351279
237	-7270.038995	10137.56664	-40391.7927	-16250.96992	4460.916455	-187500.0224	-13866.48582	-1528.904024
238	-9948.15796	7778.429422	-40262.35375	-16468.27358	3629.722134	-187500.0224	-14148.69894	-1917.757323
239	-12979.74741	5351.678175	-39835.61424	-16238.22942	3731.623737	-187500.0224	-13917.35839	-1691.535317
240	-12623.4159	5747.728735	-39825.4889	-16085.45525	4440.48696	-187500.0224	-13701.88757	-1447.923654
241	-10266.53621	7705.540384	-40072.60979	-16105.70593	4490.219592	-187500.0224	-13656.31237	-1447.700137
242	-7295.899963	10119.84171	-40392.4409	-16248.1983	4485.190449	-187500.0224	-13850.79489	-1525.953594
243	-9718.873765	7967.927512	-40288.37118	-16476.90135	3670.134088	-187500.0224	-14145.81557	-1912.169386
244	-12924.94093	5385.69753	-39851.86396	-16260.08943	3688.127242	-187500.0224	-13934.05514	-1713.529433
245	-12681.01635	5697.102034	-39818.55986	-16091.62433	4421.353867	-187500.0224	-13708.74956	-1449.465924
246	-10432.67672	7565.484353	-40047.75465	-16097.79341	4494.04174	-187500.0224	-13649.78566	-1439.809971
247	-7330.746332	10094.40542	-40367.89869	-16222.15852	4516.97463	-187500.0224	-13823.14579	-1496.091663
248	-9454.922015	8190.416776	-40301.17873	-16461.52335	3800.780034	-187500.0224	-14135.48906	-1881.771014
249	-12817.96549	5464.263912	-39873.92513	-16277.72495	3754.646034	-187500.0224	-13950.12605	-1729.555634
250	-12729.1173	5646.69885	-39818.4481	-16095.37942	4425.10896	-187500.0224	-13710.82827	-1458.339567
251	-10592.06701	7425.294212	-40039.48451	-16100.94501	4530.765656	-187500.0224	-13646.14232	-1437.6195
252	-7402.33897	10032.87107	-40360.63437	-16213.84367	4520.461502	-187500.0224	-13801.62106	-1487.910925
253	-9268.955501	8336.999516	-40320.20006	-16466.97718	3745.213597	-187500.0224	-14130.25875	-1897.260773
254	-12780.97335	5476.445612	-39885.0563	-16297.70741	3604.263497	-187500.0224	-13963.96178	-1768.827649
255	-12789.26585	5590.953599	-39811.13908	-16102.12965	4377.097413	-187500.0224	-13714.00222	-1453.913922
0	-10779.017	7264.629872	-40027.88395	-16110.4445	4470.147725	-187500.0224	-13645.56118	-1451.678747
1	-7477.865515	9972.588417	-40351.06782	-16210.98265	4529.290441	-187500.0224	-13786.89126	-1467.526134
2	-9046.51094	8520.328524	-40351.24664	-16478.91301	3794.18627	-187500.0224	-14129.63291	-1874.663159
3	-12682.91625	5541.735058	-39902.3342	-16317.19814	3576.793203	-187500.0224	-13977.57399	-1781.724606
4	-12822.39113	5550.631052	-39791.58131	-16097.41343	4364.222808	-187500.0224	-13707.58727	-1450.449401
5	-10926.00208	7132.75458	-40010.22607	-16108.92458	4478.931961	-187500.0224	-13641.00142	-1457.981939
6	-7565.70787	9897.620666	-40340.87543	-16200.52203	4548.311776	-187500.0224	-13769.90393	-1474.075195
7	-8831.75538	8701.154137	-40366.28936	-16458.3047	3850.333852	-187500.0224	-14116.44538	-1853.116078
8	-12587.42959	5613.931193	-39922.94251	-16322.4508	3551.89336	-187500.0224	-13997.46704	-1799.270725
9	-12875.34241	5509.257973	-39791.46955	-16098.77689	4340.753477	-187500.0224	-13728.4638	-1462.60875
10	-11089.30392	7002.645076	-39999.22901	-16108.05286	4479.155478	-187500.0224	-13655.28418	-1460.932369
11	-7683.658026	9809.577144	-40325.25156	-16179.35493	4561.186381	-187500.0224	-13760.91853	-1441.061669
12	-8608.193232	8899.41411	-40372.30198	-16441.83146	3971.770879	-187500.0224	-14109.53869	-1815.788664
13	-12442.81381	5730.987278	-39942.54499	-16346.09894	3651.58214	-187500.0224	-14025.31731	-1817.263879
14	-12922.48224	5463.638063	-39795.85049	-16119.80988	4344.687384	-187500.0224	-13751.5308	-1494.325876
15	-11225.42605	6885.812507	-39981.34762	-16111.33857	4541.270976	-187500.0224	-13658.74871	-1467.123803
16	-7811.442949	9699.315989	-40305.82789	-16173.02938	4589.662503	-187500.0224	-13746.34519	-1452.282244
17	-8428.373447	9049.282557	-40382.60613	-16435.2824	4016.228499	-187500.0224	-14097.17817	-1804.83631
18	-12326.56238	5818.069675	-39967.73541	-16364.1368	3637.813465	-187500.0224	-14042.14818	-1833.044211
19	-12969.26444	5420.946231	-39792.22951	-16121.95565	4316.83711	-187500.0224	-13752.31311	-1498.371541
20	-11373.32754	6763.816686	-39961.83455	-16107.35996	4541.986232	-187500.0224	-13655.37359	-1462.452288
21	-7953.242416	9586.082052	-40289.71228	-16173.94581	4595.00457	-187500.0224	-13733.31412	-1439.765267
22	-8254.700393	9198.502803	-40394.43021	-16437.89756	4056.707508	-187500.0224	-14083.76713	-1786.016141
23	-12194.37417	5917.981972	-39988.94721	-16383.22519	3621.116712	-187500.0224	-14058.30849	-1843.616586
24	-13005.8319	5380.377815	-39795.24699	-16135.03142	4276.849839	-187500.0224	-13766.28295	-1507.267536
25	-11532.47196	6623.917118	-39962.61686	-16116.8371	4479.267237	-187500.0224	-13666.9518	-1474.633989
26	-8112.364484	9452.306861	-40276.10007	-16163.82047	4566.774317	-187500.0224	-13724.19461	-1430.332831
27	-8099.154603	9330.556909	-40408.4671	-16434.09776	4052.88536	-187500.0224	-14071.11604	-1777.343664
28	-12085.61058	5998.269439	-40008.97437	-16401.68773	3483.832298	-187500.0224	-14067.33859	-1883.51445
29	-13033.54806	5358.40605	-39788.49677	-16138.6077	4218.221214	-187500.0224	-13771.33444	-1506.708742
30	-11647.96342	6534.666602	-39957.78888	-16127.32007	4490.040778	-187500.0224	-13669.67871	-1471.05771
31	-8265.876265	9333.864967	-40268.32167	-16164.58042	4569.657692	-187500.0224	-13710.60475	-1437.597148
32	-7945.285195	9468.556579	-40435.91505	-16425.82761	4096.270096	-187500.0224	-14057.97321	-1750.499219
33	-11937.44086	6119.617059	-40046.30179	-16422.92189	3469.281312	-187500.0224	-14083.18598	-1895.182061
34	-13067.43331	5330.488721	-39791.91658	-16148.53187	4176.378748	-187500.0224	-13781.79506	-1519.270422
35	-11774.00491	6434.731953	-39946.36714	-16123.29675	4489.593743	-187500.0224	-13669.52225	-1473.851678
36	-8434.676639	9196.759367	-40251.26728	-16145.93907	4566.729613	-187500.0224	-13696.70197	-1417.994668
37	-7798.881268	9598.956656	-40437.32321	-16399.02787	4148.126143	-187500.0224	-14040.65061	-1721.732524
38	-11763.83487	6258.577854	-40068.83235	-16420.75377	3471.404728	-187500.0224	-14097.02171	-1903.072226
39	-13081.00081	5311.914422	-39792.83301	-16139.01003	4140.750067	-187500.0224	-13791.83099	-1520.298603
40	-11879.77336	6342.754524	-39933.44783	-16105.54947	4497.305095	-187500.0224	-13670.59513	-1462.049957
41	-8610.562517	9049.908406	-40235.35284	-16136.88661	4563.823886	-187500.0224	-13692.16456	-1430.109314
42	-7674.3597	9707.832004	-40444.69928	-16390.46715	4191.577934	-187500.0224	-14025.36202	-1726.359335
43	-11585.44559	6397.940981	-40094.5592	-16434.72361	3474.556324	-187500.0224	-14107.83995	-1923.278203
44	-13096.31176	5287.953351	-39791.31309	-16152.59989	4100.785148	-187500.0224	-13800.9058	-1531.340364
45	-11984.29012	6253.749878	-39914.78412	-16107.69523	4502.758921	-187500.0224	-13668.44936	-1457.914884
46	-8792.416309	8902.096319	-40209.06719	-16130.00228	4563.3545	-187500.0224	-13677.90415	-1423.515549
47	-7561.72926	9813.287534	-40438.17257	-16373.01044	4251.637072	-187500.0224	-14003.92669	-1681.789956
48	-11379.42956	6566.696652	-40114.47461	-16447.4641	3543.086772	-187500.0224	-14116.7136	-1918.383171
49	-13086.92403	5286.232267	-39796.09636	-16165.76507	4117.146625	-187500.0224	-13816.21674	-1556.061394
50	-12068.13151	6180.503211	-39896.18747	-16102.17435	4550.815171	-187500.0224	-13667.91292	-1449.041241
51	-8966.111716	8755.446524	-40187.56481	-16126.33659	4600.592506	-187500.0224	-13668.38231	-1423.604956
52	-7468.96952	9893.731462	-40435.80329	-16357.096	4309.505738	-187500.0224	-13981.46319	-1671.776375
53	-11179.64967	6729.372648	-40132.22189	-16449.11813	3588.505517	-187500.0224	-14122.74857	-1925.334564
54	-13098.0552	5271.167191	-39794.75526	-16168.33552	4072.219619	-187500.0224	-13825.42566	-1582.212935
55	-12188.4286	6078.780422	-39889.72782	-16098.97805	4502.736569	-187500.0224	-13674.95372	-1465.42507
56	-9177.693329	8579.09126	-40170.7116	-16116.90415	4549.585825	-187500.0224	-13665.87891	-1410.193909
57	-7401.266086	9960.227902	-40431.75762	-16328.9775	4327.744761	-187500.0224	-13964.34176	-1627.76579
58	-11009.91053	6867.081746	-40155.62417	-16451.59917	3514.431836	-187500.0224	-14133.32094	-1938.410334
59	-13113.41084	5254.582197	-39793.50356	-16169.83308	3969.625112	-187500.0224	-13840.62485	-1591.198336
60	-12271.15241	6019.280078	-39873.09812	-16090.015	4500.389636	-187500.0224	-13679.8711	-1446.023756
61	-9369.828924	8429.044	-40149.99153	-16110.91389	4537.314717	-187500.0224	-13664.22488	-1427.807084
62	-7349.521798	10021.13641	-40427.28727	-16314.24771	4357.226712	-187500.0224	-13947.62265	-1615.382924
63	-10806.06262	7042.721753	-40179.45113	-16462.21625	3529.072229	-187500.0224	-14137.97011	-1942.567759
64	-13104.42544	5259.007842	-39803.31597	-16189.68143	3919.803073	-187500.0224	-13855.48876	-1618.243947
65	-12357.43014	5949.632043	-39868.02427	-16093.1666	4493.304133	-187500.0224	-13692.54454	-1446.269625
66	-9564.445563	8266.770335	-40134.56883	-16110.84683	4530.273918	-187500.0224	-13669.11991	-1428.768209
67	-7307.724036	10060.58723	-40417.47486	-16302.58009	4390.396701	-187500.0224	-13929.18246	-1593.478214
68	-10580.62292	7225.402561	-40199.5677	-16470.30759	3566.533752	-187500.0224	-14143.51334	-1933.87293
69	-13065.86868	5280.309055	-39810.7144	-16206.557	3923.535815	-187500.0224	-13871.87259	-1628.235177
70	-12422.22785	5893.283295	-39862.61515	-16102.35317	4523.411932	-187500.0224	-13693.97505	-1447.856599
71	-9739.794998	8121.238127	-40123.46001	-16122.13446	4572.943398	-187500.0224	-13663.95666	-1433.663241
72	-7285.081719	10086.89524	-40417.60897	-16300.30022	4439.682298	-187500.0224	-13910.69757	-1576.13326
73	-10333.97142	7436.492436	-40221.09243	-16479.76237	3692.262315	-187500.0224	-14146.10614	-1914.538671
74	-13036.65495	5299.062168	-39825.71242	-16237.55887	3912.784626	-187500.0224	-13892.74912	-1665.160258
75	-12517.58039	5811.766483	-39852.66863	-16111.00329	4472.338196	-187500.0224	-13700.81469	-1480.601904
76	-9952.203626	7945.464009	-40103.63401	-16115.47364	4505.977572	-187500.0224	-13659.01693	-1443.565064
77	-7290.267323	10091.18677	-40418.27952	-16280.31776	4441.604548	-187500.0224	-13900.05814	-1551.076955
78	-10154.86689	7582.561086	-40256.65405	-16483.45041	3604.487014	-187500.0224	-14158.01962	-1935.348145
79	-13034.50919	5292.937791	-39837.31298	-16243.92912	3771.141621	-187500.0224	-13913.80446	-1688.406073
80	-12587.13902	5758.010537	-39843.81733	-16105.92945	4457.228417	-187500.0224	-13713.95751	-1467.839058
81	-10131.2411	7797.070777	-40091.87699	-16118.55818	4505.977572	-187500.0224	-13667.84587	-1447.946006
82	-7297.486937	10091.5444	-40405.29316	-16267.95724	4472.695824	-187500.0224	-13884.09899	-1528.009954
83	-9929.360143	7770.606312	-40271.65208	-16488.56896	3645.100134	-187500.0224	-14164.85925	-1922.182968
84	-12988.86692	5319.670477	-39843.34795	-16260.15648	3734.752981	-187500.0224	-13939.55367	-1709.170843
85	-12654.90951	5699.180746	-39833.7367	-16105.10243	4449.382955	-187500.0224	-13729.62609	-1468.487259
86	-10324.24841	7637.434618	-40079.40472	-16121.62037	4499.2944	-187500.0224	-13682.57566	-1466.743823
87	-7337.496559	10069.01384	-40402.678	-16261.94462	4497.953295	-187500.0224	-13877.21466	-1522.422018
88	-9712.280001	7957.668061	-40302.00574	-16498.18021	3696.509146	-187500.0224	-14171.67654	-1913.912822
89	-12927.0867	5366.653844	-39865.47618	-16287.62678	3750.063926	-187500.0224	-13962.79949	-1724.973527
90	-12712.59936	5651.258606	-39831.56858	-16120.0334	4472.651121	-187500.0224	-13740.75726	-1464.955683
91	-10482.96815	7506.341637	-40066.06073	-16130.89635	4565.500267	-187500.0224	-13686.35311	-1455.523247
92	-7384.256409	10035.06154	-40387.85879	-16255.8873	4545.29429	-187500.0224	-13855.39935	-1508.161605
93	-9462.141629	8170.948407	-40312.28755	-16483.9198	3824.986973	-187500.0224	-14161.86412	-1877.926514
94	-12852.87891	5423.829606	-39884.72103	-16301.23899	3766.872438	-187500.0224	-13977.01519	-1741.491466
95	-12789.39996	5588.181983	-39832.70852	-16125.80015	4432.66385	-187500.0224	-13739.63967	-1488.022684
96	-10686.32432	7340.894024	-40053.07437	-16129.24232	4499.517918	-187500.0224	-13673.36675	-1481.339512
97	-7462.018128	9983.741937	-40382.09204	-16232.75324	4543.081468	-187500.0224	-13832.01943	-1484.736977
98	-9280.041966	8329.243461	-40347.73741	-16490.26769	3780.171726	-187500.0224	-14157.19261	-1894.980895
99	-12808.46599	5451.702231	-39901.26132	-16322.02611	3627.911643	-187500.0224	-13986.80526	-1782.596324
100	-12835.39985	5549.178189	-39820.45976	-16126.82833	4406.489957	-187500.0224	-13739.37145	-1472.08589
101	-10846.51927	7206.738854	-40042.97138	-16144.19563	4503.250659	-187500.0224	-13673.14323	-1473.851678
102	-7535.801236	9925.269774	-40374.64891	-16240.79987	4562.549837	-187500.0224	-13815.5909	-1488.536774
103	-9055.6081	8516.796949	-40368.39043	-16498.06845	3831.714848	-187500.0224	-14150.30827	-1891.046988
104	-12711.41472	5520.009162	-39918.80744	-16343.84141	3597.982657	-187500.0224	-14006.13952	-1806.289173
105	-12870.0674	5513.05777	-39809.84268	-16123.9226	4388.362692	-187500.0224	-13741.9419	-1468.442555
106	-10990.3304	7080.160925	-40020.70904	-16134.74085	4508.90565	-187500.0224	-13673.21028	-1465.067442
107	-7622.682467	9851.754886	-40352.43128	-16221.42091	4577.212581	-187500.0224	-13801.71046	-1476.779756
108	-8833.789388	8697.600209	-40384.68485	-16488.23368	3887.59421	-187500.0224	-14147.11197	-1883.067415
109	-12591.49761	5603.448224	-39948.13293	-16353.56442	3610.32082	-187500.0224	-14032.11224	-1818.29206
110	-12908.19948	5470.611807	-39819.83391	-16130.3599	4394.218849	-187500.0224	-13766.77469	-1476.355073
111	-11122.13863	6965.295311	-40020.30671	-16133.06446	4570.261189	-187500.0224	-13690.91287	-1468.75548
112	-7731.848387	9757.609338	-40351.98424	-16204.81356	4609.600259	-187500.0224	-13796.43545	-1467.012044
113	-8615.4799	8882.11386	-40400.59929	-16465.56902	4003.622115	-187500.0224	-14139.64649	-1837.581615
114	-12454.9061	5706.601525	-39971.78107	-16372.29519	3675.833783	-187500.0224	-14059.96252	-1839.146237
115	-12957.68624	5420.834472	-39812.59195	-16137.37835	4365.318044	-187500.0224	-13777.43647	-1510.821463
116	-11283.22766	6826.289812	-39994.73631	-16124.74962	4552.223331	-187500.0224	-13686.10724	-1479.506669
117	-7868.752822	9645.425933	-40318.7919	-16190.24023	4607.767416	-187500.0224	-13778.12937	-1461.513515
118	-8429.289869	9041.392391	-40396.91125	-16451.80034	4046.35865	-187500.0224	-14126.68248	-1819.521406
119	-12328.12701	5802.602268	-39979.89475	-16381.34764	3656.812448	-187500.0224	-14073.01594	-1851.417345
120	-12986.6988	5390.011417	-39801.28196	-16134.65144	4341.55814	-187500.0224	-13788.6794	-1493.364751
121	-11409.35855	6719.515529	-39971.87048	-16121.19569	4569.367119	-187500.0224	-13694.22092	-1451.231712
122	-7998.884678	9537.690525	-40295.85901	-16188.94383	4621.40198	-187500.0224	-13770.1945	-1441.709869
123	-8248.12898	9195.284151	-40405.2708	-16459.19877	4092.917334	-187500.0224	-14117.49591	-1788.474833
124	-12189.38973	5909.711827	-40001.03951	-16415.16583	3647.670585	-187500.0224	-14087.45516	-1858.324034
125	-13020.94168	5356.10382	-39804.59002	-16168.29081	4312.500872	-187500.0224	-13795.25081	-1520.253899
126	-11543.9384	6605.700446	-39972.16105	-16149.82827	4570.931741	-187500.0224	-13695.96436	-1480.177221
127	-8147.635537	9412.856032	-40295.21081	-16199.04681	4624.665335	-187500.0224	-13758.37043	-1459.65832
128	-8081.250856	9335.340182	-40429.03071	-16449.90044	4135.050372	-187500.0224	-14103.2355	-1785.256181
129	-12038.18018	6026.320878	-40033.51659	-16426.11819	3641.4568	-187500.0224	-14101.3356	-1876.026616
130	-13048.30021	5327.717105	-39807.76397	-16163.70871	4281.588409	-187500.0224	-13798.44711	-1529.887501
131	-11685.67082	6487.683235	-39961.16399	-16137.19954	4530.43038	-187500.0224	-13685.95078	-1480.981884
132	-8314.334847	9279.684339	-40271.74148	-16176.58331	4602.425349	-187500.0224	-13734.63288	-1441.195779
133	-7951.722497	9451.52455	-40440.56421	-16440.17743	4130.244747	-187500.0224	-14082.98481	-1768.224152
134	-11932.1882	6105.446053	-40052.58263	-16434.43304	3500.327885	-187500.0224	-14105.02364	-1913.219918
135	-13081.55961	5297.855174	-39795.09053	-16152.80106	4207.961763	-187500.0224	-13802.58218	-1524.7466
136	-11802.19046	6394.163536	-39950.16693	-16130.56107	4530.43038	-187500.0224	-13696.05377	-1471.594151
137	-8480.095384	9150.066572	-40260.85618	-16171.21889	4604.347599	-187500.0224	-13729.51433	-1438.960605
138	-7801.921106	9592.899334	-40446.12979	-16422.72072	4192.695521	-187500.0224	-14066.19865	-1748.532265
139	-11755.36355	6257.862599	-40081.28227	-16451.62153	3518.321039	-187500.0224	-14123.91086	-1912.974049
140	-13096.82585	5290.724968	-39806.71344	-16175.46572	4194.662475	-187500.0224	-13821.80468	-1538.314109
141	-11916.1173	6309.070445	-39949.22816	-16136.1043	4539.728706	-187500.0224	-13701.44054	-1479.372559
142	-8660.541017	9009.809376	-40249.70266	-16166.43562	4605.196965	-187500.0224	-13718.38316	-1437.99948
143	-7684.127412	9703.026379	-40456.32219	-16419.9044	4243.54574	-187500.0224	-14047.82552	-1726.113466
144	-11579.85766	6404.020656	-40109.91485	-16472.36395	3534.168426	-187500.0224	-14132.58334	-1944.624119
145	-13099.21749	5283.594761	-39810.17796	-16184.80875	4176.490507	-187500.0224	-13828.97959	-1565.382071
146	-12002.68561	6236.136703	-39940.35452	-16137.28894	4578.374872	-187500.0224	-13698.356	-1483.440576
147	-8823.373475	8873.664901	-40235.28579	-16161.13826	4637.942271	-187500.0224	-13705.21798	-1457.557256
148	-7570.491144	9805.55383	-40463.00536	-16399.83253	4301.995552	-187500.0224	-14028.02188	-1713.551785
149	-11384.57047	6563.746222	-40128.15388	-16469.56998	3572.792241	-187500.0224	-14137.8807	-1944.691175
150	-13113.18733	5266.875656	-39805.39469	-16185.94869	4150.674242	-187500.0224	-13841.56362	-1589.052569
151	-12105.7048	6151.244778	-39916.32639	-16127.92356	4595.339846	-187500.0224	-13705.75442	-1492.962419
152	-9014.749112	8717.202689	-40210.47535	-16148.286	4647.866446	-187500.0224	-13710.22477	-1447.878951
153	-7481.441794	9887.227105	-40462.15599	-16372.85398	4363.552256	-187500.0224	-14024.42324	-1676.20202
154	-11171.08895	6735.541729	-40158.30638	-16472.05102	3660.276969	-187500.0224	-14158.71253	-1931.213073
155	-13123.13385	5246.222645	-39816.07882	-16197.41514	4122.108712	-187500.0224	-13856.44988	-1608.632697
156	-12206.33235	6064.296492	-39910.06791	-16120.32397	4591.741215	-187500.0224	-13706.15676	-1485.832213
157	-9201.497936	8562.349804	-40194.96324	-16141.35696	4650.571007	-187500.0224	-13694.57855	-1437.306575
158	-7406.339932	9962.418373	-40457.81975	-16361.38753	4411.809672	-187500.0224	-13989.9345	-1662.388642
159	-10968.73861	6906.890202	-40185.03907	-16484.27743	3686.741434	-187500.0224	-14158.33255	-1953.497762
160	-13120.42929	5244.590967	-39830.38394	-16212.41316	4088.24582	-187500.0224	-13872.99018	-1627.810493
161	-12301.10375	5986.937104	-39907.05042	-16124.54845	4590.891849	-187500.0224	-13713.44342	-1486.368655
162	-9397.343921	8398.466813	-40182.31215	-16140.03821	4647.262948	-187500.0224	-13693.32685	-1450.091773
163	-7345.207911	10016.30843	-40448.52143	-16340.04162	4454.70267	-187500.0224	-13963.26887	-1627.341107
164	-10753.11133	7079.043338	-40197.75721	-16479.87413	3711.41776	-187500.0224	-14157.61729	-1929.402581
165	-13100.40213	5247.094363	-39836.35185	-16226.31594	4049.756116	-187500.0224	-13885.4848	-1633.264319
166	-12377.79258	5918.004324	-39894.6452	-16126.91773	4585.996817	-187500.0224	-13711.54353	-1476.131556
167	-9584.897409	8240.797608	-40162.82143	-16142.89923	4643.194931	-187500.0224	-13687.73892	-1454.338605
168	-7319.279888	10043.73402	-40454.73521	-16333.60432	4466.035004	-187500.0224	-13954.57404	-1613.326563
169	-10590.68121	7210.65041	-40233.94468	-16499.92365	3617.24986	-187500.0224	-14172.81648	-1965.590056
170	-13118.03766	5231.515197	-39837.6706	-16234.34022	3924.988678	-187500.0224	-13902.18155	-1668.200096
171	-12475.67087	5846.590501	-39891.13598	-16125.64369	4543.282633	-187500.0224	-13722.38412	-1482.971189
172	-9794.959103	8074.992368	-40152.98666	-16137.44541	4590.064834	-187500.0224	-13684.25205	-1458.898361
173	-7302.717245	10076.30051	-40453.43881	-16308.48096	4497.75213	-187500.0224	-13934.23396	-1598.283839
174	-10376.05976	7397.689807	-40268.94751	-16499.85659	3651.224512	-187500.0224	-14178.65028	-1973.927256
175	-13085.18059	5254.805714	-39855.21672	-16242.87859	3910.527099	-187500.0224	-13916.17375	-1689.233087
176	-12549.18576	5783.692692	-39885.99508	-16118.04409	4549.831694	-187500.0224	-13728.37439	-1483.015893
177	-9983.898399	7914.797415	-40137.94394	-16129.59994	4594.244611	-187500.0224	-13689.77293	-1460.284169
178	-7301.733768	10080.59205	-40445.74981	-16293.12531	4535.973613	-187500.0224	-13924.73446	-1577.40731
179	-10162.53354	7572.212228	-40286.80656	-16508.14909	3685.825012	-187500.0224	-14188.95444	-1972.027358
180	-13065.30989	5260.795982	-39863.33041	-16271.89115	3841.974299	-187500.0224	-13939.62073	-1707.561518
181	-12621.02427	5724.684086	-39866.25849	-16124.86137	4538.007622	-187500.0224	-13732.37535	-1471.795317
182	-10171.09426	7760.838599	-40111.50183	-16137.19954	4593.551706	-187500.0224	-13685.28023	-1461.625273
183	-7314.541318	10077.70867	-40428.60602	-16288.56555	4569.76945	-187500.0224	-13900.52753	-1559.324748
184	-9929.44955	7769.935759	-40303.79388	-16511.03246	3735.490589	-187500.0224	-14183.45591	-1958.012814
185	-13013.76677	5299.352741	-39869.79006	-16282.21766	3808.647848	-187500.0224	-13953.3894	-1732.282547
186	-12678.87058	5678.550086	-39858.12245	-16126.80598	4531.749133	-187500.0224	-13737.73977	-1488.715588
187	-10345.16964	7615.328743	-40105.08688	-16148.50952	4593.261134	-187500.0224	-13690.95757	-1494.415283
188	-7344.157379	10055.98278	-40425.0521	-16280.34011	4590.958904	-187500.0224	-13878.3993	-1539.655213
189	-9700.008893	7961.266692	-40325.54213	-16505.39982	3785.625551	-187500.0224	-14172.28003	-1931.414238
190	-12939.04489	5351.074678	-39886.28565	-16287.8503	3821.589508	-187500.0224	-13966.01814	-1735.881178
191	-12734.79464	5626.247004	-39849.06999	-16121.88859	4541.628604	-187500.0224	-13741.13724	-1477.182088
192	-10509.70084	7476.457355	-40081.50579	-16128.34825	4638.948099	-187500.0224	-13687.67186	-1470.543619
193	-7392.414795	10020.13058	-40410.43406	-16245.73961	4623.391285	-187500.0224	-13860.80848	-1528.814617
194	-9482.884047	8143.589871	-40344.38465	-16485.61853	3820.986011	-187500.0224	-14174.60462	-1923.524073
195	-12893.11205	5379.126117	-39899.58494	-16288.74436	3734.35065	-187500.0224	-13991.72264	-1771.3981
196	-12796.08313	5576.112041	-39839.99519	-16101.30264	4504.703522	-187500.0224	-13753.92243	-1479.39491
197	-10693.58864	7325.761893	-40070.24051	-16119.00522	4594.646942	-187500.0224	-13697.0596	-1480.557201
198	-7455.446715	9981.685577	-40386.71886	-16220.0351	4646.167713	-187500.0224	-13848.55972	-1495.15289
199	-9259.478362	8338.45238	-40352.36422	-16477.08016	3878.809974	-187500.0224	-14175.49869	-1899.607706
200	-12814.41156	5439.609938	-39908.90561	-16306.58106	3709.674324	-187500.0224	-14011.0569	-1784.160946
201	-12849.61556	5535.208349	-39817.66579	-16101.21323	4494.55583	-187500.0224	-13754.74945	-1467.593189
202	-10858.27629	7193.99836	-40038.94806	-16114.289	4601.710093	-187500.0224	-13693.23745	-1464.173372
203	-7542.350297	9920.374742	-40364.25535	-16213.66486	4665.546675	-187500.0224	-13823.63752	-1479.841945
204	-9051.160103	8522.943678	-40369.17274	-16480.43293	3930.420152	-187500.0224	-14160.76889	-1892.566907
205	-12727.46327	5506.486357	-39928.39634	-16335.14659	3684.014521	-187500.0224	-14019.21529	-1810.625411
206	-12901.29279	5488.940238	-39817.57639	-16119.89929	4474.998054	-187500.0224	-13754.63769	-1477.271495
207	-11017.44306	7064.470001	-40028.33099	-16124.32493	4615.657582	-187500.0224	-13680.02757	-1470.588323
208	-7642.530816	9842.165988	-40361.72961	-16205.84174	4689.619504	-187500.0224	-13805.04087	-1486.525117
209	-8820.266583	8720.734265	-40383.83548	-16465.41255	4054.561741	-187500.0224	-14148.02839	-1869.768127
210	-12588.07779	5616.59105	-39946.79182	-16341.87446	3782.116328	-187500.0224	-14034.48153	-1822.717705
211	-12947.89618	5444.728487	-39810.53559	-16120.21221	4477.926132	-187500.0224	-13758.99628	-1503.35598
212	-11164.53989	6940.30606	-40007.85679	-16117.03826	4659.489353	-187500.0224	-13678.17237	-1480.780718
213	-7765.018376	9747.104019	-40345.27872	-16197.07986	4702.024722	-187500.0224	-13787.56181	-1480.981884
214	-8658.059973	8863.427802	-40401.71688	-16464.00439	4028.767828	-187500.0224	-14131.91278	-1864.180191
215	-12531.99727	5659.439344	-39967.10956	-16355.8443	3630.5715	-187500.0224	-14042.84108	-1862.548514
216	-13004.93783	5405.67999	-39808.74745	-16113.79726	4416.436483	-187500.0224	-13766.57352	-1499.757349
217	-11334.21199	6810.554184	-40003.29703	-16109.841	4601.575983	-187500.0224	-13684.54262	-1486.458062
218	-7901.587534	9649.315137	-40328.85019	-16166.32386	4690.133594	-187500.0224	-13770.93211	-1458.540733
219	-8473.143992	9033.479873	-40422.74987	-16435.77414	4080.82504	-187500.0224	-14126.92834	-1820.236661
220	-12412.70601	5761.162133	-39998.71492	-16368.33893	3613.584174	-187500.0224	-14076.59222	-1868.78465
221	-13049.21663	5373.068794	-39813.866	-16121.62037	4388.049768	-187500.0224	-13791.83099	-1507.781626
222	-11477.01728	6695.979142	-39998.93844	-16117.97704	4606.471015	-187500.0224	-13701.26172	-1484.356998
223	-8040.056591	9535.83533	-40320.35653	-16172.91763	4696.10151	-187500.0224	-13773.23434	-1450.94114
224	-8293.435966	9183.840058	-40436.11621	-16448.69345	4129.015401	-187500.0224	-14128.35886	-1819.029667
225	-12275.4663	5862.21437	-40017.13276	-16393.46229	3596.775663	-187500.0224	-14097.4911	-1897.461939
226	-13076.39636	5341.374021	-39804.45591	-16128.25884	4363.35109	-187500.0224	-13800.72699	-1521.41619
227	-11584.39506	6602.03476	-39976.38553	-16117.4853	4664.563199	-187500.0224	-13701.70876	-1488.313256
228	-8179.95616	9416.074683	-40295.50139	-16172.0012	4725.136426	-187500.0224	-13755.4647	-1454.852695
229	-8104.541374	9346.001964	-40435.51271	-16433.31545	4232.548682	-187500.0224	-14105.15775	-1781.00935
230	-12079.59796	6019.861224	-40043.12784	-16409.6226	3720.537272	-187500.0224	-14110.49981	-1887.247191
231	-13096.13295	5312.763788	-39816.34704	-16147.36958	4358.567817	-187500.0224	-13814.36155	-1541.286891
232	-11713.67755	6485.917447	-39968.54007	-16116.81475	4652.359146	-187500.0224	-13701.23937	-1482.881782
233	-8343.816798	9276.264522	-40281.19627	-16157.60668	4714.519347	-187500.0224	-13747.90981	-1452.394003
234	-7968.441602	9458.900626	-40443.26877	-16418.0045	4224.256185	-187500.0224	-14094.25009	-1775.533173
235	-11964.33001	6099.6346	-40058.46114	-16420.88788	3577.843735	-187500.0224	-14124.89434	-1925.066343
236	-13129.48175	5275.794003	-39796.96808	-16141.66989	4274.949941	-187500.0224	-13821.31294	-1538.783495
237	-11843.7647	6375.969216	-39945.2719	-16116.72534	4604.191137	-187500.0224	-13709.15189	-1480.311332
238	-8512.371303	9138.018982	-40252.34017	-16153.53866	4684.635065	-187500.0224	-13740.31022	-1446.269625
239	-7820.56246	9586.730252	-40446.50977	-16412.32716	4269.473764	-187500.0224	-14082.62719	-1761.049242
240	-11789.15939	6236.673145	-40083.98683	-16432.22021	3571.406433	-187500.0224	-14140.98759	-1941.405468
241	-13143.47394	5260.393651	-39802.46661	-16145.38028	4234.0686	-187500.0224	-13832.64528	-1544.594949
242	-11953.2212	6288.708006	-39943.61787	-16109.28221	4605.666352	-187500.0224	-13711.63293	-1478.612599
243	-8687.430166	8995.928943	-40244.58411	-16142.51925	4679.471812	-187500.0224	-13732.10713	-1437.150113
244	-7689.424776	9707.608486	-40451.65067	-16387.98611	4321.262756	-187500.0224	-14060.94599	-1720.525529
245	-11607.10443	6387.502716	-40108.12671	-16440.46801	3578.313122	-187500.0224	-14148.78835	-1946.032279
246	-13159.07546	5242.06522	-39810.33442	-16157.60668	4191.421472	-187500.0224	-13844.87168	-1568.667778
247	-12053.8264	6205.157185	-39937.24763	-16114.60192	4613.243593	-187500.0224	-13711.47647	-1480.333684
248	-8861.907883	8856.431706	-40223.34996	-16136.7078	4692.234658	-187500.0224	-13709.42011	-1440.078192
249	-7570.200571	9820.440092	-40449.70607	-16371.02114	4400.432634	-187500.0224	-14029.22887	-1693.457567
250	-11372.63463	6584.510992	-40127.84095	-16449.74398	3716.111626	-187500.0224	-14148.36367	-1941.181951
251	-13154.49335	5238.779514	-39810.7144	-16177.38797	4204.653705	-187500.0224	-13848.15739	-1618.087485
252	-12148.66485	6125.942603	-39915.74525	-16104.81186	4643.641966	-187500.0224	-13702.49107	-1491.576611
253	-9048.008507	8699.097776	-40214.18574	-16127.61064	4707.299734	-187500.0224	-13706.55909	-1448.236578
254	-7501.178384	9880.096898	-40456.54571	-16354.74907	4402.153719	-187500.0224	-14012.01803	-1695.178651
255	-11230.83517	6693.453395	-40153.23253	-16461.76922	3594.272267	-187500.0224	-14157.84081	-1970.395681
0	-13177.60505	5212.739731	-39808.25571	-16177.00799	4098.125291	-187500.0224	-13864.65298	-1602.418912
1	-12254.50036	6035.999183	-39903.27297	-16103.73898	4603.051198	-187500.0224	-13717.64555	-1473.404643
2	-9248.838931	8532.1973	-40185.32964	-16122.13446	4663.780888	-187500.0224	-13704.99446	-1441.508703
3	-7409.066845	9967.559274	-40450.13075	-16333.87254	4477.747318	-187500.0224	-13997.98113	-1651.078659
4	-10972.58311	6906.532574	-40181.01575	-16457.99177	3740.698545	-187500.0224	-14174.44815	-1945.764058
5	-13146.49143	5224.675563	-39824.796	-16194.21884	4127.540186	-187500.0224	-13888.45758	-1637.309985
6	-12330.47394	5964.875932	-39895.33811	-16108.14227	4636.400001	-187500.0224	-13720.35011	-1502.976001
7	-9424.009552	8379.177258	-40166.37536	-16121.84389	4702.605868	-187500.0224	-13694.5562	-1456.149096
8	-7361.59174	10002.49505	-40442.28529	-16325.89296	4496.433377	-187500.0224	-13972.41074	-1636.617081
9	-10799.82648	7035.613899	-40193.62214	-16470.5311	3661.57337	-187500.0224	-14168.25672	-1966.975864
10	-13149.10658	5208.403493	-39805.66291	-16196.11874	4036.0992	-187500.0224	-13886.96002	-1644.775467
11	-12422.31726	5883.917914	-39871.24293	-16101.72732	4603.028846	-187500.0224	-13717.39968	-1483.7535
12	-9630.405561	8204.56543	-40143.75539	-16119.54166	4653.230864	-187500.0224	-13692.99158	-1462.944026
13	-7328.824082	10039.04015	-40439.46897	-16309.48678	4528.105799	-187500.0224	-13961.74895	-1623.898938
14	-10593.81045	7208.705808	-40227.99912	-16481.03642	3671.69871	-187500.0224	-14185.28875	-1979.179916
15	-13138.13187	5213.343229	-39830.69686	-16214.87185	3968.865152	-187500.0224	-13912.88804	-1682.013474
16	-12497.77675	5827.278593	-39869.61125	-16099.96153	4597.172689	-187500.0224	-13731.0566	-1488.045035
17	-9816.372075	8056.239254	-40128.80208	-16110.55626	4649.051088	-187500.0224	-13696.83608	-1464.173372
18	-7300.057387	10076.18875	-40435.22214	-16286.88917	4563.957997	-187500.0224	-13949.41079	-1587.01856
19	-10367.58844	7405.088235	-40250.08264	-16477.79542	3707.103873	-187500.0224	-14191.79311	-1961.969073
20	-13111.01921	5237.281947	-39836.08363	-16227.36647	3927.715591	-187500.0224	-13933.18342	-1694.441044
