Sample Index	 EXG Channel 0	 EXG Channel 1	 EXG Channel 2	 EXG Channel 3	 EXG Channel 4	 EXG Channel 5	 EXG Channel 6	 EXG Channel 7
0	-34135.07004	-11177.63802	-39234.95582	-49967.68236	-70647.98571	-187500.0224	-28460.61033	-23271.58579
1	-34000.13256	-10861.94198	-39271.21035	-49980.98165	-70493.31164	-187500.0224	-28485.53252	-23271.45168
2	-33873.26406	-10248.96774	-39343.45118	-50035.98929	-70943.25226	-187500.0224	-28557.34868	-23306.65568
3	-33968.14721	-9953.142399	-39358.00217	-50063.90662	-71276.56147	-187500.0224	-28581.64502	-23337.74696
4	-34201.54413	-10823.07229	-39229.41258	-49960.19452	-71113.23728	-187500.0224	-28448.83096	-23273.35158
5	-34123.6483	-11172.34065	-39229.97138	-49948.83984	-70622.90706	-187500.0224	-28442.72893	-23245.9707
6	-34006.18988	-10865.83118	-39268.50578	-49986.7931	-70480.99583	-187500.0224	-28488.25943	-23267.00369
7	-33906.83638	-10265.86566	-39366.62994	-50058.38574	-70956.17157	-187500.0224	-28585.24365	-23319.93262
8	-34024.02658	-9997.242391	-39404.02441	-50103.4245	-71287.8044	-187500.0224	-28623.46514	-23374.67204
9	-34220.3196	-10849.51441	-39237.88389	-49971.19158	-71088.09156	-187500.0224	-28448.00394	-23283.05224
10	-34115.82519	-11161.36595	-39217.56616	-49947.7446	-70602.49991	-187500.0224	-28440.22553	-23246.23892
11	-33998.25501	-10843.99353	-39266.69529	-49986.48017	-70492.52933	-187500.0224	-28476.07773	-23268.4789
12	-33892.4195	-10227.3983	-39359.76796	-50061.24676	-70981.51845	-187500.0224	-28573.30782	-23324.17945
13	-34004.20058	-9993.219077	-39365.80293	-50086.66069	-71287.96086	-187500.0224	-28597.24654	-23354.80134
14	-34211.66947	-10886.90888	-39205.00448	-49969.93988	-71088.69506	-187500.0224	-28437.38686	-23274.1786
15	-34118.12742	-11181.88485	-39213.6099	-49967.5706	-70606.38912	-187500.0224	-28433.94469	-23256.99011
16	-33994.67874	-10837.15389	-39264.54953	-49998.14779	-70503.81696	-187500.0224	-28469.32751	-23275.87733
17	-33888.30678	-10200.73267	-39351.58722	-50066.34296	-70985.63117	-187500.0224	-28566.11056	-23324.85
18	-34021.1879	-10006.18309	-39366.0935	-50095.60139	-71276.98616	-187500.0224	-28585.02014	-23362.22212
19	-34219.67139	-10897.25773	-39220.58364	-49978.4559	-71061.69415	-187500.0224	-28438.59386	-23284.01336
20	-34107.10801	-11148.91602	-39218.41552	-49968.15174	-70579.07529	-187500.0224	-28431.57541	-23259.5382
21	-33996.71274	-10813.41634	-39275.7254	-50013.43638	-70509.3602	-187500.0224	-28488.30414	-23292.66349
22	-33873.88991	-10165.1487	-39356.37049	-50070.47803	-70972.01895	-187500.0224	-28569.57508	-23328.51569
23	-33997.15978	-9996.415376	-39341.50658	-50070.7686	-71242.11743	-187500.0224	-28573.26312	-23342.57494
24	-34201.11945	-10910.46761	-39195.79556	-49957.82524	-71033.30744	-187500.0224	-28425.13811	-23269.28357
25	-34095.21688	-11142.09874	-39210.50301	-49952.97491	-70545.9947	-187500.0224	-28436.02341	-23250.44104
26	-33989.42608	-10798.70889	-39277.78176	-50000.09239	-70502.29704	-187500.0224	-28485.48782	-23284.79568
27	-33896.66634	-10168.4344	-39374.36365	-50081.81036	-70996.24824	-187500.0224	-28586.71887	-23343.40195
28	-34038.10817	-10046.25977	-39363.61246	-50079.79871	-71260.62468	-187500.0224	-28578.89576	-23354.71193
29	-34224.18645	-10945.5822	-39216.53798	-49961.20035	-71015.67191	-187500.0224	-28439.55498	-23275.07267
30	-34108.67263	-11153.27461	-39210.72652	-49956.0371	-70521.20662	-187500.0224	-28429.76492	-23251.04454
31	-33999.30555	-10806.04026	-39266.51648	-50000.47237	-70496.50794	-187500.0224	-28477.12826	-23280.6606
32	-33903.17069	-10167.29446	-39369.66978	-50083.93378	-71001.74677	-187500.0224	-28581.4215	-23343.44665
33	-34058.2918	-10081.59787	-39370.5415	-50091.46632	-71253.65093	-187500.0224	-28583.09789	-23360.45633
34	-34235.85406	-10988.18463	-39218.1026	-49975.39371	-70994.99655	-187500.0224	-28421.11479	-23277.26314
35	-34111.69012	-11170.44075	-39226.61861	-49976.42189	-70513.96465	-187500.0224	-28440.06907	-23261.37105
36	-34004.89348	-10810.2871	-39290.96929	-50021.9971	-70499.95011	-187500.0224	-28492.32745	-23294.92102
37	-33907.97632	-10148.83192	-39376.21884	-50089.3429	-71004.80896	-187500.0224	-28585.33306	-23342.0832
38	-34068.88653	-10097.08763	-39347.07217	-50086.23601	-71258.59067	-187500.0224	-28570.91618	-23357.68471
39	-34225.34874	-10988.4305	-39189.2465	-49953.33254	-70986.7264	-187500.0224	-28409.38013	-23259.35939
40	-34095.14983	-11123.45739	-39200.91411	-49952.72904	-70494.36217	-187500.0224	-28411.23532	-23240.02513
41	-33996.91391	-10773.96551	-39272.70791	-50001.05351	-70503.54874	-187500.0224	-28473.37317	-23277.12903
42	-33899.57206	-10129.54237	-39369.20039	-50078.4576	-71008.56406	-187500.0224	-28574.3807	-23335.91412
43	-34066.27137	-10117.56183	-39343.85351	-50071.90854	-71238.04942	-187500.0224	-28564.88121	-23348.4758
44	-34228.20976	-11020.34879	-39203.21634	-49956.84176	-70969.26969	-187500.0224	-28425.29457	-23266.35549
45	-34094.54633	-11129.17943	-39215.10747	-49957.02058	-70493.35635	-187500.0224	-28420.15367	-23247.62472
46	-33981.93824	-10758.69927	-39268.90812	-49995.66674	-70524.8276	-187500.0224	-28471.7862	-23275.49735
47	-33888.41854	-10094.80776	-39364.90886	-50076.11067	-71036.21316	-187500.0224	-28576.8841	-23333.56718
48	-34058.87295	-10110.7222	-39327.91672	-50059.59273	-71253.82975	-187500.0224	-28553.90651	-23334.70712
49	-34218.03972	-11012.1904	-39201.4282	-49956.86411	-70956.05981	-187500.0224	-28429.83197	-23260.83461
50	-34097.65322	-11122.31745	-39241.70604	-49971.28099	-70480.90642	-187500.0224	-28440.18083	-23254.9561
51	-33987.81675	-10762.78964	-39285.56017	-50007.20024	-70547.8946	-187500.0224	-28485.55487	-23283.63339
52	-33894.09589	-10091.74557	-39351.38605	-50083.88908	-71061.91767	-187500.0224	-28583.12024	-23339.44569
53	-34084.64451	-10153.39168	-39327.35793	-50071.23799	-71264.64799	-187500.0224	-28551.49252	-23348.00641
54	-34232.23308	-11056.29039	-39195.50499	-49959.65808	-70968.66619	-187500.0224	-28413.22463	-23266.42254
55	-34109.85727	-11137.0696	-39223.04234	-49975.8631	-70504.24165	-187500.0224	-28433.85529	-23262.13101
56	-34002.39009	-10760.3533	-39270.53979	-50015.17981	-70586.27255	-187500.0224	-28476.90475	-23291.21063
57	-33925.27657	-10097.3335	-39377.55995	-50102.0834	-71101.59202	-187500.0224	-28589.24461	-23359.18228
58	-34121.86016	-10202.87844	-39345.26167	-50089.56642	-71305.57404	-187500.0224	-28572.3914	-23371.31928
59	-34239.22917	-11081.92785	-39190.78877	-49960.93213	-70986.18996	-187500.0224	-28416.97972	-23269.52943
60	-34102.54825	-11119.76935	-39221.20949	-49973.98555	-70477.82188	-187500.0224	-28428.31205	-23263.40506
61	-33995.5281	-10738.80622	-39278.29585	-50004.45098	-70581.91396	-187500.0224	-28487.34301	-23285.51093
62	-33916.33587	-10079.22859	-39379.5716	-50090.86282	-71108.36459	-187500.0224	-28583.3214	-23346.86647
63	-34117.94861	-10215.32836	-39330.44247	-50075.50717	-71293.07941	-187500.0224	-28549.61497	-23356.09774
64	-34245.01827	-11103.22906	-39201.40585	-49972.68915	-70990.12387	-187500.0224	-28413.33639	-23283.49927
65	-34107.89032	-11121.22221	-39230.75369	-49989.52001	-70493.46811	-187500.0224	-28435.59872	-23278.09015
66	-33996.31041	-10713.6158	-39276.08303	-50015.17981	-70599.63889	-187500.0224	-28477.03886	-23293.55756
67	-33915.91119	-10048.49494	-39366.11585	-50087.21949	-71109.07985	-187500.0224	-28573.6431	-23345.03363
68	-34115.9593	-10232.71802	-39310.14708	-50056.6423	-71285.88215	-187500.0224	-28527.73261	-23341.23383
69	-34232.546	-11110.851	-39186.49723	-49952.70669	-70967.21333	-187500.0224	-28395.87967	-23258.37591
70	-34104.82813	-11114.96372	-39245.6176	-49985.22848	-70478.02305	-187500.0224	-28439.33146	-23268.25538
71	-34010.45907	-10720.81306	-39305.00618	-50041.62193	-70630.08197	-187500.0224	-28498.56359	-23316.19988
72	-33917.60992	-10039.04015	-39388.08762	-50110.84528	-71126.64832	-187500.0224	-28596.41952	-23362.89267
73	-34125.68231	-10247.73839	-39334.97987	-50073.58492	-71284.16107	-187500.0224	-28541.07661	-23356.813
74	-34229.75203	-11106.9171	-39215.82272	-49963.94962	-70966.29691	-187500.0224	-28409.44718	-23271.42933
75	-34084.73391	-11065.47696	-39240.20848	-49980.22169	-70461.23689	-187500.0224	-28434.59289	-23263.11448
76	-33997.74092	-10682.92686	-39304.82737	-50035.05052	-70632.67477	-187500.0224	-28509.04656	-23308.39912
77	-33941.0569	-10038.54841	-39406.59486	-50123.76459	-71156.13027	-187500.0224	-28609.20472	-23377.66717
78	-34156.10303	-10294.69941	-39335.04693	-50081.16216	-71311.07257	-187500.0224	-28544.20585	-23364.52435
79	-34248.08046	-11137.58369	-39219.13078	-49981.51809	-70972.62245	-187500.0224	-28420.556	-23287.63435
80	-34104.33639	-11086.15233	-39243.49418	-49994.70562	-70490.04829	-187500.0224	-28433.45296	-23279.81124
81	-33991.84006	-10672.75681	-39289.807	-50028.23323	-70665.733	-187500.0224	-28485.46547	-23304.57697
82	-33938.95584	-10021.67285	-39395.03901	-50117.14847	-71173.47523	-187500.0224	-28595.68192	-23372.2804
83	-34169.98347	-10321.23093	-39326.53091	-50078.83758	-71316.68285	-187500.0224	-28536.33804	-23364.92668
84	-34250.60621	-11150.30183	-39197.94133	-49975.52782	-70951.00831	-187500.0224	-28409.29072	-23281.50997
85	-34108.89615	-11092.03083	-39234.35232	-49996.09142	-70493.73633	-187500.0224	-28427.5968	-23278.62659
86	-33996.10925	-10667.99589	-39295.01495	-50032.41301	-70700.89229	-187500.0224	-28483.74438	-23305.24752
87	-33930.19395	-10006.76423	-39375.70475	-50105.43616	-71196.94456	-187500.0224	-28576.68293	-23361.19394
88	-34162.67445	-10349.10355	-39295.08201	-50058.65396	-71335.05599	-187500.0224	-28506.65492	-23348.65461
89	-34232.92598	-11165.12104	-39189.2912	-49960.86508	-70964.01703	-187500.0224	-28391.49873	-23268.92594
90	-34104.76108	-11087.56049	-39252.56899	-50002.1711	-70509.42725	-187500.0224	-28444.56177	-23288.17079
91	-33990.00722	-10656.5518	-39297.98774	-50036.68219	-70715.13035	-187500.0224	-28498.83181	-23311.17073
92	-33943.605	-10023.90802	-39393.80966	-50122.49054	-71219.8998	-187500.0224	-28595.57016	-23374.53793
93	-34175.99609	-10392.15301	-39310.88469	-50067.10292	-71331.03267	-187500.0224	-28527.73261	-23354.17549
94	-34232.92598	-11170.77603	-39201.96464	-49968.35291	-70947.09676	-187500.0224	-28406.29559	-23273.97743
95	-34100.06721	-11069.70144	-39255.2065	-50007.64728	-70518.56911	-187500.0224	-28441.7678	-23289.73541
96	-34000.49019	-10635.63056	-39326.64267	-50060.35269	-70745.72989	-187500.0224	-28508.9795	-23331.66728
97	-33955.63024	-9994.291961	-39417.88249	-50141.44482	-71248.51003	-187500.0224	-28613.4292	-23397.47082
98	-34183.66273	-10388.57673	-39313.65631	-50065.40418	-71319.76739	-187500.0224	-28521.38472	-23357.61766
99	-34233.44007	-11164.33873	-39204.19982	-49964.50841	-70915.69256	-187500.0224	-28410.60947	-23274.89385
100	-34097.78733	-11048.75786	-39249.57386	-49995.33147	-70518.435	-187500.0224	-28439.59969	-23285.95797
101	-34000.75841	-10605.23219	-39312.38226	-50041.19725	-70763.7454	-187500.0224	-28494.2944	-23320.29025
102	-33964.34742	-9988.659321	-39407.22071	-50125.61978	-71263.75392	-187500.0224	-28598.02885	-23385.19971
103	-34200.22538	-10435.42599	-39304.51444	-50056.99993	-71323.99187	-187500.0224	-28504.19623	-23349.43692
104	-34244.79476	-11200.03446	-39208.22313	-49967.41414	-70928.74598	-187500.0224	-28400.50648	-23276.25731
105	-34109.522	-11059.73256	-39284.91196	-50009.34601	-70546.82172	-187500.0224	-28448.78625	-23295.63627
106	-34003.88765	-10601.11947	-39340.25488	-50056.19527	-70789.91929	-187500.0224	-28510.72294	-23328.71685
107	-33951.67398	-9970.487353	-39395.30723	-50110.08532	-71274.70628	-187500.0224	-28597.24654	-23367.45243
108	-34183.88625	-10432.14028	-39285.64957	-50032.68123	-71322.06962	-187500.0224	-28480.34692	-23328.40393
109	-34221.39248	-11180.63315	-39196.89079	-49953.84663	-70914.2844	-187500.0224	-28387.34131	-23261.32634
110	-34084.15277	-11030.16121	-39250.89261	-49983.73091	-70542.01609	-187500.0224	-28433.07298	-23267.80835
111	-33985.91685	-10572.53159	-39320.67476	-50035.13992	-70831.02415	-187500.0224	-28501.51402	-23306.231
112	-33948.52238	-9954.327041	-39393.25087	-50098.01538	-71299.9861	-187500.0224	-28581.30975	-23353.46023
113	-34197.27495	-10461.37636	-39287.52712	-50027.33916	-71330.11625	-187500.0224	-28484.48199	-23319.46323
114	-34237.55279	-11194.58064	-39212.15704	-49964.66487	-70924.70031	-187500.0224	-28408.86604	-23266.55665
115	-34105.63279	-11039.45953	-39267.92464	-50010.84358	-70569.39698	-187500.0224	-28453.77069	-23293.46815
116	-33985.76039	-10564.19439	-39329.99543	-50056.19527	-70853.88998	-187500.0224	-28510.41001	-23326.25816
117	-33957.99952	-9953.835303	-39409.65705	-50122.93757	-71313.30774	-187500.0224	-28596.1513	-23375.09672
118	-34201.03004	-10492.19942	-39297.80892	-50042.09132	-71323.18721	-187500.0224	-28495.76962	-23335.57884
119	-34217.19035	-11204.23659	-39204.84802	-49959.97101	-70907.82474	-187500.0224	-28395.94673	-23262.77921
120	-34083.32575	-11035.32446	-39256.74877	-50001.36644	-70569.30757	-187500.0224	-28427.73091	-23286.06973
121	-33977.602	-10553.08557	-39334.13051	-50054.40713	-70881.42733	-187500.0224	-28504.37504	-23327.24164
122	-33959.92177	-9955.958719	-39404.5385	-50119.89774	-71327.88108	-187500.0224	-28590.921	-23377.48836
123	-34221.21367	-10542.11087	-39295.37258	-50050.56263	-71333.06668	-187500.0224	-28482.51503	-23348.36404
124	-34235.76465	-11244.0674	-39225.72455	-49981.56279	-70914.3291	-187500.0224	-28399.00892	-23288.14844
125	-34079.48125	-11027.05431	-39261.93437	-49998.12543	-70569.0617	-187500.0224	-28424.33344	-23286.09208
126	-33971.94701	-10524.54239	-39343.7194	-50056.21762	-70895.24071	-187500.0224	-28512.824	-23332.00256
127	-33977.40084	-9962.083097	-39425.6609	-50136.81801	-71347.66237	-187500.0224	-28602.36509	-23399.39307
128	-34215.73749	-10553.73377	-39279.45814	-50033.82117	-71318.47099	-187500.0224	-28464.07485	-23332.33784
129	-34211.75888	-11203.49898	-39210.03362	-49964.44135	-70882.16494	-187500.0224	-28393.21982	-23267.24956
130	-34087.52788	-11008.21179	-39271.8809	-50008.27313	-70569.28522	-187500.0224	-28437.02924	-23292.70819
131	-33980.91006	-10519.08857	-39341.7301	-50057.20109	-70911.19986	-187500.0224	-28511.50525	-23327.4428
132	-33967.87899	-9946.436876	-39393.13911	-50109.45947	-71348.95877	-187500.0224	-28574.40306	-23370.20169
133	-34223.13592	-10576.64431	-39269.9363	-50022.57824	-71319.96856	-187500.0224	-28456.54231	-23325.67702
134	-34215.40221	-11215.3007	-39208.87133	-49960.06041	-70885.80828	-187500.0224	-28383.11683	-23265.8414
135	-34084.24218	-11002.17682	-39262.38141	-50000.74059	-70583.94797	-187500.0224	-28433.40825	-23287.52259
136	-33974.62922	-10484.13044	-39331.40359	-50050.8085	-70924.45444	-187500.0224	-28502.47514	-23326.54873
137	-33983.12288	-9947.085076	-39389.29461	-50105.72673	-71349.76344	-187500.0224	-28568.34573	-23368.54766
138	-34242.02314	-10631.29433	-39269.08693	-50018.48787	-71317.06283	-187500.0224	-28454.4636	-23321.76546
139	-34219.22436	-11240.44642	-39195.61675	-49955.90299	-70872.95602	-187500.0224	-28379.20527	-23262.44393
140	-34086.25383	-10996.20891	-39254.40183	-49996.62787	-70584.17148	-187500.0224	-28434.12351	-23281.62173
141	-33962.04519	-10448.14413	-39316.91966	-50039.00677	-70936.03265	-187500.0224	-28493.71326	-23303.7276
142	-33986.76622	-9934.433989	-39383.43845	-50107.51487	-71357.81006	-187500.0224	-28578.38167	-23357.10357
143	-34230.55669	-10630.42261	-39239.2697	-50003.91454	-71297.75093	-187500.0224	-28438.81737	-23292.68584
144	-34201.85705	-11218.38525	-39188.12891	-49955.29949	-70848.63732	-187500.0224	-28378.98175	-23244.1602
145	-34079.39185	-10988.20698	-39256.16762	-50002.93106	-70571.87802	-187500.0224	-28434.23527	-23272.70338
146	-33963.29689	-10449.14996	-39326.26269	-50052.23901	-70954.87517	-187500.0224	-28501.42461	-23307.54975
147	-33982.40763	-9931.975297	-39387.48412	-50104.40798	-71352.91503	-187500.0224	-28564.03185	-23354.71193
148	-34226.73455	-10638.11161	-39244.05298	-49992.04576	-71278.90841	-187500.0224	-28425.18281	-23288.37195
149	-34199.37601	-11201.93436	-39202.43403	-49949.71156	-70838.66845	-187500.0224	-28369.99635	-23245.07663
150	-34074.83209	-10950.0302	-39280.10634	-50002.7746	-70567.58649	-187500.0224	-28433.45296	-23284.08042
151	-33977.44554	-10415.55529	-39382.85731	-50067.4829	-70951.94709	-187500.0224	-28523.26227	-23335.62354
152	-34011.06256	-9942.77119	-39416.7202	-50107.93955	-71339.52634	-187500.0224	-28568.92688	-23369.10646
153	-34239.49739	-10676.60131	-39272.21617	-49991.26345	-71227.43234	-187500.0224	-28428.82614	-23293.95989
154	-34196.06795	-11205.19772	-39230.2396	-49952.70669	-70752.12249	-187500.0224	-28367.29179	-23253.0115
155	-34062.47158	-10933.86989	-39289.06939	-49995.62204	-70483.96861	-187500.0224	-28420.31013	-23281.37586
156	-33962.24635	-10385.49219	-39385.3607	-50068.37697	-70871.77138	-187500.0224	-28518.05431	-23340.8762
157	-34016.31522	-9954.729373	-39441.84356	-50117.39434	-71260.8482	-187500.0224	-28578.02404	-23386.40671
158	-34244.97357	-10714.93455	-39284.53198	-49992.49279	-71174.81633	-187500.0224	-28417.82909	-23309.44965
159	-34189.94357	-11201.30851	-39247.38339	-49955.00892	-70724.71925	-187500.0224	-28373.99732	-23267.54013
160	-34066.91957	-10928.01373	-39303.17334	-49998.90774	-70516.28924	-187500.0224	-28423.72995	-23297.2456
161	-33955.16085	-10359.67593	-39380.33156	-50058.78807	-70936.39027	-187500.0224	-28502.60925	-23339.42334
162	-33995.43869	-9932.377628	-39403.77854	-50091.08634	-71330.49623	-187500.0224	-28535.51102	-23367.16185
163	-34231.00373	-10724.79167	-39255.8547	-49981.51809	-71247.54891	-187500.0224	-28390.67172	-23295.90449
164	-34174.40911	-11196.81581	-39218.66139	-49951.29853	-70787.30414	-187500.0224	-28352.74081	-23254.48671
165	-34064.23736	-10920.28003	-39289.18115	-50008.98838	-70597.67194	-187500.0224	-28425.89807	-23288.66253
166	-33948.99177	-10338.10649	-39369.71448	-50068.62284	-71016.2307	-187500.0224	-28497.71422	-23322.97246
167	-34016.13641	-9952.13657	-39411.24402	-50114.19804	-71389.32602	-187500.0224	-28546.32927	-23363.295
168	-34243.07367	-10761.11326	-39248.83625	-49989.83294	-71292.05123	-187500.0224	-28387.02838	-23279.02893
169	-34162.38387	-11186.93634	-39206.21147	-49953.10902	-70822.26227	-187500.0224	-28340.78262	-23229.74333
170	-34045.19368	-10900.6999	-39274.16078	-50007.312	-70646.06346	-187500.0224	-28406.4297	-23268.92594
171	-33944.47672	-10318.14639	-39376.66588	-50082.54797	-71091.0867	-187500.0224	-28496.70839	-23324.64884
172	-34017.43281	-9943.374687	-39408.74063	-50126.17858	-71430.0062	-187500.0224	-28543.87057	-23366.37954
173	-34244.01244	-10772.19972	-39244.09768	-50008.6084	-71288.63141	-187500.0224	-28400.88646	-23289.08721
174	-34172.48686	-11186.4446	-39217.18618	-49972.62209	-70807.77834	-187500.0224	-28364.1402	-23244.02609
175	-34045.08192	-10877.00705	-39279.05581	-50013.03405	-70623.19763	-187500.0224	-28417.15853	-23268.81418
176	-33938.70997	-10284.64112	-39375.10125	-50083.97848	-71055.97211	-187500.0224	-28522.25644	-23318.05507
177	-34029.45805	-9964.988824	-39398.50353	-50122.75876	-71396.54564	-187500.0224	-28555.24761	-23357.68471
178	-34274.00849	-10835.83514	-39260.3474	-50025.79689	-71256.17668	-187500.0224	-28424.26639	-23303.97347
179	-34191.37409	-11203.43193	-39236.45338	-49999.82417	-70772.57434	-187500.0224	-28388.03421	-23268.07657
180	-34049.17229	-10878.41521	-39267.99169	-50021.14773	-70604.80214	-187500.0224	-28418.45494	-23275.27383
181	-33938.62056	-10276.30392	-39356.92929	-50089.2982	-71063.75051	-187500.0224	-28512.04169	-23322.57012
182	-34026.12764	-9963.088925	-39379.90688	-50116.50027	-71388.43195	-187500.0224	-28540.40605	-23350.86743
183	-34254.3613	-10843.45708	-39241.97426	-50002.7746	-71238.96584	-187500.0224	-28403.65808	-23281.73349
184	-34177.58306	-11207.41054	-39241.57193	-49991.21874	-70783.59375	-187500.0224	-28394.85149	-23261.12518
185	-34051.40746	-10885.23249	-39288.53295	-50023.74053	-70657.75343	-187500.0224	-28434.30232	-23277.75488
186	-33935.04428	-10262.80347	-39384.48899	-50090.30403	-71123.76495	-187500.0224	-28535.10869	-23324.96176
187	-34038.06347	-9979.562161	-39405.70079	-50120.23301	-71447.64172	-187500.0224	-28552.18542	-23364.01026
188	-34259.5022	-10871.50852	-39263.78957	-50010.84358	-71276.2709	-187500.0224	-28409.55894	-23296.37388
189	-34169.71525	-11204.9295	-39276.73123	-49996.98549	-70809.45472	-187500.0224	-28402.92047	-23269.99882
190	-34044.14315	-10865.78648	-39329.21312	-50023.87464	-70704.58033	-187500.0224	-28442.68423	-23285.64504
191	-33924.71777	-10224.00084	-39418.12836	-50091.13104	-71169.80954	-187500.0224	-28533.83464	-23333.50013
192	-34042.35501	-9982.534943	-39433.81929	-50118.37782	-71480.54349	-187500.0224	-28557.48279	-23366.78187
193	-34252.93079	-10877.05176	-39279.94988	-49991.15169	-71309.84322	-187500.0224	-28403.9263	-23279.54302
194	-34152.86203	-11177.90624	-39282.78855	-49978.29944	-70843.00468	-187500.0224	-28392.10223	-23253.90557
195	-34049.3511	-10873.16255	-39358.71742	-50030.13313	-70764.66182	-187500.0224	-28454.64241	-23294.45163
196	-33930.26101	-10227.80063	-39442.84939	-50098.12714	-71235.70248	-187500.0224	-28552.49835	-23342.44082
197	-34048.63585	-10008.82059	-39436.97088	-50112.29814	-71532.42189	-187500.0224	-28561.14847	-23365.1949
198	-34267.54883	-10923.00694	-39290.29873	-50005.07683	-71357.6089	-187500.0224	-28424.31109	-23297.78204
199	-34162.7415	-11191.94313	-39281.20157	-49988.87181	-70889.16104	-187500.0224	-28398.65129	-23266.17667
200	-34041.37153	-10849.06737	-39334.35402	-50022.13121	-70818.19425	-187500.0224	-28449.05447	-23289.04251
201	-33935.58072	-10206.65588	-39426.82319	-50095.60139	-71293.03471	-187500.0224	-28534.5499	-23339.89273
202	-34068.28303	-10034.88273	-39427.42669	-50112.70048	-71563.73668	-187500.0224	-28553.34771	-23367.65359
203	-34255.97063	-10928.08079	-39266.36002	-49984.13324	-71352.73622	-187500.0224	-28396.57258	-23282.73932
204	-34132.05256	-11148.37958	-39257.10639	-49968.867	-70877.51578	-187500.0224	-28378.53472	-23251.91626
205	-34033.48136	-10811.09176	-39329.99543	-50029.95432	-70829.63834	-187500.0224	-28451.71433	-23297.84909
206	-33942.398	-10171.09426	-39436.07681	-50114.77919	-71308.54682	-187500.0224	-28563.76363	-23358.17645
207	-34078.52013	-10027.35019	-39421.34701	-50115.74031	-71559.08752	-187500.0224	-28558.51097	-23368.4359
208	-34270.02988	-10938.69787	-39265.86828	-50002.1264	-71328.68574	-187500.0224	-28414.61044	-23290.8083
209	-34149.97866	-11148.44664	-39274.00431	-49995.28676	-70834.95806	-187500.0224	-28416.19741	-23265.64023
210	-34040.34335	-10803.69333	-39316.24911	-50031.78716	-70781.1127	-187500.0224	-28455.93881	-23288.97545
211	-33932.25031	-10155.15747	-39398.88351	-50099.42354	-71252.6004	-187500.0224	-28544.56348	-23334.61771
212	-34062.89626	-10035.91091	-39380.80095	-50093.25446	-71470.90989	-187500.0224	-28535.17574	-23340.98796
213	-34253.80251	-10955.05934	-39246.22109	-49988.89416	-71235.21074	-187500.0224	-28401.57937	-23273.06101
214	-34142.66964	-11150.48065	-39257.46402	-49993.34216	-70777.37996	-187500.0224	-28404.93213	-23259.76172
215	-34032.85551	-10804.09566	-39315.13152	-50036.10105	-70772.6861	-187500.0224	-28451.60257	-23289.22132
216	-33934.88782	-10151.31297	-39416.42963	-50115.09211	-71260.46822	-187500.0224	-28551.69368	-23347.04528
217	-34104.91754	-10102.04972	-39416.20611	-50127.94437	-71518.11677	-187500.0224	-28560.92495	-23378.47184
218	-34265.96186	-11002.71326	-39260.48151	-49999.26537	-71281.07652	-187500.0224	-28414.65514	-23290.31656
219	-34131.58317	-11144.02099	-39263.67781	-49991.95635	-70817.70251	-187500.0224	-28406.36264	-23268.4342
220	-34019.71269	-10774.50195	-39319.11013	-50028.72497	-70818.32836	-187500.0224	-28464.7901	-23293.17758
221	-33926.23769	-10107.68236	-39419.98356	-50110.80058	-71301.97541	-187500.0224	-28562.1543	-23350.91214
222	-34095.86508	-10087.81166	-39393.80966	-50108.96773	-71532.26543	-187500.0224	-28541.92597	-23369.35233
223	-34256.3059	-11011.16222	-39248.61273	-49989.36355	-71295.51575	-187500.0224	-28397.64546	-23284.97449
224	-34130.59969	-11147.37375	-39282.7662	-50004.65214	-70847.69855	-187500.0224	-28419.55017	-23276.57023
225	-34032.83316	-10777.20651	-39343.0265	-50052.44017	-70869.20093	-187500.0224	-28485.64428	-23312.35538
226	-33941.72745	-10117.83005	-39428.67838	-50125.21745	-71358.48062	-187500.0224	-28577.66641	-23362.19977
227	-34113.99235	-10132.42574	-39390.18868	-50114.48862	-71571.40333	-187500.0224	-28547.49156	-23373.06271
228	-34260.1057	-11034.5198	-39245.95287	-49991.68813	-71312.03369	-187500.0224	-28399.81358	-23283.164
229	-34130.53264	-11129.40295	-39278.25114	-50001.20997	-70858.18152	-187500.0224	-28414.58808	-23273.23982
230	-34035.2695	-10755.52532	-39347.80977	-50051.61316	-70912.40685	-187500.0224	-28487.38772	-23311.23779
231	-33944.11909	-10083.22955	-39436.76972	-50132.74999	-71408.54852	-187500.0224	-28587.23296	-23369.88877
232	-34120.54141	-10132.80572	-39394.41316	-50108.54305	-71615.25746	-187500.0224	-28552.43129	-23368.54766
233	-34264.50899	-11046.00859	-39253.84304	-49996.60552	-71345.69542	-187500.0224	-28396.25965	-23290.45067
234	-34137.70755	-11126.96661	-39282.72149	-50009.94951	-70881.33793	-187500.0224	-28418.72316	-23284.48275
235	-34030.44153	-10751.99375	-39333.9964	-50040.34788	-70949.44369	-187500.0224	-28462.08554	-23300.73247
236	-33940.14048	-10081.9108	-39438.17788	-50120.92592	-71450.81567	-187500.0224	-28567.67518	-23356.72359
237	-34125.39174	-10160.63364	-39394.52492	-50102.15045	-71634.25644	-187500.0224	-28536.96388	-23361.97625
238	-34263.07848	-11067.8686	-39260.30269	-49993.61038	-71353.67499	-187500.0224	-28403.56867	-23287.12026
239	-34122.75423	-11124.06088	-39283.12382	-50003.84748	-70902.90736	-187500.0224	-28412.2635	-23275.89968
240	-34025.88177	-10739.76734	-39353.62123	-50053.91539	-70989.67683	-187500.0224	-28476.74828	-23309.53906
241	-33937.68179	-10057.23447	-39443.81052	-50131.27478	-71488.81364	-187500.0224	-28571.92201	-23366.33484
242	-34125.03411	-10171.92127	-39390.92629	-50103.06687	-71656.56348	-187500.0224	-28540.11548	-23360.81396
243	-34259.85983	-11073.25537	-39260.19094	-49995.71145	-71371.86931	-187500.0224	-28402.33933	-23280.10181
244	-34120.36259	-11099.60808	-39279.36873	-50012.96699	-70927.02489	-187500.0224	-28413.02346	-23275.89968
245	-34015.80113	-10701.25529	-39341.26071	-50058.09516	-71029.28412	-187500.0224	-28478.49172	-23309.04732
246	-33940.58751	-10038.9731	-39445.75512	-50144.03762	-71533.62888	-187500.0224	-28575.23007	-23373.95678
247	-34146.89411	-10214.05431	-39383.3714	-50113.14751	-71697.93656	-187500.0224	-28524.3575	-23367.743
248	-34272.19799	-11112.54974	-39252.25607	-50005.9709	-71408.70499	-187500.0224	-28397.64546	-23286.62852
249	-34130.51029	-11115.23194	-39289.04704	-50025.66278	-70965.71576	-187500.0224	-28421.98651	-23285.30977
250	-34014.66119	-10697.38843	-39344.68053	-50057.78224	-71079.21792	-187500.0224	-28471.74149	-23307.90738
251	-33933.90434	-10010.2064	-39439.11665	-50135.11928	-71568.65407	-187500.0224	-28573.15136	-23364.41259
252	-34140.61327	-10210.031	-39372.79902	-50099.04356	-71714.83448	-187500.0224	-28515.4168	-23356.76829
253	-34261.04447	-11101.64208	-39254.87122	-50001.70171	-71409.71081	-187500.0224	-28391.36462	-23285.26506
254	-34132.16432	-11106.44771	-39300.91581	-50031.45188	-70983.08307	-187500.0224	-28423.26056	-23290.8977
255	-34036.87883	-10700.36122	-39360.9079	-50067.59466	-71131.72217	-187500.0224	-28481.08452	-23313.29415
0	-33947.91889	-10011.03342	-39442.08943	-50129.26312	-71628.22147	-187500.0224	-28565.84234	-23356.29891
1	-34161.51216	-10253.6616	-39371.45792	-50085.72192	-71774.55834	-187500.0224	-28500.23997	-23344.74305
2	-34251.83556	-11110.851	-39247.91983	-49980.28874	-71448.26757	-187500.0224	-28375.42783	-23262.71215
3	-34118.03801	-11079.3574	-39295.70786	-50011.51413	-71012.54267	-187500.0224	-28418.47729	-23267.58483
4	-34032.43083	-10679.50704	-39368.57454	-50067.63936	-71175.19631	-187500.0224	-28491.90277	-23312.57889
5	-33959.51944	-10010.83225	-39454.00291	-50137.46621	-71663.20195	-187500.0224	-28572.54786	-23362.57975
6	-34158.69584	-10269.6431	-39361.5561	-50075.48482	-71780.88388	-187500.0224	-28482.69385	-23334.19303
7	-34250.24858	-11117.22125	-39240.07437	-49980.84754	-71452.425	-187500.0224	-28370.48809	-23264.545
8	-34113.94764	-11064.80641	-39284.68845	-50013.68225	-71039.11889	-187500.0224	-28413.04581	-23277.26314
9	-34008.71563	-10640.92793	-39345.26167	-50053.91539	-71217.12818	-187500.0224	-28469.41691	-23303.39233
10	-33958.13363	-9978.869257	-39442.9835	-50144.17173	-71696.41664	-187500.0224	-28574.96185	-23372.72744
11	-34173.87267	-10300.57791	-39343.47353	-50080.11163	-71800.95575	-187500.0224	-28484.97373	-23341.74792
12	-34255.0095	-11152.17938	-39242.44365	-49989.02827	-71466.37249	-187500.0224	-28371.94096	-23270.73643
13	-34119.22266	-11085.54883	-39296.62428	-50024.41109	-71065.96334	-187500.0224	-28421.00303	-23283.32046
14	-34018.14807	-10653.19904	-39360.17029	-50071.19329	-71262.41282	-187500.0224	-28471.38387	-23319.32912
15	-33953.9315	-9982.423184	-39440.68127	-50137.30975	-71738.50497	-187500.0224	-28550.48669	-23368.32414
16	-34172.12923	-10328.71876	-39333.97404	-50074.14372	-71821.78757	-187500.0224	-28458.71043	-23339.95978
17	-34239.67621	-11148.46899	-39218.7508	-49983.28388	-71457.07416	-187500.0224	-28352.96432	-23267.62954
18	-34117.09924	-11067.3098	-39272.28323	-50024.45579	-71060.46481	-187500.0224	-28404.10512	-23288.21549
19	-34016.09171	-10628.18743	-39332.7894	-50069.71807	-71280.65184	-187500.0224	-28464.36542	-23322.27955
20	-33953.21625	-9964.139457	-39413.16627	-50138.11441	-71741.54481	-187500.0224	-28554.10767	-23371.96748
21	-34196.42558	-10372.93051	-39328.3414	-50081.05041	-71835.06451	-187500.0224	-28477.95528	-23350.66627
22	-34262.34087	-11182.89068	-39233.25708	-49996.15848	-71472.3404	-187500.0224	-28373.05854	-23284.10277
23	-34114.21586	-11056.13393	-39272.5738	-50021.97475	-71066.58918	-187500.0224	-28396.79609	-23287.79081
24	-34008.44741	-10597.27497	-39338.5785	-50067.72877	-71301.43896	-187500.0224	-28466.31002	-23317.45157
25	-33969.44362	-9950.169617	-39427.27022	-50150.1173	-71747.93741	-187500.0224	-28565.77528	-23380.37174
26	-34204.91924	-10395.05874	-39321.9041	-50079.77636	-71835.01981	-187500.0224	-28475.20601	-23349.41457
27	-34241.21848	-11180.20847	-39214.70514	-49983.97678	-71461.96919	-187500.0224	-28353.2996	-23268.85888
28	-34099.68723	-11038.27489	-39268.50578	-50019.56076	-71055.90505	-187500.0224	-28385.59787	-23283.09694
29	-33989.85076	-10570.40817	-39327.46969	-50065.00185	-71308.3233	-187500.0224	-28454.48595	-23318.07742
30	-33953.95386	-9938.859634	-39410.17114	-50137.73443	-71778.64871	-187500.0224	-28544.33996	-23372.90625
31	-34198.45959	-10415.59999	-39308.49305	-50065.85122	-71847.04505	-187500.0224	-28445.25468	-23338.10459
32	-34232.5013	-11175.96163	-39212.13468	-49980.08758	-71456.60477	-187500.0224	-28344.06833	-23264.50029
33	-34093.31698	-11033.55867	-39265.08597	-50018.21965	-71064.66693	-187500.0224	-28387.67658	-23284.01336
34	-33990.36485	-10579.50533	-39334.53284	-50069.15928	-71330.76445	-187500.0224	-28452.29548	-23320.402
35	-33949.77408	-9939.641945	-39406.03607	-50132.59353	-71784.03548	-187500.0224	-28531.75593	-23367.94417
36	-34198.16902	-10438.08585	-39301.51931	-50061.7832	-71846.62036	-187500.0224	-28439.97967	-23337.81401
37	-34232.27778	-11175.5146	-39230.03843	-49991.75519	-71450.63686	-187500.0224	-28366.57654	-23279.45361
38	-34091.79706	-11012.52568	-39274.33959	-50023.96405	-71072.22182	-187500.0224	-28385.10613	-23294.07165
39	-33982.87701	-10538.80281	-39341.17131	-50069.29339	-71358.41356	-187500.0224	-28444.2712	-23327.04047
40	-33961.62051	-9928.846053	-39421.99521	-50138.40498	-71811.12579	-187500.0224	-28539.33317	-23379.90235
41	-34209.4343	-10469.82532	-39305.96731	-50059.32451	-71861.17135	-187500.0224	-28432.87181	-23342.61964
42	-34225.75107	-11190.80319	-39221.9471	-49979.52878	-71459.26463	-187500.0224	-28341.31907	-23269.06005
43	-34089.15956	-11018.15832	-39273.57963	-50014.50926	-71092.3831	-187500.0224	-28381.12752	-23284.05807
44	-33995.34929	-10537.86403	-39355.96816	-50074.43429	-71399.9878	-187500.0224	-28462.73374	-23331.91315
45	-33983.54757	-9933.048181	-39436.52385	-50146.9657	-71834.68453	-187500.0224	-28553.37006	-23388.75364
46	-34223.29238	-10497.27327	-39302.39103	-50051.16612	-71846.4192	-187500.0224	-28431.66482	-23333.58953
47	-34226.86866	-11189.70796	-39217.34264	-49973.49381	-71432.17432	-187500.0224	-28339.55328	-23263.91915
48	-34094.76985	-11009.5976	-39277.91587	-50015.80566	-71085.36465	-187500.0224	-28389.8447	-23284.88508
49	-33983.12288	-10517.43454	-39345.93223	-50065.13596	-71396.43388	-187500.0224	-28456.78818	-23320.46906
50	-33972.17053	-9929.158977	-39418.95538	-50134.71694	-71832.78463	-187500.0224	-28540.74133	-23378.15891
51	-34229.3944	-10528.00691	-39300.35702	-50053.08837	-71836.74089	-187500.0224	-28427.93208	-23337.50109
52	-34229.03678	-11197.70988	-39224.22698	-49981.54044	-71421.69135	-187500.0224	-28347.33168	-23270.60232
53	-34098.6814	-11006.53541	-39279.23462	-50023.04763	-71102.32962	-187500.0224	-28387.2519	-23290.92005
54	-33995.37164	-10508.94088	-39358.02452	-50078.34584	-71435.03534	-187500.0224	-28466.7347	-23331.42141
55	-33986.25213	-9945.20753	-39421.59288	-50136.28157	-71864.16648	-187500.0224	-28537.03094	-23375.54376
56	-34240.21265	-10572.28572	-39295.6408	-50050.8532	-71852.18595	-187500.0224	-28416.28682	-23331.82375
57	-34216.05041	-11192.70309	-39218.32612	-49973.89614	-71419.1209	-187500.0224	-28332.33366	-23262.51099
58	-34088.22079	-10980.31682	-39281.22393	-50018.44317	-71114.8913	-187500.0224	-28384.72615	-23290.07069
59	-33990.00722	-10479.97302	-39362.27135	-50078.27879	-71469.00999	-187500.0224	-28461.43734	-23335.7353
60	-33984.06166	-9930.365971	-39423.87276	-50130.53717	-71887.56876	-187500.0224	-28524.82689	-23374.26971
61	-34229.97555	-10584.31096	-39288.89058	-50036.48103	-71854.24231	-187500.0224	-28409.98362	-23321.49724
62	-34211.89299	-11193.17248	-39219.24254	-49970.8116	-71425.35703	-187500.0224	-28343.37543	-23261.3934
63	-34070.78642	-10959.23912	-39269.22104	-50002.79695	-71121.14979	-187500.0224	-28366.0848	-23274.04449
64	-33964.19096	-10439.96339	-39356.39284	-50063.6831	-71481.14699	-187500.0224	-28454.53065	-23320.55847
65	-33974.98685	-9908.461262	-39414.59679	-50115.6062	-71897.62704	-187500.0224	-28520.28948	-23360.79161
66	-34231.07078	-10604.87456	-39283.70497	-50028.21088	-71864.92644	-187500.0224	-28394.3374	-23314.88112
67	-34212.22826	-11195.67587	-39230.73134	-49982.16629	-71429.96149	-187500.0224	-28336.44638	-23268.25538
68	-34076.06144	-10949.22554	-39280.50867	-50018.01849	-71141.78045	-187500.0224	-28378.08768	-23283.92396
69	-33971.56703	-10420.29386	-39358.85154	-50077.04944	-71507.09736	-187500.0224	-28461.34793	-23325.92289
70	-34000.19962	-9927.862576	-39420.78822	-50137.46621	-71923.75623	-187500.0224	-28537.29916	-23379.34355
71	-34230.51199	-10635.51881	-39277.08885	-50031.87657	-71860.29963	-187500.0224	-28395.03031	-23316.80337
72	-34192.11169	-11195.18413	-39231.11132	-49984.91555	-71408.03443	-187500.0224	-28331.55135	-23264.52264
73	-34054.78258	-10935.65803	-39283.95084	-50019.31489	-71133.3762	-187500.0224	-28370.04106	-23279.18539
74	-33950.13171	-10388.91201	-39362.18195	-50076.33419	-71519.41318	-187500.0224	-28447.17693	-23319.95497
75	-33991.19186	-9923.079303	-39423.87276	-50137.82384	-71938.28487	-187500.0224	-28517.74138	-23372.81685
76	-34240.34676	-10671.16984	-39300.7817	-50047.20986	-71873.50951	-187500.0224	-28402.85342	-23321.92192
77	-34207.93673	-11212.39498	-39265.22008	-50009.61423	-71413.68942	-187500.0224	-28364.20725	-23279.65477
78	-34083.37046	-10961.92133	-39319.53482	-50046.15933	-71170.36833	-187500.0224	-28409.93892	-23298.65376
79	-33962.1346	-10394.00821	-39390.85923	-50096.62957	-71544.15656	-187500.0224	-28484.03495	-23332.09197
80	-33996.8245	-9928.846053	-39427.35963	-50137.75678	-71897.49293	-187500.0224	-28522.54701	-23369.97817
81	-34238.15629	-10692.67222	-39281.15687	-50019.449	-71811.70694	-187500.0224	-28384.27912	-23299.1902
82	-34186.63552	-11187.47278	-39242.01897	-49972.30917	-71350.16577	-187500.0224	-28326.29869	-23251.42452
83	-34057.33067	-10912.32281	-39303.46391	-50013.14581	-71099.69212	-187500.0224	-28365.61541	-23279.05128
84	-33953.55153	-10347.71774	-39396.06719	-50085.94544	-71470.93224	-187500.0224	-28456.25174	-23336.42821
85	-34005.02759	-9914.406826	-39443.16232	-50136.19216	-71794.22787	-187500.0224	-28515.14858	-23386.98785
86	-34243.00662	-10711.78296	-39291.17045	-50016.67738	-71661.88319	-187500.0224	-28370.17517	-23311.68482
87	-34173.64915	-11189.52914	-39249.08212	-49966.3636	-71188.65206	-187500.0224	-28316.93331	-23257.57125
88	-34044.43372	-10906.31019	-39307.19665	-50007.82609	-70971.68368	-187500.0224	-28365.14602	-23285.66739
89	-33923.55548	-10313.34076	-39392.51326	-50071.39445	-71380.31827	-187500.0224	-28448.00394	-23333.94716
90	-33993.27058	-9902.15807	-39447.49855	-50124.94923	-71731.06184	-187500.0224	-28511.37114	-23385.1103
91	-34238.51392	-10723.65173	-39301.20639	-50012.02822	-71634.12233	-187500.0224	-28365.54836	-23318.43505
92	-34164.79786	-11178.08505	-39262.09083	-49962.76497	-71197.65981	-187500.0224	-28319.21319	-23263.00273
93	-34030.32977	-10890.4181	-39311.44349	-49994.5268	-71023.31621	-187500.0224	-28359.044	-23278.24661
94	-33914.12305	-10289.11147	-39396.71539	-50064.80069	-71434.87888	-187500.0224	-28444.78529	-23327.50986
95	-34003.99941	-9916.910221	-39449.82314	-50121.59647	-71764.38829	-187500.0224	-28506.40905	-23376.81781
96	-34251.41087	-10766.76825	-39301.13933	-50005.59092	-71647.35456	-187500.0224	-28366.42007	-23299.48077
97	-34166.67541	-11190.11029	-39257.97811	-49961.98266	-71190.95429	-187500.0224	-28312.3065	-23241.20977
98	-34048.34527	-10896.83305	-39315.08682	-50009.77069	-71026.40075	-187500.0224	-28366.10715	-23267.07074
99	-33952.07631	-10309.56332	-39415.49086	-50096.87544	-71471.33457	-187500.0224	-28469.14869	-23327.82278
100	-34024.74183	-9948.53794	-39436.99323	-50127.27381	-71796.41834	-187500.0224	-28506.9902	-23355.44954
101	-34247.05228	-10773.80905	-39277.24532	-50008.18372	-71641.72192	-187500.0224	-28349.56686	-23276.65964
102	-34182.07576	-11175.40284	-39266.31531	-49992.38104	-71173.7211	-187500.0224	-28326.45516	-23247.13299
103	-34065.86904	-10889.38992	-39328.09553	-50040.30318	-71024.38909	-187500.0224	-28388.92828	-23278.42543
104	-33945.5943	-10272.32531	-39407.82421	-50107.71604	-71446.47943	-187500.0224	-28483.38675	-23327.82278
105	-34033.03433	-9936.378591	-39422.91163	-50141.84715	-71739.93549	-187500.0224	-28498.56359	-23366.13367
106	-34259.5022	-10794.37265	-39272.43969	-50023.80759	-71554.88539	-187500.0224	-28353.61252	-23288.03668
107	-34172.39746	-11161.54476	-39255.67588	-49994.41504	-71061.58239	-187500.0224	-28328.73503	-23242.23795
108	-34040.05278	-10852.10721	-39307.93426	-50034.55878	-70900.38161	-187500.0224	-28372.54445	-23267.87541
109	-33909.40683	-10213.24965	-39395.30723	-50106.44199	-71307.47393	-187500.0224	-28462.62198	-23321.67605
110	-34010.8614	-9915.904393	-39420.36354	-50145.69165	-71574.06319	-187500.0224	-28496.17195	-23368.03357
111	-34237.21751	-10811.20352	-39265.4436	-50024.50049	-71412.63889	-187500.0224	-28355.53477	-23290.8977
112	-34148.36933	-11161.16478	-39256.52525	-50005.81443	-70963.63705	-187500.0224	-28344.76123	-23257.63831
113	-34019.28801	-10840.77487	-39310.39295	-50048.68508	-70837.46145	-187500.0224	-28385.46376	-23282.71696
114	-33899.28149	-10189.5568	-39402.95153	-50123.76459	-71262.16695	-187500.0224	-28473.41787	-23337.65755
115	-34023.98187	-9930.567137	-39411.82517	-50146.9657	-71546.12351	-187500.0224	-28488.88528	-23367.29596
116	-34242.69369	-10844.08293	-39251.09378	-50015.96213	-71417.93626	-187500.0224	-28335.28409	-23278.31367
117	-34147.34115	-11169.7702	-39256.10057	-50011.33531	-71002.99847	-187500.0224	-28335.26174	-23257.30303
118	-34023.80306	-10827.94497	-39328.09553	-50062.69962	-70901.14157	-187500.0224	-28395.6338	-23291.81412
119	-33909.92092	-10172.54712	-39430.1536	-50141.8248	-71322.60607	-187500.0224	-28482.69385	-23350.73332
120	-34027.78167	-9949.342602	-39422.44225	-50143.1659	-71591.05052	-187500.0224	-28484.95138	-23363.92085
121	-34246.04645	-10863.48425	-39275.90421	-50017.66086	-71421.35607	-187500.0224	-28342.3696	-23282.67226
122	-34142.37906	-11149.43011	-39282.40857	-50006.6638	-70969.89554	-187500.0224	-28331.66311	-23261.90749
123	-34020.58441	-10807.60489	-39342.3783	-50044.4606	-70880.26504	-187500.0224	-28378.71353	-23288.70723
124	-33915.86648	-10165.90865	-39448.6832	-50117.01436	-71346.96947	-187500.0224	-28485.24195	-23337.18816
125	-34039.40458	-9982.490239	-39451.94655	-50127.40792	-71618.05142	-187500.0224	-28489.60054	-23356.74594
126	-34248.92983	-10894.44141	-39308.02367	-50012.4529	-71413.28709	-187500.0224	-28344.62712	-23281.84525
127	-34146.08945	-11146.0997	-39313.5222	-50006.84261	-70941.28531	-187500.0224	-28344.67183	-23262.28747
128	-34037.2141	-10809.95182	-39373.80485	-50048.14864	-70881.15911	-187500.0224	-28400.84176	-23290.27185
129	-33942.3533	-10177.12923	-39472.3984	-50128.12318	-71373.85862	-187500.0224	-28501.40226	-23351.62739
130	-34072.46281	-10036.73792	-39450.96307	-50129.93367	-71658.10575	-187500.0224	-28491.41103	-23364.79257
131	-34246.47114	-10931.3665	-39296.31135	-50003.40045	-71438.05283	-187500.0224	-28336.78166	-23276.70434
132	-34124.58707	-11142.05404	-39299.86528	-50001.61231	-70961.96067	-187500.0224	-28331.99839	-23262.39923
133	-34015.75643	-10799.11122	-39361.46669	-50051.97079	-70920.74405	-187500.0224	-28390.4035	-23299.90546
134	-33910.65853	-10146.03795	-39454.67346	-50124.63631	-71408.16854	-187500.0224	-28486.42659	-23350.73332
135	-34053.57558	-10034.16747	-39442.42471	-50132.81705	-71671.85207	-187500.0224	-28483.61027	-23372.48157
136	-34234.80353	-10943.68231	-39300.75935	-50021.21479	-71439.99743	-187500.0224	-28339.8215	-23298.43024
137	-34118.17212	-11132.48749	-39312.2258	-50020.11955	-70959.8149	-187500.0224	-28339.55328	-23278.20191
138	-33990.49896	-10753.58072	-39350.89431	-50047.0087	-70922.91217	-187500.0224	-28375.94192	-23291.68001
139	-33890.4302	-10079.94385	-39448.28086	-50119.80833	-71392.05294	-187500.0224	-28482.04565	-23342.01614
140	-34050.73691	-10018.92358	-39444.77164	-50126.71502	-71644.29237	-187500.0224	-28495.07672	-23366.42425
141	-34224.2535	-10936.75327	-39304.29093	-50018.75609	-71410.73899	-187500.0224	-28342.74958	-23293.84813
142	-34113.38885	-11107.18532	-39326.15093	-50028.61321	-70934.28921	-187500.0224	-28355.73594	-23280.5712
143	-33999.73023	-10739.72264	-39372.86608	-50053.78128	-70925.2144	-187500.0224	-28395.27618	-23293.08817
144	-33888.66441	-10059.08967	-39454.98639	-50116.67909	-71418.78562	-187500.0224	-28477.19532	-23332.91898
145	-34055.67665	-10026.12084	-39429.10307	-50114.86859	-71647.46632	-187500.0224	-28462.62198	-23347.42526
146	-34221.23602	-10954.76877	-39273.02084	-49992.09046	-71401.8877	-187500.0224	-28317.4474	-23259.31469
147	-34113.00887	-11110.98511	-39299.55236	-50011.40237	-70940.16772	-187500.0224	-28342.16843	-23258.59943
148	-34011.53195	-10737.19689	-39355.74464	-50043.56653	-70949.93543	-187500.0224	-28393.77861	-23281.62173
149	-33901.82959	-10052.51825	-39442.67058	-50100.42937	-71429.64857	-187500.0224	-28476.01068	-23318.07742
150	-34084.95743	-10061.77188	-39418.70951	-50098.26125	-71651.51199	-187500.0224	-28460.81149	-23336.67407
151	-34251.38852	-10986.50825	-39281.15687	-49989.43061	-71397.03737	-187500.0224	-28325.60579	-23258.82295
152	-34121.59194	-11102.49145	-39294.72438	-49997.09725	-70937.59727	-187500.0224	-28335.3288	-23243.55671
153	-34004.75937	-10734.11235	-39344.63583	-50033.86587	-70974.70116	-187500.0224	-28382.62509	-23265.77434
154	-33913.27368	-10067.29276	-39446.00099	-50118.66839	-71472.02748	-187500.0224	-28490.11463	-23325.81113
155	-34083.97395	-10102.87674	-39404.5385	-50098.26125	-71681.06099	-187500.0224	-28451.13319	-23322.16779
156	-34229.43911	-11009.57525	-39271.47857	-49987.95539	-71422.04898	-187500.0224	-28314.42992	-23243.73552
157	-34097.40735	-11094.55658	-39305.09559	-50011.78235	-70972.46599	-187500.0224	-28340.76027	-23246.12716
158	-33999.17144	-10711.55944	-39358.71742	-50061.96202	-71027.74185	-187500.0224	-28385.82139	-23280.6606
159	-33907.39517	-10036.06737	-39444.70459	-50133.21938	-71515.43456	-187500.0224	-28470.5792	-23331.39906
160	-34091.88647	-10124.53558	-39394.32375	-50107.02313	-71715.54973	-187500.0224	-28435.66578	-23332.94133
161	-34221.0572	-11030.47413	-39252.85956	-49990.0341	-71443.03726	-187500.0224	-28293.84396	-23245.16603
162	-34090.43361	-11095.27184	-39286.40953	-50010.21773	-70983.55245	-187500.0224	-28309.02079	-23246.84241
163	-33978.67489	-10705.70328	-39344.25585	-50046.62872	-71062.43176	-187500.0224	-28363.44729	-23273.73156
164	-33878.40496	-10014.0509	-39435.87565	-50118.51193	-71545.05063	-187500.0224	-28457.72695	-23323.21832
165	-34078.56483	-10132.29163	-39395.32958	-50097.99303	-71715.84031	-187500.0224	-28423.86406	-23328.89567
166	-34207.13207	-11032.93282	-39259.96742	-49990.41408	-71426.8099	-187500.0224	-28296.2356	-23251.37982
167	-34080.82236	-11077.43515	-39291.1034	-50018.59963	-70987.77693	-187500.0224	-28332.19955	-23260.94636
168	-33970.53885	-10667.68297	-39344.74758	-50058.45279	-71074.68052	-187500.0224	-28382.28981	-23291.76942
169	-33882.47298	-9978.623388	-39431.47235	-50129.41958	-71563.33435	-187500.0224	-28473.0826	-23340.51857
170	-34083.07988	-10138.2819	-39380.1751	-50096.09313	-71728.11141	-187500.0224	-28421.53948	-23333.41072
171	-34214.50814	-11044.98041	-39269.86924	-49999.06421	-71440.19859	-187500.0224	-28300.03539	-23263.71798
172	-34081.58232	-11067.55567	-39302.6816	-50021.55006	-71005.43481	-187500.0224	-28323.99646	-23262.53334
173	-33985.8945	-10671.46041	-39373.35782	-50077.69764	-71126.24599	-187500.0224	-28395.32088	-23304.42051
174	-33909.20566	-9998.315275	-39473.31482	-50159.39327	-71604.93095	-187500.0224	-28499.52471	-23360.16576
175	-34109.07496	-10188.14864	-39389.67459	-50108.45364	-71744.04821	-187500.0224	-28423.05939	-23336.53996
176	-34230.6461	-11085.10179	-39268.34932	-50003.55691	-71447.48526	-187500.0224	-28302.47173	-23258.1524
177	-34094.36752	-11079.3574	-39310.3259	-50027.58503	-71018.33177	-187500.0224	-28333.04892	-23259.76172
178	-33988.26378	-10656.23887	-39373.67074	-50073.51787	-71142.13808	-187500.0224	-28385.41906	-23293.06582
179	-33919.15219	-9984.859524	-39474.9465	-50153.17948	-71627.46151	-187500.0224	-28489.19821	-23353.97432
180	-34142.40141	-10243.82684	-39410.84169	-50119.16013	-71790.65159	-187500.0224	-28436.5375	-23353.08026
181	-34233.82005	-11106.44771	-39274.5184	-50005.3227	-71482.75631	-187500.0224	-28300.37067	-23261.63927
182	-34083.43751	-11056.53626	-39303.73213	-50021.3489	-71056.17327	-187500.0224	-28315.34634	-23254.75493
183	-33975.92562	-10626.80163	-39365.86998	-50067.99699	-71208.09808	-187500.0224	-28371.49392	-23292.37292
184	-33907.46223	-9953.678841	-39461.37899	-50149.78202	-71690.22521	-187500.0224	-28473.66374	-23354.86839
185	-34125.45879	-10242.95512	-39380.19745	-50098.52947	-71826.92848	-187500.0224	-28411.68236	-23335.91412
186	-34227.13688	-11116.90833	-39261.88967	-50002.05934	-71519.90491	-187500.0224	-28288.5466	-23264.18737
187	-34077.93898	-11054.30109	-39292.51156	-50022.60059	-71101.77083	-187500.0224	-28314.87695	-23262.13101
188	-33963.49805	-10609.14375	-39353.62123	-50065.82887	-71255.55083	-187500.0224	-28371.67273	-23291.74707
189	-33894.76644	-9931.908242	-39440.54716	-50144.64112	-71723.79753	-187500.0224	-28467.85229	-23349.68279
190	-34118.03801	-10256.29911	-39352.03425	-50088.44883	-71848.20734	-187500.0224	-28391.47638	-23323.86653
191	-34205.88037	-11111.29804	-39252.88191	-50005.09918	-71530.5667	-187500.0224	-28293.93337	-23259.71702
192	-34060.30346	-11037.1126	-39303.10628	-50037.44215	-71125.26251	-187500.0224	-28337.25105	-23267.87541
193	-33941.25807	-10585.02621	-39366.42878	-50082.2574	-71313.15128	-187500.0224	-28399.09832	-23298.43024
194	-33883.16588	-9913.199832	-39457.62389	-50162.14253	-71779.76629	-187500.0224	-28488.84058	-23356.63418
195	-34127.58221	-10281.93656	-39364.23831	-50106.33023	-71886.31706	-187500.0224	-28397.01961	-23334.81888
196	-34204.51691	-11127.45835	-39252.50194	-50011.33531	-71553.79016	-187500.0224	-28287.83134	-23260.11935
197	-34065.91374	-11043.01346	-39301.76518	-50044.59471	-71155.54913	-187500.0224	-28328.82444	-23271.74226
198	-33973.24341	-10599.91248	-39378.00698	-50102.64219	-71360.2017	-187500.0224	-28400.6853	-23316.75867
199	-33919.68863	-9944.112294	-39454.11467	-50170.21151	-71826.6379	-187500.0224	-28487.07479	-23362.53504
200	-34158.22645	-10341.74983	-39351.18489	-50104.36328	-71920.24701	-187500.0224	-28396.25965	-23331.2426
201	-34225.72872	-11158.34846	-39247.02576	-50013.23521	-71577.93004	-187500.0224	-28288.01015	-23256.58777
202	-34080.91177	-11048.26612	-39299.23943	-50043.03009	-71185.85809	-187500.0224	-28327.46098	-23264.79086
203	-33974.67392	-10586.52378	-39373.62604	-50092.5392	-71401.39596	-187500.0224	-28395.61145	-23302.40885
204	-33927.60115	-9925.672105	-39456.17103	-50164.60123	-71852.74474	-187500.0224	-28487.36536	-23358.44467
205	-34155.56659	-10351.47284	-39341.01484	-50081.09511	-71926.05846	-187500.0224	-28377.57359	-23316.60221
206	-34205.25452	-11154.66042	-39239.2697	-49993.94566	-71579.36055	-187500.0224	-28271.08988	-23249.50227
207	-34066.11491	-11035.12329	-39300.64759	-50035.65401	-71204.92413	-187500.0224	-28325.15875	-23268.45655
208	-33956.4796	-10575.75024	-39360.23734	-50080.40221	-71445.4736	-187500.0224	-28371.80684	-23297.06678
209	-33916.71585	-9930.924765	-39441.6871	-50152.77715	-71901.33743	-187500.0224	-28461.34793	-23351.69445
210	-34159.05346	-10397.36097	-39324.4522	-50073.2273	-71971.87954	-187500.0224	-28347.86813	-23312.78006
211	-34189.87652	-11161.25419	-39223.71289	-49988.49183	-71606.22735	-187500.0224	-28243.21726	-23243.10967
212	-34040.9692	-11008.59177	-39277.42413	-50021.84063	-71234.27197	-187500.0224	-28282.51163	-23259.42645
213	-33935.98305	-10533.5725	-39361.66785	-50080.29045	-71495.69797	-187500.0224	-28362.53087	-23305.73926
214	-33902.6566	-9896.883058	-39453.06414	-50154.78881	-71941.70468	-187500.0224	-28461.23617	-23362.35623
215	-34140.65798	-10392.13066	-39326.28504	-50072.40028	-71980.39555	-187500.0224	-28353.85839	-23320.87139
216	-34171.23516	-11144.0657	-39243.36007	-49995.48793	-71605.31093	-187500.0224	-28261.16571	-23254.66552
217	-34019.06449	-10980.11565	-39288.35413	-50021.84063	-71246.09604	-187500.0224	-28294.9392	-23259.26998
218	-33906.4564	-10494.85928	-39362.65133	-50076.49065	-71516.90978	-187500.0224	-28363.38024	-23297.69263
219	-33887.68093	-9879.403994	-39459.34498	-50157.76159	-71962.49181	-187500.0224	-28465.81828	-23360.03165
220	-34145.59771	-10436.05184	-39371.41322	-50085.16313	-72009.25166	-187500.0224	-28368.25292	-23326.52638
221	-34162.11565	-11159.5331	-39268.0811	-50001.5229	-71629.33905	-187500.0224	-28265.43489	-23254.12908
222	-34021.94786	-10963.73182	-39305.45322	-50036.54808	-71277.27673	-187500.0224	-28309.57959	-23268.97064
223	-33912.71489	-10462.82923	-39379.19162	-50085.05137	-71556.58413	-187500.0224	-28380.07699	-23303.61584
224	-33899.59441	-9860.717936	-39450.85132	-50146.45161	-71991.61613	-187500.0224	-28452.18372	-23349.1687
225	-34175.37024	-10458.29182	-39348.83795	-50078.23409	-72026.4625	-187500.0224	-28353.43371	-23319.99967
226	-34182.09811	-11169.1667	-39258.58161	-49992.6269	-71620.77834	-187500.0224	-28269.34645	-23242.37206
227	-34044.54548	-10990.46451	-39310.43766	-50027.87561	-71282.61879	-187500.0224	-28309.02079	-23257.01246
228	-33946.1978	-10498.3685	-39395.5978	-50089.56642	-71592.21281	-187500.0224	-28376.47836	-23306.47687
229	-33944.2532	-9917.938401	-39476.3323	-50158.87918	-72022.99798	-187500.0224	-28461.97378	-23364.502
230	-34190.61413	-10522.44133	-39330.06249	-50057.2905	-72025.63548	-187500.0224	-28339.03919	-23308.66734
231	-34181.74048	-11195.60882	-39241.46017	-49979.41702	-71616.93384	-187500.0224	-28234.05304	-23241.94738
232	-34036.58826	-10978.77455	-39297.74187	-50017.63851	-71288.07262	-187500.0224	-28277.23661	-23262.37688
233	-33914.97241	-10455.63197	-39373.51428	-50065.56065	-71603.79101	-187500.0224	-28351.75733	-23297.04443
234	-33904.26593	-9883.136735	-39437.61908	-50125.7986	-72031.67045	-187500.0224	-28424.31109	-23344.76541
235	-34159.65696	-10521.86018	-39305.67674	-50037.64332	-72033.97268	-187500.0224	-28306.40564	-23297.49147
236	-34149.08459	-11160.20365	-39235.13463	-49973.13618	-71613.33521	-187500.0224	-28227.7722	-23236.31474
237	-34016.24817	-10945.98454	-39299.12767	-50018.1526	-71300.54489	-187500.0224	-28281.63991	-23261.59457
238	-33902.50014	-10423.44545	-39379.50455	-50073.54022	-71621.89592	-187500.0224	-28361.25682	-23303.19116
239	-33907.28341	-9872.609064	-39424.05157	-50126.55856	-72030.21759	-187500.0224	-28423.23821	-23347.20175
240	-34151.67739	-10537.97579	-39282.27446	-50023.22644	-72019.33229	-187500.0224	-28278.22009	-23288.88605
241	-34142.71434	-11166.84212	-39237.03453	-49975.52782	-71608.59664	-187500.0224	-28224.03946	-23241.05331
242	-34005.0723	-10930.62889	-39302.18986	-50019.60546	-71310.31261	-187500.0224	-28276.61077	-23264.76851
243	-33880.1484	-10380.41835	-39379.39279	-50071.34975	-71642.52658	-187500.0224	-28341.18495	-23304.86754
244	-33899.25914	-9847.932738	-39441.59769	-50130.73833	-72049.35068	-187500.0224	-28410.18479	-23354.51077
245	-34142.9155	-10542.02146	-39300.42408	-50022.53354	-72016.09129	-187500.0224	-28282.57868	-23289.6013
246	-34114.23822	-11130.00645	-39244.05298	-49967.66001	-71576.90186	-187500.0224	-28220.57494	-23232.93963
247	-33993.6282	-10905.34906	-39321.94881	-50018.53258	-71297.23684	-187500.0224	-28287.67488	-23260.38757
248	-33899.08032	-10368.92955	-39416.94372	-50091.64513	-71656.80935	-187500.0224	-28380.00993	-23315.41757
249	-33935.58072	-9857.432229	-39456.05927	-50141.26601	-72047.33903	-187500.0224	-28443.623	-23353.32612
250	-34188.71423	-10584.78035	-39314.23745	-50030.31195	-72001.92028	-187500.0224	-28307.72439	-23277.82193
251	-34153.82316	-11154.57102	-39251.69727	-49979.12645	-71565.07779	-187500.0224	-28238.79161	-23222.85899
252	-34019.91385	-10900.25287	-39304.22387	-50015.6939	-71292.20769	-187500.0224	-28290.24533	-23242.72969
253	-33912.8043	-10349.90821	-39382.52203	-50070.90271	-71658.99982	-187500.0224	-28355.73594	-23284.39334
254	-33951.13754	-9875.023052	-39437.12734	-50125.17275	-72061.1077	-187500.0224	-28418.85727	-23334.19303
255	-34189.69771	-10622.95713	-39290.43285	-50015.31393	-71992.64431	-187500.0224	-28272.43099	-23269.57414
0	-34151.94561	-11162.14826	-39246.51167	-49973.11383	-71533.83005	-187500.0224	-28219.3456	-23227.75402
1	-34018.86332	-10893.72616	-39299.66412	-50005.74738	-71277.18732	-187500.0224	-28264.49612	-23250.86573
2	-33907.7528	-10340.38637	-39375.43653	-50059.07864	-71670.60038	-187500.0224	-28344.53772	-23292.97641
3	-33951.27165	-9890.177535	-39429.57245	-50110.24178	-72067.18738	-187500.0224	-28410.3189	-23341.16678
4	-34186.09907	-10656.46239	-39284.37552	-50002.57343	-71990.99028	-187500.0224	-28255.9801	-23280.54884
5	-34122.91069	-11148.6478	-39245.34938	-49954.22661	-71520.08373	-187500.0224	-28197.86557	-23231.53147
6	-33987.7944	-10869.47451	-39297.80892	-49993.90095	-71272.60521	-187500.0224	-28250.05689	-23256.47602
7	-33872.88408	-10313.229	-39372.95549	-50054.96592	-71679.2505	-187500.0224	-28336.78166	-23302.25239
8	-33925.45538	-9891.071605	-39428.38781	-50105.88319	-72065.19807	-187500.0224	-28395.61145	-23350.53216
9	-34163.50146	-10670.32047	-39284.42023	-49998.3266	-71962.00007	-187500.0224	-28259.10935	-23288.19314
10	-34089.22661	-11128.24066	-39250.31146	-49954.15955	-71478.62124	-187500.0224	-28211.34367	-23238.9299
11	-33951.00343	-10840.12667	-39303.24039	-49991.95635	-71247.05717	-187500.0224	-28255.46601	-23261.59457
12	-33845.81612	-10281.28836	-39395.26253	-50060.62091	-71678.37878	-187500.0224	-28344.47066	-23313.16004
13	-33904.22123	-9871.737346	-39429.70657	-50105.59262	-72051.94349	-187500.0224	-28393.77861	-23353.39318
14	-34125.68231	-10667.30299	-39279.99458	-49992.11281	-71935.89323	-187500.0224	-28251.80033	-23280.50414
15	-34074.80974	-11122.45156	-39272.21617	-49974.07496	-71463.3103	-187500.0224	-28235.99765	-23249.74814
16	-33959.6312	-10841.22191	-39334.55519	-50019.62781	-71255.64024	-187500.0224	-28278.3542	-23270.78113
17	-33866.42443	-10278.38263	-39424.43155	-50090.50519	-71688.41472	-187500.0224	-28375.38312	-23312.69065
18	-33946.37662	-9901.755738	-39451.47716	-50130.31365	-72057.822	-187500.0224	-28410.49771	-23344.43013
19	-34177.60541	-10719.78488	-39299.4406	-50020.61129	-71920.91756	-187500.0224	-28262.59622	-23271.51874
20	-34110.37136	-11149.74304	-39283.61556	-49997.18666	-71433.31426	-187500.0224	-28237.3611	-23231.55382
21	-33998.00915	-10857.78455	-39333.72817	-50032.99416	-71252.57805	-187500.0224	-28291.1394	-23248.29528
22	-33891.19016	-10262.26702	-39419.69298	-50099.75882	-71694.51674	-187500.0224	-28380.41227	-23295.68098
23	-33976.3503	-9919.860651	-39441.82121	-50141.24365	-72051.18353	-187500.0224	-28426.36745	-23336.76348
24	-34207.64616	-10753.87129	-39295.57375	-50031.36248	-71892.19557	-187500.0224	-28272.14042	-23269.01534
25	-34129.86209	-11143.19398	-39280.75454	-50005.47916	-71395.85273	-187500.0224	-28247.26292	-23231.3303
26	-34009.63205	-10847.56981	-39330.62128	-50042.29248	-71218.08931	-187500.0224	-28285.95379	-23251.91626
27	-33892.82184	-10245.99495	-39396.91656	-50099.49059	-71660.54209	-187500.0224	-28364.81075	-23294.18341
28	-33971.72349	-9929.807178	-39422.03992	-50126.84913	-72003.70842	-187500.0224	-28401.40055	-23325.98994
29	-34187.35077	-10776.29009	-39278.04998	-50012.98934	-71825.49796	-187500.0224	-28265.50195	-23251.89391
30	-34102.81647	-11132.48749	-39265.35419	-49994.97384	-71315.87819	-187500.0224	-28249.16282	-23221.92022
31	-33987.72734	-10825.39687	-39324.47455	-50037.97859	-71159.28187	-187500.0224	-28297.80022	-23248.40704
32	-33881.69067	-10222.52562	-39425.34797	-50112.3652	-71622.29826	-187500.0224	-28394.248	-23304.06288
33	-33974.15983	-9937.27266	-39433.19344	-50135.83453	-71960.70367	-187500.0224	-28418.36553	-23335.40003
34	-34185.24971	-10796.2055	-39273.84785	-50020.32072	-71777.55347	-187500.0224	-28274.30854	-23261.61692
35	-34092.60173	-11124.68673	-39264.70599	-50010.17302	-71278.30491	-187500.0224	-28262.12683	-23238.30405
36	-33974.9645	-10812.94695	-39336.5892	-50059.81625	-71149.13418	-187500.0224	-28318.63204	-23274.35741
37	-33862.75874	-10201.38087	-39428.47722	-50126.89383	-71618.36435	-187500.0224	-28411.6153	-23321.29607
38	-33961.86637	-9940.223091	-39441.93297	-50145.37873	-71953.17113	-187500.0224	-28431.57541	-23349.72749
39	-34171.05635	-10792.18218	-39285.38135	-50027.62974	-71759.985	-187500.0224	-28285.61852	-23274.20095
40	-34074.83209	-11084.78887	-39274.63016	-50012.89994	-71258.3448	-187500.0224	-28257.92471	-23245.76953
41	-33965.95674	-10771.57387	-39331.00126	-50049.15447	-71155.34796	-187500.0224	-28304.39398	-23268.14363
42	-33864.90451	-10163.2935	-39431.47235	-50125.21745	-71647.75689	-187500.0224	-28410.65418	-23322.79364
43	-34001.18309	-9960.160847	-39454.87463	-50154.72176	-71964.92815	-187500.0224	-28440.09142	-23361.50686
44	-34218.21853	-10847.83803	-39311.04115	-50041.75604	-71754.77704	-187500.0224	-28302.87406	-23287.14261
45	-34113.47826	-11120.57401	-39295.12671	-50025.70749	-71250.6111	-187500.0224	-28280.16469	-23257.01246
46	-34003.30651	-10803.02278	-39343.92057	-50065.94063	-71167.86494	-187500.0224	-28315.97219	-23284.01336
47	-33896.46517	-10179.25265	-39430.91356	-50136.23686	-71656.02704	-187500.0224	-28406.22853	-23335.19886
48	-34024.27244	-9998.427033	-39441.86591	-50152.21836	-71964.32465	-187500.0224	-28425.83101	-23361.75273
49	-34212.27297	-10875.93417	-39290.74577	-50027.54033	-71744.83052	-187500.0224	-28278.86829	-23275.63146
50	-34094.61338	-11102.60321	-39275.1219	-50008.72016	-71236.50715	-187500.0224	-28254.92957	-23238.86284
51	-33976.77499	-10766.29886	-39325.1451	-50043.07479	-71165.20508	-187500.0224	-28298.38136	-23260.18641
52	-33875.43218	-10141.03116	-39430.57828	-50123.02698	-71669.43808	-187500.0224	-28404.23923	-23324.1571
53	-34015.59997	-9994.224905	-39430.08654	-50134.91811	-71963.6541	-187500.0224	-28412.33056	-23348.76637
54	-34199.35366	-10890.06047	-39282.94501	-50015.6939	-71732.20178	-187500.0224	-28264.09379	-23262.89097
55	-34083.75044	-11103.20671	-39292.66802	-50010.06127	-71231.478	-187500.0224	-28260.89749	-23242.19325
56	-33976.2609	-10763.34843	-39350.38022	-50053.58011	-71178.3032	-187500.0224	-28303.09758	-23273.91038
57	-33860.50121	-10107.68236	-39431.85233	-50114.68978	-71669.50514	-187500.0224	-28388.97298	-23313.07063
58	-33997.13743	-9984.121917	-39399.73288	-50113.81806	-71945.05745	-187500.0224	-28381.06047	-23325.18528
59	-34179.55001	-10888.5629	-39265.73417	-50004.1604	-71703.43509	-187500.0224	-28246.68178	-23251.1563
60	-34060.70579	-11080.43028	-39282.34151	-50005.9709	-71210.9144	-187500.0224	-28252.64969	-23237.14176
61	-33944.2532	-10721.70713	-39340.03137	-50043.8124	-71179.48785	-187500.0224	-28304.52809	-23262.66745
62	-33853.79569	-10084.70477	-39440.56951	-50127.16205	-71694.06971	-187500.0224	-28406.85438	-23323.53125
63	-34009.83322	-10003.29971	-39425.50444	-50133.97934	-71967.83387	-187500.0224	-28400.77471	-23343.78193
64	-34185.89791	-10904.00796	-39280.79924	-50020.85716	-71718.96955	-187500.0224	-28256.04716	-23264.72381
65	-34072.66397	-11075.42349	-39298.03244	-50026.71331	-71230.76275	-187500.0224	-28258.4388	-23250.93278
66	-33969.60008	-10728.59147	-39349.32969	-50064.64423	-71224.25839	-187500.0224	-28303.54462	-23279.9677
67	-33868.57019	-10079.65327	-39433.41695	-50129.95602	-71729.69839	-187500.0224	-28393.13041	-23324.8053
68	-34043.22672	-10051.02069	-39419.67063	-50133.39819	-71977.55688	-187500.0224	-28387.92245	-23344.38543
69	-34214.44109	-10965.16233	-39282.34151	-50018.39847	-71706.83255	-187500.0224	-28249.83338	-23263.87444
70	-34095.59686	-11112.7062	-39304.87207	-50027.80855	-71217.21759	-187500.0224	-28261.18806	-23254.3973
71	-33992.57767	-10752.95487	-39354.96233	-50067.37114	-71221.73264	-187500.0224	-28314.78754	-23283.23105
72	-33887.07744	-10085.04004	-39441.0389	-50129.91132	-71726.85972	-187500.0224	-28404.5298	-23324.51473
73	-34053.01679	-10074.11004	-39418.88832	-50121.50706	-71959.22845	-187500.0224	-28385.24024	-23335.46708
74	-34214.12816	-10990.71038	-39280.8216	-50011.1565	-71689.04056	-187500.0224	-28246.39121	-23258.10769
75	-34085.11389	-11104.88309	-39306.30258	-50024.79106	-71216.25647	-187500.0224	-28263.98203	-23250.70927
76	-33974.51746	-10721.88595	-39366.49583	-50064.91245	-71245.06786	-187500.0224	-28316.41922	-23277.50901
77	-33880.39427	-10052.00416	-39456.21573	-50137.10858	-71749.88201	-187500.0224	-28417.82909	-23327.06282
78	-34045.14897	-10071.85251	-39407.86891	-50115.04741	-71966.33631	-187500.0224	-28374.51141	-23327.75573
79	-34191.03881	-10969.58798	-39268.37167	-50002.08169	-71682.84913	-187500.0224	-28230.34265	-23248.13881
80	-34058.85059	-11058.41381	-39302.34633	-50019.78427	-71206.82403	-187500.0224	-28249.83338	-23248.42939
81	-33950.89167	-10680.24465	-39365.02062	-50065.0242	-71257.45073	-187500.0224	-28304.08106	-23284.39334
82	-33861.26117	-10017.69424	-39453.8688	-50139.74609	-71765.84116	-187500.0224	-28403.05458	-23337.00935
83	-34033.9731	-10081.39671	-39407.60069	-50116.45557	-71964.65993	-187500.0224	-28362.95555	-23338.61868
84	-34174.11854	-10984.29543	-39284.64374	-50013.92812	-71671.47209	-187500.0224	-28237.83049	-23265.90845
85	-34049.41816	-11061.25248	-39319.93715	-50040.32553	-71203.51597	-187500.0224	-28266.93246	-23271.20582
86	-33947.96359	-10682.09984	-39376.71058	-50081.25157	-71274.12513	-187500.0224	-28318.78851	-23301.91711
87	-33853.37101	-10001.64568	-39470.58791	-50146.38455	-71773.70897	-187500.0224	-28427.19447	-23346.44179
88	-34043.47259	-10113.13619	-39420.40824	-50124.27868	-71961.17305	-187500.0224	-28383.3627	-23350.5098
89	-34189.87652	-11025.46734	-39292.64567	-50028.59086	-71664.74422	-187500.0224	-28246.97235	-23281.84525
90	-34061.5328	-11060.55958	-39317.83608	-50038.22446	-71206.28759	-187500.0224	-28266.8207	-23269.32827
91	-33957.99952	-10657.55763	-39372.95549	-50069.00282	-71289.0561	-187500.0224	-28313.13352	-23287.25437
92	-33874.49341	-9983.764289	-39465.69287	-50149.58085	-71767.80811	-187500.0224	-28410.54242	-23341.94909
93	-34088.66782	-10149.01074	-39410.34995	-50127.67614	-71938.7766	-187500.0224	-28364.58723	-23344.676
94	-34222.57712	-11057.60915	-39275.23366	-50020.34307	-71647.13104	-187500.0224	-28234.09775	-23265.86375
95	-34073.20041	-11064.49349	-39299.75352	-50030.71428	-71198.8221	-187500.0224	-28248.82755	-23254.66552
96	-33963.45335	-10650.00274	-39362.15959	-50075.35071	-71302.37774	-187500.0224	-28304.25987	-23287.6567
97	-33884.77521	-9981.462059	-39460.70843	-50153.67122	-71789.60106	-187500.0224	-28405.44622	-23344.58659
98	-34096.71445	-10179.11854	-39397.76592	-50114.44391	-71948.90195	-187500.0224	-28355.17715	-23336.42821
99	-34205.76861	-11065.924	-39272.88673	-50005.70268	-71639.53145	-187500.0224	-28231.32613	-23252.83268
100	-34058.67178	-11048.93667	-39306.45905	-50025.48397	-71183.46646	-187500.0224	-28258.4388	-23248.29528
101	-33958.60302	-10641.57613	-39374.36365	-50080.78218	-71313.26304	-187500.0224	-28319.92845	-23293.04347
102	-33894.2747	-9967.492219	-39473.60539	-50165.76352	-71801.20162	-187500.0224	-28421.51712	-23357.37179
103	-34103.26351	-10190.13795	-39386.83592	-50107.96191	-71939.55892	-187500.0224	-28346.19175	-23332.18137
104	-34197.09613	-11064.91817	-39252.77016	-49997.32077	-71613.98341	-187500.0224	-28215.29993	-23251.33511
105	-34050.80397	-11037.29141	-39293.02565	-50019.33724	-71172.91643	-187500.0224	-28234.7236	-23249.2564
106	-33946.35426	-10622.39833	-39360.3491	-50072.42263	-71318.91803	-187500.0224	-28296.68263	-23288.12609
107	-33877.39913	-9944.760495	-39455.56753	-50155.88405	-71794.71961	-187500.0224	-28399.72417	-23352.76733
108	-34088.06432	-10199.43627	-39371.05559	-50102.50808	-71912.26744	-187500.0224	-28327.30452	-23330.84027
109	-34186.70257	-11065.40991	-39254.84887	-50002.57343	-71575.09137	-187500.0224	-28213.98118	-23252.72092
110	-34039.78456	-11025.84732	-39298.1889	-50028.41205	-71149.71532	-187500.0224	-28250.54863	-23255.89487
111	-33937.36886	-10600.13599	-39371.16735	-50082.9503	-71308.09978	-187500.0224	-28318.14031	-23295.36805
112	-33887.30095	-9935.439817	-39475.6841	-50174.99479	-71792.55149	-187500.0224	-28424.17698	-23366.4466
113	-34116.04871	-10238.52947	-39390.94864	-50122.02115	-71901.40449	-187500.0224	-28352.56199	-23346.79941
114	-34198.34783	-11089.37098	-39262.22494	-50013.72695	-71546.25762	-187500.0224	-28219.3456	-23257.28068
115	-34051.34041	-11020.95229	-39297.74187	-50036.32456	-71122.4909	-187500.0224	-28247.35233	-23257.95123
116	-33934.57489	-10570.87756	-39351.05078	-50074.97073	-71291.31362	-187500.0224	-28310.78658	-23286.02502
117	-33879.29903	-9907.723654	-39444.61518	-50153.78298	-71762.89073	-187500.0224	-28404.19452	-23345.86064
118	-34125.77172	-10263.33991	-39357.1081	-50102.91041	-71872.7272	-187500.0224	-28320.599	-23326.057
119	-34223.18062	-11110.24751	-39251.31729	-50023.13704	-71521.04485	-187500.0224	-28215.34463	-23262.62275
120	-34074.29565	-11028.48482	-39287.16949	-50045.8017	-71108.94574	-187500.0224	-28234.47773	-23263.78504
121	-33952.70216	-10569.20118	-39349.32969	-50085.27489	-71298.0415	-187500.0224	-28287.96545	-23294.38457
122	-33903.77419	-9912.931611	-39447.54326	-50166.50112	-71766.01997	-187500.0224	-28392.10223	-23357.43885
123	-34142.55788	-10307.46225	-39351.74368	-50103.58096	-71856.32102	-187500.0224	-28311.14421	-23328.78391
124	-34210.84246	-11142.9034	-39246.60107	-50012.38585	-71502.93994	-187500.0224	-28198.51377	-23257.30303
125	-34069.15475	-11043.97458	-39309.09655	-50050.27205	-71106.41999	-187500.0224	-28238.6575	-23273.68686
126	-33956.14433	-10576.77842	-39376.55412	-50097.88127	-71307.83156	-187500.0224	-28299.78952	-23308.48852
127	-33891.86071	-9912.752797	-39455.38872	-50159.30386	-71761.70609	-187500.0224	-28381.82043	-23352.47676
128	-34125.81642	-10328.47289	-39347.69801	-50085.07372	-71830.84003	-187500.0224	-28286.75846	-23315.79755
129	-34178.41007	-11129.80528	-39241.34841	-49990.21292	-71458.50467	-187500.0224	-28181.03471	-23233.94546
130	-34039.22576	-11011.29633	-39293.22681	-50027.92031	-71065.06927	-187500.0224	-28223.59243	-23249.83755
131	-33940.22989	-10546.24594	-39359.34327	-50076.93768	-71286.26213	-187500.0224	-28287.85369	-23286.80733
132	-33902.88012	-9905.466128	-39452.5277	-50156.10756	-71743.46706	-187500.0224	-28387.8554	-23347.35821
133	-34150.69391	-10366.38145	-39343.78646	-50083.93378	-71803.88383	-187500.0224	-28290.15592	-23313.80824
134	-34193.74337	-11147.79844	-39245.52819	-49999.75711	-71427.70397	-187500.0224	-28191.1824	-23244.51783
135	-34057.48714	-11014.98437	-39310.72823	-50047.6569	-71048.12664	-187500.0224	-28249.85573	-23270.26704
136	-33943.49324	-10545.50833	-39371.05559	-50090.81812	-71290.03957	-187500.0224	-28300.32597	-23301.51478
137	-33902.45544	-9897.93359	-39450.00195	-50160.93554	-71731.37477	-187500.0224	-28377.68535	-23355.69541
138	-34149.8669	-10390.63309	-39335.65042	-50081.67625	-71779.31926	-187500.0224	-28276.49901	-23312.28832
139	-34183.9086	-11152.31349	-39241.99662	-49999.5783	-71399.60783	-187500.0224	-28176.51965	-23242.03679
140	-34043.11497	-10998.77936	-39299.35119	-50043.18655	-71034.73795	-187500.0224	-28227.88396	-23263.58387
141	-33931.33389	-10514.52881	-39371.97201	-50097.65775	-71295.11342	-187500.0224	-28295.74386	-23308.64499
142	-33916.22411	-9898.604142	-39461.84837	-50180.33685	-71748.04917	-187500.0224	-28392.01282	-23379.85765
143	-34172.06218	-10434.82249	-39348.36857	-50100.94346	-71783.72255	-187500.0224	-28289.99946	-23337.65755
144	-34188.64717	-11171.89362	-39252.18901	-50012.05057	-71381.65937	-187500.0224	-28187.47201	-23253.79381
145	-34047.11593	-10996.70064	-39300.42408	-50047.72395	-71018.28706	-187500.0224	-28227.25811	-23270.46821
146	-33929.09872	-10498.52496	-39372.4861	-50092.98624	-71292.43121	-187500.0224	-28294.71568	-23306.43216
147	-33916.02295	-9894.379663	-39464.95527	-50168.35632	-71733.0735	-187500.0224	-28394.35975	-23367.7877
148	-34172.88919	-10454.91671	-39343.94292	-50078.25644	-71755.06762	-187500.0224	-28276.67782	-23321.45254
149	-34194.36922	-11168.40675	-39264.21425	-50006.12736	-71353.2056	-187500.0224	-28199.87723	-23255.55959
150	-34060.81755	-10989.54809	-39326.10623	-50053.24484	-71006.88768	-187500.0224	-28242.70317	-23281.10764
151	-33950.53404	-10494.38989	-39404.87378	-50108.07366	-71294.62168	-187500.0224	-28313.69231	-23322.41366
152	-33930.48453	-9890.222238	-39485.2283	-50168.62454	-71705.20088	-187500.0224	-28394.22564	-23365.08314
153	-34179.50531	-10471.56876	-39355.09644	-50066.20885	-71698.65181	-187500.0224	-28269.74878	-23305.5828
154	-34175.90668	-11155.55449	-39264.52717	-49984.91555	-71284.67516	-187500.0224	-28177.63724	-23234.21368
155	-34033.54842	-10952.98063	-39325.90506	-50025.34986	-70951.85768	-187500.0224	-28225.20175	-23254.73258
156	-33924.22604	-10442.53384	-39401.76688	-50077.83175	-71256.82488	-187500.0224	-28295.0286	-23292.43997
157	-33932.04915	-9873.257264	-39485.8318	-50151.14548	-71687.67711	-187500.0224	-28395.5891	-23347.80524
158	-34186.65787	-10504.96227	-39357.08575	-50057.3352	-71687.34183	-187500.0224	-28271.13459	-23294.85396
159	-34197.9902	-11186.13168	-39297.71951	-50009.34601	-71291.09011	-187500.0224	-28198.11144	-23251.93861
160	-34048.76996	-10964.53648	-39345.5746	-50046.91929	-70974.25413	-187500.0224	-28244.13368	-23270.04352
161	-33921.54383	-10421.92554	-39421.07879	-50093.52268	-71273.63339	-187500.0224	-28318.47558	-23301.53713
162	-33936.72066	-9867.490514	-39495.66656	-50162.83544	-71690.20285	-187500.0224	-28412.35291	-23361.12688
163	-34178.96887	-10515.6464	-39339.00319	-50053.26719	-71666.28649	-187500.0224	-28262.17154	-23296.95502
164	-34164.30612	-11155.12981	-39275.09955	-49992.71631	-71249.22529	-187500.0224	-28194.31164	-23241.81327
165	-34029.94979	-10931.63472	-39336.87977	-50036.30221	-70959.27846	-187500.0224	-28247.15117	-23266.28843
166	-33912.33491	-10387.90618	-39415.75908	-50096.78603	-71276.78499	-187500.0224	-28325.7399	-23313.94235
167	-33931.08802	-9847.329241	-39474.76768	-50161.31552	-71669.6169	-187500.0224	-28391.38697	-23370.96165
168	-34186.03202	-10537.57346	-39330.71069	-50055.25649	-71638.59268	-187500.0224	-28252.11325	-23308.8238
169	-34160.52868	-11155.37568	-39270.5845	-49996.40435	-71214.93771	-187500.0224	-28190.73536	-23248.54115
170	-34024.65242	-10919.00598	-39332.72235	-50042.69481	-70925.01324	-187500.0224	-28246.10063	-23271.65285
171	-33905.31646	-10368.77309	-39405.36552	-50096.56252	-71262.09989	-187500.0224	-28320.33078	-23305.98513
172	-33934.32903	-9853.632433	-39467.77159	-50155.43701	-71655.35649	-187500.0224	-28388.86123	-23354.39901
173	-34198.25842	-10586.59084	-39335.941	-50057.64813	-71615.30216	-187500.0224	-28267.40185	-23296.01625
174	-34174.02913	-11183.44947	-39284.73315	-50008.87662	-71170.21187	-187500.0224	-28218.7868	-23245.30014
175	-34032.96727	-10926.2703	-39331.62711	-50045.1088	-70889.63042	-187500.0224	-28257.12004	-23266.86958
176	-33920.22507	-10376.93147	-39415.04382	-50101.59166	-71257.0931	-187500.0224	-28323.8847	-23308.60028
177	-33953.12684	-9872.676119	-39479.75212	-50156.77812	-71627.26034	-187500.0224	-28399.88064	-23357.81882
178	-34199.2419	-10608.87553	-39330.04014	-50036.95041	-71583.49563	-187500.0224	-28251.97914	-23285.53328
179	-34154.22549	-11161.67887	-39278.74288	-49981.02635	-71131.65511	-187500.0224	-28191.42827	-23227.41875
180	-34025.39003	-10899.64937	-39348.52503	-50028.4344	-70869.82678	-187500.0224	-28248.22405	-23260.92401
181	-33914.36892	-10334.70903	-39441.48593	-50090.41579	-71244.77729	-187500.0224	-28333.04892	-23310.23196
182	-33957.53014	-9854.638261	-39500.31573	-50144.50701	-71602.3605	-187500.0224	-28388.07891	-23358.69054
183	-34198.66075	-10623.15829	-39333.30349	-50025.46162	-71551.10795	-187500.0224	-28244.4466	-23286.80733
184	-34159.76872	-11164.07051	-39298.43477	-49993.05159	-71103.93895	-187500.0224	-28210.15903	-23249.2564
185	-34030.0839	-10900.36463	-39362.83015	-50038.6715	-70873.22424	-187500.0224	-28265.81487	-23282.15817
186	-33900.95787	-10312.5808	-39441.75416	-50091.66748	-71262.63634	-187500.0224	-28347.71166	-23321.96663
187	-33955.33966	-9867.892846	-39502.5509	-50149.31263	-71615.7939	-187500.0224	-28411.45884	-23375.34259
188	-34200.31478	-10670.7228	-39335.73983	-50033.41884	-71560.13805	-187500.0224	-28255.22015	-23304.21934
189	-34142.69199	-11165.9257	-39296.37841	-49995.33147	-71097.14402	-187500.0224	-28218.80915	-23257.63831
190	-33997.91974	-10867.46286	-39342.02067	-50025.86395	-70855.67812	-187500.0224	-28256.47184	-23274.42447
191	-33865.4633	-10264.79277	-39407.82421	-50080.78218	-71237.11064	-187500.0224	-28321.04603	-23311.43896
192	-33928.51757	-9838.880281	-39449.19729	-50127.58674	-71568.92229	-187500.0224	-28378.13239	-23352.18619
193	-34176.39842	-10662.27384	-39301.89929	-50012.72112	-71507.03031	-187500.0224	-28236.7576	-23276.61494
194	-34120.31789	-11133.33686	-39271.90325	-49986.88251	-71039.9012	-187500.0224	-28202.53708	-23236.73943
195	-33994.41051	-10842.76418	-39328.9896	-50034.35761	-70817.5684	-187500.0224	-28253.43201	-23262.35452
196	-33882.87531	-10256.03089	-39418.86597	-50104.38563	-71220.86092	-187500.0224	-28341.90021	-23305.18047
197	-33957.01605	-9862.595482	-39451.9242	-50144.79758	-71556.11474	-187500.0224	-28389.7553	-23340.45152
198	-34205.56744	-10707.98316	-39307.91191	-50036.54808	-71483.02454	-187500.0224	-28246.92765	-23274.42447
199	-34136.83583	-11150.14537	-39273.57963	-50005.3674	-71003.73608	-187500.0224	-28208.63911	-23231.8891
200	-34005.74285	-10857.29281	-39326.3521	-50044.95234	-70802.99506	-187500.0224	-28256.44949	-23254.46436
201	-33896.57693	-10254.06393	-39430.89121	-50123.76459	-71226.76179	-187500.0224	-28358.21698	-23314.5235
202	-33977.08791	-9874.263093	-39459.03205	-50158.56626	-71547.68813	-187500.0224	-28399.94769	-23350.68862
203	-34212.54119	-10732.95006	-39303.10628	-50034.51407	-71455.50954	-187500.0224	-28262.14919	-23269.0377
204	-34130.44323	-11139.55064	-39285.359	-50007.13319	-70968.82265	-187500.0224	-28224.24063	-23229.81038
205	-34008.46976	-10836.0363	-39356.19168	-50054.92122	-70786.00774	-187500.0224	-28282.33281	-23263.27095
206	-33889.80435	-10221.69861	-39427.53845	-50116.38851	-71204.27593	-187500.0224	-28361.45799	-23306.96861
207	-33974.98685	-9883.695529	-39446.71624	-50145.55754	-71520.10608	-187500.0224	-28389.1518	-23336.49526
208	-34208.76374	-10765.24833	-39290.36579	-50025.81925	-71420.17143	-187500.0224	-28243.99957	-23260.56638
209	-34121.50253	-11144.73625	-39279.25697	-50007.64728	-70932.50107	-187500.0224	-28223.79359	-23232.93963
210	-33990.56601	-10822.58055	-39337.37151	-50045.64524	-70759.23035	-187500.0224	-28271.62633	-23259.20293
211	-33878.69553	-10205.02421	-39432.14291	-50117.39434	-71188.27208	-187500.0224	-28372.54445	-23313.67413
212	-33990.45426	-9916.977276	-39462.65304	-50156.19697	-71511.59006	-187500.0224	-28415.70567	-23356.05304
213	-34212.6306	-10798.91006	-39301.31814	-50031.16131	-71366.41548	-187500.0224	-28266.64189	-23275.74322
214	-34110.28196	-11141.13762	-39285.64957	-50005.99325	-70898.66053	-187500.0224	-28236.51174	-23236.58296
215	-33990.32014	-10815.33859	-39357.7563	-50050.40616	-70761.04084	-187500.0224	-28288.88187	-23265.12614
216	-33873.48758	-10191.63551	-39439.7872	-50117.01436	-71203.24775	-187500.0224	-28375.51723	-23313.92
217	-33978.36196	-9927.773169	-39437.7979	-50136.66155	-71519.90491	-187500.0224	-28399.94769	-23342.28436
218	-34202.28174	-10817.84198	-39294.9479	-50020.54423	-71366.48254	-187500.0224	-28256.18127	-23270.26704
219	-34098.61435	-11130.25232	-39289.807	-49999.44419	-70905.58957	-187500.0224	-28233.65071	-23234.03486
220	-33972.43875	-10792.96449	-39349.3744	-50045.93582	-70786.27596	-187500.0224	-28279.91882	-23262.71215
221	-33870.02306	-10166.19923	-39455.7687	-50130.82774	-71242.3186	-187500.0224	-28382.13335	-23328.20276
222	-33990.16368	-9926.096788	-39471.1914	-50152.48658	-71540.82615	-187500.0224	-28408.84369	-23358.91406
223	-34200.65006	-10828.03438	-39308.06837	-50021.68417	-71371.7799	-187500.0224	-28252.24736	-23270.3341
224	-34096.11095	-11129.35825	-39297.67481	-50010.17302	-70913.23387	-187500.0224	-28232.57783	-23243.64611
225	-33986.83327	-10801.27934	-39366.60759	-50059.41392	-70827.49257	-187500.0224	-28290.17827	-23278.69365
226	-33883.88114	-10155.78331	-39464.32942	-50136.79566	-71281.90354	-187500.0224	-28380.36756	-23333.63424
227	-34011.12962	-9951.086038	-39449.13023	-50147.74801	-71557.92523	-187500.0224	-28395.90203	-23352.90144
228	-34216.74332	-10877.31998	-39285.3143	-50023.65113	-71379.69242	-187500.0224	-28242.56906	-23270.26704
229	-34108.76204	-11151.21825	-39289.62818	-50018.37611	-70920.34172	-187500.0224	-28236.0647	-23248.31763
230	-33987.95086	-10805.05679	-39351.00607	-50061.11265	-70840.85892	-187500.0224	-28287.60782	-23274.24565
231	-33875.54394	-10145.81444	-39445.15162	-50135.76748	-71289.7937	-187500.0224	-28382.49098	-23329.20859
232	-34009.63205	-9972.655472	-39436.68031	-50141.31071	-71553.52194	-187500.0224	-28384.83791	-23346.93353
233	-34204.89689	-10893.99438	-39278.18409	-50011.26826	-71365.47671	-187500.0224	-28231.16967	-23253.86086
234	-34089.29367	-11130.18526	-39289.56113	-50013.1011	-70906.99773	-187500.0224	-28238.0093	-23236.22534
235	-33979.27838	-10780.84985	-39353.8671	-50065.47124	-70858.15917	-187500.0224	-28294.49216	-23274.2233
236	-33872.92878	-10116.15367	-39448.05735	-50142.98709	-71317.64398	-187500.0224	-28383.42975	-23329.18624
237	-34028.42987	-9994.783699	-39441.15066	-50154.78881	-71579.15939	-187500.0224	-28387.92245	-23354.13079
238	-34223.51589	-10914.15565	-39287.37066	-50033.5306	-71387.96257	-187500.0224	-28243.1502	-23273.73156
239	-34105.54339	-11115.09783	-39295.75256	-50034.67054	-70914.10558	-187500.0224	-28245.6089	-23255.44784
240	-33987.07914	-10754.67596	-39357.82335	-50079.0164	-70878.02987	-187500.0224	-28304.05871	-23283.72279
241	-33881.62361	-10081.10614	-39453.68999	-50159.63914	-71331.77028	-187500.0224	-28398.1372	-23341.61381
242	-34040.47746	-9990.715681	-39430.57828	-50157.40396	-71577.23714	-187500.0224	-28381.21693	-23359.09287
243	-34225.14757	-10930.83005	-39283.16853	-50034.20115	-71392.34351	-187500.0224	-28233.80717	-23276.83845
244	-34099.62018	-11110.851	-39299.17238	-50035.56461	-70890.77036	-187500.0224	-28245.29597	-23262.33217
245	-33982.11705	-10746.85284	-39356.72812	-50073.2273	-70868.35156	-187500.0224	-28298.69429	-23288.41666
246	-33877.37678	-10071.58429	-39462.74244	-50154.72176	-71325.40003	-187500.0224	-28403.90395	-23346.64295
247	-34043.04791	-10019.72825	-39438.40139	-50149.4691	-71561.07683	-187500.0224	-28390.31409	-23361.57392
248	-34215.17869	-10953.40532	-39287.23655	-50025.52867	-71367.86835	-187500.0224	-28233.89658	-23276.10085
249	-34090.85829	-11105.12896	-39314.03629	-50038.15741	-70867.65866	-187500.0224	-28244.31249	-23267.1378
250	-33976.3056	-10736.23577	-39364.03714	-50082.16799	-70866.96575	-187500.0224	-28297.95668	-23298.47494
251	-33885.9375	-10061.30249	-39469.64913	-50173.40781	-71322.27079	-187500.0224	-28406.13912	-23365.75369
252	-34053.1509	-10046.52799	-39425.63855	-50151.30194	-71546.32468	-187500.0224	-28381.5075	-23361.84214
253	-34214.68696	-10980.83091	-39272.26088	-50029.95432	-71338.63227	-187500.0224	-28233.91893	-23275.98909
254	-34086.11972	-11104.70427	-39292.33274	-50041.93485	-70844.18933	-187500.0224	-28247.10646	-23264.94733
255	-33977.84787	-10730.26785	-39353.64358	-50090.61695	-70864.9541	-187500.0224	-28304.05871	-23300.03957
0	-33882.22711	-10052.16063	-39464.1059	-50178.01227	-71341.11331	-187500.0224	-28408.48606	-23366.02192
1	-34073.11101	-10084.01186	-39432.41113	-50161.6508	-71572.87855	-187500.0224	-28388.03421	-23372.86155
2	-34240.12324	-11021.55578	-39281.13452	-50040.70551	-71362.07925	-187500.0224	-28247.62055	-23288.05903
3	-34094.56868	-11103.18435	-39304.80502	-50050.76379	-70876.577	-187500.0224	-28250.7945	-23277.91134
4	-33972.28229	-10700.69649	-39374.58716	-50093.05329	-70897.14061	-187500.0224	-28307.61263	-23306.36511
5	-33883.29999	-10022.56692	-39479.37214	-50178.34755	-71369.94706	-187500.0224	-28425.87571	-23367.72065
6	-34075.48029	-10089.42098	-39431.91939	-50156.77812	-71572.92325	-187500.0224	-28395.09736	-23370.69343
7	-34214.26227	-11012.63744	-39281.02276	-50021.84063	-71323.50014	-187500.0224	-28236.95877	-23272.18929
8	-34063.20918	-11066.52749	-39306.25788	-50028.90379	-70866.11639	-187500.0224	-28247.32998	-23257.23597
9	-33952.70216	-10670.25342	-39369.78154	-50075.44012	-70912.4292	-187500.0224	-28303.43286	-23290.78594
10	-33876.9968	-10011.16753	-39476.91345	-50166.25526	-71396.29977	-187500.0224	-28411.23532	-23359.4505
11	-34076.2179	-10110.63279	-39421.25761	-50138.40498	-71581.70749	-187500.0224	-28369.9293	-23356.99181
12	-34214.50814	-11017.55482	-39277.58059	-50016.09624	-71317.08518	-187500.0224	-28236.60114	-23267.87541
13	-34077.73782	-11072.76363	-39313.83512	-50042.06896	-70879.14746	-187500.0224	-28261.81391	-23271.25052
14	-33968.63895	-10671.72863	-39376.01767	-50092.38274	-70954.85281	-187500.0224	-28320.37548	-23304.26405
15	-33883.12118	-9983.00433	-39470.40909	-50173.16194	-71423.79241	-187500.0224	-28423.21586	-23360.83631
16	-34076.12849	-10122.88155	-39400.53754	-50127.51968	-71604.72978	-187500.0224	-28364.60958	-23341.85968
17	-34207.13207	-11033.08928	-39262.53787	-50013.81636	-71332.95492	-187500.0224	-28221.2902	-23259.09117
18	-34063.70092	-11049.78604	-39300.26761	-50034.78229	-70885.80828	-187500.0224	-28247.75466	-23261.81808
19	-33958.62537	-10639.13979	-39370.07211	-50088.6947	-70971.9519	-187500.0224	-28311.99358	-23304.19699
20	-33884.48463	-9957.121009	-39473.53834	-50175.57593	-71445.04892	-187500.0224	-28422.92528	-23369.39703
21	-34098.27907	-10147.8708	-39405.87961	-50135.14163	-71616.64326	-187500.0224	-28367.62707	-23356.79064
22	-34214.46344	-11057.49739	-39268.84106	-50019.449	-71334.00546	-187500.0224	-28230.40971	-23269.01534
23	-34057.50949	-11053.25056	-39295.37258	-50031.40718	-70891.70914	-187500.0224	-28243.03844	-23260.47698
24	-33938.91113	-10629.50619	-39357.30926	-50073.69668	-70993.56604	-187500.0224	-28297.35318	-23289.69071
25	-33874.00167	-9954.930539	-39466.18461	-50163.75186	-71466.48424	-187500.0224	-28411.66001	-23358.44467
26	-34104.11288	-10183.72299	-39406.79603	-50131.25242	-71622.99116	-187500.0224	-28372.99149	-23357.4612
27	-34222.84534	-11082.77721	-39282.25211	-50027.60738	-71327.29993	-187500.0224	-28249.94513	-23279.16304
28	-34078.72129	-11063.55471	-39319.08778	-50052.73075	-70895.53128	-187500.0224	-28276.20843	-23283.38752
29	-33958.17834	-10626.98044	-39373.8272	-50092.51685	-71009.61459	-187500.0224	-28315.92748	-23311.28249
30	-33883.32234	-9943.218224	-39468.73271	-50170.54679	-71470.97695	-187500.0224	-28419.08078	-23367.89946
31	-34109.522	-10207.28173	-39390.09927	-50117.21553	-71625.4722	-187500.0224	-28352.49494	-23346.12886
32	-34214.12816	-11091.04736	-39267.36585	-50012.74347	-71325.53414	-187500.0224	-28229.60505	-23264.83557
33	-34068.17127	-11054.92694	-39312.06933	-50044.92999	-70896.17948	-187500.0224	-28261.0316	-23273.35158
34	-33961.59815	-10630.17674	-39383.43845	-50098.77534	-71043.83511	-187500.0224	-28323.46002	-23317.45157
35	-33897.58276	-9952.605957	-39477.56165	-50183.84608	-71504.28104	-187500.0224	-28426.25569	-23384.3727
36	-34124.45296	-10243.55861	-39389.96516	-50124.5916	-71625.82983	-187500.0224	-28353.72428	-23356.58948
37	-34212.92117	-11109.82282	-39274.96544	-50018.64434	-71316.41463	-187500.0224	-28231.86257	-23273.37393
38	-34063.81268	-11043.37109	-39321.88175	-50046.69577	-70907.04243	-187500.0224	-28268.54179	-23278.85011
39	-33953.8421	-10601.41004	-39391.7533	-50097.74716	-71079.35203	-187500.0224	-28328.9809	-23319.26207
40	-33902.36603	-9918.005457	-39493.43139	-50184.18135	-71539.35093	-187500.0224	-28431.46365	-23388.88775
41	-34143.00491	-10259.51776	-39406.72897	-50128.95019	-71658.10575	-187500.0224	-28357.00999	-23368.10063
42	-34218.59851	-11118.13767	-39282.09564	-50022.22061	-71338.85578	-187500.0224	-28231.30378	-23281.48762
43	-34057.73301	-11027.21078	-39318.59604	-50045.01939	-70924.40974	-187500.0224	-28246.32415	-23279.25244
44	-33942.50976	-10564.86494	-39388.28878	-50094.81908	-71098.64159	-187500.0224	-28312.28415	-23318.12213
45	-33890.56431	-9894.871401	-39487.84345	-50181.05211	-71549.8786	-187500.0224	-28416.0186	-23385.08795
46	-34128.25276	-10272.77234	-39394.88255	-50116.52262	-71663.8725	-187500.0224	-28342.70487	-23355.42719
47	-34197.2526	-11113.66732	-39279.99458	-50023.06998	-71341.33683	-187500.0224	-28218.71975	-23276.1679
48	-34062.20336	-11024.2827	-39336.79036	-50066.43236	-70946.985	-187500.0224	-28264.33966	-23294.56339
49	-33949.95289	-10559.96991	-39403.82325	-50108.476	-71132.21391	-187500.0224	-28326.07518	-23323.68771
50	-33902.74601	-9900.168765	-39500.49454	-50187.69058	-71582.57921	-187500.0224	-28430.21195	-23384.93149
51	-34158.22645	-10322.66144	-39404.60556	-50126.55856	-71684.52551	-187500.0224	-28344.11303	-23359.67402
52	-34218.66557	-11142.27756	-39289.94111	-50028.92614	-71346.90241	-187500.0224	-28226.4311	-23279.52066
53	-34064.48323	-11018.82887	-39341.7748	-50060.01741	-70952.05885	-187500.0224	-28269.18999	-23290.58478
54	-33954.84793	-10556.05835	-39410.2829	-50112.09698	-71165.49565	-187500.0224	-28332.80305	-23328.35923
55	-33912.87135	-9905.756701	-39496.1136	-50187.02003	-71616.4421	-187500.0224	-28423.21586	-23383.34452
56	-34172.82214	-10370.71769	-39394.77079	-50122.80346	-71702.47396	-187500.0224	-28337.63103	-23359.69637
57	-34212.98822	-11171.31247	-39276.08303	-50021.28184	-71350.88102	-187500.0224	-28217.55746	-23273.19512
58	-34058.2471	-11033.53632	-39324.78748	-50053.31189	-70971.3931	-187500.0224	-28251.35329	-23282.6052
59	-33940.43105	-10548.9505	-39398.28001	-50103.11158	-71203.8736	-187500.0224	-28315.56986	-23323.24068
60	-33908.55746	-9892.233895	-39492.87259	-50185.07542	-71644.56059	-187500.0224	-28415.01277	-23389.26773
61	-34163.59087	-10378.16082	-39380.64449	-50108.78892	-71710.52059	-187500.0224	-28313.78172	-23352.4097
62	-34197.16319	-11164.47284	-39276.08303	-50018.37611	-71360.11229	-187500.0224	-28208.88498	-23276.27966
63	-34037.14705	-10998.15351	-39328.45316	-50049.91443	-70991.1744	-187500.0224	-28247.93348	-23286.20384
64	-33917.9899	-10492.75821	-39403.26445	-50102.15045	-71230.62864	-187500.0224	-28309.62429	-23326.77225
65	-33892.44186	-9856.247587	-39492.33615	-50182.12499	-71668.11933	-187500.0224	-28407.97197	-23393.02282
66	-34154.62782	-10382.85469	-39375.74945	-50100.63053	-71728.73726	-187500.0224	-28311.79241	-23353.63905
67	-34196.67145	-11149.36306	-39290.56696	-50025.34986	-71376.63023	-187500.0224	-28216.86455	-23288.88605
68	-34042.80204	-10980.11565	-39343.20531	-50059.21275	-71023.07034	-187500.0224	-28251.53211	-23302.74413
69	-33925.56714	-10488.7349	-39417.52486	-50111.82876	-71282.86466	-187500.0224	-28325.047	-23342.0832
70	-33895.21347	-9859.510941	-39495.77832	-50178.66047	-71698.65181	-187500.0224	-28418.07496	-23393.71573
71	-34166.83187	-10422.86431	-39378.45402	-50096.04843	-71744.83052	-187500.0224	-28320.82252	-23352.14148
72	-34190.68118	-11160.80715	-39292.37745	-50019.56076	-71378.50778	-187500.0224	-28221.69253	-23281.48762
73	-34045.28308	-10975.55589	-39355.43172	-50061.71615	-71025.1714	-187500.0224	-28269.16763	-23298.69846
74	-33937.03359	-10470.54058	-39432.18761	-50116.00853	-71294.62168	-187500.0224	-28336.75931	-23337.83637
75	-33937.70414	-9876.498267	-39522.10868	-50197.12301	-71718.58957	-187500.0224	-28430.52488	-23402.20939
76	-34190.61413	-10472.59694	-39387.9088	-50099.82587	-71747.46802	-187500.0224	-28308.97609	-23348.00641
77	-34192.33521	-11187.6963	-39298.59123	-50019.40429	-71372.09283	-187500.0224	-28213.6906	-23274.06684
78	-34049.06053	-10989.05635	-39357.7563	-50061.47028	-71042.15873	-187500.0224	-28257.90235	-23292.28351
79	-33937.8606	-10465.39968	-39437.90966	-50121.81999	-71331.30089	-187500.0224	-28334.43473	-23337.61285
80	-33926.3271	-9867.870494	-39510.50812	-50187.13178	-71736.78389	-187500.0224	-28410.18479	-23389.89358
81	-34187.68605	-10494.70282	-39378.07404	-50091.06399	-71751.82661	-187500.0224	-28291.31821	-23336.18234
82	-34186.56846	-11175.29108	-39301.65342	-50021.84063	-71371.80226	-187500.0224	-28213.22122	-23275.58676
83	-34047.98765	-10966.68225	-39369.17804	-50069.00282	-71060.86714	-187500.0224	-28273.41447	-23302.20768
84	-33929.54575	-10440.90217	-39439.34017	-50123.98811	-71358.81589	-187500.0224	-28328.57857	-23342.8208
85	-33926.84119	-9863.4672	-39502.03681	-50185.56716	-71748.33974	-187500.0224	-28402.6299	-23394.87802
86	-34183.59568	-10519.35679	-39362.18195	-50082.48092	-71751.26782	-187500.0224	-28280.87995	-23339.15512
87	-34162.83091	-11168.63026	-39282.00624	-50010.41889	-71357.89947	-187500.0224	-28196.65858	-23273.75391
88	-34017.70103	-10939.48018	-39346.42397	-50056.10586	-71056.75442	-187500.0224	-28241.96556	-23298.05026
89	-33893.47004	-10395.50577	-39426.80084	-50112.3205	-71369.96941	-187500.0224	-28311.21127	-23335.6906
90	-33904.71296	-9839.260261	-39498.7511	-50179.53219	-71759.73913	-187500.0224	-28390.24703	-23390.81
91	-34162.16036	-10521.94959	-39358.56096	-50072.19911	-71752.81009	-187500.0224	-28262.08213	-23326.77225
92	-34139.13806	-11145.07152	-39294.97025	-50011.1118	-71351.84215	-187500.0224	-28192.67996	-23267.67424
93	-34002.12187	-10912.32281	-39360.01383	-50058.89983	-71063.14702	-187500.0224	-28247.88877	-23294.83161
94	-33895.43699	-10377.15499	-39449.4208	-50126.46915	-71390.10833	-187500.0224	-28339.48622	-23348.09582
95	-33921.16385	-9852.134866	-39512.31861	-50185.50011	-71767.0705	-187500.0224	-28418.99138	-23400.06362
96	-34183.72979	-10568.95531	-39361.46669	-50066.8347	-71745.61283	-187500.0224	-28270.84401	-23325.52055
97	-34163.50146	-11167.53503	-39308.15778	-50007.40141	-71333.44666	-187500.0224	-28213.15416	-23269.0377
98	-34026.77584	-10919.63183	-39374.85538	-50046.98635	-71052.48523	-187500.0224	-28263.6244	-23291.68001
99	-33915.79943	-10364.25803	-39465.06702	-50107.38076	-71386.35324	-187500.0224	-28334.56884	-23338.43986
100	-33960.25705	-9854.705316	-39538.64897	-50173.34076	-71758.7333	-187500.0224	-28417.38205	-23397.98491
101	-34217.23505	-10589.8989	-39386.14302	-50056.21762	-71736.89565	-187500.0224	-28280.07529	-23327.50986
102	-34165.91545	-11157.56615	-39317.92549	-49994.61621	-71320.19208	-187500.0224	-28204.45933	-23262.82391
103	-34035.04599	-10903.33741	-39372.73197	-50043.7677	-71057.11204	-187500.0224	-28249.34164	-23291.81412
104	-33926.75178	-10344.74496	-39456.57336	-50110.68882	-71411.11897	-187500.0224	-28335.44056	-23341.68087
105	-33963.85568	-9856.135828	-39506.14953	-50163.50599	-71772.94901	-187500.0224	-28392.66102	-23386.07143
106	-34211.11068	-10619.51496	-39347.54155	-50043.45477	-71728.17847	-187500.0224	-28247.70996	-23311.90834
107	-34162.22741	-11164.674	-39296.64663	-49999.86887	-71308.79269	-187500.0224	-28195.96567	-23264.32148
108	-34021.16555	-10891.53569	-39354.73881	-50045.7123	-71050.85356	-187500.0224	-28242.68082	-23288.93075
109	-33902.6566	-10311.95495	-39444.2352	-50112.09698	-71402.51355	-187500.0224	-28329.09266	-23336.62937
110	-33955.33966	-9856.493456	-39483.73073	-50160.30969	-71758.97917	-187500.0224	-28379.27233	-23379.54472
111	-34213.23409	-10664.21845	-39333.21408	-50051.76962	-71718.9919	-187500.0224	-28237.11523	-23312.10951
112	-34160.26046	-11174.44172	-39304.44739	-50019.76192	-71291.82771	-187500.0224	-28196.14449	-23269.41768
113	-34016.47169	-10874.54836	-39361.06436	-50062.07377	-71043.87981	-187500.0224	-28246.52532	-23289.62365
114	-33896.35341	-10284.95405	-39448.75025	-50134.40402	-71408.07914	-187500.0224	-28333.65242	-23339.95978
115	-33951.13754	-9851.754886	-39488.80458	-50181.38739	-71766.75758	-187500.0224	-28382.78155	-23379.20944
116	-34193.00576	-10656.79767	-39329.81662	-50059.68214	-71702.13869	-187500.0224	-28235.55061	-23297.80439
117	-34121.7484	-11133.918	-39298.30066	-50024.5899	-71268.17957	-187500.0224	-28197.91027	-23254.3526
118	-33993.00235	-10845.51344	-39374.98949	-50075.12719	-71053.42401	-187500.0224	-28256.78477	-23285.35447
119	-33878.06968	-10256.47792	-39463.92709	-50140.84132	-71437.62814	-187500.0224	-28338.65921	-23331.17555
120	-33953.9315	-9862.528427	-39500.6063	-50188.69641	-71775.45241	-187500.0224	-28390.29174	-23377.77893
121	-34207.26618	-10711.85001	-39344.9264	-50066.03003	-71701.24462	-187500.0224	-28243.68665	-23298.43024
122	-34137.30522	-11164.18227	-39317.23259	-50029.97667	-71278.90841	-187500.0224	-28206.04631	-23254.73258
123	-34009.52029	-10851.14608	-39381.15858	-50078.77053	-71070.94777	-187500.0224	-28256.47184	-23285.64504
124	-33897.02396	-10243.82684	-39467.01163	-50143.83646	-71446.70295	-187500.0224	-28347.57755	-23329.32035
125	-33981.80413	-9886.489497	-39495.89008	-50180.918	-71769.93153	-187500.0224	-28394.58327	-23365.21725
126	-34232.16602	-10753.58072	-39348.07799	-50065.27007	-71674.46723	-187500.0224	-28259.91401	-23293.31169
127	-34152.48205	-11176.92276	-39320.71946	-50033.24002	-71230.36042	-187500.0224	-28229.18036	-23254.75493
128	-34024.51831	-10867.66402	-39382.00794	-50076.06597	-71037.66603	-187500.0224	-28282.35516	-23282.6052
129	-33913.78777	-10262.44584	-39473.80656	-50146.74218	-71432.53194	-187500.0224	-28376.38895	-23334.61771
130	-34002.05481	-9920.642963	-39498.57229	-50181.92383	-71745.09874	-187500.0224	-28416.24211	-23371.02871
131	-34249.8686	-10805.97321	-39349.53086	-50067.32643	-71651.28847	-187500.0224	-28275.35907	-23298.34083
132	-34161.86978	-11204.81774	-39333.28114	-50042.69481	-71212.859	-187500.0224	-28250.8392	-23262.82391
133	-34028.7875	-10874.10133	-39386.41124	-50079.44108	-71035.20734	-187500.0224	-28292.27934	-23282.89578
134	-33916.44763	-10247.58193	-39485.63063	-50158.23098	-71439.46099	-187500.0224	-28385.55317	-23346.15121
135	-33997.53976	-9920.218279	-39502.81912	-50183.91313	-71750.88784	-187500.0224	-28409.76011	-23380.19292
136	-34221.37013	-10805.77204	-39337.32681	-50051.81432	-71649.38857	-187500.0224	-28250.54863	-23293.24464
137	-34118.03801	-11163.73523	-39318.35017	-50027.09329	-71208.54511	-187500.0224	-28222.05016	-23257.52655
138	-33984.32988	-10815.76327	-39380.42097	-50072.17676	-71050.58534	-187500.0224	-28275.1132	-23289.646
139	-33877.6897	-10181.8231	-39479.70742	-50151.63721	-71461.65627	-187500.0224	-28381.70867	-23348.78872
140	-33991.75066	-9916.709056	-39495.89008	-50180.53802	-71770.06564	-187500.0224	-28401.3782	-23382.56221
141	-34205.29922	-10815.76327	-39328.9449	-50048.39451	-71654.79769	-187500.0224	-28243.61959	-23290.27185
142	-34103.21881	-11144.37862	-39323.13345	-50038.09035	-71214.82595	-187500.0224	-28228.48746	-23264.96968
143	-33983.50286	-10807.89546	-39388.62406	-50092.71802	-71076.13338	-187500.0224	-28280.92465	-23302.72177
144	-33859.51774	-10154.37515	-39475.61705	-50159.28151	-71487.47253	-187500.0224	-28364.40842	-23352.61087
145	-33968.99658	-9895.273733	-39480.0874	-50173.11724	-71766.55641	-187500.0224	-28379.6076	-23373.62151
146	-34191.15057	-10812.41051	-39321.72529	-50049.13211	-71635.88812	-187500.0224	-28234.1201	-23290.76359
147	-34094.43457	-11128.19596	-39330.59893	-50046.20404	-71194.10589	-187500.0224	-28234.38832	-23272.81514
148	-33975.23272	-10777.20651	-39404.04676	-50091.04164	-71057.06734	-187500.0224	-28300.0801	-23298.56435
149	-33869.2631	-10125.94374	-39503.64614	-50162.9919	-71458.57173	-187500.0224	-28403.72514	-23346.33003
150	-34009.14031	-9928.488425	-39497.29824	-50179.19692	-71724.87041	-187500.0224	-28409.78246	-23370.22404
151	-34220.47606	-10863.70776	-39326.53091	-50042.33718	-71574.77845	-187500.0224	-28246.45826	-23273.6198
152	-34117.38981	-11154.4369	-39333.68347	-50042.13602	-71119.31695	-187500.0224	-28245.6536	-23253.16796
153	-34003.06064	-10810.22004	-39400.78341	-50093.32151	-71018.7788	-187500.0224	-28307.88086	-23289.08721
154	-33890.20668	-10133.69979	-39492.58202	-50162.03078	-71446.09945	-187500.0224	-28398.76305	-23337.41168
155	-34036.81177	-9949.476713	-39480.48973	-50167.90928	-71719.52834	-187500.0224	-28396.14789	-23357.39414
156	-34246.47114	-10894.97786	-39320.83122	-50037.97859	-71588.36831	-187500.0224	-28243.03844	-23270.87054
157	-34133.70659	-11146.61379	-39325.41333	-50031.0272	-71147.90483	-187500.0224	-28245.63125	-23247.28945
158	-34007.82156	-10783.62146	-39382.54438	-50076.91533	-71064.62223	-187500.0224	-28283.85273	-23279.923
159	-33887.41271	-10111.83978	-39475.10296	-50150.51963	-71480.78936	-187500.0224	-28372.54445	-23333.23191
160	-34029.68157	-9971.895513	-39463.21183	-50150.65374	-71717.15906	-187500.0224	-28370.66691	-23348.74402
161	-34224.96876	-10917.08373	-39308.64952	-50022.10886	-71549.40922	-187500.0224	-28221.78194	-23262.77921
162	-34104.53756	-11135.95201	-39327.82731	-50034.37996	-71087.64453	-187500.0224	-28234.38832	-23260.94636
163	-33984.53104	-10771.01508	-39394.9049	-50083.35264	-71015.09077	-187500.0224	-28290.89353	-23301.67124
164	-33878.13674	-10101.8262	-39505.45663	-50168.62454	-71437.15876	-187500.0224	-28397.64546	-23369.24057
165	-34036.32004	-10008.19475	-39486.85998	-50170.21151	-71665.52653	-187500.0224	-28399.36655	-23384.86444
166	-34218.71027	-10961.519	-39326.08388	-50042.89598	-71484.45505	-187500.0224	-28249.05106	-23296.01625
167	-34084.42099	-11150.36889	-39333.4376	-50042.98538	-71031.25108	-187500.0224	-28247.15117	-23276.54788
168	-33953.08214	-10762.3426	-39395.88838	-50089.78994	-70979.77501	-187500.0224	-28299.96834	-23309.53906
169	-33852.38753	-10077.66397	-39508.27295	-50184.47193	-71417.221	-187500.0224	-28414.40927	-23383.63509
170	-34018.05866	-10006.22779	-39474.45476	-50172.46904	-71646.10286	-187500.0224	-28391.0964	-23384.90914
171	-34191.01646	-10941.44713	-39305.58733	-50035.81047	-71457.78942	-187500.0224	-28227.45928	-23279.67713
172	-34054.29084	-11096.38942	-39316.69615	-50037.82213	-71006.5971	-187500.0224	-28233.11427	-23257.32538
173	-33937.10064	-10713.19112	-39382.47733	-50087.59947	-70981.29493	-187500.0224	-28287.71958	-23290.42832
174	-33846.66548	-10033.8322	-39495.64421	-50178.72753	-71408.9285	-187500.0224	-28397.98074	-23356.43302
175	-34036.54355	-10028.89246	-39465.37995	-50170.16681	-71629.45081	-187500.0224	-28382.46863	-23366.15603
176	-34215.53632	-10986.88823	-39309.87886	-50038.26917	-71433.76129	-187500.0224	-28234.45538	-23271.74226
177	-34082.14111	-11108.01233	-39328.83314	-50042.94068	-70980.69143	-187500.0224	-28248.2911	-23258.2418
178	-33971.72349	-10718.08615	-39387.43942	-50087.28654	-70960.61956	-187500.0224	-28288.21132	-23290.98711
179	-33878.91905	-10028.91481	-39490.92799	-50165.76352	-71386.75557	-187500.0224	-28390.20233	-23347.96171
180	-34064.75145	-10049.09844	-39450.98543	-50144.66347	-71579.36055	-187500.0224	-28359.6922	-23346.44179
181	-34227.87449	-11002.73562	-39306.74962	-50021.3489	-71374.9762	-187500.0224	-28217.19983	-23260.67814
182	-34094.52398	-11102.82673	-39344.25585	-50041.46547	-70947.61085	-187500.0224	-28239.39511	-23263.60622
183	-33981.26769	-10704.69745	-39409.72411	-50095.89196	-70969.00147	-187500.0224	-28294.51451	-23305.89572
184	-33894.34175	-10024.66798	-39525.19322	-50192.87618	-71413.4212	-187500.0224	-28412.95641	-23381.31051
185	-34083.59397	-10085.30826	-39466.43048	-50159.97442	-71616.41975	-187500.0224	-28366.06245	-23370.11228
186	-34228.81326	-11018.78417	-39305.07324	-50031.25072	-71405.28517	-187500.0224	-28215.18817	-23274.64798
187	-34087.55023	-11100.34568	-39331.04597	-50052.28371	-70970.34257	-187500.0224	-28227.0793	-23275.11737
188	-33960.05588	-10690.5488	-39387.8194	-50094.34969	-70998.52812	-187500.0224	-28276.20843	-23301.60419
189	-33866.20091	-9988.927542	-39491.86677	-50182.8179	-71439.25982	-187500.0224	-28382.96037	-23365.91016
190	-34077.29078	-10088.45986	-39451.52187	-50165.85292	-71637.6539	-187500.0224	-28356.51825	-23375.25319
191	-34232.05426	-11036.10677	-39317.63492	-50055.97175	-71426.69814	-187500.0224	-28226.09582	-23296.08331
192	-34077.87193	-11082.66545	-39345.23932	-50068.48873	-70983.30658	-187500.0224	-28240.66916	-23285.73445
193	-33959.43003	-10662.27384	-39406.12547	-50110.55471	-71026.26664	-187500.0224	-28290.06652	-23316.44575
194	-33870.76066	-9967.469867	-39498.30407	-50187.75763	-71474.70969	-187500.0224	-28388.48125	-23373.68856
195	-34076.37436	-10107.88353	-39444.10109	-50154.20767	-71659.75978	-187500.0224	-28355.35596	-23368.94999
196	-34220.02902	-11058.12324	-39314.41627	-50043.79005	-71443.28313	-187500.0224	-28222.05016	-23288.48371
197	-34079.54831	-11101.68679	-39355.67759	-50071.14858	-71022.77977	-187500.0224	-28245.6983	-23292.17175
198	-33970.60591	-10680.3117	-39419.20125	-50117.14847	-71099.4686	-187500.0224	-28300.57184	-23325.76642
199	-33885.22224	-9973.169562	-39515.73843	-50192.09387	-71545.16239	-187500.0224	-28395.29853	-23378.60595
200	-34091.95353	-10141.14292	-39444.65988	-50145.6693	-71717.56139	-187500.0224	-28340.06737	-23361.17159
201	-34221.0572	-11058.2797	-39308.91774	-50033.97763	-71474.46382	-187500.0224	-28211.6566	-23276.30201
202	-34079.01187	-11065.81224	-39346.71454	-50063.70545	-71044.3492	-187500.0224	-28241.45147	-23283.78985
203	-33970.06946	-10651.74617	-39411.48989	-50115.44974	-71143.52389	-187500.0224	-28300.48243	-23324.73824
204	-33891.0784	-9958.015079	-39515.82784	-50200.56518	-71588.14479	-187500.0224	-28406.13912	-23386.54082
205	-34115.62402	-10181.28665	-39454.33819	-50158.47685	-71759.06858	-187500.0224	-28356.13827	-23373.24153
206	-34239.29623	-11099.3175	-39320.36183	-50048.66273	-71519.63669	-187500.0224	-28226.60991	-23289.02016
207	-34085.60563	-11076.854	-39346.71454	-50066.25355	-71090.63966	-187500.0224	-28237.98695	-23281.88995
208	-33971.58938	-10639.47506	-39416.27317	-50118.46723	-71188.56265	-187500.0224	-28296.50382	-23321.36313
209	-33904.93648	-9961.211379	-39520.81228	-50210.93639	-71632.53535	-187500.0224	-28407.90491	-23394.94507
210	-34140.54622	-10232.56156	-39450.069	-50167.77517	-71793.80319	-187500.0224	-28355.37831	-23384.77503
211	-34240.39146	-11119.85876	-39315.73502	-50047.58984	-71531.55017	-187500.0224	-28213.6459	-23289.62365
212	-34082.27522	-11072.58482	-39353.97885	-50071.30505	-71109.03515	-187500.0224	-28240.62446	-23290.11539
213	-33965.39795	-10626.84633	-39414.48503	-50120.38948	-71226.47121	-187500.0224	-28299.67777	-23328.47098
214	-33894.67703	-9935.372762	-39513.4362	-50202.0404	-71657.16698	-187500.0224	-28413.06816	-23390.40767
215	-34136.38879	-10243.04452	-39436.00976	-50151.57016	-71799.10055	-187500.0224	-28343.77776	-23374.1356
216	-34231.04843	-11126.96661	-39306.68256	-50041.93485	-71524.93406	-187500.0224	-28209.86846	-23287.18731
217	-34066.53959	-11050.14367	-39340.92544	-50057.894	-71097.92633	-187500.0224	-28230.54382	-23281.17469
218	-33955.1385	-10600.02424	-39409.6794	-50105.72673	-71234.83077	-187500.0224	-28292.90519	-23315.39521
219	-33893.87237	-9923.436931	-39509.01055	-50184.29311	-71670.08628	-187500.0224	-28393.89037	-23370.38051
220	-34133.55012	-10261.44001	-39424.69977	-50127.81026	-71799.50289	-187500.0224	-28321.60483	-23352.11913
221	-34222.10773	-11139.12596	-39317.52316	-50036.23516	-71515.61338	-187500.0224	-28213.66825	-23279.23009
222	-34076.62023	-11063.86764	-39366.76405	-50077.09415	-71116.0536	-187500.0224	-28254.30372	-23295.81509
223	-33958.82654	-10597.05145	-39432.52288	-50127.0503	-71270.28063	-187500.0224	-28312.97705	-23337.43403
224	-33893.33593	-9910.852898	-39515.06788	-50201.21338	-71688.66058	-187500.0224	-28393.62215	-23393.20164
225	-34136.92524	-10283.74705	-39416.54139	-50133.08527	-71797.80415	-187500.0224	-28309.73605	-23361.9986
226	-34218.93379	-11135.10265	-39316.18206	-50040.99608	-71500.83888	-187500.0224	-28210.09197	-23290.2048
227	-34064.70675	-11027.81427	-39356.03522	-50066.47707	-71100.09445	-187500.0224	-28238.74691	-23294.6528
228	-33947.36009	-10553.97964	-39420.45294	-50118.66839	-71273.25341	-187500.0224	-28299.63306	-23335.02005
229	-33899.95204	-9887.003587	-39518.19712	-50203.69443	-71693.91324	-187500.0224	-28405.31211	-23401.58354
230	-34152.66086	-10310.54679	-39422.26343	-50135.61101	-71800.53107	-187500.0224	-28319.3473	-23369.44173
231	-34218.66557	-11144.49038	-39313.25398	-50040.83962	-71496.21206	-187500.0224	-28207.72269	-23290.98711
232	-34053.8438	-11011.60926	-39354.98468	-50068.2205	-71101.61437	-187500.0224	-28237.53992	-23294.98807
233	-33935.73718	-10530.30914	-39425.39268	-50113.90747	-71283.28935	-187500.0224	-28306.07036	-23327.21929
234	-33888.5303	-9873.816058	-39510.03873	-50184.65074	-71704.55267	-187500.0224	-28392.72808	-23381.39992
235	-34145.88829	-10328.58465	-39403.935	-50111.15821	-71807.23659	-187500.0224	-28288.56895	-23346.95588
236	-34218.01737	-11159.86838	-39314.46097	-50037.21863	-71515.50162	-187500.0224	-28201.12892	-23288.68488
237	-34069.1771	-11022.74043	-39372.88843	-50076.15537	-71136.75131	-187500.0224	-28245.0501	-23305.13576
238	-33951.00343	-10530.89029	-39447.23033	-50129.19606	-71337.09	-187500.0224	-28314.2511	-23343.49136
239	-33909.31742	-9872.653767	-39535.72089	-50203.04623	-71739.08612	-187500.0224	-28413.00111	-23399.25896
240	-34156.12539	-10361.68758	-39413.07687	-50110.17473	-71823.01692	-187500.0224	-28294.44746	-23348.27463
241	-34198.75016	-11147.12788	-39315.98089	-50027.07094	-71496.21206	-187500.0224	-28199.98899	-23278.7607
242	-34053.73204	-11000.12046	-39367.9487	-50069.02517	-71136.14781	-187500.0224	-28236.28822	-23298.36318
243	-33942.33095	-10520.31791	-39444.30225	-50124.23398	-71365.25319	-187500.0224	-28303.52227	-23337.32228
244	-33907.55164	-9880.074546	-39527.18252	-50192.27269	-71769.5739	-187500.0224	-28394.60562	-23387.30078
245	-34170.47521	-10407.44161	-39405.09729	-50112.52166	-71845.1228	-187500.0224	-28290.35709	-23348.94518
246	-34208.42847	-11183.22595	-39317.4561	-50039.69968	-71514.40638	-187500.0224	-28202.17946	-23284.90743
247	-34062.181	-11008.77059	-39376.3306	-50077.13885	-71152.79986	-187500.0224	-28251.17448	-23299.1455
248	-33946.30956	-10506.10221	-39451.58892	-50131.72181	-71391.89647	-187500.0224	-28321.71659	-23341.85968
249	-33927.42234	-9880.208657	-39528.83655	-50201.59336	-71786.74004	-187500.0224	-28399.27714	-23396.77792
250	-34184.91443	-10430.59801	-39406.72897	-50108.36424	-71852.05184	-187500.0224	-28290.69236	-23345.45831
251	-34193.05047	-11154.01222	-39316.36087	-50023.18174	-71504.37045	-187500.0224	-28194.31164	-23269.64119
252	-34049.39581	-10966.90577	-39375.48123	-50065.76181	-71151.05643	-187500.0224	-28239.97626	-23289.44484
253	-33946.91306	-10469.93708	-39458.87559	-50127.07265	-71408.50382	-187500.0224	-28317.31329	-23334.93064
254	-33936.63125	-9864.830657	-39538.15723	-50201.81688	-71799.81581	-187500.0224	-28409.38013	-23396.21912
255	-34190.77059	-10454.84966	-39400.20226	-50099.11062	-71835.06451	-187500.0224	-28283.18218	-23338.10459
0	-34189.31773	-11163.10938	-39306.86138	-50013.1011	-71481.3258	-187500.0224	-28186.19796	-23259.76172
1	-34044.12079	-10959.46264	-39368.75336	-50064.75598	-71143.12156	-187500.0224	-28236.33292	-23286.15913
2	-33941.99567	-10453.17327	-39454.53935	-50134.11345	-71407.05096	-187500.0224	-28321.71659	-23337.18816
3	-33936.34068	-9867.714032	-39529.4624	-50207.04719	-71792.52914	-187500.0224	-28407.92726	-23394.38628
4	-34196.96202	-10495.41807	-39405.54433	-50115.89678	-71823.95569	-187500.0224	-28296.81674	-23343.69252
5	-34204.11458	-11186.28814	-39326.75443	-50044.19238	-71466.90893	-187500.0224	-28202.1124	-23276.36907
6	-34059.00706	-10979.10982	-39380.95741	-50084.24671	-71141.7134	-187500.0224	-28250.59333	-23295.79273
7	-33938.30764	-10452.14509	-39457.98152	-50138.94142	-71416.97513	-187500.0224	-28334.92647	-23339.06571
8	-33938.10647	-9875.425383	-39530.1106	-50204.74496	-71790.87511	-187500.0224	-28397.01961	-23398.47665
9	-34195.97855	-10521.01082	-39390.74747	-50092.47215	-71803.10152	-187500.0224	-28261.09865	-23332.4496
10	-34196.02325	-11193.46305	-39329.63781	-50029.55199	-71439.75156	-187500.0224	-28191.40592	-23272.8822
11	-34062.0916	-10980.71915	-39400.51519	-50079.61989	-71124.92724	-187500.0224	-28248.62638	-23305.29223
12	-33942.48741	-10442.35503	-39482.38963	-50130.35835	-71405.084	-187500.0224	-28323.50472	-23345.81594
13	-33957.01605	-9889.305817	-39551.76944	-50189.43401	-71769.12686	-187500.0224	-28397.08667	-23396.93438
14	-34218.15148	-10580.60057	-39419.44711	-50088.53824	-71783.0073	-187500.0224	-28275.44847	-23343.24549
15	-34195.95619	-11213.40081	-39353.88945	-50028.32264	-71425.58055	-187500.0224	-28209.77905	-23286.85204
16	-34052.03331	-10960.71434	-39416.87666	-50073.36141	-71142.87569	-187500.0224	-28259.84696	-23313.20474
17	-33926.72943	-10395.03639	-39490.50331	-50127.85496	-71448.15581	-187500.0224	-28336.69225	-23353.95197
18	-33940.92279	-9851.330203	-39548.90842	-50188.607	-71794.11611	-187500.0224	-28400.55119	-23405.65156
19	-34201.79	-10575.07969	-39396.58128	-50074.85897	-71786.18125	-187500.0224	-28258.28233	-23337.07641
20	-34180.04175	-11194.7371	-39342.82533	-50025.64043	-71407.94503	-187500.0224	-28200.88305	-23287.45553
21	-34042.17619	-10946.92331	-39410.43936	-50078.4576	-71130.76104	-187500.0224	-28260.85279	-23320.84904
22	-33926.12593	-10384.15109	-39492.15734	-50140.26018	-71441.51735	-187500.0224	-28337.51927	-23362.13271
23	-33958.3795	-9872.787878	-39551.59063	-50201.68277	-71786.09184	-187500.0224	-28406.74262	-23414.92753
24	-34215.40221	-10625.81815	-39397.20713	-50086.21366	-71775.05008	-187500.0224	-28269.74878	-23341.83733
25	-34173.11271	-11205.91297	-39342.91474	-50031.85422	-71393.4611	-187500.0224	-28214.65173	-23283.05224
26	-34040.67863	-10942.65413	-39404.38204	-50084.02319	-71129.71051	-187500.0224	-28266.97716	-23313.16004
27	-33923.15315	-10370.2483	-39482.99312	-50148.01623	-71452.5144	-187500.0224	-28342.48136	-23354.93545
28	-33956.63607	-9875.917122	-39532.0552	-50199.60406	-71787.38824	-187500.0224	-28401.66878	-23392.39697
29	-34210.95421	-10639.47506	-39382.67849	-50082.68208	-71761.54962	-187500.0224	-28275.04614	-23313.33885
30	-34172.9339	-11192.85955	-39347.65331	-50046.06993	-71367.68953	-187500.0224	-28227.61574	-23272.05518
31	-34044.2549	-10930.71829	-39410.84169	-50100.69759	-71123.94376	-187500.0224	-28280.65643	-23305.31458
32	-33923.24256	-10353.90918	-39488.62576	-50168.02104	-71460.82925	-187500.0224	-28354.61835	-23355.80717
33	-33976.21619	-9890.669273	-39533.88805	-50217.32899	-71796.77597	-187500.0224	-28409.49189	-23400.60006
34	-34237.55279	-10683.79857	-39373.179	-50095.91432	-71766.57877	-187500.0224	-28262.86444	-23322.8607
35	-34182.54515	-11200.72737	-39323.1111	-50048.19334	-71370.05882	-187500.0224	-28204.34758	-23270.9823
36	-34046.49008	-10912.21105	-39384.75721	-50092.76272	-71129.15172	-187500.0224	-28253.49906	-23299.54783
37	-33939.42522	-10329.50107	-39485.2283	-50170.36798	-71475.26848	-187500.0224	-28353.38901	-23359.15993
38	-34002.16657	-9894.267904	-39538.85013	-50226.91789	-71785.28718	-187500.0224	-28407.83786	-23413.09469
39	-34253.60134	-10719.71783	-39387.8641	-50105.68203	-71731.06184	-187500.0224	-28275.69434	-23336.987
40	-34173.80562	-11204.08013	-39340.05372	-50054.72005	-71315.65467	-187500.0224	-28225.40292	-23277.71017
41	-34033.90605	-10901.63867	-39398.05649	-50099.73646	-71082.05659	-187500.0224	-28273.77209	-23304.84519
42	-33904.6012	-10300.13088	-39475.79586	-50160.35439	-71422.02662	-187500.0224	-28352.98668	-23346.91117
43	-33977.31143	-9890.177535	-39520.25348	-50214.8703	-71719.28247	-187500.0224	-28412.30821	-23401.31532
44	-34239.22917	-10741.35432	-39372.50845	-50103.20098	-71665.03479	-187500.0224	-28276.25314	-23334.46125
45	-34162.54034	-11205.15301	-39339.60668	-50069.27104	-71255.77435	-187500.0224	-28243.46313	-23291.18827
46	-34023.35602	-10895.80487	-39393.16146	-50112.83459	-71042.94104	-187500.0224	-28283.27158	-23316.98219
47	-33911.97728	-10288.53032	-39493.31963	-50190.93158	-71411.58836	-187500.0224	-28373.34912	-23376.37077
48	-33985.11219	-9898.380625	-39525.17087	-50225.8003	-71712.44284	-187500.0224	-28417.51616	-23412.02181
49	-34235.63054	-10765.09187	-39364.70769	-50100.00468	-71655.62471	-187500.0224	-28258.30469	-23329.9462
50	-34157.57825	-11209.22103	-39333.68347	-50070.85801	-71260.26705	-187500.0224	-28223.59243	-23291.70236
51	-34020.96439	-10884.40548	-39394.56962	-50115.69561	-71070.09841	-187500.0224	-28267.87123	-23320.15614
52	-33907.61869	-10268.3467	-39493.54315	-50190.97628	-71442.36671	-187500.0224	-28368.0294	-23374.76145
53	-34001.2278	-9925.046256	-39526.46727	-50228.12488	-71737.58855	-187500.0224	-28413.04581	-23417.65444
54	-34243.23013	-10821.06064	-39363.47835	-50097.5907	-71668.85694	-187500.0224	-28256.78477	-23332.29313
55	-34154.65017	-11229.60582	-39342.28889	-50069.31574	-71259.88707	-187500.0224	-28221.2902	-23295.56922
56	-34016.53874	-10888.92053	-39402.86212	-50114.53332	-71079.48614	-187500.0224	-28273.30271	-23326.97342
57	-33898.14155	-10235.57904	-39502.34973	-50187.08708	-71440.9362	-187500.0224	-28368.92347	-23375.83433
58	-33997.91974	-9906.986047	-39525.52849	-50215.74202	-71714.81213	-187500.0224	-28401.04293	-23406.85855
59	-34242.15725	-10814.24335	-39369.82624	-50090.52755	-71637.20687	-187500.0224	-28259.1764	-23328.6498
60	-34143.13902	-11193.61951	-39353.8671	-50064.53247	-71227.67821	-187500.0224	-28231.23672	-23290.54007
61	-34013.92359	-10861.45024	-39424.05157	-50113.25927	-71071.35011	-187500.0224	-28285.84204	-23326.25816
62	-33900.26497	-10214.05431	-39521.8181	-50190.68571	-71447.03823	-187500.0224	-28385.01673	-23382.80808
63	-34013.90124	-9926.655582	-39539.78891	-50216.30081	-71711.63818	-187500.0224	-28404.19452	-23408.51258
64	-34244.43713	-10846.20635	-39378.54342	-50086.1466	-71619.77251	-187500.0224	-28256.71771	-23324.87235
65	-34137.46168	-11189.70796	-39354.62706	-50057.42461	-71208.76863	-187500.0224	-28230.16384	-23283.02989
66	-33998.52324	-10839.38907	-39408.76298	-50096.45076	-71071.8642	-187500.0224	-28274.17442	-23304.46521
67	-33895.43699	-10186.20404	-39525.0144	-50189.00933	-71462.81856	-187500.0224	-28388.21303	-23374.76145
68	-34028.04989	-9931.952945	-39532.0552	-50216.74785	-71725.04922	-187500.0224	-28416.6668	-23409.87604
69	-34250.82973	-10857.7622	-39352.45894	-50082.72679	-71615.45862	-187500.0224	-28250.23571	-23317.36217
70	-34136.34409	-11177.57096	-39337.70678	-50065.78416	-71202.35368	-187500.0224	-28227.66044	-23283.67809
71	-34010.79434	-10839.59023	-39407.24306	-50118.1543	-71089.76794	-187500.0224	-28285.55146	-23318.07742
72	-33897.78392	-10179.07383	-39515.9843	-50206.77897	-71471.40163	-187500.0224	-28381.52985	-23386.04908
73	-34027.11112	-9958.193893	-39513.68207	-50220.30177	-71709.44771	-187500.0224	-28387.87775	-23407.79733
74	-34252.57316	-10904.38794	-39347.96624	-50086.72775	-71592.74925	-187500.0224	-28236.91407	-23316.02106
75	-34138.13223	-11195.69822	-39344.07703	-50073.02613	-71179.10787	-187500.0224	-28224.86648	-23288.66253
76	-34011.15197	-10838.11502	-39406.21488	-50119.406	-71077.18391	-187500.0224	-28274.95674	-23323.79947
77	-33886.65275	-10150.28479	-39502.34973	-50190.5516	-71470.59697	-187500.0224	-28366.64359	-23375.81198
78	-34018.93038	-9960.920806	-39505.21076	-50203.985	-71700.19408	-187500.0224	-28382.33452	-23401.20356
79	-34242.76075	-10920.12357	-39359.41033	-50087.82298	-71575.94074	-187500.0224	-28246.86059	-23326.50403
80	-34131.06908	-11182.04131	-39364.7524	-50083.73261	-71158.25369	-187500.0224	-28241.94321	-23303.7276
81	-34008.42506	-10816.63499	-39426.44321	-50129.01725	-71072.84767	-187500.0224	-28289.46302	-23331.91315
82	-33902.25427	-10140.56178	-39533.57512	-50213.6186	-71461.56686	-187500.0224	-28403.61338	-23388.79834
83	-34051.45217	-9991.85562	-39515.67137	-50215.4738	-71682.20093	-187500.0224	-28392.12458	-23400.71182
84	-34254.9201	-10952.93593	-39351.90014	-50082.81619	-71553.09725	-187500.0224	-28240.40094	-23308.08619
85	-34136.07587	-11191.02671	-39363.83597	-50085.76662	-71134.33732	-187500.0224	-28242.88198	-23293.51286
86	-34019.26565	-10828.23555	-39434.19927	-50140.14842	-71073.98761	-187500.0224	-28307.25501	-23331.73434
87	-33897.89568	-10132.33633	-39522.95804	-50212.45631	-71468.31709	-187500.0224	-28396.32671	-23382.67396
88	-34057.84476	-10017.64953	-39500.89687	-50208.56711	-71681.70919	-187500.0224	-28385.53082	-23397.35906
89	-34251.1203	-10980.29446	-39337.17034	-50071.46151	-71553.47723	-187500.0224	-28230.9685	-23303.83936
90	-34117.8145	-11172.89945	-39344.74758	-50072.48969	-71134.94082	-187500.0224	-28219.83733	-23284.59451
91	-34003.8653	-10792.361	-39421.57053	-50129.41958	-71081.60956	-187500.0224	-28285.05972	-23328.78391
92	-33903.01423	-10104.41901	-39533.70923	-50219.05008	-71482.5328	-187500.0224	-28396.2373	-23397.58258
93	-34076.95551	-10034.41334	-39514.57614	-50214.2668	-71688.63823	-187500.0224	-28387.65423	-23411.19479
94	-34272.08624	-11003.89791	-39364.23831	-50087.86769	-71547.46461	-187500.0224	-28244.53601	-23323.06186
95	-34130.37618	-11178.73325	-39371.52497	-50085.99014	-71141.84751	-187500.0224	-28237.38345	-23302.40885
96	-34003.8653	-10783.75557	-39433.21579	-50134.06874	-71109.1022	-187500.0224	-28287.9431	-23338.2834
97	-33892.9783	-10076.63579	-39535.83265	-50217.84308	-71507.36559	-187500.0224	-28394.35975	-23397.00143
