%OpenBCI Raw EEG Data
%Number of channels = 8
%Sample Rate = 250 Hz
%Board = OpenBCI_GUI$BoardCytonSerial
Sample Index, EXG Channel 0, EXG Channel 1, EXG Channel 2, EXG Channel 3, EXG Channel 4, EXG Channel 5, EXG Channel 6, EXG Channel 7, Accel Channel 0, Accel Channel 1, Accel Channel 2, Other, Other, Other, Other, Other, Other, Other, Analog Channel 0, Analog Channel 1, Analog Channel 2, Timestamp, Other, Timestamp (Formatted)
231.0, 22407.19913330068, 43983.44981473086, 13630.27258280189, -10982.395527648394, -9717.4432536892, 42125.12578071663, 13394.148754376025, 4230.246452122504, 0.0, 0.0, 0.0, 192.0, 0.0, 0.0, 0.0, 0.0, 0.0, 0.0, 0.0, 0.0, 0.0, 1.663660209770913E9, 0.0, 2022-09-20 12:50:09.770
232.0, 22147.605973196743, 43665.518601598575, 13485.209761286946, -10963.128323927918, -11134.38738994448, 42093.31924835673, 13181.427202394869, 2057.411021877649, 0.0, 0.0, 0.0, 192.0, 0.0, 0.0, 0.0, 0.0, 0.0, 0.0, 0.0, 0.0, 0.0, 1.6636602097709491E9, 0.0, 2022-09-20 12:50:09.770
233.0, 23116.174115678565, 44417.00660193046, 14423.446586542916, -10297.1804496265, -9588.853667837819, 42078.90237318306, 14709.168935915106, 4450.2099693071805, 0.0, 0.0, 0.0, 192.0, 0.0, 0.0, 0.0, 0.0, 0.0, 0.0, 0.0, 0.0, 0.0, 1.663660209770972E9, 0.0, 2022-09-20 12:50:09.770
234.0, 23786.927615037876, 45011.071266063605, 15019.232334999126, -10017.314257301601, -7645.660060126789, 42097.27550712532, 15661.15208401109, 7233.248023181918, 0.0, 0.0, 0.0, 192.0, 0.0, 0.0, 0.0, 0.0, 0.0, 0.0, 0.0, 0.0, 0.0, 1.6636602097709935E9, 0.0, 2022-09-20 12:50:09.770
235.0, 23453.59604997588, 44851.12218274143, 14589.832972268221, -10342.174511215033, -7610.299600398494, 42117.50383585737, 14941.761188717031, 7534.080151805896, 0.0, 0.0, 0.0, 192.0, 0.0, 0.0, 0.0, 0.0, 0.0, 0.0, 0.0, 0.0, 0.0, 1.6636602097710152E9, 0.0, 2022-09-20 12:50:09.771
236.0, 22373.962089295637, 43945.40714566793, 13593.16868700608, -10997.035920266619, -9896.234857587202, 42127.584472606715, 13336.145977514503, 4036.2780137393493, 0.0, 0.0, 0.0, 192.0, 0.0, 0.0, 0.0, 0.0, 0.0, 0.0, 0.0, 0.0, 0.0, 1.663660209771038E9, 0.0, 2022-09-20 12:50:09.771
237.0, 22192.35416559627, 43693.12300600088, 13518.111529125159, -10929.220727589218, -11173.994681119286, 42099.17540540402, 13233.260897786726, 2096.6383333967133, 0.0, 0.0, 0.0, 192.0, 0.0, 0.0, 0.0, 0.0, 0.0, 0.0, 0.0, 0.0, 0.0, 1.6636602097710605E9, 0.0, 2022-09-20 12:50:09.771
238.0, 23179.027221086886, 44463.76645133096, 14474.050935989731, -10265.664489944516, -9523.854794961786, 42087.32898084271, 14791.110431088262, 4634.388343618911, 0.0, 0.0, 0.0, 192.0, 0.0, 0.0, 0.0, 0.0, 0.0, 0.0, 0.0, 0.0, 0.0, 1.6636602097710824E9, 0.0, 2022-09-20 12:50:09.771
239.0, 23805.591321658056, 45030.89726339546, 15029.894117104306, -10012.240411310246, -7632.584289620435, 42102.774036261326, 15670.450409704497, 7349.611204816247, 0.0, 0.0, 0.0, 192.0, 0.0, 0.0, 0.0, 0.0, 0.0, 0.0, 0.0, 0.0, 0.0, 1.6636602097711067E9, 0.0, 2022-09-20 12:50:09.771
240.0, 23417.8779623363, 44825.037696962085, 14553.01964915033, -10363.140447514112, -7728.696790778255, 42121.52714985933, 14873.342498939337, 7454.038554911442, 0.63, -0.604, 0.542, 192.0, 19.0, 176.0, 237.0, 32.0, 16.0, 240.0, 0.0, 0.0, 0.0, 1.6636602097711287E9, 0.0, 2022-09-20 12:50:09.771
241.0, 22328.520992817997, 43903.31881085859, 13558.076448211248, -11016.996028065209, -10080.61439759903, 42130.51255113036, 13278.031441930705, 3834.620575263569, 0.63, -0.604, 0.542, 192.0, 0.0, 0.0, 0.0, 0.0, 0.0, 0.0, 0.0, 0.0, 0.0, 1.6636602097711537E9, 0.0, 2022-09-20 12:50:09.771
242.0, 22223.73601481152, 43714.44657021124, 13552.913195242072, -10898.956465596732, -11204.728329745332, 42105.54565257378, 13289.497886836278, 2139.8889589177325, 0.63, -0.604, 0.542, 192.0, 0.0, 0.0, 0.0, 0.0, 0.0, 0.0, 0.0, 0.0, 0.0, 1.6636602097711756E9, 0.0, 2022-09-20 12:50:09.771
243.0, 23229.631570533704, 44505.29599252892, 14525.705817425945, -10234.729675618371, -9455.63727088419, 42087.887774454095, 14870.816751815886, 4802.182889244901, 0.63, -0.604, 0.542, 192.0, 0.0, 0.0, 0.0, 0.0, 0.0, 0.0, 0.0, 0.0, 0.0, 1.6636602097711985E9, 0.0, 2022-09-20 12:50:09.771
244.0, 23809.94991182684, 45038.49685651027, 15030.519965949055, -10019.325914302579, -7618.636801080323, 42095.44266407999, 15671.210369015977, 7436.067752369375, 0.63, -0.604, 0.542, 192.0, 0.0, 0.0, 0.0, 0.0, 0.0, 0.0, 0.0, 0.0, 0.0, 1.663660209771227E9, 0.0, 2022-09-20 12:50:09.771
245.0, 23364.613755299302, 44786.05625463203, 14497.095584523153, -10408.983875391947, -7850.98318469324, 42109.32309738673, 14790.618692710244, 7338.368277355227, 0.63, -0.604, 0.542, 192.0, 0.0, 0.0, 0.0, 0.0, 0.0, 0.0, 0.0, 0.0, 0.0, 1.6636602097712572E9, 0.0, 2022-09-20 12:50:09.771
246.0, 22282.945785873628, 43860.47051673776, 13516.949238413483, -11046.813255168589, -10249.54888219224, 42118.57671959123, 13218.6205051685, 3633.5889856325375, 0.63, -0.604, 0.542, 192.0, 0.0, 0.0, 0.0, 0.0, 0.0, 0.0, 0.0, 0.0, 0.0, 1.6636602097712986E9, 0.0, 2022-09-20 12:50:09.771
247.0, 22260.705800140597, 43738.25117805615, 13584.4068031796, -10874.838933329456, -11215.010132194773, 42094.101559412666, 13350.853425366096, 2194.181346199673, 0.63, -0.604, 0.542, 192.0, 0.0, 0.0, 0.0, 0.0, 0.0, 0.0, 0.0, 0.0, 0.0, 1.663660209771619E9, 0.0, 2022-09-20 12:50:09.771
248.0, 23277.24078622351, 44541.19289412414, 14566.698916756979, -10214.300181186221, -9389.43140380757, 42078.455338293956, 14947.304421341947, 4954.666489919006, 0.63, -0.604, 0.542, 192.0, 0.0, 0.0, 0.0, 0.0, 0.0, 0.0, 0.0, 0.0, 0.0, 1.6636602097716408E9, 0.0, 2022-09-20 12:50:09.771
249.0, 23816.700138652344, 45046.521132769725, 15025.177899024236, -10023.617449237998, -7625.118806972362, 42089.09476865468, 15668.639918403616, 7501.848936301343, 0.63, -0.604, 0.542, 192.0, 0.0, 0.0, 0.0, 0.0, 0.0, 0.0, 0.0, 0.0, 0.0, 1.6636602097716627E9, 0.0, 2022-09-20 12:50:09.771
250.0, 23326.928714147656, 44751.969844337684, 14449.374610111072, -10434.10723615971, -7974.789497231186, 42110.55244333178, 14718.28844765287, 7223.368552132672, 0.626, -0.6, 0.538, 192.0, 19.0, 144.0, 237.0, 64.0, 16.0, 208.0, 0.0, 0.0, 0.0, 1.663660209771687E9, 0.0, 2022-09-20 12:50:09.771
251.0, 22246.15481450019, 43819.7903418291, 13478.392479228078, -11061.721868720279, -10408.223916080466, 42123.6952690715, 13167.6585278104, 3442.705087984215, 0.626, -0.6, 0.538, 192.0, 0.0, 0.0, 0.0, 0.0, 0.0, 0.0, 0.0, 0.0, 0.0, 1.6636602097717383E9, 0.0, 2022-09-20 12:50:09.771
252.0, 22292.132352844757, 43758.74772772166, 13611.720634903984, -10848.083895216454, -11220.709827030878, 42095.17444314652, 13404.207039380914, 2249.7254311711113, 0.626, -0.6, 0.538, 192.0, 0.0, 0.0, 0.0, 0.0, 0.0, 0.0, 0.0, 0.0, 0.0, 1.6636602097717676E9, 0.0, 2022-09-20 12:50:09.771
253.0, 23314.65760644169, 44575.122842207296, 14601.65704508508, -10196.239971666333, -9316.452958160991, 42084.445605807974, 15009.375215694336, 5108.446491771519, 0.626, -0.6, 0.538, 192.0, 0.0, 0.0, 0.0, 0.0, 0.0, 0.0, 0.0, 0.0, 0.0, 1.663660209771799E9, 0.0, 2022-09-20 12:50:09.771
254.0, 23808.38528971497, 45048.5327897707, 15013.73380586312, -10035.977963921781, -7618.927373758242, 42100.09182692669, 15651.250261217388, 7570.491143523592, 0.626, -0.6, 0.538, 192.0, 0.0, 0.0, 0.0, 0.0, 0.0, 0.0, 0.0, 0.0, 0.0, 1.6636602097718244E9, 0.0, 2022-09-20 12:50:09.771
255.0, 23267.18250121862, 44708.69686707221, 14394.434022239928, -10470.78644881087, -8099.646341758531, 42121.54950160378, 14630.066112287774, 7083.513687075817, 0.626, -0.6, 0.538, 192.0, 0.0, 0.0, 0.0, 0.0, 0.0, 0.0, 0.0, 0.0, 0.0, 1.66366020977185E9, 0.0, 2022-09-20 12:50:09.771
0.0, 22214.191819929103, 43790.598963570475, 13457.784170840285, -11069.924958935377, -10543.764894457448, 42124.61169059416, 13127.067759879561, 3261.6336061517727, 0.626, -0.6, 0.538, 192.0, 0.0, 0.0, 0.0, 0.0, 0.0, 0.0, 0.0, 0.0, 0.0, 1.6636602097718751E9, 0.0, 2022-09-20 12:50:09.771
1.0, 22342.446129613654, 43798.66794331884, 13667.667051275617, -10805.414415051273, -11176.587483476102, 42095.95675420246, 13480.024156573316, 2343.759220094588, 0.626, -0.6, 0.538, 192.0, 0.0, 0.0, 0.0, 0.0, 0.0, 0.0, 0.0, 0.0, 0.0, 1.6636602097719004E9, 0.0, 2022-09-20 12:50:09.771
2.0, 23363.362057609804, 44616.138293282784, 14653.267223032382, -10166.020413162758, -9207.801128363744, 42087.105463398155, 15080.69963225122, 5274.542304818905, 0.626, -0.6, 0.538, 192.0, 0.0, 0.0, 0.0, 0.0, 0.0, 0.0, 0.0, 0.0, 0.0, 1.6636602097719257E9, 0.0, 2022-09-20 12:50:09.771
3.0, 23801.09862102254, 45053.11489738404, 15009.218753483148, -10041.074161657592, -7590.473603066636, 42099.60008854867, 15632.05011273028, 7630.930260530742, 0.626, -0.6, 0.538, 192.0, 0.0, 0.0, 0.0, 0.0, 0.0, 0.0, 0.0, 0.0, 0.0, 1.6636602097719505E9, 0.0, 2022-09-20 12:50:09.771
4.0, 23210.63258774669, 44669.067224152954, 14348.054152495164, -10506.236315516988, -8204.230154064913, 42125.25989118336, 14544.481282768404, 6939.501397550273, 0.626, -0.598, 0.53, 192.0, 19.0, 144.0, 237.0, 80.0, 16.0, 144.0, 0.0, 0.0, 0.0, 1.6636602097719753E9, 0.0, 2022-09-20 12:50:09.771
5.0, 22177.020868899926, 43761.25112310066, 13434.426597884489, -11084.43124108687, -10667.101820361831, 42125.684574328014, 13086.856971604464, 3089.8157465238273, 0.626, -0.598, 0.53, 192.0, 0.0, 0.0, 0.0, 0.0, 0.0, 0.0, 0.0, 0.0, 0.0, 1.6636602097720003E9, 0.0, 2022-09-20 12:50:09.772
6.0, 22386.34495572388, 43839.12460078295, 13711.699987852573, -10771.730336157125, -11137.226061490306, 42097.40961759206, 13553.96372723147, 2440.2293491636933, 0.626, -0.598, 0.53, 192.0, 0.0, 0.0, 0.0, 0.0, 0.0, 0.0, 0.0, 0.0, 0.0, 1.6636602097720258E9, 0.0, 2022-09-20 12:50:09.772
7.0, 23416.939189069177, 44664.61922700635, 14701.904618967132, -10137.164311070957, -9113.27560106225, 42091.598164033676, 15153.454560453245, 5432.815007306935, 0.626, -0.598, 0.53, 192.0, 0.0, 0.0, 0.0, 0.0, 0.0, 0.0, 0.0, 0.0, 0.0, 1.6636602097721307E9, 0.0, 2022-09-20 12:50:09.772
8.0, 23805.65837689142, 45064.51428705625, 15008.771718594042, -10038.101379645035, -7585.891495453298, 42103.891623484094, 15621.410682369553, 7686.362586779904, 0.626, -0.598, 0.53, 192.0, 0.0, 0.0, 0.0, 0.0, 0.0, 0.0, 0.0, 0.0, 0.0, 1.6636602097721555E9, 0.0, 2022-09-20 12:50:09.772
9.0, 23160.765845866903, 44628.49880796657, 14303.015387417721, -10530.823234417825, -8335.88192890667, 42124.455228382976, 14467.300709164228, 6793.008064390191, 0.626, -0.598, 0.53, 192.0, 0.0, 0.0, 0.0, 0.0, 0.0, 0.0, 0.0, 0.0, 0.0, 1.6636602097721803E9, 0.0, 2022-09-20 12:50:09.772
10.0, 22156.680781445597, 43736.217169310716, 13425.642362313552, -11086.509953321214, -10790.282284055029, 42123.538806860306, 13061.10776199195, 2942.0260121853366, 0.626, -0.598, 0.53, 192.0, 0.0, 0.0, 0.0, 0.0, 0.0, 0.0, 0.0, 0.0, 0.0, 1.6636602097722058E9, 0.0, 2022-09-20 12:50:09.772
11.0, 22442.224316862146, 43880.83295593655, 13772.004994392992, -10731.810120559945, -11096.031796459174, 42093.00632393436, 13634.36295203721, 2550.8704842174634, 0.626, -0.598, 0.53, 192.0, 0.0, 0.0, 0.0, 0.0, 0.0, 0.0, 0.0, 0.0, 0.0, 1.6636602097722309E9, 0.0, 2022-09-20 12:50:09.772
12.0, 23460.234518079105, 44704.83001528144, 14748.619764878722, -10122.590973686096, -9033.479873356804, 42085.362027330644, 15220.77801475263, 5594.149898785341, 0.626, -0.598, 0.53, 192.0, 0.0, 0.0, 0.0, 0.0, 0.0, 0.0, 0.0, 0.0, 0.0, 1.663660209772256E9, 0.0, 2022-09-20 12:50:09.772
13.0, 23795.488333164256, 45066.16831614594, 14994.287788187003, -10063.403554368444, -7601.761234016566, 42102.416408350044, 15595.32619659021, 7734.374133869903, 0.626, -0.598, 0.53, 192.0, 0.0, 0.0, 0.0, 0.0, 0.0, 0.0, 0.0, 0.0, 0.0, 1.6636602097722816E9, 0.0, 2022-09-20 12:50:09.772
14.0, 23106.607569051692, 44586.38812141277, 14248.857110602512, -10573.827990749836, -8486.644445257718, 42129.886702285614, 14380.687699399914, 6619.580879161463, 0.624, -0.606, 0.526, 192.0, 19.0, 128.0, 237.0, 16.0, 16.0, 112.0, 0.0, 0.0, 0.0, 1.663660209772307E9, 0.0, 2022-09-20 12:50:09.772
15.0, 22127.4223479536, 43709.73035213118, 13402.821231224685, -11094.28836039166, -10938.004963160154, 42123.56115860476, 13039.20305242575, 2774.8796671485507, 0.624, -0.606, 0.526, 192.0, 0.0, 0.0, 0.0, 0.0, 0.0, 0.0, 0.0, 0.0, 0.0, 1.6636602097723336E9, 0.0, 2022-09-20 12:50:09.772
16.0, 22482.077477225957, 43913.421799352385, 13808.460689599597, -10700.361216111329, -11079.513857306703, 42083.551536029765, 13715.879764065716, 2652.1685900889147, 0.624, -0.606, 0.526, 192.0, 0.0, 0.0, 0.0, 0.0, 0.0, 0.0, 0.0, 0.0, 0.0, 1.663660209772359E9, 0.0, 2022-09-20 12:50:09.772
17.0, 23502.88164649983, 44738.51409417559, 14781.074497827829, -10104.754281610762, -8959.227378276275, 42083.88681219659, 15292.147134798424, 5758.055240876108, 0.624, -0.606, 0.526, 192.0, 0.0, 0.0, 0.0, 0.0, 0.0, 0.0, 0.0, 0.0, 0.0, 1.663660209772384E9, 0.0, 2022-09-20 12:50:09.772
18.0, 23795.913016308907, 45069.096394669585, 14978.082773456905, -10071.092554461069, -7603.16939391725, 42106.66323979655, 15584.284434829287, 7793.896829354386, 0.624, -0.606, 0.526, 192.0, 0.0, 0.0, 0.0, 0.0, 0.0, 0.0, 0.0, 0.0, 0.0, 1.663660209772411E9, 0.0, 2022-09-20 12:50:09.772
19.0, 23049.70002766848, 44538.73420223406, 14188.529752317638, -10611.91536330168, -8626.968696948135, 42128.74676331839, 14297.11452688152, 6447.338336388867, 0.624, -0.606, 0.526, 192.0, 0.0, 0.0, 0.0, 0.0, 0.0, 0.0, 0.0, 0.0, 0.0, 1.6636602097724333E9, 0.0, 2022-09-20 12:50:09.772
20.0, 22115.33005420328, 43692.25128796713, 13392.338263075146, -11091.092060934552, -11037.000839352708, 42125.57281560574, 13023.869755729409, 2651.4980377552556, 0.624, -0.606, 0.526, 192.0, 0.0, 0.0, 0.0, 0.0, 0.0, 0.0, 0.0, 0.0, 0.0, 1.6636602097724583E9, 0.0, 2022-09-20 12:50:09.772
21.0, 22546.785777424073, 43959.80166909715, 13866.55287343894, -10653.176683566177, -10997.661769111368, 42095.017980935336, 13804.124451175268, 2796.2702865922793, 0.624, -0.606, 0.526, 192.0, 0.0, 0.0, 0.0, 0.0, 0.0, 0.0, 0.0, 0.0, 0.0, 1.6636602097724793E9, 0.0, 2022-09-20 12:50:09.772
22.0, 23547.071045287972, 44775.03684461556, 14821.687617503121, -10076.255807430245, -8844.27235654263, 42095.86734722464, 15350.574594804597, 5918.652524787489, 0.624, -0.606, 0.526, 192.0, 0.0, 0.0, 0.0, 0.0, 0.0, 0.0, 0.0, 0.0, 0.0, 1.6636602097725272E9, 0.0, 2022-09-20 12:50:09.772
23.0, 23784.692440592342, 45068.15762140246, 14961.72129651562, -10073.193618439867, -7583.1869343742055, 42116.1403794456, 15549.773341390293, 7834.822873452053, 0.624, -0.606, 0.526, 192.0, 0.0, 0.0, 0.0, 0.0, 0.0, 0.0, 0.0, 0.0, 0.0, 1.6636602097725496E9, 0.0, 2022-09-20 12:50:09.772
24.0, 22994.93825375298, 44498.344600003315, 14137.008981348155, -10638.1116078033, -8728.713837708692, 42136.97220527795, 14206.18763043733, 6281.421337297123, 0.624, -0.606, 0.526, 192.0, 0.0, 0.0, 0.0, 0.0, 0.0, 0.0, 0.0, 0.0, 0.0, 1.6636602097725763E9, 0.0, 2022-09-20 12:50:09.772
25.0, 22091.011356235907, 43672.33588365745, 13377.541408245732, -11095.42829935888, -11097.842287760055, 42124.87991152763, 12998.85815368392, 2532.653812486388, 0.624, -0.6, 0.528, 192.0, 19.0, 128.0, 237.0, 64.0, 16.0, 128.0, 0.0, 0.0, 0.0, 1.6636602097726033E9, 0.0, 2022-09-20 12:50:09.772
26.0, 22585.968385454224, 43996.07855034811, 13911.032844905001, -10624.141767518731, -10890.48515444817, 42098.61661179264, 13876.275882277, 2925.664535244052, 0.624, -0.6, 0.528, 192.0, 0.0, 0.0, 0.0, 0.0, 0.0, 0.0, 0.0, 0.0, 0.0, 1.6636602097726283E9, 0.0, 2022-09-20 12:50:09.772
27.0, 23580.82217941549, 44806.7763217421, 14855.326992908358, -10064.118810191014, -8705.780947897549, 42098.25898388136, 15401.894200073983, 6068.543323104778, 0.624, -0.6, 0.528, 192.0, 0.0, 0.0, 0.0, 0.0, 0.0, 0.0, 0.0, 0.0, 0.0, 1.663660209772654E9, 0.0, 2022-09-20 12:50:09.772
28.0, 23766.453417116812, 45057.272321852724, 14938.922517171208, -10093.064319260637, -7533.901337850254, 42105.925632229526, 15511.842431049638, 7863.74603077722, 0.624, -0.6, 0.528, 192.0, 0.0, 0.0, 0.0, 0.0, 0.0, 0.0, 0.0, 0.0, 0.0, 1.6636602097726812E9, 0.0, 2022-09-20 12:50:09.772
29.0, 22930.63228495506, 44442.26407316495, 14078.603873086438, -10675.237855343563, -8807.83901308048, 42128.43383889602, 14114.120795025921, 6084.033082012306, 0.624, -0.6, 0.528, 192.0, 0.0, 0.0, 0.0, 0.0, 0.0, 0.0, 0.0, 0.0, 0.0, 1.663660209772748E9, 0.0, 2022-09-20 12:50:09.772
30.0, 22086.876283511672, 43661.02590096306, 13376.513228000787, -11081.57021779659, -11118.182375214385, 42120.9907079924, 12995.505392015624, 2417.139997141361, 0.624, -0.6, 0.528, 192.0, 0.0, 0.0, 0.0, 0.0, 0.0, 0.0, 0.0, 0.0, 0.0, 1.6636602097727783E9, 0.0, 2022-09-20 12:50:09.772
31.0, 22649.91672634086, 44045.02887070523, 13966.95690953218, -10576.689014040116, -10750.384420202307, 42095.12973965761, 13964.922900786747, 3061.026699665392, 0.624, -0.6, 0.528, 192.0, 0.0, 0.0, 0.0, 0.0, 0.0, 0.0, 0.0, 0.0, 0.0, 1.6636602097728057E9, 0.0, 2022-09-20 12:50:09.772
32.0, 23617.34492985546, 44840.01336574714, 14885.345385711837, -10042.929356447383, -8554.50434142403, 42102.349353116675, 15449.279898319233, 6212.08622599676, 0.624, -0.6, 0.528, 192.0, 0.0, 0.0, 0.0, 0.0, 0.0, 0.0, 0.0, 0.0, 0.0, 1.6636602097728364E9, 0.0, 2022-09-20 12:50:09.772
33.0, 23755.590469311534, 45057.629949764014, 14922.158708829727, -10099.99336004178, -7478.133735434263, 42121.41539113705, 15481.086430679135, 7885.60603685451, 0.624, -0.6, 0.528, 192.0, 0.0, 0.0, 0.0, 0.0, 0.0, 0.0, 0.0, 0.0, 0.0, 1.6636602097728612E9, 0.0, 2022-09-20 12:50:09.772
34.0, 22877.725705829347, 44399.68399997759, 14031.799320197026, -10705.055082446943, -8888.260589630674, 42141.19668498, 14036.15791036581, 5882.107422603062, 0.624, -0.6, 0.528, 192.0, 0.0, 0.0, 0.0, 0.0, 0.0, 0.0, 0.0, 0.0, 0.0, 1.6636602097728896E9, 0.0, 2022-09-20 12:50:09.772
35.0, 22076.6615362956, 43648.665386279274, 13376.245007067324, -11075.244674115738, -11156.605023933056, 42124.83520803871, 12993.85136292593, 2298.6086962948675, 0.628, -0.594, 0.532, 192.0, 19.0, 160.0, 237.0, 112.0, 16.0, 160.0, 0.0, 0.0, 0.0, 1.663660209772913E9, 0.0, 2022-09-20 12:50:09.772
36.0, 22700.521075787674, 44088.23479273734, 14021.226945069666, -10540.792112444891, -10631.607250166804, 42097.47667282542, 14050.708896006216, 3185.5482680259074, 0.628, -0.594, 0.532, 192.0, 0.0, 0.0, 0.0, 0.0, 0.0, 0.0, 0.0, 0.0, 0.0, 1.663660209772942E9, 0.0, 2022-09-20 12:50:09.772
37.0, 23649.799662804566, 44874.09977604148, 14916.95075237164, -10030.591193508053, -8424.081912527314, 42097.27550712532, 15501.806497789205, 6340.809922314874, 0.628, -0.594, 0.532, 192.0, 0.0, 0.0, 0.0, 0.0, 0.0, 0.0, 0.0, 0.0, 0.0, 1.6636602097729712E9, 0.0, 2022-09-20 12:50:09.772
38.0, 23735.36214057948, 45047.79518220368, 14896.342443983847, -10118.210031772856, -7457.279557857461, 42113.681687555516, 15443.177872082935, 7882.923827519874, 0.628, -0.594, 0.532, 192.0, 0.0, 0.0, 0.0, 0.0, 0.0, 0.0, 0.0, 0.0, 0.0, 1.6636602097730818E9, 0.0, 2022-09-20 12:50:09.773
39.0, 22817.957141155857, 44345.77159235139, 13977.864560826369, -10737.465111907139, -8987.211762334318, 42142.71660360296, 13957.837397794414, 5685.009739996164, 0.628, -0.594, 0.532, 192.0, 0.0, 0.0, 0.0, 0.0, 0.0, 0.0, 0.0, 0.0, 0.0, 1.6636602097731073E9, 0.0, 2022-09-20 12:50:09.773
40.0, 22081.13188518666, 43644.10563041039, 13382.391736792533, -11057.653851229412, -11166.551550215669, 42127.24919643989, 13012.515069546112, 2239.10835255484, 0.628, -0.594, 0.532, 192.0, 0.0, 0.0, 0.0, 0.0, 0.0, 0.0, 0.0, 0.0, 0.0, 1.6636602097731285E9, 0.0, 2022-09-20 12:50:09.773
41.0, 22760.89313756146, 44130.47958975787, 14077.240416674664, -10493.31700722182, -10495.060443289334, 42101.25411763837, 14143.490987240195, 3344.8044472699703, 0.628, -0.594, 0.532, 192.0, 0.0, 0.0, 0.0, 0.0, 0.0, 0.0, 0.0, 0.0, 0.0, 1.6636602097731516E9, 0.0, 2022-09-20 12:50:09.773
42.0, 23688.401125478882, 44902.017104866165, 14950.612479521333, -10001.623332693975, -8298.196887755024, 42119.58254809172, 15548.231071022878, 6477.736708848084, 0.628, -0.594, 0.532, 192.0, 0.0, 0.0, 0.0, 0.0, 0.0, 0.0, 0.0, 0.0, 0.0, 1.663660209773177E9, 0.0, 2022-09-20 12:50:09.773
43.0, 23719.98414039423, 45038.29569081017, 14876.717612352088, -10120.109930051558, -7433.5643569903805, 42133.038298253814, 15403.637636141497, 7889.428185156368, 0.628, -0.594, 0.532, 192.0, 0.0, 0.0, 0.0, 0.0, 0.0, 0.0, 0.0, 0.0, 0.0, 1.663660209773203E9, 0.0, 2022-09-20 12:50:09.773
44.0, 22771.577271411094, 44303.459740097496, 13937.005571962069, -10754.541844670994, -9067.923911562433, 42151.567894407264, 13881.729707924094, 5498.685598216724, 0.628, -0.594, 0.532, 192.0, 0.0, 0.0, 0.0, 0.0, 0.0, 0.0, 0.0, 0.0, 0.0, 1.663660209773234E9, 0.0, 2022-09-20 12:50:09.773
45.0, 22093.60415859272, 43648.06188917898, 13399.155545134014, -11032.642249183924, -11159.108419312051, 42130.78077206383, 13031.6258110554, 2190.269790919994, 0.63, -0.592, 0.532, 192.0, 19.0, 176.0, 237.0, 128.0, 16.0, 160.0, 0.0, 0.0, 0.0, 1.663660209773259E9, 0.0, 2022-09-20 12:50:09.773
46.0, 22816.772498699727, 44179.20639267044, 14133.812681891046, -10452.368611379698, -10345.504921138874, 42098.28133562581, 14233.792034839635, 3509.156824249843, 0.63, -0.592, 0.532, 192.0, 0.0, 0.0, 0.0, 0.0, 0.0, 0.0, 0.0, 0.0, 0.0, 1.6636602097732873E9, 0.0, 2022-09-20 12:50:09.773
47.0, 23715.737308947722, 44931.90138720291, 14971.734878031599, -9992.369710489478, -8162.030060533293, 42104.00338220637, 15584.575007507206, 6614.372922703376, 0.63, -0.592, 0.532, 192.0, 0.0, 0.0, 0.0, 0.0, 0.0, 0.0, 0.0, 0.0, 0.0, 1.663660209773314E9, 0.0, 2022-09-20 12:50:09.773
48.0, 23697.49828547219, 45027.76801917172, 14845.089893947828, -10142.796950673694, -7409.938563101121, 42126.08690572821, 15354.530853573187, 7877.22413268377, 0.63, -0.592, 0.532, 192.0, 0.0, 0.0, 0.0, 0.0, 0.0, 0.0, 0.0, 0.0, 0.0, 1.6636602097733424E9, 0.0, 2022-09-20 12:50:09.773
49.0, 22708.858276469502, 44249.92731212704, 13880.992100357069, -10795.199667835197, -9170.429011634471, 42148.75157460589, 13795.675491771162, 5277.0904036868105, 0.63, -0.592, 0.532, 192.0, 0.0, 0.0, 0.0, 0.0, 0.0, 0.0, 0.0, 0.0, 0.0, 1.6636602097733755E9, 0.0, 2022-09-20 12:50:09.773
50.0, 22098.119210972694, 43642.89863620981, 13407.738615004851, -11028.238955526229, -11165.009279848253, 42130.043164496805, 13046.221500184716, 2123.0357435984306, 0.63, -0.592, 0.532, 192.0, 0.0, 0.0, 0.0, 0.0, 0.0, 0.0, 0.0, 0.0, 0.0, 1.6636602097734041E9, 0.0, 2022-09-20 12:50:09.773
51.0, 22865.119321956554, 44210.72235235242, 14179.499647557694, -10431.939116947546, -10212.601448607618, 42101.70115252747, 14310.749090999258, 3647.849398595023, 0.63, -0.592, 0.532, 192.0, 0.0, 0.0, 0.0, 0.0, 0.0, 0.0, 0.0, 0.0, 0.0, 1.6636602097734313E9, 0.0, 2022-09-20 12:50:09.773
52.0, 23725.30385557459, 44939.99271869573, 14978.306290901459, -10002.45034723882, -8051.433628968433, 42121.1918736925, 15595.169734379022, 6709.233726171699, 0.63, -0.592, 0.532, 192.0, 0.0, 0.0, 0.0, 0.0, 0.0, 0.0, 0.0, 0.0, 0.0, 1.6636602097734563E9, 0.0, 2022-09-20 12:50:09.773
53.0, 23657.06397975254, 45001.415312458914, 14803.35918704977, -10174.2011516334, -7405.6246764212465, 42141.375498935646, 15285.866294606483, 7830.039600138617, 0.63, -0.592, 0.532, 192.0, 0.0, 0.0, 0.0, 0.0, 0.0, 0.0, 0.0, 0.0, 0.0, 1.6636602097734804E9, 0.0, 2022-09-20 12:50:09.773
54.0, 22652.218956019755, 44200.7311225809, 13833.181718967167, -10831.074217685964, -9252.63872774109, 42155.85942934268, 13715.790357087893, 5066.268749984354, 0.63, -0.592, 0.532, 192.0, 0.0, 0.0, 0.0, 0.0, 0.0, 0.0, 0.0, 0.0, 0.0, 1.663660209773614E9, 0.0, 2022-09-20 12:50:09.773
55.0, 22112.491382657456, 43649.15712465729, 13424.748292535342, -11011.721016373756, -11131.369904443014, 42130.28903368581, 13074.742326109688, 2092.927943817132, 0.634, -0.59, 0.534, 192.0, 19.0, 208.0, 237.0, 144.0, 16.0, 176.0, 0.0, 0.0, 0.0, 1.6636602097736368E9, 0.0, 2022-09-20 12:50:09.773
56.0, 22929.738215176847, 44260.723204698945, 14234.306124962108, -10395.662235696584, -10043.17522563639, 42102.0364286943, 14399.329054275639, 3806.591487716614, 0.634, -0.59, 0.534, 192.0, 0.0, 0.0, 0.0, 0.0, 0.0, 0.0, 0.0, 0.0, 0.0, 1.6636602097736604E9, 0.0, 2022-09-20 12:50:09.773
57.0, 23748.7061320193, 44961.115117206, 14992.92433177523, -9996.013044835692, -7918.418397714901, 42113.547577088786, 15621.544792836285, 6816.92443095737, 0.634, -0.59, 0.534, 192.0, 0.0, 0.0, 0.0, 0.0, 0.0, 0.0, 0.0, 0.0, 0.0, 1.6636602097736833E9, 0.0, 2022-09-20 12:50:09.773
58.0, 23623.424604347303, 44975.4649371463, 14761.44966619607, -10205.225372937366, -7396.326350727839, 42126.86921678415, 15222.946133964793, 7779.904637325363, 0.634, -0.59, 0.534, 192.0, 0.0, 0.0, 0.0, 0.0, 0.0, 0.0, 0.0, 0.0, 0.0, 1.6636602097737048E9, 0.0, 2022-09-20 12:50:09.773
59.0, 22594.685565791795, 44146.014052154314, 13777.190599106623, -10869.362755937906, -9340.771656128367, 42140.5484843908, 13631.680742702574, 4845.701735699384, 0.634, -0.59, 0.534, 192.0, 0.0, 0.0, 0.0, 0.0, 0.0, 0.0, 0.0, 0.0, 0.0, 1.6636602097737267E9, 0.0, 2022-09-20 12:50:09.773
60.0, 22123.555496162833, 43651.749927014105, 13436.214737440914, -10998.757004589677, -11103.832555274077, 42119.4931411139, 13099.753928155176, 2066.7540510599674, 0.634, -0.59, 0.534, 192.0, 0.0, 0.0, 0.0, 0.0, 0.0, 0.0, 0.0, 0.0, 0.0, 1.6636602097737527E9, 0.0, 2022-09-20 12:50:09.773
61.0, 22986.77986702679, 44306.320763387776, 14285.268102320208, -10365.286214981821, -9887.964712138739, 42097.744893758885, 14487.506686151826, 3980.5327630678134, 0.634, -0.59, 0.534, 192.0, 0.0, 0.0, 0.0, 0.0, 0.0, 0.0, 0.0, 0.0, 0.0, 1.6636602097737844E9, 0.0, 2022-09-20 12:50:09.773
62.0, 23770.09675146303, 44981.924591293886, 15006.916523804251, -9995.36484424649, -7802.92693411433, 42112.09471369919, 15645.52821463683, 6943.658822018961, 0.634, -0.59, 0.534, 192.0, 0.0, 0.0, 0.0, 0.0, 0.0, 0.0, 0.0, 0.0, 0.0, 1.6636602097738082E9, 0.0, 2022-09-20 12:50:09.773
63.0, 23585.359583539914, 44947.41349785489, 14718.91429649762, -10236.45075994143, -7411.838461379822, 42122.845902782195, 15156.494397699165, 7728.76384601162, 0.634, -0.59, 0.534, 192.0, 0.0, 0.0, 0.0, 0.0, 0.0, 0.0, 0.0, 0.0, 0.0, 1.6636602097738297E9, 0.0, 2022-09-20 12:50:09.773
64.0, 22533.821765639994, 44088.39125494853, 13714.873935565227, -10903.382110998882, -9471.976396081018, 42137.732164589426, 13546.58765156122, 4609.622610762431, 0.634, -0.59, 0.534, 192.0, 0.0, 0.0, 0.0, 0.0, 0.0, 0.0, 0.0, 0.0, 0.0, 1.6636602097738535E9, 0.0, 2022-09-20 12:50:09.773
65.0, 22137.011246324928, 43652.42047934777, 13441.556804365731, -10978.014585735153, -11118.450596147848, 42113.34641138869, 13123.178556344337, 2034.768704744423, 0.63, -0.598, 0.532, 192.0, 19.0, 176.0, 237.0, 80.0, 16.0, 160.0, 0.0, 0.0, 0.0, 1.6636602097738752E9, 0.0, 2022-09-20 12:50:09.773
66.0, 23038.32298974073, 44340.854208571225, 14326.484719095793, -10326.885918007603, -9769.254597336603, 42092.11225415615, 14564.955480689465, 4139.118389978217, 0.63, -0.598, 0.532, 192.0, 0.0, 0.0, 0.0, 0.0, 0.0, 0.0, 0.0, 0.0, 0.0, 1.6636602097738988E9, 0.0, 2022-09-20 12:50:09.773
67.0, 23785.586510370555, 44995.4697484338, 15013.912619818762, -9984.725413885762, -7710.435415558269, 42109.23369040891, 15659.81097934377, 7056.289262329253, 0.63, -0.598, 0.532, 192.0, 0.0, 0.0, 0.0, 0.0, 0.0, 0.0, 0.0, 0.0, 0.0, 1.6636602097739208E9, 0.0, 2022-09-20 12:50:09.773
68.0, 23549.775606367068, 44922.11132313148, 14682.838580946755, -10255.673260172995, -7437.341801803327, 42115.782751534316, 15093.03779519055, 7668.861170871398, 0.63, -0.598, 0.532, 192.0, 0.0, 0.0, 0.0, 0.0, 0.0, 0.0, 0.0, 0.0, 0.0, 1.663660209773944E9, 0.0, 2022-09-20 12:50:09.773
69.0, 22483.060953981992, 44041.38553635902, 13681.033394459891, -10926.359704298939, -9580.672929367176, 42128.74676331839, 13483.533380452798, 4396.990465759095, 0.63, -0.598, 0.532, 192.0, 0.0, 0.0, 0.0, 0.0, 0.0, 0.0, 0.0, 0.0, 0.0, 1.663660209774001E9, 0.0, 2022-09-20 12:50:09.774
70.0, 22163.96745013803, 43670.23481967865, 13481.409964729544, -10951.416009833338, -11087.918113221898, 42107.57966131922, 13178.968510504785, 2038.836722235289, 0.63, -0.598, 0.532, 192.0, 0.0, 0.0, 0.0, 0.0, 0.0, 0.0, 0.0, 0.0, 0.0, 1.663660209774024E9, 0.0, 2022-09-20 12:50:09.774
71.0, 23100.639653282127, 44397.29236332088, 14401.51952523226, -10293.917094936025, -9604.790461634453, 42094.68270476851, 14672.936758153053, 4315.1383775637605, 0.63, -0.598, 0.532, 192.0, 0.0, 0.0, 0.0, 0.0, 0.0, 0.0, 0.0, 0.0, 0.0, 1.6636602097740471E9, 0.0, 2022-09-20 12:50:09.774
72.0, 23801.545655911646, 45020.5260539682, 15038.991277097617, -9984.50189644121, -7596.307408369471, 42110.4406846095, 15687.214218045978, 7156.246263533386, 0.63, -0.598, 0.532, 192.0, 0.0, 0.0, 0.0, 0.0, 0.0, 0.0, 0.0, 0.0, 0.0, 1.6636602097740684E9, 0.0, 2022-09-20 12:50:09.774
73.0, 23514.392794894316, 44904.118168844965, 14653.7589614104, -10278.539094750775, -7439.912252415687, 42139.36384193467, 15038.879518375341, 7597.983789203619, 0.63, -0.598, 0.532, 192.0, 0.0, 0.0, 0.0, 0.0, 0.0, 0.0, 0.0, 0.0, 0.0, 1.6636602097740915E9, 0.0, 2022-09-20 12:50:09.774
74.0, 22433.06010163547, 44002.26998356223, 13648.332792321777, -10945.69396325278, -9646.610575510333, 42141.44255416901, 13428.101054203637, 4196.204745317072, 0.63, -0.598, 0.532, 192.0, 0.0, 0.0, 0.0, 0.0, 0.0, 0.0, 0.0, 0.0, 0.0, 1.6636602097741156E9, 0.0, 2022-09-20 12:50:09.774
75.0, 22191.325985351323, 43691.26781121109, 13513.685883723008, -10918.000151872653, -11014.000894308198, 42112.42998986602, 13229.684618673877, 2059.4003271341717, 0.628, -0.594, 0.536, 192.0, 19.0, 160.0, 237.0, 112.0, 16.0, 192.0, 0.0, 0.0, 0.0, 1.6636602097741385E9, 0.0, 2022-09-20 12:50:09.774
76.0, 23163.269241245896, 44445.59448308879, 14458.29295614874, -10252.70047816044, -9420.634439067178, 42095.62147803563, 14762.231977252004, 4483.782289479052, 0.628, -0.594, 0.536, 192.0, 0.0, 0.0, 0.0, 0.0, 0.0, 0.0, 0.0, 0.0, 0.0, 1.6636602097741647E9, 0.0, 2022-09-20 12:50:09.774
77.0, 23830.222944047804, 45042.09548736757, 15053.698724949209, -9971.940216057326, -7451.9374909326425, 42113.92755674452, 15709.34244505673, 7265.970977064488, 0.628, -0.594, 0.536, 192.0, 0.0, 0.0, 0.0, 0.0, 0.0, 0.0, 0.0, 0.0, 0.0, 1.6636602097741876E9, 0.0, 2022-09-20 12:50:09.774
78.0, 23482.206282878673, 44876.44670920929, 14612.341178934716, -10300.332045594698, -7420.957973117587, 42139.274434956846, 14970.885511742295, 7518.724503365101, 0.628, -0.594, 0.536, 192.0, 0.0, 0.0, 0.0, 0.0, 0.0, 0.0, 0.0, 0.0, 0.0, 1.6636602097742105E9, 0.0, 2022-09-20 12:50:09.774
79.0, 22389.47419994762, 43961.254532486746, 13607.205582524013, -10963.061268694553, -9702.311122692958, 42143.610673381176, 13357.983631847339, 3980.0857281787075, 0.628, -0.594, 0.536, 192.0, 0.0, 0.0, 0.0, 0.0, 0.0, 0.0, 0.0, 0.0, 0.0, 1.663660209774234E9, 0.0, 2022-09-20 12:50:09.774
80.0, 22224.339511911814, 43719.565119691506, 13546.632355050131, -10886.618302657402, -10917.798986172556, 42105.05391419577, 13276.802095985664, 2084.993074535498, 0.628, -0.594, 0.536, 192.0, 0.0, 0.0, 0.0, 0.0, 0.0, 0.0, 0.0, 0.0, 0.0, 1.6636602097742574E9, 0.0, 2022-09-20 12:50:09.774
81.0, 23218.321587839317, 44493.673085412156, 14506.483317194381, -10225.006666780313, -9214.797224378255, 42088.915954699034, 14839.74782702301, 4657.008309007681, 0.628, -0.594, 0.536, 192.0, 0.0, 0.0, 0.0, 0.0, 0.0, 0.0, 0.0, 0.0, 0.0, 1.663660209774282E9, 0.0, 2022-09-20 12:50:09.774
82.0, 23840.37063603051, 45057.31702534164, 15052.73759993763, -9981.573817917564, -7303.141928093663, 42108.00434446387, 15707.956636900502, 7363.603396845269, 0.628, -0.594, 0.536, 192.0, 0.0, 0.0, 0.0, 0.0, 0.0, 0.0, 0.0, 0.0, 0.0, 1.6636602097743175E9, 0.0, 2022-09-20 12:50:09.774
83.0, 23443.135433570795, 44846.45066815027, 14563.413210322049, -10343.873243793636, -7404.775310131945, 42128.992632507405, 14894.75547012752, 7420.980324862043, 0.628, -0.594, 0.536, 192.0, 0.0, 0.0, 0.0, 0.0, 0.0, 0.0, 0.0, 0.0, 0.0, 1.6636602097743435E9, 0.0, 2022-09-20 12:50:09.774
84.0, 22349.79985353945, 43924.59767158004, 13566.503055870899, -10992.342053931005, -9746.053486591994, 42133.91001628757, 13302.551305598177, 3775.164935012452, 0.628, -0.594, 0.536, 192.0, 0.0, 0.0, 0.0, 0.0, 0.0, 0.0, 0.0, 0.0, 0.0, 1.6636602097743683E9, 0.0, 2022-09-20 12:50:09.774
85.0, 22258.425922206156, 43748.60003573895, 13573.096820485214, -10864.557130880015, -10810.488261042627, 42096.24732688038, 13339.789311860719, 2129.8530256572994, 0.626, -0.594, 0.526, 192.0, 19.0, 144.0, 237.0, 112.0, 16.0, 112.0, 0.0, 0.0, 0.0, 1.6636602097744355E9, 0.0, 2022-09-20 12:50:09.774
86.0, 23262.0415999939, 44537.75072547802, 14538.982753632397, -10207.92993401646, -9028.741303532279, 42081.36106507314, 14917.710711683121, 4805.066264279636, 0.626, -0.594, 0.526, 192.0, 0.0, 0.0, 0.0, 0.0, 0.0, 0.0, 0.0, 0.0, 0.0, 1.6636602097744613E9, 0.0, 2022-09-20 12:50:09.774
87.0, 23836.14615632846, 45067.06238592415, 15030.40820722678, -9998.784661148151, -7190.04210114981, 42088.42421632102, 15700.424099019063, 7419.080426583341, 0.626, -0.594, 0.526, 192.0, 0.0, 0.0, 0.0, 0.0, 0.0, 0.0, 0.0, 0.0, 0.0, 1.663660209774486E9, 0.0, 2022-09-20 12:50:09.774
88.0, 23382.67396481919, 44804.38468508538, 14485.651491362036, -10393.896447884614, -7433.229080823551, 42105.97033571843, 14801.436937026614, 7279.24791327094, 0.626, -0.594, 0.526, 192.0, 0.0, 0.0, 0.0, 0.0, 0.0, 0.0, 0.0, 0.0, 0.0, 1.6636602097745085E9, 0.0, 2022-09-20 12:50:09.774
89.0, 22299.08374537036, 43875.84851692302, 13507.047415619782, -11030.630592182946, -9818.875470027384, 42117.95087074648, 13235.652534443443, 3565.9526069107783, 0.626, -0.594, 0.526, 192.0, 0.0, 0.0, 0.0, 0.0, 0.0, 0.0, 0.0, 0.0, 0.0, 1.6636602097745318E9, 0.0, 2022-09-20 12:50:09.774
90.0, 22289.69601269913, 43764.35801557994, 13592.11815501668, -10853.828293541466, -10731.765417071036, 42083.75270172986, 13389.723108973874, 2182.066700704897, 0.626, -0.594, 0.526, 192.0, 0.0, 0.0, 0.0, 0.0, 0.0, 0.0, 0.0, 0.0, 0.0, 1.6636602097745552E9, 0.0, 2022-09-20 12:50:09.774
91.0, 23310.99192035102, 44575.07813871839, 14576.041945939298, -10194.831811765649, -8870.42389755534, 42078.34357957168, 14988.25281718407, 4964.680071434984, 0.626, -0.594, 0.526, 192.0, 0.0, 0.0, 0.0, 0.0, 0.0, 0.0, 0.0, 0.0, 0.0, 1.6636602097745788E9, 0.0, 2022-09-20 12:50:09.774
92.0, 23835.967342372816, 45073.499688327276, 15020.819308855453, -10011.145175831936, -7110.179318210998, 42096.73906525839, 15687.281273279343, 7486.850915771833, 0.626, -0.594, 0.526, 192.0, 0.0, 0.0, 0.0, 0.0, 0.0, 0.0, 0.0, 0.0, 0.0, 1.6636602097746024E9, 0.0, 2022-09-20 12:50:09.774
93.0, 23335.355321807307, 44769.02422535708, 14438.33284835015, -10426.73116048946, -7475.809154010911, 42109.09957994218, 14727.072683223807, 7164.404650259573, 0.626, -0.594, 0.526, 192.0, 0.0, 0.0, 0.0, 0.0, 0.0, 0.0, 0.0, 0.0, 0.0, 1.6636602097746255E9, 0.0, 2022-09-20 12:50:09.774
94.0, 22262.851567608308, 43841.02449906165, 13480.515894951332, -11046.790903424133, -9892.949151152272, 42122.51062661537, 13192.647778111432, 3383.316502966464, 0.626, -0.594, 0.526, 192.0, 0.0, 0.0, 0.0, 0.0, 0.0, 0.0, 0.0, 0.0, 0.0, 1.6636602097746496E9, 0.0, 2022-09-20 12:50:09.774
95.0, 22332.052568441937, 43797.48330086271, 13632.306591547322, -10817.305543101495, -10652.886110888257, 42091.19583263348, 13454.2749469608, 2247.4232014922145, 0.63, -0.596, 0.524, 192.0, 19.0, 176.0, 237.0, 96.0, 16.0, 96.0, 0.0, 0.0, 0.0, 1.6636602097746737E9, 0.0, 2022-09-20 12:50:09.774
96.0, 23359.33874360785, 44617.16647352773, 14619.292571460317, -10166.86977945206, -8724.86933766238, 42079.975256916914, 15057.811445928985, 5121.432855300052, 0.63, -0.596, 0.524, 192.0, 0.0, 0.0, 0.0, 0.0, 0.0, 0.0, 0.0, 0.0, 0.0, 1.6636602097747495E9, 0.0, 2022-09-20 12:50:09.774
0.0, 0.0, 0.0, 0.0, 0.0, 0.0, 0.0, 0.0, 0.0, 0.624, -0.596, 0.53, 192.0, 19.0, 128.0, 237.0, 96.0, 16.0, 144.0, 0.0, 0.0, 0.0, 1.6636602098600736E9, 0.0, 2022-09-20 12:50:09.860
1.0, 23928.056529528683, 44833.643118577376, 15036.68904741872, -9967.671032866363, -7223.502662599405, 42081.09284413968, 15560.926861873491, 7333.741466252979, 0.624, -0.596, 0.53, 192.0, 0.0, 0.0, 0.0, 0.0, 0.0, 0.0, 0.0, 0.0, 0.0, 1.6636602103451889E9, 0.0, 2022-09-20 12:50:10.345
2.0, 23529.79314682402, 44624.65430792026, 14545.822387435723, -10325.522461595829, -7320.732750979991, 42105.41154210705, 14737.153319973151, 7393.46532743756, 0.624, -0.596, 0.53, 192.0, 0.0, 0.0, 0.0, 0.0, 0.0, 0.0, 0.0, 0.0, 0.0, 1.663660210345284E9, 0.0, 2022-09-20 12:50:10.345
3.0, 22425.080528864924, 43691.26781121109, 13540.217404391457, -10982.194361948295, -9680.831096271408, 42107.62436480813, 13119.781091187131, 3739.2903851616843, 0.624, -0.596, 0.53, 192.0, 0.0, 0.0, 0.0, 0.0, 0.0, 0.0, 0.0, 0.0, 0.0, 1.6636602103453417E9, 0.0, 2022-09-20 12:50:10.345
4.0, 22332.99134170906, 43507.15649213272, 13549.269860895856, -10852.889520274344, -10755.74883887158, 42077.69537898247, 13155.767399760176, 2100.5722404208473, 0.624, -0.596, 0.53, 192.0, 0.0, 0.0, 0.0, 0.0, 0.0, 0.0, 0.0, 0.0, 0.0, 1.6636602103454912E9, 0.0, 2022-09-20 12:50:10.345
5.0, 23339.08806313134, 44297.357713861194, 14526.421073248515, -10197.983407733847, -8964.412982989907, 42063.680835208994, 14755.280584726404, 4788.8388978050825, 0.624, -0.596, 0.53, 192.0, 0.0, 0.0, 0.0, 0.0, 0.0, 0.0, 0.0, 0.0, 0.0, 1.6636602103455174E9, 0.0, 2022-09-20 12:50:10.345
6.0, 23918.177058479436, 44833.218435432726, 15025.244954257603, -9989.151059287913, -7115.208460713442, 42073.7838237028, 15547.068780311201, 7402.718949642057, 0.624, -0.596, 0.53, 192.0, 0.0, 0.0, 0.0, 0.0, 0.0, 0.0, 0.0, 0.0, 0.0, 1.6636602103455527E9, 0.0, 2022-09-20 12:50:10.345
7.0, 23474.204358363673, 44582.96830451111, 14487.05965126272, -10372.751697629894, -7346.705478037057, 42092.08990241169, 14649.512129963892, 7271.3800992226725, 0.624, -0.596, 0.53, 192.0, 0.0, 0.0, 0.0, 0.0, 0.0, 0.0, 0.0, 0.0, 0.0, 1.663660210345578E9, 0.0, 2022-09-20 12:50:10.345
8.0, 22373.24683347307, 43639.41176407478, 13495.156287569558, -11012.436272196326, -9757.229358819648, 42093.92274545703, 13059.00669801315, 3542.5503304660715, 0.626, -0.6, 0.532, 192.0, 19.0, 144.0, 237.0, 64.0, 16.0, 160.0, 0.0, 0.0, 0.0, 1.6636602103456092E9, 0.0, 2022-09-20 12:50:10.345
9.0, 22350.537461106476, 43512.9679456911, 13569.49818962791, -10839.456121856705, -10702.819908001413, 42066.966541643924, 13205.142403261949, 2144.4710665310704, 0.626, -0.6, 0.532, 192.0, 0.0, 0.0, 0.0, 0.0, 0.0, 0.0, 0.0, 0.0, 0.0, 1.6636602103456388E9, 0.0, 2022-09-20 12:50:10.345
10.0, 23384.707973564622, 44328.58310086526, 14559.613413764646, -10181.130192414546, -8841.478388485717, 42054.20369555995, 14825.330951849337, 4936.271004232288, 0.626, -0.6, 0.532, 192.0, 0.0, 0.0, 0.0, 0.0, 0.0, 0.0, 0.0, 0.0, 0.0, 1.6636602103456635E9, 0.0, 2022-09-20 12:50:10.345
11.0, 23919.96519803586, 44833.86663602193, 15007.743538349097, -10001.578629205063, -7073.701271259937, 42069.000550389355, 15530.260268480812, 7460.878188714766, 0.626, -0.6, 0.532, 192.0, 0.0, 0.0, 0.0, 0.0, 0.0, 0.0, 0.0, 0.0, 0.0, 1.6636602103456912E9, 0.0, 2022-09-20 12:50:10.345
12.0, 23409.20548548764, 44526.37368755027, 14418.126871362552, -10424.764206977392, -7448.7635432199895, 42083.10450114066, 14550.672715982524, 7127.479568419406, 0.626, -0.6, 0.532, 192.0, 0.0, 0.0, 0.0, 0.0, 0.0, 0.0, 0.0, 0.0, 0.0, 1.6636602103457172E9, 0.0, 2022-09-20 12:50:10.345
13.0, 22317.50158280153, 43584.538231437, 13449.446970158455, -11046.14270283493, -9889.238761572691, 42082.59041101819, 12995.080708870973, 3335.215548898643, 0.626, -0.6, 0.532, 192.0, 0.0, 0.0, 0.0, 0.0, 0.0, 0.0, 0.0, 0.0, 0.0, 1.6636602103457437E9, 0.0, 2022-09-20 12:50:10.345
14.0, 22384.489760934088, 43536.414925624726, 13604.009283066904, -10815.673865756258, -10658.33993653535, 42045.50886696683, 13261.871130689518, 2211.9286312971867, 0.626, -0.6, 0.532, 192.0, 0.0, 0.0, 0.0, 0.0, 0.0, 0.0, 0.0, 0.0, 0.0, 1.66366021034577E9, 0.0, 2022-09-20 12:50:10.345
15.0, 23425.231686262094, 44366.53636295037, 14603.445184641503, -10158.040840392214, -8720.466044004685, 42048.07931757919, 14889.636920647255, 5101.428044012552, 0.626, -0.6, 0.532, 192.0, 0.0, 0.0, 0.0, 0.0, 0.0, 0.0, 0.0, 0.0, 0.0, 1.663660210345795E9, 0.0, 2022-09-20 12:50:10.345
16.0, 23913.527895632735, 44843.09790648198, 15005.955398792674, -10003.858507139506, -7023.678067168959, 42065.84895442116, 15516.692759596439, 7541.590337942879, 0.626, -0.6, 0.532, 192.0, 0.0, 0.0, 0.0, 0.0, 0.0, 0.0, 0.0, 0.0, 0.0, 1.6636602103458204E9, 0.0, 2022-09-20 12:50:10.345
17.0, 23364.077313432375, 44496.64586742471, 14378.988966821309, -10449.149960178132, -7525.810006357433, 42093.65452452356, 14475.682613334968, 7008.992971061823, 0.626, -0.6, 0.532, 192.0, 0.0, 0.0, 0.0, 0.0, 0.0, 0.0, 0.0, 0.0, 0.0, 1.6636602103458445E9, 0.0, 2022-09-20 12:50:10.345
18.0, 22296.021556379983, 43566.56742889493, 13438.338153164168, -11044.153397578406, -9984.613655163486, 42100.09182692669, 12965.643461423333, 3173.4783260200415, 0.63, -0.596, 0.536, 192.0, 19.0, 176.0, 237.0, 96.0, 16.0, 192.0, 0.0, 0.0, 0.0, 1.6636602103458674E9, 0.0, 2022-09-20 12:50:10.345
19.0, 22439.139776127315, 43584.359417481355, 13659.732181993984, -10765.293033753996, -10584.601531577293, 42064.50784975384, 13342.560928173176, 2317.1606441927725, 0.63, -0.596, 0.536, 192.0, 0.0, 0.0, 0.0, 0.0, 0.0, 0.0, 0.0, 0.0, 0.0, 1.663660210345982E9, 0.0, 2022-09-20 12:50:10.345
20.0, 23478.115913643353, 44413.206805373055, 14651.210862542495, -10128.491834222297, -8585.819135405914, 42050.8732856361, 14960.849578481864, 5271.23424663952, 0.63, -0.596, 0.536, 192.0, 0.0, 0.0, 0.0, 0.0, 0.0, 0.0, 0.0, 0.0, 0.0, 1.6636602103460133E9, 0.0, 2022-09-20 12:50:10.346
21.0, 23911.180962464925, 44846.04833675007, 14992.007910252561, -10006.339550774044, -6982.126174226543, 42066.631265477095, 15493.40224187401, 7595.055710679974, 0.63, -0.596, 0.536, 192.0, 0.0, 0.0, 0.0, 0.0, 0.0, 0.0, 0.0, 0.0, 0.0, 1.6636602103460448E9, 0.0, 2022-09-20 12:50:10.346
22.0, 23309.114373816774, 44454.93751227111, 14321.50028008226, -10465.44438188605, -7616.826309779443, 42086.65842850905, 14388.399051236995, 6858.699841344338, 0.63, -0.596, 0.536, 192.0, 0.0, 0.0, 0.0, 0.0, 0.0, 0.0, 0.0, 0.0, 0.0, 1.663660210346074E9, 0.0, 2022-09-20 12:50:10.346
23.0, 22261.331648985346, 43534.023288968005, 13406.643379526542, -11039.593641709524, -10080.547342365664, 42088.021884920825, 12924.292734181015, 3008.656562406607, 0.63, -0.596, 0.536, 192.0, 0.0, 0.0, 0.0, 0.0, 0.0, 0.0, 0.0, 0.0, 0.0, 1.663660210346099E9, 0.0, 2022-09-20 12:50:10.346
24.0, 22485.83257029445, 43619.16108359827, 13703.385138915199, -10722.131815210798, -10503.330588737797, 42058.584637473185, 13422.781339023273, 2432.182721159783, 0.63, -0.596, 0.536, 192.0, 0.0, 0.0, 0.0, 0.0, 0.0, 0.0, 0.0, 0.0, 0.0, 1.6636602103461237E9, 0.0, 2022-09-20 12:50:10.346
25.0, 23523.780527565545, 44449.26016917946, 14696.00375843093, -10096.037101273192, -8450.72519191804, 42059.74692818486, 15038.432483486235, 5440.593414377381, 0.63, -0.596, 0.536, 192.0, 0.0, 0.0, 0.0, 0.0, 0.0, 0.0, 0.0, 0.0, 0.0, 1.66366021034616E9, 0.0, 2022-09-20 12:50:10.346
26.0, 23906.59885485159, 44849.714022840744, 14985.01181423805, -10016.062559612103, -6927.699676477871, 42070.833393434696, 15481.44405859042, 7655.964214320686, 0.63, -0.596, 0.536, 192.0, 0.0, 0.0, 0.0, 0.0, 0.0, 0.0, 0.0, 0.0, 0.0, 1.6636602103461845E9, 0.0, 2022-09-20 12:50:10.346
27.0, 23254.55376560137, 44412.49154955048, 14272.125276580487, -10508.98558008499, -7690.095328103939, 42110.77596077633, 14305.965817685821, 6709.703112805261, 0.63, -0.596, 0.536, 192.0, 0.0, 0.0, 0.0, 0.0, 0.0, 0.0, 0.0, 0.0, 0.0, 1.6636602103462076E9, 0.0, 2022-09-20 12:50:10.346
28.0, 22237.10235799579, 43507.4694165551, 13392.897056686528, -11051.887101159942, -10146.730857697828, 42097.81194899225, 12897.202419901183, 2859.212798978424, 0.638, -0.59, 0.534, 192.0, 19.0, 240.0, 237.0, 144.0, 16.0, 176.0, 0.0, 0.0, 0.0, 1.663660210346247E9, 0.0, 2022-09-20 12:50:10.346
29.0, 22536.973361608194, 43657.896656739314, 13751.799017405394, -10685.139678137264, -10408.49213701393, 42054.76248917133, 13498.844325404683, 2541.8403794575192, 0.638, -0.59, 0.534, 192.0, 0.0, 0.0, 0.0, 0.0, 0.0, 0.0, 0.0, 0.0, 0.0, 1.6636602103462825E9, 0.0, 2022-09-20 12:50:10.346
30.0, 23569.42278974328, 44488.778053376445, 14734.269944938416, -10079.273292931712, -8310.803271627818, 42051.387375758575, 15099.810373760507, 5606.465709980215, 0.638, -0.59, 0.534, 192.0, 0.0, 0.0, 0.0, 0.0, 0.0, 0.0, 0.0, 0.0, 0.0, 1.6636602103463037E9, 0.0, 2022-09-20 12:50:10.346
31.0, 23901.413250137957, 44849.579912374014, 14968.985613463596, -10030.83706269706, -6881.520972433206, 42068.598218989166, 15456.141883867012, 7712.491776048158, 0.638, -0.59, 0.534, 192.0, 0.0, 0.0, 0.0, 0.0, 0.0, 0.0, 0.0, 0.0, 0.0, 1.6636602103463192E9, 0.0, 2022-09-20 12:50:10.346
32.0, 23196.171009084108, 44359.62967391368, 14213.720168318769, -10550.604528260772, -7792.06398630905, 42097.76724550334, 14212.177897951353, 6532.252613574578, 0.638, -0.59, 0.534, 192.0, 0.0, 0.0, 0.0, 0.0, 0.0, 0.0, 0.0, 0.0, 0.0, 1.6636602103463347E9, 0.0, 2022-09-20 12:50:10.346
33.0, 22213.275398406437, 43474.76881441699, 13368.667765696975, -11066.169865866885, -10238.328306475676, 42084.51266104134, 12867.83222768691, 2691.731177774808, 0.638, -0.59, 0.534, 192.0, 0.0, 0.0, 0.0, 0.0, 0.0, 0.0, 0.0, 0.0, 0.0, 1.6636602103463504E9, 0.0, 2022-09-20 12:50:10.346
34.0, 22580.3804493404, 43684.98697101915, 13784.074936398858, -10669.314643062908, -10336.38540940111, 42044.59244544416, 13568.470009382965, 2634.2424910357586, 0.638, -0.59, 0.534, 192.0, 0.0, 0.0, 0.0, 0.0, 0.0, 0.0, 0.0, 0.0, 0.0, 1.663660210346366E9, 0.0, 2022-09-20 12:50:10.346
35.0, 23610.415889074313, 44521.05397236991, 14763.930709830609, -10070.332595149588, -8188.561581201742, 42049.95686411344, 15152.940470330772, 5748.823970416066, 0.638, -0.59, 0.534, 192.0, 0.0, 0.0, 0.0, 0.0, 0.0, 0.0, 0.0, 0.0, 0.0, 1.6636602103464823E9, 0.0, 2022-09-20 12:50:10.346
36.0, 23896.518218102243, 44849.5352088851, 14953.495854556068, -10044.851606470538, -6839.566748090595, 42068.62057073362, 15425.229421285323, 7748.545139854567, 0.638, -0.59, 0.534, 192.0, 0.0, 0.0, 0.0, 0.0, 0.0, 0.0, 0.0, 0.0, 0.0, 1.6636602103465123E9, 0.0, 2022-09-20 12:50:10.346
37.0, 23134.59195310974, 44304.1079406867, 14153.057533867066, -10589.854191524291, -7888.779984567164, 42085.33967558619, 14113.69611188127, 6343.313317693868, 0.638, -0.59, 0.534, 192.0, 0.0, 0.0, 0.0, 0.0, 0.0, 0.0, 0.0, 0.0, 0.0, 1.6636602103465464E9, 0.0, 2022-09-20 12:50:10.346
38.0, 22192.175351640624, 43447.052651292404, 13358.050687080704, -11065.76753446669, -10292.486583290885, 42073.60500974715, 12844.049971586463, 2558.9618157102846, 0.628, -0.588, 0.536, 192.0, 19.0, 160.0, 237.0, 160.0, 16.0, 192.0, 0.0, 0.0, 0.0, 1.6636602103465793E9, 0.0, 2022-09-20 12:50:10.346
39.0, 22635.90218256738, 43722.11321855941, 13843.50822490552, -10629.57324142137, -10207.415843893987, 42040.70324190894, 13651.238519100967, 2767.570646711665, 0.628, -0.588, 0.536, 192.0, 0.0, 0.0, 0.0, 0.0, 0.0, 0.0, 0.0, 0.0, 0.0, 1.663660210346613E9, 0.0, 2022-09-20 12:50:10.346
40.0, 23641.86479352293, 44539.874141201275, 14796.251332312982, -10061.794228767661, -8032.92638455944, 42046.11236406712, 15202.449584299278, 5887.963579650353, 0.628, -0.588, 0.536, 192.0, 0.0, 0.0, 0.0, 0.0, 0.0, 0.0, 0.0, 0.0, 0.0, 1.6636602103466558E9, 0.0, 2022-09-20 12:50:10.346
41.0, 23874.211177135847, 44826.44585686277, 14923.81273791942, -10070.444353871866, -6775.774869415149, 42059.41165201803, 15384.370432421021, 7762.090296994484, 0.628, -0.588, 0.536, 192.0, 0.0, 0.0, 0.0, 0.0, 0.0, 0.0, 0.0, 0.0, 0.0, 1.663660210346699E9, 0.0, 2022-09-20 12:50:10.346
42.0, 23073.45993202447, 44242.417125990054, 14090.606759858938, -10637.329296747363, -7943.117075338016, 42073.403844047054, 14021.450462514218, 6139.979498383939, 0.628, -0.588, 0.536, 192.0, 0.0, 0.0, 0.0, 0.0, 0.0, 0.0, 0.0, 0.0, 0.0, 1.6636602103467188E9, 0.0, 2022-09-20 12:50:10.346
43.0, 22178.71960147853, 43419.04591548991, 13340.616326405565, -11069.85790370201, -10300.644970017072, 42066.832431177194, 12826.056817299941, 2415.7988924740425, 0.628, -0.588, 0.536, 192.0, 0.0, 0.0, 0.0, 0.0, 0.0, 0.0, 0.0, 0.0, 0.0, 1.6636602103467393E9, 0.0, 2022-09-20 12:50:10.346
44.0, 22692.407392550398, 43755.99846315366, 13886.55768472644, -10592.826973536847, -10053.3229176191, 42039.65270991954, 13734.811691619361, 2885.565505691231, 0.628, -0.588, 0.536, 192.0, 0.0, 0.0, 0.0, 0.0, 0.0, 0.0, 0.0, 0.0, 0.0, 1.6636602103467677E9, 0.0, 2022-09-20 12:50:10.346
45.0, 23685.271881255136, 44571.21128692762, 14828.013161183973, -10043.689315758862, -7854.335946361536, 42052.25909379233, 15263.894529806916, 6032.892290698564, 0.628, -0.588, 0.536, 192.0, 0.0, 0.0, 0.0, 0.0, 0.0, 0.0, 0.0, 0.0, 0.0, 1.6636602103468761E9, 0.0, 2022-09-20 12:50:10.346
46.0, 23862.610621763542, 44819.58387131499, 14906.065452821906, -10075.361737652032, -6702.259981901644, 42068.240591077876, 15354.79907450665, 7787.571285673534, 0.628, -0.588, 0.536, 192.0, 0.0, 0.0, 0.0, 0.0, 0.0, 0.0, 0.0, 0.0, 0.0, 1.6636602103469043E9, 0.0, 2022-09-20 12:50:10.346
47.0, 23006.784678314292, 44184.257886917345, 14035.308544076508, -10666.811247683912, -8022.175195476437, 42079.774091216816, 13928.400150346775, 5938.143245952517, 0.628, -0.588, 0.536, 192.0, 0.0, 0.0, 0.0, 0.0, 0.0, 0.0, 0.0, 0.0, 0.0, 1.6636602103469417E9, 0.0, 2022-09-20 12:50:10.346
48.0, 22157.418389012622, 43394.771921011445, 13334.06726528016, -11070.349642080027, -10342.442732148496, 42063.70318695345, 12812.15403224874, 2300.5756498069345, 0.626, -0.598, 0.538, 192.0, 19.0, 144.0, 237.0, 80.0, 16.0, 208.0, 0.0, 0.0, 0.0, 1.66366021034698E9, 0.0, 2022-09-20 12:50:10.346
49.0, 22733.199326181333, 43789.749597281174, 13932.46816783764, -10567.256577879974, -9949.92374776885, 42032.99189007186, 13806.180811665155, 3013.819815375783, 0.626, -0.598, 0.538, 192.0, 0.0, 0.0, 0.0, 0.0, 0.0, 0.0, 0.0, 0.0, 0.0, 1.6636602103470485E9, 0.0, 2022-09-20 12:50:10.347
50.0, 23710.26113155617, 44598.055732018445, 14856.310469664393, -10033.631030753975, -7742.957203740741, 42040.59148318666, 15304.41824250439, 6177.262208135392, 0.626, -0.598, 0.538, 192.0, 0.0, 0.0, 0.0, 0.0, 0.0, 0.0, 0.0, 0.0, 0.0, 1.6636602103472884E9, 0.0, 2022-09-20 12:50:10.347
51.0, 23837.040226106674, 44809.235013632184, 14876.672908863176, -10102.452051931865, -6701.321208634521, 42056.215352560925, 15308.419204761889, 7799.618875934944, 0.626, -0.598, 0.538, 192.0, 0.0, 0.0, 0.0, 0.0, 0.0, 0.0, 0.0, 0.0, 0.0, 1.6636602103473144E9, 0.0, 2022-09-20 12:50:10.347
52.0, 22935.124985590577, 44125.40574376652, 13966.845150809902, -10721.371855899317, -8172.021290304815, 42074.119099869626, 13826.02916074147, 5724.482920704237, 0.626, -0.598, 0.538, 192.0, 0.0, 0.0, 0.0, 0.0, 0.0, 0.0, 0.0, 0.0, 0.0, 1.6636602103473377E9, 0.0, 2022-09-20 12:50:10.347
53.0, 22144.744949906464, 43377.87400220323, 13317.906954038974, -11071.66839500289, -10443.942003720047, 42062.54089624177, 12798.742985575556, 2199.635171846768, 0.626, -0.598, 0.538, 192.0, 0.0, 0.0, 0.0, 0.0, 0.0, 0.0, 0.0, 0.0, 0.0, 1.6636602103473632E9, 0.0, 2022-09-20 12:50:10.347
54.0, 22796.074783334112, 43839.92926358333, 13988.839267353926, -10523.670676192127, -9880.968616124228, 42046.04530883376, 13898.761737199038, 3179.0886138783235, 0.626, -0.598, 0.538, 192.0, 0.0, 0.0, 0.0, 0.0, 0.0, 0.0, 0.0, 0.0, 0.0, 1.6636602103473873E9, 0.0, 2022-09-20 12:50:10.347
55.0, 23746.44860582931, 44630.86809287883, 14890.352176469825, -10023.46098702681, -7682.115755333395, 42047.98991060137, 15346.394818591454, 6317.228831914525, 0.626, -0.598, 0.538, 192.0, 0.0, 0.0, 0.0, 0.0, 0.0, 0.0, 0.0, 0.0, 0.0, 1.6636602103474097E9, 0.0, 2022-09-20 12:50:10.347
56.0, 23816.744842141252, 44800.89781295035, 14855.483455119545, -10122.702732408374, -6761.827380875037, 42058.517582239816, 15253.813893057573, 7801.027035835628, 0.626, -0.598, 0.538, 192.0, 0.0, 0.0, 0.0, 0.0, 0.0, 0.0, 0.0, 0.0, 0.0, 1.663660210347433E9, 0.0, 2022-09-20 12:50:10.347
57.0, 22882.352516931598, 44087.74305435933, 13925.51677531204, -10748.41746669024, -8351.215225603011, 42081.20460286196, 13737.315086998355, 5538.404648113805, 0.626, -0.598, 0.538, 192.0, 0.0, 0.0, 0.0, 0.0, 0.0, 0.0, 0.0, 0.0, 0.0, 1.663660210347458E9, 0.0, 2022-09-20 12:50:10.347
58.0, 22151.942211621074, 43388.11110116376, 13342.49387293981, -11053.8093511831, -10538.378124043718, 42069.24641957837, 12808.264828713516, 2150.3272235783606, 0.626, -0.6, 0.538, 192.0, 19.0, 144.0, 237.0, 64.0, 16.0, 208.0, 0.0, 0.0, 0.0, 1.6636602103474822E9, 0.0, 2022-09-20 12:50:10.347
59.0, 22850.188356660412, 43889.57248801857, 14051.871186717892, -10486.83500132978, -9845.004659295639, 42041.12792505359, 13974.71296485817, 3342.2787001465204, 0.626, -0.6, 0.538, 192.0, 0.0, 0.0, 0.0, 0.0, 0.0, 0.0, 0.0, 0.0, 0.0, 1.6636602103475082E9, 0.0, 2022-09-20 12:50:10.347
60.0, 23774.83532128755, 44664.35100607288, 14921.801080918442, -10013.35799853301, -7663.474400457669, 42047.408765245535, 15376.770839306217, 6460.302348172945, 0.626, -0.6, 0.538, 192.0, 0.0, 0.0, 0.0, 0.0, 0.0, 0.0, 0.0, 0.0, 0.0, 1.6636602103475318E9, 0.0, 2022-09-20 12:50:10.347
61.0, 23794.6166151305, 44797.88032744889, 14835.36688510977, -10143.19928207389, -6851.614338352006, 42065.312512554236, 15202.516639532643, 7809.386588261913, 0.626, -0.6, 0.538, 192.0, 0.0, 0.0, 0.0, 0.0, 0.0, 0.0, 0.0, 0.0, 0.0, 1.6636602103475552E9, 0.0, 2022-09-20 12:50:10.347
62.0, 22823.053338891666, 44044.984167216324, 13880.232141045588, -10787.197743320197, -8558.795876359449, 42088.647733765574, 13651.462036545521, 5346.1796457981645, 0.626, -0.6, 0.538, 192.0, 0.0, 0.0, 0.0, 0.0, 0.0, 0.0, 0.0, 0.0, 0.0, 1.6636602103475845E9, 0.0, 2022-09-20 12:50:10.347
63.0, 22154.691476189077, 43390.63684828721, 13354.943794601417, -11044.7568946787, -10661.200959825632, 42069.67110272302, 12821.54176491997, 2101.3992549656937, 0.626, -0.6, 0.538, 192.0, 0.0, 0.0, 0.0, 0.0, 0.0, 0.0, 0.0, 0.0, 0.0, 1.6636602103476183E9, 0.0, 2022-09-20 12:50:10.347
64.0, 22911.409784723495, 43944.624834612, 14113.539649670083, -10450.35695437872, -9818.383731649368, 42043.139582054566, 14069.171436926299, 3514.051856285555, 0.626, -0.6, 0.538, 192.0, 0.0, 0.0, 0.0, 0.0, 0.0, 0.0, 0.0, 0.0, 0.0, 1.6636602103476431E9, 0.0, 2022-09-20 12:50:10.347
65.0, 23809.033490304173, 44702.25956466908, 14948.511415542534, -9999.119937314981, -7652.544397419024, 42055.52244848281, 15417.808642126161, 6605.9686667881815, 0.626, -0.6, 0.538, 192.0, 0.0, 0.0, 0.0, 0.0, 0.0, 0.0, 0.0, 0.0, 0.0, 1.6636602103476667E9, 0.0, 2022-09-20 12:50:10.347
66.0, 23778.411600400403, 44794.66167624732, 14809.192992352606, -10154.53161651273, -6957.248682647787, 42083.2833150963, 15159.981269834194, 7808.246649294692, 0.626, -0.6, 0.538, 192.0, 0.0, 0.0, 0.0, 0.0, 0.0, 0.0, 0.0, 0.0, 0.0, 1.6636602103479068E9, 0.0, 2022-09-20 12:50:10.347
67.0, 22777.74635288076, 44003.92401265192, 13837.160329480212, -10805.749691218101, -8784.481440124684, 42102.86344323915, 13577.991852520927, 5150.937157981058, 0.626, -0.6, 0.538, 192.0, 0.0, 0.0, 0.0, 0.0, 0.0, 0.0, 0.0, 0.0, 0.0, 1.6636602103479488E9, 0.0, 2022-09-20 12:50:10.347
68.0, 22178.652546245165, 43407.0430287174, 13378.658995468497, -11022.98629557923, -10782.637987451315, 42072.04038763528, 12854.01884961353, 2076.6558738536687, 0.62, -0.596, 0.536, 192.0, 19.0, 96.0, 237.0, 96.0, 16.0, 192.0, 0.0, 0.0, 0.0, 1.6636602103479815E9, 0.0, 2022-09-20 12:50:10.347
69.0, 22977.325079122198, 44000.0348091167, 14172.034164909623, -10418.30455282981, -9801.441109352245, 42047.16289605652, 14163.384039805418, 3692.307018316629, 0.62, -0.596, 0.536, 192.0, 0.0, 0.0, 0.0, 0.0, 0.0, 0.0, 0.0, 0.0, 0.0, 1.6636602103480117E9, 0.0, 2022-09-20 12:50:10.348
70.0, 23835.207383061337, 44729.93102430475, 14969.656165797254, -9998.404681492411, -7660.0769353004625, 42065.04429162077, 15449.369305297054, 6740.3920579423975, 0.62, -0.596, 0.536, 192.0, 0.0, 0.0, 0.0, 0.0, 0.0, 0.0, 0.0, 0.0, 0.0, 1.6636602103480897E9, 0.0, 2022-09-20 12:50:10.348
71.0, 23752.17065240987, 44781.5188505076, 14777.051183825874, -10181.934855214937, -7074.528285804783, 42085.004399419355, 15106.046510463539, 7794.053291565573, 0.62, -0.596, 0.536, 192.0, 0.0, 0.0, 0.0, 0.0, 0.0, 0.0, 0.0, 0.0, 0.0, 1.6636602103481157E9, 0.0, 2022-09-20 12:50:10.348
72.0, 22725.13034643297, 43963.93674182138, 13790.981625435546, -10839.389066623338, -8990.87744842499, 42090.36881808863, 13505.549848741275, 4962.310786522721, 0.62, -0.596, 0.536, 192.0, 0.0, 0.0, 0.0, 0.0, 0.0, 0.0, 0.0, 0.0, 0.0, 1.6636602103481483E9, 0.0, 2022-09-20 12:50:10.348
73.0, 22195.751630753475, 43422.801008558396, 13402.84358296914, -10999.114632500963, -10868.24516871514, 42068.19588758897, 12892.6426640323, 2060.0708794678308, 0.62, -0.596, 0.536, 192.0, 0.0, 0.0, 0.0, 0.0, 0.0, 0.0, 0.0, 0.0, 0.0, 1.6636602103481736E9, 0.0, 2022-09-20 12:50:10.348
74.0, 23035.976056572923, 44055.71300455487, 14236.697761618825, -10378.764316888371, -9754.45774250719, 42045.39710824456, 14262.446971231338, 3853.641909795035, 0.62, -0.596, 0.536, 192.0, 0.0, 0.0, 0.0, 0.0, 0.0, 0.0, 0.0, 0.0, 0.0, 1.6636602103482E9, 0.0, 2022-09-20 12:50:10.348
75.0, 23853.20053734786, 44752.70745190471, 14986.464677627646, -9993.330835501056, -7655.494827687125, 42058.00349211735, 15478.068945177669, 6839.857320768514, 0.62, -0.596, 0.536, 192.0, 0.0, 0.0, 0.0, 0.0, 0.0, 0.0, 0.0, 0.0, 0.0, 1.663660210348232E9, 0.0, 2022-09-20 12:50:10.348
76.0, 23715.558494992078, 44757.75894615161, 14740.662543852633, -10199.793899034727, -7185.169420858553, 42075.32609407021, 15051.575309225955, 7741.034953717584, 0.62, -0.596, 0.536, 192.0, 0.0, 0.0, 0.0, 0.0, 0.0, 0.0, 0.0, 0.0, 0.0, 1.6636602103482733E9, 0.0, 2022-09-20 12:50:10.348
77.0, 22668.356915516488, 43912.14774991843, 13748.490959226008, -10860.511465133604, -9192.57959038968, 42094.83916697969, 13438.092283975158, 4742.79430422715, 0.62, -0.596, 0.536, 192.0, 0.0, 0.0, 0.0, 0.0, 0.0, 0.0, 0.0, 0.0, 0.0, 1.6636602103483126E9, 0.0, 2022-09-20 12:50:10.348
78.0, 22208.78269777092, 43424.99147951502, 13425.552955335732, -10976.874646767932, -10957.249815136172, 42081.13754762859, 12929.634801105834, 2027.124408140708, 0.622, -0.602, 0.536, 192.0, 19.0, 112.0, 237.0, 48.0, 16.0, 192.0, 0.0, 0.0, 0.0, 1.663660210348346E9, 0.0, 2022-09-20 12:50:10.348
79.0, 23095.72226950196, 44098.65070565352, 14298.723852482302, -10337.413589646052, -9706.602657628377, 42052.70612868144, 14358.89474855599, 4014.216841961961, 0.622, -0.602, 0.536, 192.0, 0.0, 0.0, 0.0, 0.0, 0.0, 0.0, 0.0, 0.0, 0.0, 1.663660210348376E9, 0.0, 2022-09-20 12:50:10.348
80.0, 23877.318069615136, 44776.19913532724, 15014.739634363608, -9978.109297526991, -7631.690219842222, 42068.75468120035, 15508.601428103619, 6963.104839695077, 0.622, -0.602, 0.536, 192.0, 0.0, 0.0, 0.0, 0.0, 0.0, 0.0, 0.0, 0.0, 0.0, 1.663660210348408E9, 0.0, 2022-09-20 12:50:10.348
81.0, 23676.465293939746, 44732.054440028005, 14712.34288362776, -10228.895870315537, -7285.148773807142, 42082.54570752927, 14986.934064261206, 7690.14003159285, 0.622, -0.602, 0.536, 192.0, 0.0, 0.0, 0.0, 0.0, 0.0, 0.0, 0.0, 0.0, 0.0, 1.6636602103484354E9, 0.0, 2022-09-20 12:50:10.348
82.0, 22602.151048439868, 43853.07208932306, 13700.211191202545, -10902.041006331565, -9401.568401046801, 42096.135568158104, 13351.322811999657, 4506.916344990295, 0.622, -0.602, 0.536, 192.0, 0.0, 0.0, 0.0, 0.0, 0.0, 0.0, 0.0, 0.0, 0.0, 1.6636602103485458E9, 0.0, 2022-09-20 12:50:10.348
83.0, 22219.377424642735, 43430.4006016732, 13446.340077679168, -10968.9397774863, -11033.491615473225, 42071.79451844627, 12960.27904275406, 2005.3091055523284, 0.622, -0.602, 0.536, 192.0, 0.0, 0.0, 0.0, 0.0, 0.0, 0.0, 0.0, 0.0, 0.0, 1.663660210348574E9, 0.0, 2022-09-20 12:50:10.348
84.0, 23142.459767158005, 44137.81096193921, 14348.12120772853, -10319.912173737548, -9647.728162733098, 42051.543837969766, 14439.338676850639, 4184.000692844474, 0.622, -0.602, 0.536, 192.0, 0.0, 0.0, 0.0, 0.0, 0.0, 0.0, 0.0, 0.0, 0.0, 1.6636602103486035E9, 0.0, 2022-09-20 12:50:10.348
85.0, 23883.285985384704, 44787.46441453271, 15020.104053032883, -9995.141326801935, -7607.773853275044, 42067.79355618877, 15518.659713108507, 7076.428184083484, 0.622, -0.602, 0.536, 192.0, 0.0, 0.0, 0.0, 0.0, 0.0, 0.0, 0.0, 0.0, 0.0, 1.6636602103486369E9, 0.0, 2022-09-20 12:50:10.348
86.0, 23632.700578296255, 44703.690076314226, 14669.829865673766, -10266.826780656193, -7379.897818553188, 42095.80029199127, 14918.895354139251, 7629.276231441049, 0.622, -0.602, 0.536, 192.0, 0.0, 0.0, 0.0, 0.0, 0.0, 0.0, 0.0, 0.0, 0.0, 1.663660210348663E9, 0.0, 2022-09-20 12:50:10.348
87.0, 22548.059826858025, 43805.86520503345, 13659.79923722735, -10931.254736334651, -9572.22396996307, 42105.366838618145, 13285.206351900859, 4309.99747633904, 0.622, -0.602, 0.536, 192.0, 0.0, 0.0, 0.0, 0.0, 0.0, 0.0, 0.0, 0.0, 0.0, 1.6636602103486884E9, 0.0, 2022-09-20 12:50:10.348
88.0, 22236.700026595598, 43438.73780235503, 13471.128162280103, -10942.296498095573, -11075.512895049204, 42068.03942537778, 13004.28962758656, 2021.9611551715323, 0.622, -0.602, 0.536, 192.0, 0.0, 0.0, 0.0, 0.0, 0.0, 0.0, 0.0, 0.0, 0.0, 1.6636602103487146E9, 0.0, 2022-09-20 12:50:10.348
89.0, 23188.280843291384, 44172.21029665593, 14396.89271413001, -10281.08719361868, -9589.032481793462, 42056.79649791676, 14524.565878458725, 4338.2053778416375, 0.63, -0.598, 0.536, 192.0, 19.0, 176.0, 237.0, 80.0, 16.0, 192.0, 0.0, 0.0, 0.0, 1.66366021034875E9, 0.0, 2022-09-20 12:50:10.348
90.0, 23897.12171520254, 44799.444949560755, 15033.626858428343, -9977.371689959966, -7594.295751368493, 42075.46020453694, 15536.608163906118, 7167.8915223946005, 0.63, -0.598, 0.536, 192.0, 0.0, 0.0, 0.0, 0.0, 0.0, 0.0, 0.0, 0.0, 0.0, 1.6636602103487847E9, 0.0, 2022-09-20 12:50:10.348
91.0, 23593.16034235482, 44668.75429973058, 14630.066112287774, -10284.529362264797, -7494.249343186539, 42095.39796059108, 14851.594251584322, 7546.038335089485, 0.63, -0.598, 0.536, 192.0, 0.0, 0.0, 0.0, 0.0, 0.0, 0.0, 0.0, 0.0, 0.0, 1.6636602103488286E9, 0.0, 2022-09-20 12:50:10.348
92.0, 22498.058974511503, 43754.41148929733, 13619.543745463341, -10946.632736519901, -9766.639443235332, 42113.189949177504, 13218.844022613051, 4087.642322497645, 0.63, -0.598, 0.536, 192.0, 0.0, 0.0, 0.0, 0.0, 0.0, 0.0, 0.0, 0.0, 0.0, 1.6636602103489635E9, 0.0, 2022-09-20 12:50:10.348
93.0, 22268.39480023322, 43456.39568047472, 13504.789889429796, -10902.666855176312, -11132.219270732317, 42093.72157975693, 13055.6315846004, 2026.8785389516997, 0.63, -0.598, 0.536, 192.0, 0.0, 0.0, 0.0, 0.0, 0.0, 0.0, 0.0, 0.0, 0.0, 1.663660210349078E9, 0.0, 2022-09-20 12:50:10.349
94.0, 23256.051332479878, 44224.82630310373, 14461.712773050402, -10238.104789031124, -9520.144405382205, 42079.37175981662, 14621.41598718357, 4513.5995165824315, 0.63, -0.598, 0.536, 192.0, 0.0, 0.0, 0.0, 0.0, 0.0, 0.0, 0.0, 0.0, 0.0, 1.663660210349168E9, 0.0, 2022-09-20 12:50:10.349
95.0, 23915.986587522817, 44819.89679573737, 15046.54616672351, -9972.051974779604, -7583.343396585393, 42082.61276276264, 15550.957983846425, 7268.742593376946, 0.63, -0.598, 0.536, 192.0, 0.0, 0.0, 0.0, 0.0, 0.0, 0.0, 0.0, 0.0, 0.0, 1.6636602103493109E9, 0.0, 2022-09-20 12:50:10.349
96.0, 23552.6589814018, 44638.98177611611, 14587.620149567147, -10316.827633002715, -7610.232545165128, 42093.676876268015, 14781.49918097248, 7459.492380558537, 0.63, -0.598, 0.536, 192.0, 0.0, 0.0, 0.0, 0.0, 0.0, 0.0, 0.0, 0.0, 0.0, 1.6636602103493824E9, 0.0, 2022-09-20 12:50:10.349
97.0, 22450.941497199714, 43708.07632304148, 13576.918968787071, -10979.109821213464, -9951.734239069729, 42105.702114784974, 13152.526396814155, 3879.5252298742807, 0.63, -0.598, 0.536, 192.0, 0.0, 0.0, 0.0, 0.0, 0.0, 0.0, 0.0, 0.0, 0.0, 1.6636602103495505E9, 0.0, 2022-09-20 12:50:10.349
98.0, 22304.001129150525, 43477.5627824739, 13535.188261889012, -10882.594988655448, -11169.412573505948, 42075.4825562814, 13102.346730511992, 2068.251617938473, 0.63, -0.598, 0.536, 192.0, 0.0, 0.0, 0.0, 0.0, 0.0, 0.0, 0.0, 0.0, 0.0, 1.6636602103495927E9, 0.0, 2022-09-20 12:50:10.349
99.0, 23315.574027964358, 44270.28975132582, 14510.663093407524, -10213.272000941277, -9463.39332621018, 42064.28433230929, 14694.685005508067, 4685.126803532458, 0.63, -0.602, 0.532, 192.0, 19.0, 176.0, 237.0, 48.0, 16.0, 160.0, 0.0, 0.0, 0.0, 1.6636602103496203E9, 0.0, 2022-09-20 12:50:10.349
100.0, 23930.537573163223, 44835.07363022252, 15047.328477779447, -9967.358108443988, -7589.35601584387, 42086.99370467588, 15547.292297755755, 7366.263254435451, 0.63, -0.602, 0.532, 192.0, 0.0, 0.0, 0.0, 0.0, 0.0, 0.0, 0.0, 0.0, 0.0, 1.6636602103496475E9, 0.0, 2022-09-20 12:50:10.349
101.0, 23512.917579760266, 44610.01391530203, 14539.586250732691, -10332.920889010536, -7754.356593412947, 42107.467902596945, 14699.423575332592, 7364.586873601303, 0.63, -0.602, 0.532, 192.0, 0.0, 0.0, 0.0, 0.0, 0.0, 0.0, 0.0, 0.0, 0.0, 1.6636602103496804E9, 0.0, 2022-09-20 12:50:10.349
102.0, 22413.14469732579, 43675.59923834792, 13545.023029449349, -10980.048594480586, -10145.166235585957, 42117.86146376866, 13094.747137397188, 3694.0057508952323, 0.63, -0.602, 0.532, 192.0, 0.0, 0.0, 0.0, 0.0, 0.0, 0.0, 0.0, 0.0, 0.0, 1.6636602103497093E9, 0.0, 2022-09-20 12:50:10.349
103.0, 22345.84359477086, 43512.25268986853, 13576.471933897965, -10840.685467801746, -11196.815812208153, 42081.91985868452, 13168.150266188415, 2137.4079152831932, 0.63, -0.602, 0.532, 192.0, 0.0, 0.0, 0.0, 0.0, 0.0, 0.0, 0.0, 0.0, 0.0, 1.6636602103497312E9, 0.0, 2022-09-20 12:50:10.349
104.0, 23367.407723356217, 44318.72598156047, 14559.479303297914, -10185.868762239072, -9395.354616088225, 42073.202678346956, 14778.660509426656, 4863.381965563532, 0.63, -0.602, 0.532, 192.0, 0.0, 0.0, 0.0, 0.0, 0.0, 0.0, 0.0, 0.0, 0.0, 1.6636602103497539E9, 0.0, 2022-09-20 12:50:10.349
105.0, 23935.186736009924, 44847.16592397284, 15042.321687021458, -9986.02181506417, -7585.600922775379, 42081.875155195616, 15547.292297755755, 7452.742153733034, 0.63, -0.602, 0.532, 192.0, 0.0, 0.0, 0.0, 0.0, 0.0, 0.0, 0.0, 0.0, 0.0, 1.6636602103497837E9, 0.0, 2022-09-20 12:50:10.349
106.0, 23470.985707162108, 44577.76034805302, 14489.272473963794, -10380.999491333901, -7870.004519224706, 42099.89066122659, 14623.472347673458, 7262.305290973818, 0.63, -0.602, 0.532, 192.0, 0.0, 0.0, 0.0, 0.0, 0.0, 0.0, 0.0, 0.0, 0.0, 1.6636602103498075E9, 0.0, 2022-09-20 12:50:10.349
107.0, 22374.52088290702, 43634.427325061246, 13504.05228186277, -11013.620914652458, -10300.80143222826, 42108.7419520309, 13035.604421568445, 3509.805024839047, 0.63, -0.602, 0.532, 192.0, 0.0, 0.0, 0.0, 0.0, 0.0, 0.0, 0.0, 0.0, 0.0, 1.6636602103498316E9, 0.0, 2022-09-20 12:50:10.349
108.0, 22380.82407484342, 43534.89500700176, 13605.2609807564, -10822.915830959777, -11188.746832459788, 42075.39314930358, 13219.514574946712, 2206.631267861279, 0.63, -0.602, 0.532, 192.0, 0.0, 0.0, 0.0, 0.0, 0.0, 0.0, 0.0, 0.0, 0.0, 1.663660210349848E9, 0.0, 2022-09-20 12:50:10.349
109.0, 23411.507715166535, 44351.62774939868, 14598.684263072522, -10167.272110852255, -9302.974856254443, 42074.92376267001, 14843.480568347046, 5031.131807700612, 0.622, -0.596, 0.526, 192.0, 19.0, 112.0, 237.0, 96.0, 16.0, 112.0, 0.0, 0.0, 0.0, 1.6636602103498645E9, 0.0, 2022-09-20 12:50:10.349
110.0, 23932.07984353064, 44848.70819434025, 15035.839681129419, -9991.185068033346, -7555.381364271804, 42083.66329475204, 15531.400207448032, 7535.7565326400445, 0.622, -0.596, 0.526, 192.0, 0.0, 0.0, 0.0, 0.0, 0.0, 0.0, 0.0, 0.0, 0.0, 1.6636602103498828E9, 0.0, 2022-09-20 12:50:10.349
111.0, 23409.071375020907, 44527.513626517495, 14431.582621524647, -10416.561116762296, -7974.811848975641, 42104.80804500676, 14529.21504130543, 7134.69918187847, 0.622, -0.596, 0.526, 192.0, 0.0, 0.0, 0.0, 0.0, 0.0, 0.0, 0.0, 0.0, 0.0, 1.663660210349904E9, 0.0, 2022-09-20 12:50:10.349
112.0, 22326.017597439004, 43586.08050180441, 13465.339060466178, -11026.80844388109, -10433.391980337141, 42107.37849561912, 12980.172095319283, 3323.5032348040622, 0.622, -0.596, 0.526, 192.0, 0.0, 0.0, 0.0, 0.0, 0.0, 0.0, 0.0, 0.0, 0.0, 1.66366021034992E9, 0.0, 2022-09-20 12:50:10.349
113.0, 22416.095127593893, 43558.02906251301, 13639.45914977302, -10784.426127007739, -11151.642936663979, 42077.673027238015, 13286.368642612535, 2295.2559346265716, 0.622, -0.596, 0.526, 192.0, 0.0, 0.0, 0.0, 0.0, 0.0, 0.0, 0.0, 0.0, 0.0, 1.663660210349979E9, 0.0, 2022-09-20 12:50:10.349
114.0, 23456.904108155264, 44386.272953304404, 14633.552984422802, -10139.399485516487, -9195.86529682461, 42070.14048935658, 14915.117909326305, 5212.829138377802, 0.622, -0.596, 0.526, 192.0, 0.0, 0.0, 0.0, 0.0, 0.0, 0.0, 0.0, 0.0, 0.0, 1.6636602103499951E9, 0.0, 2022-09-20 12:50:10.349
115.0, 23927.87771557304, 44847.72471758422, 15015.276076230537, -9999.723434415273, -7535.577718684402, 42092.067550667234, 15511.68596883845, 7608.489109097613, 0.622, -0.596, 0.526, 192.0, 0.0, 0.0, 0.0, 0.0, 0.0, 0.0, 0.0, 0.0, 0.0, 1.6636602103500173E9, 0.0, 2022-09-20 12:50:10.350
116.0, 23355.89657496173, 44484.508870185484, 14374.049231296687, -10448.457056100018, -8088.693986975431, 42109.99364972039, 14447.228842643362, 7003.092110525622, 0.622, -0.596, 0.526, 192.0, 0.0, 0.0, 0.0, 0.0, 0.0, 0.0, 0.0, 0.0, 0.0, 1.6636602103500335E9, 0.0, 2022-09-20 12:50:10.350
117.0, 22292.959367389605, 43558.61020786884, 13445.356600923134, -11041.404133010405, -10555.968946930045, 42108.11610318615, 12949.259632737594, 3158.4803054905306, 0.622, -0.596, 0.526, 192.0, 0.0, 0.0, 0.0, 0.0, 0.0, 0.0, 0.0, 0.0, 0.0, 1.66366021035005E9, 0.0, 2022-09-20 12:50:10.350
118.0, 22461.469168838164, 43601.61496420085, 13691.449307376064, -10752.753705114568, -11111.096872222051, 42075.95194291496, 13367.706640685397, 2388.820336916487, 0.622, -0.596, 0.526, 192.0, 0.0, 0.0, 0.0, 0.0, 0.0, 0.0, 0.0, 0.0, 0.0, 1.6636602103500705E9, 0.0, 2022-09-20 12:50:10.350
119.0, 23499.84180925391, 44432.31754688234, 14683.129153624674, -10118.321790495133, -9102.814984657167, 42063.814945675724, 14989.549218362477, 5359.411878515706, 0.63, -0.598, 0.524, 192.0, 19.0, 176.0, 237.0, 80.0, 16.0, 96.0, 0.0, 0.0, 0.0, 1.6636602103500888E9, 0.0, 2022-09-20 12:50:10.350
120.0, 23924.50260216029, 44860.26404622365, 15014.180840752226, -10003.031492594659, -7522.524299922503, 42077.404806304556, 15503.482878623354, 7658.132333532851, 0.63, -0.598, 0.524, 192.0, 0.0, 0.0, 0.0, 0.0, 0.0, 0.0, 0.0, 0.0, 0.0, 1.6636602103501072E9, 0.0, 2022-09-20 12:50:10.350
121.0, 23304.666376670168, 44451.83061979182, 14328.78694877469, -10479.369518681708, -8202.240848808391, 42099.66714378204, 14371.03174579522, 6852.888387785958, 0.63, -0.598, 0.524, 192.0, 0.0, 0.0, 0.0, 0.0, 0.0, 0.0, 0.0, 0.0, 0.0, 1.6636602108252416E9, 0.0, 2022-09-20 12:50:10.825
122.0, 22263.745637386517, 43530.78228602198, 13426.290562902757, -11042.208795810795, -10674.522599520993, 42105.03156245132, 12920.492937623614, 2993.3903209436326, 0.63, -0.598, 0.524, 192.0, 0.0, 0.0, 0.0, 0.0, 0.0, 0.0, 0.0, 0.0, 0.0, 1.6636602108252923E9, 0.0, 2022-09-20 12:50:10.825
123.0, 22506.64204438234, 43632.1474471268, 13737.538604442909, -10713.682855806692, -11065.164037366396, 42074.78965220328, 13444.529586378287, 2486.7433293751874, 0.63, -0.598, 0.524, 192.0, 0.0, 0.0, 0.0, 0.0, 0.0, 0.0, 0.0, 0.0, 0.0, 1.6636602108253274E9, 0.0, 2022-09-20 12:50:10.825
124.0, 23544.90292607581, 44465.73340484303, 14725.239840178472, -10100.015711786236, -9009.004713178243, 42077.22599234891, 15058.16907384027, 5513.482453046138, 0.63, -0.598, 0.524, 192.0, 0.0, 0.0, 0.0, 0.0, 0.0, 0.0, 0.0, 0.0, 0.0, 1.6636602108254352E9, 0.0, 2022-09-20 12:50:10.825
125.0, 23919.004073024284, 44859.45938342326, 15000.613331867855, -10018.655361968918, -7518.992724298564, 42087.91012619855, 15479.72297426736, 7703.796947455043, 0.63, -0.598, 0.524, 192.0, 0.0, 0.0, 0.0, 0.0, 0.0, 0.0, 0.0, 0.0, 0.0, 1.6636602108254616E9, 0.0, 2022-09-20 12:50:10.825
126.0, 23247.17768993112, 44402.723837223515, 14269.06308759011, -10518.328609267308, -8333.713809694507, 42111.49121659889, 14278.361413283517, 6680.1764583798, 0.63, -0.598, 0.524, 192.0, 0.0, 0.0, 0.0, 0.0, 0.0, 0.0, 0.0, 0.0, 0.0, 1.6636602108254888E9, 0.0, 2022-09-20 12:50:10.825
127.0, 22238.711683596575, 43501.79207346345, 13400.608408523609, -11051.797694182122, -10798.775946948046, 42108.07139969723, 12886.004195929074, 2825.305202639723, 0.63, -0.598, 0.524, 192.0, 0.0, 0.0, 0.0, 0.0, 0.0, 0.0, 0.0, 0.0, 0.0, 1.6636602108255243E9, 0.0, 2022-09-20 12:50:10.825
128.0, 22559.436864785777, 43672.29118016853, 13779.291663085422, -10678.389451311761, -11015.6996268868, 42060.551590985255, 13521.933677427016, 2595.5292696391666, 0.63, -0.598, 0.524, 192.0, 0.0, 0.0, 0.0, 0.0, 0.0, 0.0, 0.0, 0.0, 0.0, 1.663660210825549E9, 0.0, 2022-09-20 12:50:10.825
129.0, 23596.356641811926, 44512.403847265705, 14765.920015087131, -10071.338423650077, -8891.725110021247, 42058.98696887338, 15126.051321751038, 5694.509231389669, 0.62, -0.598, 0.522, 192.0, 19.0, 96.0, 237.0, 80.0, 16.0, 80.0, 0.0, 0.0, 0.0, 1.663660210825622E9, 0.0, 2022-09-20 12:50:10.825
130.0, 23919.004073024284, 44869.718834128245, 14990.085660229404, -10021.337571303555, -7473.618683054291, 42085.496137797374, 15462.467427547865, 7784.956131572263, 0.62, -0.598, 0.522, 192.0, 0.0, 0.0, 0.0, 0.0, 0.0, 0.0, 0.0, 0.0, 0.0, 1.6636602108256469E9, 0.0, 2022-09-20 12:50:10.825
131.0, 23186.11272407922, 44355.740470378456, 14209.853316528, -10561.087496410311, -8439.616374923751, 42108.294917141786, 14186.831019739035, 6521.344962280388, 0.62, -0.598, 0.522, 192.0, 0.0, 0.0, 0.0, 0.0, 0.0, 0.0, 0.0, 0.0, 0.0, 1.6636602108256693E9, 0.0, 2022-09-20 12:50:10.825
132.0, 22209.76617452695, 43474.27707603897, 13375.417992522478, -11067.533322278658, -10888.808773614022, 42105.925632229526, 12854.622346713824, 2691.4629568413447, 0.62, -0.598, 0.522, 192.0, 0.0, 0.0, 0.0, 0.0, 0.0, 0.0, 0.0, 0.0, 0.0, 1.6636602108256953E9, 0.0, 2022-09-20 12:50:10.825
133.0, 22611.158801455356, 43713.84307311095, 13823.279896173466, -10643.073695072377, -10922.78342518609, 42075.437852792486, 13601.438832454543, 2740.3909254540117, 0.62, -0.598, 0.522, 192.0, 0.0, 0.0, 0.0, 0.0, 0.0, 0.0, 0.0, 0.0, 0.0, 1.6636602108257189E9, 0.0, 2022-09-20 12:50:10.825
134.0, 23633.05820620754, 44545.752649993025, 14793.814992167354, -10055.580443809085, -8761.146218913344, 42075.10257662566, 15184.188209079291, 5861.096782815073, 0.62, -0.598, 0.522, 192.0, 0.0, 0.0, 0.0, 0.0, 0.0, 0.0, 0.0, 0.0, 0.0, 1.66366021082575E9, 0.0, 2022-09-20 12:50:10.825
135.0, 23902.86611352755, 44863.54975265858, 14960.559005803945, -10037.117902889002, -7444.85198794031, 42086.09963489767, 15425.519993963242, 7814.482785997723, 0.62, -0.598, 0.522, 192.0, 0.0, 0.0, 0.0, 0.0, 0.0, 0.0, 0.0, 0.0, 0.0, 1.6636602108257735E9, 0.0, 2022-09-20 12:50:10.825
136.0, 23127.61820883968, 44309.40530412261, 14148.654240209371, -10590.681206069137, -8539.528672638973, 42107.37849561912, 14094.0265767606, 6329.701105320586, 0.62, -0.598, 0.522, 192.0, 0.0, 0.0, 0.0, 0.0, 0.0, 0.0, 0.0, 0.0, 0.0, 1.663660210825796E9, 0.0, 2022-09-20 12:50:10.825
137.0, 22202.524209323434, 43465.246971279026, 13368.578358719154, -11052.691763960334, -10943.235271362695, 42101.723504271926, 12846.173387309718, 2554.4467633303125, 0.62, -0.598, 0.522, 192.0, 0.0, 0.0, 0.0, 0.0, 0.0, 0.0, 0.0, 0.0, 0.0, 1.6636602108258224E9, 0.0, 2022-09-20 12:50:10.825
138.0, 22676.87293015396, 43768.67190225982, 13882.601425957851, -10593.922209015156, -10808.94599067521, 42072.219201590924, 13699.361824913243, 2854.0048425203377, 0.62, -0.598, 0.522, 192.0, 0.0, 0.0, 0.0, 0.0, 0.0, 0.0, 0.0, 0.0, 0.0, 1.663660210825848E9, 0.0, 2022-09-20 12:50:10.825
139.0, 23684.57897717702, 44591.5737261264, 14838.853757244797, -10027.2160800953, -8625.918164958735, 42072.04038763528, 15252.741009323718, 5989.664016921999, 0.616, -0.598, 0.526, 192.0, 19.0, 64.0, 237.0, 80.0, 16.0, 112.0, 0.0, 0.0, 0.0, 1.663660210825873E9, 0.0, 2022-09-20 12:50:10.825
140.0, 23898.708689058865, 44870.92582832883, 14950.657183010244, -10039.934222690372, -7404.5070891984815, 42095.44266407999, 15405.403423953465, 7832.07360888405, 0.616, -0.598, 0.526, 192.0, 0.0, 0.0, 0.0, 0.0, 0.0, 0.0, 0.0, 0.0, 0.0, 1.6636602108258996E9, 0.0, 2022-09-20 12:50:10.825
141.0, 23069.23545232242, 44262.690158211015, 14098.36281518493, -10617.682113371147, -8630.56732780544, 42125.23753943891, 14010.878087386858, 6136.000887870895, 0.616, -0.598, 0.526, 192.0, 0.0, 0.0, 0.0, 0.0, 0.0, 0.0, 0.0, 0.0, 0.0, 1.663660210825926E9, 0.0, 2022-09-20 12:50:10.825
142.0, 22184.128723636713, 43445.06334603588, 13363.45980923889, -11042.477016744258, -10986.530600372625, 42101.61174554965, 12833.835224370388, 2440.4752183527016, 0.616, -0.598, 0.526, 192.0, 0.0, 0.0, 0.0, 0.0, 0.0, 0.0, 0.0, 0.0, 0.0, 1.6636602108259523E9, 0.0, 2022-09-20 12:50:10.825
143.0, 22722.87282024298, 43802.80301604307, 13931.305877125964, -10560.931034199124, -10685.609064770826, 42067.86061142214, 13777.168247362168, 2999.0229605463696, 0.616, -0.598, 0.526, 192.0, 0.0, 0.0, 0.0, 0.0, 0.0, 0.0, 0.0, 0.0, 0.0, 1.663660210825979E9, 0.0, 2022-09-20 12:50:10.825
144.0, 23711.6469397124, 44614.685429893194, 14862.32308892287, -10020.063521869602, -8479.558942265385, 42070.29695156777, 15295.142268555435, 6150.283652577836, 0.616, -0.598, 0.526, 192.0, 0.0, 0.0, 0.0, 0.0, 0.0, 0.0, 0.0, 0.0, 0.0, 1.663660210826032E9, 0.0, 2022-09-20 12:50:10.826
145.0, 23876.82633123712, 44855.726642099224, 14921.219935562603, -10065.303452647144, -7350.125294938719, 42096.44849258048, 15359.403533864444, 7872.262045414692, 0.616, -0.598, 0.526, 192.0, 0.0, 0.0, 0.0, 0.0, 0.0, 0.0, 0.0, 0.0, 0.0, 1.6636602108260581E9, 0.0, 2022-09-20 12:50:10.826
146.0, 23005.980015513902, 44206.497872650376, 14035.39795105433, -10661.15625633672, -8710.38540725534, 42118.4426091245, 13912.485708294596, 5945.944004767419, 0.616, -0.598, 0.526, 192.0, 0.0, 0.0, 0.0, 0.0, 0.0, 0.0, 0.0, 0.0, 0.0, 1.6636602108260844E9, 0.0, 2022-09-20 12:50:10.826
147.0, 22174.271604331923, 43428.746572583506, 13350.004059076795, -11043.75106617821, -11008.032978538631, 42099.57773680422, 12820.424177697203, 2328.5600338649792, 0.616, -0.598, 0.526, 192.0, 0.0, 0.0, 0.0, 0.0, 0.0, 0.0, 0.0, 0.0, 0.0, 1.6636602108261113E9, 0.0, 2022-09-20 12:50:10.826
148.0, 22784.004841328246, 43852.78151664514, 13981.999633550602, -10518.216850545032, -10527.31401053834, 42072.66623648003, 13863.64714665975, 3142.2752907604327, 0.616, -0.598, 0.526, 192.0, 0.0, 0.0, 0.0, 0.0, 0.0, 0.0, 0.0, 0.0, 0.0, 1.6636602108261375E9, 0.0, 2022-09-20 12:50:10.826
149.0, 23754.741103022232, 44657.958407158665, 14899.628150418777, -9999.522268715176, -8299.06860578878, 42078.56709701623, 15348.89821397045, 6292.284285102402, 0.62, -0.596, 0.528, 192.0, 19.0, 96.0, 237.0, 96.0, 16.0, 128.0, 0.0, 0.0, 0.0, 1.6636602108261645E9, 0.0, 2022-09-20 12:50:10.826
150.0, 23859.079046139606, 44853.80439207607, 14900.321054496892, -10084.794173812172, -7279.940817349055, 42095.10738791316, 15318.142213599947, 7861.466152842779, 0.62, -0.596, 0.528, 192.0, 0.0, 0.0, 0.0, 0.0, 0.0, 0.0, 0.0, 0.0, 0.0, 1.6636602108261929E9, 0.0, 2022-09-20 12:50:10.826
151.0, 22944.40095953953, 44160.87796221709, 13984.167752762765, -10699.02011144401, -8772.769126030104, 42116.85563526817, 13824.084558973856, 5713.664676387868, 0.62, -0.596, 0.528, 192.0, 0.0, 0.0, 0.0, 0.0, 0.0, 0.0, 0.0, 0.0, 0.0, 1.663660210826219E9, 0.0, 2022-09-20 12:50:10.826
152.0, 22173.131665364705, 43428.16542722767, 13358.989460347828, -11038.587813209035, -10994.353710931982, 42098.013114692345, 12833.723465648112, 2221.495177924058, 0.62, -0.596, 0.528, 192.0, 0.0, 0.0, 0.0, 0.0, 0.0, 0.0, 0.0, 0.0, 0.0, 1.6636602108262455E9, 0.0, 2022-09-20 12:50:10.826
153.0, 22836.732606498314, 43894.758092732205, 14033.766273709092, -10492.959379310534, -10371.321185984754, 42071.34748355717, 13955.423409393241, 3258.5714171613954, 0.62, -0.596, 0.528, 192.0, 0.0, 0.0, 0.0, 0.0, 0.0, 0.0, 0.0, 0.0, 0.0, 1.6636602108262715E9, 0.0, 2022-09-20 12:50:10.826
154.0, 23779.685649834355, 44680.041930680505, 14919.275333794993, -10000.773966404673, -8156.687993608474, 42077.06953013773, 15388.326691189612, 6389.64848394972, 0.62, -0.596, 0.528, 192.0, 0.0, 0.0, 0.0, 0.0, 0.0, 0.0, 0.0, 0.0, 0.0, 1.663660210826298E9, 0.0, 2022-09-20 12:50:10.826
155.0, 23836.749653428753, 44839.11929596893, 14869.520350637478, -10104.307246721655, -7240.9146715300885, 42093.60982103465, 15272.008213044193, 7836.1192746304605, 0.62, -0.596, 0.528, 192.0, 0.0, 0.0, 0.0, 0.0, 0.0, 0.0, 0.0, 0.0, 0.0, 1.6636602108263245E9, 0.0, 2022-09-20 12:50:10.826
156.0, 22889.48272341284, 44107.0102580798, 13930.255345136566, -10732.83830080489, -8838.639716939893, 42114.55340558927, 13741.159587044667, 5503.357112807884, 0.62, -0.596, 0.528, 192.0, 0.0, 0.0, 0.0, 0.0, 0.0, 0.0, 0.0, 0.0, 0.0, 1.6636602108263555E9, 0.0, 2022-09-20 12:50:10.826
157.0, 22176.640889244187, 43420.02939224594, 13360.397620248512, -11025.55674619159, -10974.013623477653, 42093.09573091218, 12839.937250606687, 2147.287386332439, 0.62, -0.596, 0.528, 192.0, 0.0, 0.0, 0.0, 0.0, 0.0, 0.0, 0.0, 0.0, 0.0, 1.663660210826382E9, 0.0, 2022-09-20 12:50:10.826
158.0, 22899.33984271763, 43946.07769800159, 14090.629111603394, -10448.524111333385, -10194.474183854365, 42066.11717535462, 14041.164701123798, 3419.6827911952487, 0.62, -0.596, 0.528, 192.0, 0.0, 0.0, 0.0, 0.0, 0.0, 0.0, 0.0, 0.0, 0.0, 1.6636602108264084E9, 0.0, 2022-09-20 12:50:10.826
159.0, 23811.04514730515, 44715.000059008606, 14944.733970729587, -9986.938236586839, -7993.319093384635, 42081.60693426215, 15418.993284582291, 6526.061180360459, 0.62, -0.596, 0.532, 192.0, 19.0, 96.0, 237.0, 96.0, 16.0, 160.0, 0.0, 0.0, 0.0, 1.6636602108264349E9, 0.0, 2022-09-20 12:50:10.826
160.0, 23808.85467634853, 44829.083362708494, 14836.350361865803, -10120.914592851948, -7196.747624486402, 42100.248289137875, 15212.91020070436, 7825.479844269735, 0.62, -0.596, 0.532, 192.0, 0.0, 0.0, 0.0, 0.0, 0.0, 0.0, 0.0, 0.0, 0.0, 1.6636602108264875E9, 0.0, 2022-09-20 12:50:10.826
161.0, 22827.47898429382, 44056.83059177764, 13874.487742720574, -10764.17544653123, -8916.401435899907, 42117.302670157274, 13649.785655711372, 5289.026235225944, 0.62, -0.596, 0.532, 192.0, 0.0, 0.0, 0.0, 0.0, 0.0, 0.0, 0.0, 0.0, 0.0, 1.6636602108265142E9, 0.0, 2022-09-20 12:50:10.826
162.0, 22178.809008456352, 43416.76603755546, 13368.868931397074, -11011.586905907025, -10956.467504080238, 42103.80221650627, 12852.87891064631, 2090.2010309935845, 0.62, -0.596, 0.532, 192.0, 0.0, 0.0, 0.0, 0.0, 0.0, 0.0, 0.0, 0.0, 0.0, 1.6636602108265405E9, 0.0, 2022-09-20 12:50:10.826
163.0, 22949.20658459742, 43981.21464028533, 14139.601783704971, -10413.476576027462, -10039.08485640107, 42082.09867264017, 14122.010960818645, 3575.2956360930966, 0.62, -0.596, 0.532, 192.0, 0.0, 0.0, 0.0, 0.0, 0.0, 0.0, 0.0, 0.0, 0.0, 1.6636602108265672E9, 0.0, 2022-09-20 12:50:10.826
164.0, 23831.072310337106, 44724.63366086884, 14962.77182850502, -9980.07625103906, -7852.659565527388, 42079.12589062761, 15446.128302351035, 6649.353402775932, 0.62, -0.596, 0.532, 192.0, 0.0, 0.0, 0.0, 0.0, 0.0, 0.0, 0.0, 0.0, 0.0, 1.663660210826594E9, 0.0, 2022-09-20 12:50:10.826
165.0, 23779.75270506772, 44801.23308911718, 14803.806221938876, -10146.663802464462, -7162.482400236417, 42095.487367568894, 15155.108589542937, 7797.428404978324, 0.62, -0.596, 0.532, 192.0, 0.0, 0.0, 0.0, 0.0, 0.0, 0.0, 0.0, 0.0, 0.0, 1.6636602108266203E9, 0.0, 2022-09-20 12:50:10.826
166.0, 22767.062219031122, 44001.934707395405, 13823.570468851385, -10794.126784101341, -8994.58783800457, 42120.09663821419, 13565.54193085932, 5074.158915777078, 0.62, -0.596, 0.532, 192.0, 0.0, 0.0, 0.0, 0.0, 0.0, 0.0, 0.0, 0.0, 0.0, 1.6636602108266456E9, 0.0, 2022-09-20 12:50:10.826
167.0, 22189.850770217272, 43422.91276728067, 13385.252760082813, -10990.50921088567, -10920.369436784917, 42099.89066122659, 12879.924521437231, 2061.8813707687104, 0.62, -0.596, 0.532, 192.0, 0.0, 0.0, 0.0, 0.0, 0.0, 0.0, 0.0, 0.0, 0.0, 1.6636602108266804E9, 0.0, 2022-09-20 12:50:10.826
168.0, 23002.98488175689, 44031.66252752096, 14191.033147696633, -10381.312415756276, -9862.550778693054, 42075.32609407021, 14208.24399092722, 3739.7374200507907, 0.62, -0.596, 0.532, 192.0, 0.0, 0.0, 0.0, 0.0, 0.0, 0.0, 0.0, 0.0, 0.0, 1.6636602108267102E9, 0.0, 2022-09-20 12:50:10.826
169.0, 23852.28411582519, 44754.74146065015, 14975.512322844545, -9970.643814878918, -7706.657970745322, 42083.21625986294, 15470.2011311294, 6769.024642589646, 0.622, -0.598, 0.532, 192.0, 19.0, 112.0, 237.0, 80.0, 16.0, 160.0, 0.0, 0.0, 0.0, 1.6636602108267376E9, 0.0, 2022-09-20 12:50:10.826
170.0, 23747.36502735198, 44784.20105984224, 14762.790770863388, -10166.221578862856, -7138.409571458051, 42102.416408350044, 15093.306016124014, 7768.460544164246, 0.622, -0.598, 0.532, 192.0, 0.0, 0.0, 0.0, 0.0, 0.0, 0.0, 0.0, 0.0, 0.0, 1.6636602108267663E9, 0.0, 2022-09-20 12:50:10.826
171.0, 22704.946721189826, 43946.83765731307, 13769.166322847168, -10831.364790363883, -9065.398164438982, 42114.463998611456, 13482.90753160805, 4876.68125351444, 0.622, -0.598, 0.532, 192.0, 0.0, 0.0, 0.0, 0.0, 0.0, 0.0, 0.0, 0.0, 0.0, 1.6636602108267927E9, 0.0, 2022-09-20 12:50:10.826
172.0, 22201.78660175641, 43423.0468777474, 13398.619103267087, -10979.020414235642, -10877.34232870845, 42097.36491410314, 12905.070233949451, 2048.8279520068113, 0.622, -0.598, 0.532, 192.0, 0.0, 0.0, 0.0, 0.0, 0.0, 0.0, 0.0, 0.0, 0.0, 1.6636602108268197E9, 0.0, 2022-09-20 12:50:10.826
173.0, 23066.15091158759, 44074.46611815287, 14247.091322790542, -10347.829502562226, -9678.931197992706, 42077.20364060446, 14300.10966063853, 3932.9458991224647, 0.622, -0.598, 0.532, 192.0, 0.0, 0.0, 0.0, 0.0, 0.0, 0.0, 0.0, 0.0, 0.0, 1.6636602108268468E9, 0.0, 2022-09-20 12:50:10.826
174.0, 23873.361810846545, 44769.58301896847, 14988.20811369516, -9972.946044557815, -7558.622367217823, 42081.584582517695, 15493.312834896189, 6914.400388526963, 0.622, -0.598, 0.532, 192.0, 0.0, 0.0, 0.0, 0.0, 0.0, 0.0, 0.0, 0.0, 0.0, 1.6636602108268726E9, 0.0, 2022-09-20 12:50:10.826
175.0, 23709.367061777957, 44753.46741121619, 14719.428386620091, -10207.035864238247, -7112.928582779001, 42091.77697798931, 15025.714340891165, 7747.472256120713, 0.622, -0.598, 0.532, 192.0, 0.0, 0.0, 0.0, 0.0, 0.0, 0.0, 0.0, 0.0, 0.0, 1.663660210826923E9, 0.0, 2022-09-20 12:50:10.826
176.0, 22642.987685559714, 43886.845575195024, 13712.750519841973, -10879.018709542599, -9142.914014209988, 42105.88092874062, 13397.613274766598, 4678.3095214735895, 0.622, -0.598, 0.532, 192.0, 0.0, 0.0, 0.0, 0.0, 0.0, 0.0, 0.0, 0.0, 0.0, 1.66366021082695E9, 0.0, 2022-09-20 12:50:10.826
177.0, 22211.554314083376, 43419.96233701257, 13412.164260407002, -10974.639472322402, -10830.917755474777, 42082.29983834027, 12933.613411618879, 2053.8347427648, 0.622, -0.598, 0.532, 192.0, 0.0, 0.0, 0.0, 0.0, 0.0, 0.0, 0.0, 0.0, 0.0, 1.66366021082698E9, 0.0, 2022-09-20 12:50:10.826
178.0, 23106.0040719514, 44096.75080737482, 14286.430393031884, -10336.430112890019, -9514.131786123728, 42065.11134685414, 14370.495303928294, 4111.469282087002, 0.622, -0.598, 0.532, 192.0, 0.0, 0.0, 0.0, 0.0, 0.0, 0.0, 0.0, 0.0, 0.0, 1.6636602108270066E9, 0.0, 2022-09-20 12:50:10.827
179.0, 23875.217005636336, 44764.93385612177, 14985.68236657171, -9989.508687199199, -7426.456502253593, 42074.52143126982, 15492.843448262627, 7039.212529565398, 0.616, -0.604, 0.534, 192.0, 19.0, 64.0, 237.0, 32.0, 16.0, 176.0, 0.0, 0.0, 0.0, 1.6636602108270333E9, 0.0, 2022-09-20 12:50:10.827
180.0, 23655.655819851854, 44705.567622848466, 14662.409086514603, -10248.565405436208, -7100.210440183931, 42073.47089928042, 14943.48227304009, 7695.6162089844, 0.616, -0.604, 0.534, 192.0, 0.0, 0.0, 0.0, 0.0, 0.0, 0.0, 0.0, 0.0, 0.0, 1.6636602108270607E9, 0.0, 2022-09-20 12:50:10.827
181.0, 22581.453333074252, 43823.456027919776, 13653.808969713327, -10911.473442491704, -9217.635895924079, 42085.33967558619, 13312.721349325342, 4468.69486197172, 0.616, -0.604, 0.534, 192.0, 0.0, 0.0, 0.0, 0.0, 0.0, 0.0, 0.0, 0.0, 0.0, 1.6636602108270867E9, 0.0, 2022-09-20 12:50:10.827
182.0, 22234.084872494328, 43429.77475282845, 13427.788129781262, -10949.337297598995, -10766.32121399894, 42066.78772768829, 12966.179903290262, 2059.355623645261, 0.616, -0.604, 0.534, 192.0, 0.0, 0.0, 0.0, 0.0, 0.0, 0.0, 0.0, 0.0, 0.0, 1.663660210827113E9, 0.0, 2022-09-20 12:50:10.827
183.0, 23169.10304654873, 44152.2725406018, 14344.74609431578, -10290.720795478916, -9304.159498710573, 42051.387375758575, 14466.965432997398, 4300.788557623453, 0.616, -0.604, 0.534, 192.0, 0.0, 0.0, 0.0, 0.0, 0.0, 0.0, 0.0, 0.0, 0.0, 1.6636602108271394E9, 0.0, 2022-09-20 12:50:10.827
184.0, 23894.841837268097, 44788.827870944486, 15001.39564292379, -9974.778887603152, -7261.1653520065975, 42068.08412886669, 15518.905582297515, 7157.430905989517, 0.616, -0.604, 0.534, 192.0, 0.0, 0.0, 0.0, 0.0, 0.0, 0.0, 0.0, 0.0, 0.0, 1.6636602108271663E9, 0.0, 2022-09-20 12:50:10.827
185.0, 23618.171944400307, 44678.52201205755, 14622.89120231762, -10264.41279225502, -7073.142477648554, 42090.882908211104, 14879.84685657583, 7623.822405793954, 0.616, -0.604, 0.534, 192.0, 0.0, 0.0, 0.0, 0.0, 0.0, 0.0, 0.0, 0.0, 0.0, 1.6636602108271928E9, 0.0, 2022-09-20 12:50:10.827
186.0, 22531.36307374991, 43777.031454686105, 13613.397015738132, -10921.934058896788, -9274.40932684056, 42108.18315841951, 13246.068447359616, 4250.050097709906, 0.616, -0.604, 0.534, 192.0, 0.0, 0.0, 0.0, 0.0, 0.0, 0.0, 0.0, 0.0, 0.0, 1.6636602108272195E9, 0.0, 2022-09-20 12:50:10.827
187.0, 22260.191710018124, 43446.33739546983, 13461.360449953134, -10912.367512269917, -10684.044442658955, 42081.025788906314, 13018.14770914885, 2065.6811673261127, 0.616, -0.604, 0.534, 192.0, 0.0, 0.0, 0.0, 0.0, 0.0, 0.0, 0.0, 0.0, 0.0, 1.663660210827246E9, 0.0, 2022-09-20 12:50:10.827
188.0, 23229.050425177866, 44199.81470105823, 14400.580751965137, -10250.867635115104, -9116.13662435253, 42064.28433230929, 14556.64063175209, 4448.511236728577, 0.616, -0.604, 0.534, 192.0, 0.0, 0.0, 0.0, 0.0, 0.0, 0.0, 0.0, 0.0, 0.0, 1.663660210827273E9, 0.0, 2022-09-20 12:50:10.827
189.0, 23915.561904378166, 44815.605260801945, 15013.219715740648, -9964.318271198068, -7123.6350683730925, 42079.639980750086, 15534.752969116327, 7232.778636548357, 0.62, -0.602, 0.536, 192.0, 19.0, 96.0, 237.0, 48.0, 16.0, 192.0, 0.0, 0.0, 0.0, 1.6636602108273E9, 0.0, 2022-09-20 12:50:10.827
190.0, 23583.571443983492, 44663.43458455022, 14583.999166965386, -10284.171734353511, -7061.20664610942, 42099.86830948214, 14809.662378986166, 7513.069512017908, 0.62, -0.602, 0.536, 192.0, 0.0, 0.0, 0.0, 0.0, 0.0, 0.0, 0.0, 0.0, 0.0, 1.6636602108273287E9, 0.0, 2022-09-20 12:50:10.827
191.0, 22483.01625049308, 43744.77788743709, 13576.382526920144, -10941.31302133954, -9331.18275775704, 42107.64671655258, 13183.014176251196, 4008.6289058481348, 0.62, -0.602, 0.536, 192.0, 0.0, 0.0, 0.0, 0.0, 0.0, 0.0, 0.0, 0.0, 0.0, 1.6636602108273785E9, 0.0, 2022-09-20 12:50:10.827
192.0, 22285.60564346381, 43473.31595102739, 13496.184467814503, -10881.991491555154, -10597.386729405729, 42075.39314930358, 13068.260320217649, 2054.706460798557, 0.62, -0.602, 0.536, 192.0, 0.0, 0.0, 0.0, 0.0, 0.0, 0.0, 0.0, 0.0, 0.0, 1.6636602108274052E9, 0.0, 2022-09-20 12:50:10.827
193.0, 23279.23009148003, 44246.77571615884, 14457.24242415934, -10222.771492334783, -8919.687142334837, 42063.211448575435, 14640.146749037118, 4586.28738955109, 0.62, -0.602, 0.536, 192.0, 0.0, 0.0, 0.0, 0.0, 0.0, 0.0, 0.0, 0.0, 0.0, 1.6636602108274317E9, 0.0, 2022-09-20 12:50:10.827
194.0, 23917.171229978947, 44823.24955740566, 15020.484032688622, -9967.4028119329, -6984.406052160985, 42084.28914359679, 15536.250535994834, 7292.323683777295, 0.62, -0.602, 0.536, 192.0, 0.0, 0.0, 0.0, 0.0, 0.0, 0.0, 0.0, 0.0, 0.0, 1.663660210827454E9, 0.0, 2022-09-20 12:50:10.827
195.0, 23527.75913807859, 44620.005145073555, 14536.412303020037, -10319.353380126166, -7058.837361197157, 42100.20358564897, 14726.804462290344, 7366.062088735353, 0.62, -0.602, 0.536, 192.0, 0.0, 0.0, 0.0, 0.0, 0.0, 0.0, 0.0, 0.0, 0.0, 1.663660210827484E9, 0.0, 2022-09-20 12:50:10.827
196.0, 22426.01930213205, 43686.082206497456, 13533.064846165758, -10969.40916411986, -9401.031959179874, 42097.78959724779, 13112.807346917076, 3742.620795085525, 0.62, -0.602, 0.536, 192.0, 0.0, 0.0, 0.0, 0.0, 0.0, 0.0, 0.0, 0.0, 0.0, 1.6636602108275137E9, 0.0, 2022-09-20 12:50:10.827
197.0, 22318.46270781311, 43488.42573027918, 13526.560488529265, -10856.041116242543, -10510.304333007853, 42067.01124513284, 13124.921992411852, 2049.0738211958196, 0.62, -0.602, 0.536, 192.0, 0.0, 0.0, 0.0, 0.0, 0.0, 0.0, 0.0, 0.0, 0.0, 1.66366021082754E9, 0.0, 2022-09-20 12:50:10.827
198.0, 23333.56718225088, 44286.13713814463, 14505.902171838543, -10198.296332156222, -8730.703142965216, 42060.93157064099, 14724.949267500553, 4699.253106028212, 0.62, -0.602, 0.536, 192.0, 0.0, 0.0, 0.0, 0.0, 0.0, 0.0, 0.0, 0.0, 0.0, 1.66366021082757E9, 0.0, 2022-09-20 12:50:10.827
199.0, 23922.379186437036, 44830.290356909085, 15019.075872787938, -9978.444573693821, -6867.797001337648, 42078.2318208494, 15535.624687150084, 7305.466509517016, 0.62, -0.602, 0.536, 192.0, 0.0, 0.0, 0.0, 0.0, 0.0, 0.0, 0.0, 0.0, 0.0, 1.663660210827597E9, 0.0, 2022-09-20 12:50:10.827
200.0, 23483.055649167974, 44583.9741330116, 14494.212209488418, -10357.217235233455, -7069.3426810911515, 42099.421274593034, 14655.882377133654, 7203.9001827121, 0.624, -0.598, 0.53, 192.0, 19.0, 128.0, 237.0, 80.0, 16.0, 144.0, 0.0, 0.0, 0.0, 1.6636602108276236E9, 0.0, 2022-09-20 12:50:10.827
201.0, 22383.014545800037, 43643.18920888772, 13503.314674295745, -10992.878495797933, -9451.39043943768, 42105.25507989587, 13063.857026559954, 3516.7787691091025, 0.624, -0.598, 0.53, 192.0, 0.0, 0.0, 0.0, 0.0, 0.0, 0.0, 0.0, 0.0, 0.0, 1.6636602108276496E9, 0.0, 2022-09-20 12:50:10.827
202.0, 22345.88829825977, 43506.66475375471, 13566.033669237337, -10831.051865941508, -10408.022750380367, 42067.16770734402, 13184.288225685148, 2081.6179611227467, 0.624, -0.598, 0.53, 192.0, 0.0, 0.0, 0.0, 0.0, 0.0, 0.0, 0.0, 0.0, 0.0, 1.6636602108276763E9, 0.0, 2022-09-20 12:50:10.827
203.0, 23369.28526989046, 44314.635612325146, 14555.657154996057, -10179.185590646934, -8558.684117637173, 42059.90339039605, 14795.156096834673, 4839.19737806289, 0.624, -0.598, 0.53, 192.0, 0.0, 0.0, 0.0, 0.0, 0.0, 0.0, 0.0, 0.0, 0.0, 1.6636602108277023E9, 0.0, 2022-09-20 12:50:10.827
204.0, 23916.5453811342, 44830.44681912027, 15020.662846644265, -9990.089832555037, -6765.805991388082, 42076.5330882708, 15528.78505334676, 7377.327367940828, 0.624, -0.598, 0.53, 192.0, 0.0, 0.0, 0.0, 0.0, 0.0, 0.0, 0.0, 0.0, 0.0, 1.6636602108277278E9, 0.0, 2022-09-20 12:50:10.827
205.0, 23430.909029353745, 44543.89745520323, 14448.569947310682, -10392.085956583735, -7085.123012676599, 42094.25802162386, 14580.221722152439, 7101.417434384518, 0.624, -0.598, 0.53, 192.0, 0.0, 0.0, 0.0, 0.0, 0.0, 0.0, 0.0, 0.0, 0.0, 1.6636602108277535E9, 0.0, 2022-09-20 12:50:10.827
206.0, 22344.86011801483, 43606.01825785855, 13473.653909403552, -11011.60925765148, -9498.194992327093, 42100.31534437124, 13014.057339913528, 3343.0833629469116, 0.624, -0.598, 0.53, 192.0, 0.0, 0.0, 0.0, 0.0, 0.0, 0.0, 0.0, 0.0, 0.0, 1.6636602108278055E9, 0.0, 2022-09-20 12:50:10.827
207.0, 22393.5869209274, 43540.61705358232, 13607.764376135396, -10798.351263803395, -10292.598342013162, 42071.36983530162, 13251.544624751166, 2166.3981278417264, 0.624, -0.598, 0.53, 192.0, 0.0, 0.0, 0.0, 0.0, 0.0, 0.0, 0.0, 0.0, 0.0, 1.6636602108278325E9, 0.0, 2022-09-20 12:50:10.827
208.0, 23430.573753186913, 44361.70838614803, 14603.020501496852, -10147.446113520398, -8364.89449320966, 42064.79842243176, 14874.28127220646, 5036.049191480779, 0.624, -0.598, 0.53, 192.0, 0.0, 0.0, 0.0, 0.0, 0.0, 0.0, 0.0, 0.0, 0.0, 1.6636602108278592E9, 0.0, 2022-09-20 12:50:10.827
209.0, 23927.2965702172, 44842.226188448214, 15016.103090775383, -9987.228809264758, -6644.368963762398, 42082.25513485136, 15520.559611387207, 7502.139508979262, 0.624, -0.598, 0.53, 192.0, 0.0, 0.0, 0.0, 0.0, 0.0, 0.0, 0.0, 0.0, 0.0, 1.6636602108278856E9, 0.0, 2022-09-20 12:50:10.827
210.0, 23384.976194498086, 44505.87713788475, 14395.328092018139, -10421.411445309097, -7105.59721059766, 42101.09765542718, 14494.100450766142, 7025.354448003108, 0.618, -0.602, 0.532, 192.0, 19.0, 80.0, 237.0, 48.0, 16.0, 160.0, 0.0, 0.0, 0.0, 1.6636602108279119E9, 0.0, 2022-09-20 12:50:10.827
211.0, 22312.3159780879, 43572.51299292004, 13441.512100876822, -11029.04361832662, -9549.268728407471, 42101.76820776084, 12966.649289923822, 3217.1312829412564, 0.618, -0.602, 0.532, 192.0, 0.0, 0.0, 0.0, 0.0, 0.0, 0.0, 0.0, 0.0, 0.0, 1.6636602108279393E9, 0.0, 2022-09-20 12:50:10.827
212.0, 22431.875459179337, 43570.83661208589, 13642.789559696861, -10772.84792337989, -10186.963997717381, 42072.710939968936, 13312.341369669602, 2303.369617863848, 0.618, -0.602, 0.532, 192.0, 0.0, 0.0, 0.0, 0.0, 0.0, 0.0, 0.0, 0.0, 0.0, 1.663660210827966E9, 0.0, 2022-09-20 12:50:10.827
213.0, 23458.222861078128, 44390.54213649537, 14631.429568699548, -10139.2430233053, -8208.05230236677, 42061.71388169693, 14927.970162388106, 5238.086609612299, 0.618, -0.602, 0.532, 192.0, 0.0, 0.0, 0.0, 0.0, 0.0, 0.0, 0.0, 0.0, 0.0, 1.6636602108279924E9, 0.0, 2022-09-20 12:50:10.827
214.0, 23905.034232739716, 44834.09015346649, 14991.225599196625, -10017.560126490609, -6577.067861207469, 42073.1803266025, 15486.048517948213, 7588.663111765756, 0.618, -0.602, 0.532, 192.0, 0.0, 0.0, 0.0, 0.0, 0.0, 0.0, 0.0, 0.0, 0.0, 1.6636602108280191E9, 0.0, 2022-09-20 12:50:10.828
215.0, 23316.64691169821, 44452.88115178122, 14335.492472111282, -10470.674690088594, -7173.32299629724, 42098.52720481482, 14399.351406020094, 6913.238097815287, 0.618, -0.602, 0.532, 192.0, 0.0, 0.0, 0.0, 0.0, 0.0, 0.0, 0.0, 0.0, 0.0, 1.6636602108280456E9, 0.0, 2022-09-20 12:50:10.828
216.0, 22266.718419399076, 43530.37995462179, 13418.266286643302, -11046.321516790571, -9636.686400972176, 42097.23080363641, 12924.404492903292, 3079.4221853521094, 0.618, -0.602, 0.532, 192.0, 0.0, 0.0, 0.0, 0.0, 0.0, 0.0, 0.0, 0.0, 0.0, 1.6636602108280728E9, 0.0, 2022-09-20 12:50:10.828
217.0, 22464.799578762006, 43591.78019664052, 13690.063499219836, -10746.785789345002, -10122.792139386194, 42060.88686715208, 13380.380079791556, 2423.9125757113193, 0.618, -0.602, 0.532, 192.0, 0.0, 0.0, 0.0, 0.0, 0.0, 0.0, 0.0, 0.0, 0.0, 1.6636602108280997E9, 0.0, 2022-09-20 12:50:10.828
218.0, 23498.344242375406, 44419.420590331625, 14677.742383210943, -10121.853366119072, -8102.909696449005, 42060.90921889654, 14990.264474185047, 5410.731483785091, 0.618, -0.602, 0.532, 192.0, 0.0, 0.0, 0.0, 0.0, 0.0, 0.0, 0.0, 0.0, 0.0, 1.6636602108281271E9, 0.0, 2022-09-20 12:50:10.828
219.0, 23896.71938380234, 44831.65381332086, 14987.336395661403, -10020.689370714352, -6565.690823279718, 42085.3843790751, 15464.63554676003, 7661.909778345797, 0.618, -0.602, 0.532, 192.0, 0.0, 0.0, 0.0, 0.0, 0.0, 0.0, 0.0, 0.0, 0.0, 1.6636602108281536E9, 0.0, 2022-09-20 12:50:10.828
220.0, 23260.454626137573, 44405.33899132478, 14286.005709887233, -10495.775699111904, -7311.97086715351, 42106.976164218926, 14304.8258787186, 6765.604825687984, 0.628, -0.61, 0.53, 192.0, 19.0, 160.0, 236.0, 240.0, 16.0, 144.0, 0.0, 0.0, 0.0, 1.6636602108281841E9, 0.0, 2022-09-20 12:50:10.828
221.0, 22245.618372633264, 43501.97088741909, 13399.379062578568, -11044.734542934244, -9779.871675952874, 42103.891623484094, 12884.50662905057, 2926.826825955728, 0.628, -0.61, 0.53, 192.0, 0.0, 0.0, 0.0, 0.0, 0.0, 0.0, 0.0, 0.0, 0.0, 1.6636602108282125E9, 0.0, 2022-09-20 12:50:10.828
222.0, 22522.51178294561, 43633.242682605116, 13736.756293386972, -10699.578905055394, -10113.04677880368, 42071.36983530162, 13451.436275414977, 2530.485693274223, 0.628, -0.61, 0.53, 192.0, 0.0, 0.0, 0.0, 0.0, 0.0, 0.0, 0.0, 0.0, 0.0, 1.6636602108282616E9, 0.0, 2022-09-20 12:50:10.828
223.0, 23555.743522136632, 44467.521544399446, 14725.731578556488, -10088.102231991557, -8049.377268478545, 42066.85478292165, 15057.4538180177, 5577.184924743763, 0.628, -0.61, 0.53, 192.0, 0.0, 0.0, 0.0, 0.0, 0.0, 0.0, 0.0, 0.0, 0.0, 1.6636602108282886E9, 0.0, 2022-09-20 12:50:10.828
224.0, 23909.72809907533, 44847.65766235086, 14985.123572960327, -10018.253030568723, -6603.8005475760165, 42092.96162044545, 15448.028200629737, 7718.86202321792, 0.628, -0.61, 0.53, 192.0, 0.0, 0.0, 0.0, 0.0, 0.0, 0.0, 0.0, 0.0, 0.0, 1.6636602108283176E9, 0.0, 2022-09-20 12:50:10.828
225.0, 23217.98631167249, 44370.850249630246, 14244.275002989174, -10528.051618105366, -7493.221162941595, 42114.48635035591, 14226.773587080668, 6595.664512594284, 0.628, -0.61, 0.53, 192.0, 0.0, 0.0, 0.0, 0.0, 0.0, 0.0, 0.0, 0.0, 0.0, 1.6636602108283465E9, 0.0, 2022-09-20 12:50:10.828
226.0, 22231.35795967078, 43482.34605578733, 13397.903847444517, -11051.618880226479, -9964.944120042815, 42109.18898692, 12869.866236432343, 2755.254835516791, 0.628, -0.61, 0.53, 192.0, 0.0, 0.0, 0.0, 0.0, 0.0, 0.0, 0.0, 0.0, 0.0, 1.663660210828373E9, 0.0, 2022-09-20 12:50:10.828
227.0, 22578.592309783973, 43674.70516856971, 13800.481116829053, -10666.945358150644, -10139.66770644995, 42065.8266026767, 13542.765503259363, 2622.4407699633566, 0.628, -0.61, 0.53, 192.0, 0.0, 0.0, 0.0, 0.0, 0.0, 0.0, 0.0, 0.0, 0.0, 1.6636602108284004E9, 0.0, 2022-09-20 12:50:10.828
228.0, 23605.25263610514, 44508.693457686124, 14777.92290185963, -10067.762144537228, -8031.808797336674, 42064.37373928711, 15133.047417765549, 5717.419769456359, 0.628, -0.61, 0.53, 192.0, 0.0, 0.0, 0.0, 0.0, 0.0, 0.0, 0.0, 0.0, 0.0, 1.663660210828427E9, 0.0, 2022-09-20 12:50:10.828
229.0, 23900.295662915192, 44845.48954313869, 14975.579378077911, -10031.373504563988, -6687.954865450248, 42093.34160010119, 15429.140976565002, 7737.481026349191, 0.628, -0.61, 0.53, 192.0, 0.0, 0.0, 0.0, 0.0, 0.0, 0.0, 0.0, 0.0, 0.0, 1.6636602108284545E9, 0.0, 2022-09-20 12:50:10.828
230.0, 23155.24496498644, 44321.09526647273, 14189.267359884663, -10566.764839501959, -7728.1156454224165, 42120.3425074032, 14135.399655747373, 6379.992530345026, 0.622, -0.598, 0.526, 192.0, 19.0, 112.0, 237.0, 80.0, 16.0, 112.0, 0.0, 0.0, 0.0, 1.6636602108284783E9, 0.0, 2022-09-20 12:50:10.828
231.0, 22211.73312803902, 43466.25279977951, 13389.767812462786, -11047.95319413581, -10173.217674877367, 42113.14524568859, 12850.084942589396, 2585.269818934181, 0.622, -0.598, 0.526, 192.0, 0.0, 0.0, 0.0, 0.0, 0.0, 0.0, 0.0, 0.0, 0.0, 1.6636602108285108E9, 0.0, 2022-09-20 12:50:10.828
232.0, 22640.551345414086, 43727.85761688443, 13866.105838549835, -10616.609229637294, -10168.948491686404, 42088.513623298844, 13634.809986926317, 2733.2383672283136, 0.622, -0.598, 0.526, 192.0, 0.0, 0.0, 0.0, 0.0, 0.0, 0.0, 0.0, 0.0, 0.0, 1.6636602108285403E9, 0.0, 2022-09-20 12:50:10.828
233.0, 23656.549889630067, 44553.218132641094, 14833.489338575524, -10039.487187801265, -8024.879756555529, 42092.3357716007, 15202.114308132448, 5861.655576426456, 0.622, -0.598, 0.526, 192.0, 0.0, 0.0, 0.0, 0.0, 0.0, 0.0, 0.0, 0.0, 0.0, 1.6636602108285673E9, 0.0, 2022-09-20 12:50:10.828
234.0, 23902.150857704983, 44853.89379905388, 14981.614349080844, -10033.049885398137, -6769.896360623403, 42110.105408442665, 15411.10311878957, 7776.820096590531, 0.622, -0.598, 0.526, 192.0, 0.0, 0.0, 0.0, 0.0, 0.0, 0.0, 0.0, 0.0, 0.0, 1.6636602108285935E9, 0.0, 2022-09-20 12:50:10.828
235.0, 23112.866057499177, 44287.41118757858, 14159.472484525739, -10590.61415083577, -7936.47860723479, 42133.91001628757, 14063.605852556928, 6227.508929670922, 0.622, -0.598, 0.526, 192.0, 0.0, 0.0, 0.0, 0.0, 0.0, 0.0, 0.0, 0.0, 0.0, 1.66366021082862E9, 0.0, 2022-09-20 12:50:10.828
236.0, 22202.5912645568, 43452.32766298386, 13393.858181698106, -11042.700534188813, -10347.784799073315, 42122.15299870408, 12844.385247753293, 2493.8958876008855, 0.622, -0.598, 0.526, 192.0, 0.0, 0.0, 0.0, 0.0, 0.0, 0.0, 0.0, 0.0, 0.0, 1.6636602108286467E9, 0.0, 2022-09-20 12:50:10.828
237.0, 22693.145000117423, 43771.152945894355, 13922.454586321663, -10581.338176886818, -10182.516000570775, 42086.30080059777, 13723.009970546958, 2893.343912761678, 0.622, -0.598, 0.526, 192.0, 0.0, 0.0, 0.0, 0.0, 0.0, 0.0, 0.0, 0.0, 0.0, 1.6636602108286679E9, 0.0, 2022-09-20 12:50:10.828
238.0, 23698.97350060624, 44595.932316295184, 14873.6107198728, -10023.952725404826, -8008.071244725138, 42090.435873322, 15264.632137373941, 6045.901005971552, 0.622, -0.598, 0.526, 192.0, 0.0, 0.0, 0.0, 0.0, 0.0, 0.0, 0.0, 0.0, 0.0, 1.6636602108287263E9, 0.0, 2022-09-20 12:50:10.828
239.0, 23895.87001751304, 44860.59932239048, 14965.275223884015, -10046.997373938248, -6842.763047547704, 42120.36485914765, 15386.896179544472, 7845.998745679706, 0.622, -0.598, 0.526, 192.0, 0.0, 0.0, 0.0, 0.0, 0.0, 0.0, 0.0, 0.0, 0.0, 1.6636602108287551E9, 0.0, 2022-09-20 12:50:10.828
240.0, 23054.773873659837, 44239.399640488584, 14098.45222216275, -10629.662648399193, -8149.848359805151, 42146.09171701571, 13974.154171246788, 6060.29552940077, 0.618, -0.596, 0.528, 192.0, 19.0, 80.0, 237.0, 96.0, 16.0, 128.0, 0.0, 0.0, 0.0, 1.663660210828782E9, 0.0, 2022-09-20 12:50:10.828
241.0, 22195.416354586647, 43443.47637217955, 13385.923312416473, -11042.253499299706, -10507.420957973118, 42129.059687740766, 12835.10927380434, 2402.4549010342243, 0.618, -0.596, 0.528, 192.0, 0.0, 0.0, 0.0, 0.0, 0.0, 0.0, 0.0, 0.0, 0.0, 1.6636602113065138E9, 0.0, 2022-09-20 12:50:11.306
242.0, 22756.243974714755, 43824.23833897571, 13975.048241025, -10540.233318833509, -10169.574340531151, 42094.4368355795, 13812.30518964591, 3066.145249145657, 0.618, -0.596, 0.528, 192.0, 0.0, 0.0, 0.0, 0.0, 0.0, 0.0, 0.0, 0.0, 0.0, 1.663660211306618E9, 0.0, 2022-09-20 12:50:11.306
243.0, 23737.239687113728, 44633.66206093575, 14904.14320279875, -10005.959571118305, -7972.733136741297, 42106.976164218926, 15318.186917088857, 6237.6342699091765, 0.618, -0.596, 0.528, 192.0, 0.0, 0.0, 0.0, 0.0, 0.0, 0.0, 0.0, 0.0, 0.0, 1.6636602113066864E9, 0.0, 2022-09-20 12:50:11.306
244.0, 23880.06733418314, 44858.945293300785, 14941.805892205943, -10066.398688125455, -6904.096234333067, 42137.62040586715, 15351.423961093898, 7904.984999297261, 0.618, -0.596, 0.528, 192.0, 0.0, 0.0, 0.0, 0.0, 0.0, 0.0, 0.0, 0.0, 0.0, 1.663660211306732E9, 0.0, 2022-09-20 12:50:11.306
245.0, 22997.55340785425, 44194.49498587787, 14045.858567459414, -10673.15914310922, -8340.218167331, 42139.72146984595, 13890.804516172948, 5896.636056499012, 0.618, -0.596, 0.528, 192.0, 0.0, 0.0, 0.0, 0.0, 0.0, 0.0, 0.0, 0.0, 0.0, 1.6636602113069007E9, 0.0, 2022-09-20 12:50:11.306
246.0, 22185.425124815123, 43429.752401084, 13385.096297871625, -11040.66652544338, -10637.128131047266, 42113.882853255614, 12840.473692473613, 2339.2441677146157, 0.618, -0.596, 0.528, 192.0, 0.0, 0.0, 0.0, 0.0, 0.0, 0.0, 0.0, 0.0, 0.0, 1.6636602113070543E9, 0.0, 2022-09-20 12:50:11.307
247.0, 22806.46834450583, 43860.694034182314, 14028.49126201764, -10509.812594629837, -10136.225537803834, 42081.316361584235, 13900.795745944471, 3236.219672706088, 0.618, -0.596, 0.528, 192.0, 0.0, 0.0, 0.0, 0.0, 0.0, 0.0, 0.0, 0.0, 0.0, 1.6636602113071365E9, 0.0, 2022-09-20 12:50:11.307
248.0, 23761.156053680905, 44650.31411055495, 14927.992514132562, -10002.606809450008, -7941.887729392974, 42089.966486688434, 15360.699935042852, 6379.947826856116, 0.618, -0.596, 0.528, 192.0, 0.0, 0.0, 0.0, 0.0, 0.0, 0.0, 0.0, 0.0, 0.0, 1.6636602113071854E9, 0.0, 2022-09-20 12:50:11.307
249.0, 23851.367694302524, 44835.34185115598, 14910.4687464796, -10094.85245881706, -6981.477973637339, 42116.58741433471, 15302.250123292224, 7908.695388876843, 0.618, -0.596, 0.528, 192.0, 0.0, 0.0, 0.0, 0.0, 0.0, 0.0, 0.0, 0.0, 0.0, 1.6636602113072171E9, 0.0, 2022-09-20 12:50:11.307
250.0, 22929.559401221206, 44133.20650258142, 13989.308653987486, -10712.006474972544, -8534.141902225245, 42143.96830129246, 13799.2070673951, 5698.823118069544, 0.622, -0.598, 0.53, 192.0, 19.0, 112.0, 237.0, 80.0, 16.0, 144.0, 0.0, 0.0, 0.0, 1.6636602113072553E9, 0.0, 2022-09-20 12:50:11.307
251.0, 22182.742915480485, 43418.30830792288, 13385.990367649838, -11027.99308633722, -10745.779960844513, 42123.315289415754, 12840.183119795694, 2264.477582511614, 0.622, -0.598, 0.53, 192.0, 0.0, 0.0, 0.0, 0.0, 0.0, 0.0, 0.0, 0.0, 0.0, 1.663660211307295E9, 0.0, 2022-09-20 12:50:11.307
252.0, 22862.928850999935, 43904.27993587017, 14079.944977753757, -10471.322890677797, -10093.354891938556, 42096.11321641364, 13984.547732418507, 3387.5409826685172, 0.622, -0.598, 0.53, 192.0, 0.0, 0.0, 0.0, 0.0, 0.0, 0.0, 0.0, 0.0, 0.0, 1.6636602113073297E9, 0.0, 2022-09-20 12:50:11.307
253.0, 23790.32508019508, 44681.65125628129, 14953.585261533888, -9991.945027344827, -7904.940295808351, 42104.89745198458, 15394.942807548381, 6512.046636586981, 0.622, -0.598, 0.53, 192.0, 0.0, 0.0, 0.0, 0.0, 0.0, 0.0, 0.0, 0.0, 0.0, 1.6636602113075163E9, 0.0, 2022-09-20 12:50:11.307
254.0, 23827.741900413264, 44828.055182463555, 14883.311376966403, -10104.039025788192, -7048.2649860697975, 42123.404696393576, 15246.750741809696, 7914.618601157499, 0.622, -0.598, 0.53, 192.0, 0.0, 0.0, 0.0, 0.0, 0.0, 0.0, 0.0, 0.0, 0.0, 1.6636602113075511E9, 0.0, 2022-09-20 12:50:11.307
255.0, 22868.539138858217, 44086.75957760329, 13934.524528327529, -10738.64975436327, -8718.655552703805, 42142.895417558604, 13706.223810461022, 5502.194822096208, 0.622, -0.598, 0.53, 192.0, 0.0, 0.0, 0.0, 0.0, 0.0, 0.0, 0.0, 0.0, 0.0, 1.6636602113075843E9, 0.0, 2022-09-20 12:50:11.307
0.0, 22181.401810813168, 43421.25873819098, 13395.646321254531, -11017.152490276396, -10841.62424106887, 42123.15882720457, 12849.97318386712, 2203.8372998043656, 0.622, -0.598, 0.53, 192.0, 0.0, 0.0, 0.0, 0.0, 0.0, 0.0, 0.0, 0.0, 0.0, 1.6636602113076136E9, 0.0, 2022-09-20 12:50:11.307
1.0, 22914.96371209189, 43954.683119616886, 14135.824338892024, -10433.928422204068, -10035.508577288221, 42101.3882281051, 14070.669003804804, 3555.290824805597, 0.622, -0.598, 0.53, 192.0, 0.0, 0.0, 0.0, 0.0, 0.0, 0.0, 0.0, 0.0, 0.0, 1.6636602113076415E9, 0.0, 2022-09-20 12:50:11.307
2.0, 23816.81189737462, 44710.64146883982, 14978.529808346011, -9979.316291727579, -7853.88891147243, 42116.58741433471, 15429.252735287278, 6659.6799087142845, 0.622, -0.598, 0.53, 192.0, 0.0, 0.0, 0.0, 0.0, 0.0, 0.0, 0.0, 0.0, 0.0, 1.6636602113076715E9, 0.0, 2022-09-20 12:50:11.307
3.0, 23798.86344657701, 44810.17378689931, 14850.968402739574, -10132.112816824058, -7118.941202037478, 42139.02856576783, 15192.614816738942, 7900.469946917289, 0.622, -0.598, 0.53, 192.0, 0.0, 0.0, 0.0, 0.0, 0.0, 0.0, 0.0, 0.0, 0.0, 1.6636602113076985E9, 0.0, 2022-09-20 12:50:11.307
4.0, 22806.982434628302, 44028.421524574944, 13881.014452101525, -10774.837228636412, -8914.43448238784, 42154.33951071972, 13624.036446098859, 5279.95142697709, 0.626, -0.598, 0.53, 192.0, 19.0, 144.0, 237.0, 80.0, 16.0, 144.0, 0.0, 0.0, 0.0, 1.663660211307727E9, 0.0, 2022-09-20 12:50:11.307
5.0, 22190.63308127321, 43416.54252011091, 13407.202173137925, -10996.968865033254, -10940.64246900588, 42128.43383889602, 12875.945910924187, 2145.052211886908, 0.626, -0.598, 0.53, 192.0, 0.0, 0.0, 0.0, 0.0, 0.0, 0.0, 0.0, 0.0, 0.0, 1.6636602113077607E9, 0.0, 2022-09-20 12:50:11.307
6.0, 22975.69340177696, 44000.05716086116, 14193.603598308993, -10390.923665872058, -9992.772041889673, 42105.8362252517, 14165.976842162234, 3699.3478178200508, 0.626, -0.598, 0.53, 192.0, 0.0, 0.0, 0.0, 0.0, 0.0, 0.0, 0.0, 0.0, 0.0, 1.6636602113078008E9, 0.0, 2022-09-20 12:50:11.307
7.0, 23842.49405175377, 44739.251701742614, 15002.222657468637, -9960.20555021829, -7835.493425785712, 42125.3940016501, 15467.094238650114, 6760.687441907817, 0.626, -0.598, 0.53, 192.0, 0.0, 0.0, 0.0, 0.0, 0.0, 0.0, 0.0, 0.0, 0.0, 1.6636602113078275E9, 0.0, 2022-09-20 12:50:11.307
8.0, 23769.85088227402, 44797.232126859686, 14822.849908214797, -10137.879566893527, -7217.802967763301, 42138.782696578826, 15143.99977254865, 7852.011364938184, 0.626, -0.598, 0.53, 192.0, 0.0, 0.0, 0.0, 0.0, 0.0, 0.0, 0.0, 0.0, 0.0, 1.6636602113078582E9, 0.0, 2022-09-20 12:50:11.307
9.0, 22754.724056091793, 43986.757872910246, 13842.480044660575, -10792.919789900756, -9105.094862591608, 42151.81376359627, 13551.326221385745, 5063.541837160807, 0.626, -0.598, 0.53, 192.0, 0.0, 0.0, 0.0, 0.0, 0.0, 0.0, 0.0, 0.0, 0.0, 1.6636602113078897E9, 0.0, 2022-09-20 12:50:11.307
10.0, 22206.52517158093, 43430.57941562885, 13434.337190906668, -10964.670594295334, -11011.27398148465, 42127.98680400691, 12909.518231096057, 2106.3389904903165, 0.626, -0.598, 0.53, 192.0, 0.0, 0.0, 0.0, 0.0, 0.0, 0.0, 0.0, 0.0, 0.0, 1.6636602113079352E9, 0.0, 2022-09-20 12:50:11.307
11.0, 23042.03337932031, 44053.522533598254, 14259.451837474327, -10342.062752492757, -9921.91701196635, 42109.81483576475, 14264.548035210139, 3850.1997411489183, 0.626, -0.598, 0.53, 192.0, 0.0, 0.0, 0.0, 0.0, 0.0, 0.0, 0.0, 0.0, 0.0, 1.6636602113079665E9, 0.0, 2022-09-20 12:50:11.307
12.0, 23873.741790502285, 44763.14571656534, 15026.586058924922, -9944.984012244227, -7794.656788665866, 42128.210321451465, 15500.800669288716, 6853.2683674416985, 0.626, -0.598, 0.53, 192.0, 0.0, 0.0, 0.0, 0.0, 0.0, 0.0, 0.0, 0.0, 0.0, 1.6636602113079977E9, 0.0, 2022-09-20 12:50:11.307
13.0, 23748.974352952762, 44781.78707144107, 14795.759593934965, -10153.704601967884, -7284.232352284474, 42151.92552231855, 15094.065975435493, 7779.703471625266, 0.626, -0.598, 0.53, 192.0, 0.0, 0.0, 0.0, 0.0, 0.0, 0.0, 0.0, 0.0, 0.0, 1.6636602113080726E9, 0.0, 2022-09-20 12:50:11.308
14.0, 22707.852447969013, 43940.132133976476, 13796.927189460659, -10816.23265936764, -9266.697975003479, 42171.59505743922, 13481.655833918552, 4804.5074706682535, 0.632, -0.598, 0.528, 192.0, 19.0, 192.0, 237.0, 80.0, 16.0, 128.0, 0.0, 0.0, 0.0, 1.6636602113081028E9, 0.0, 2022-09-20 12:50:11.308
15.0, 22229.614523603264, 43437.37434594326, 13453.984374282882, -10943.034105662598, -11053.407019782904, 42146.874028071645, 12947.404437947804, 2032.0194401764204, 0.632, -0.598, 0.528, 192.0, 0.0, 0.0, 0.0, 0.0, 0.0, 0.0, 0.0, 0.0, 0.0, 1.6636602113081353E9, 0.0, 2022-09-20 12:50:11.308
16.0, 23103.254807383397, 44096.795510863725, 14313.408948589438, -10313.273705634321, -9826.18449046427, 42125.23753943891, 14358.939452044899, 3960.393841313582, 0.632, -0.598, 0.528, 192.0, 0.0, 0.0, 0.0, 0.0, 0.0, 0.0, 0.0, 0.0, 0.0, 1.663660211308166E9, 0.0, 2022-09-20 12:50:11.308
17.0, 23897.904026258475, 44780.44596677375, 15040.35473350939, -9946.168654700357, -7723.444130831258, 42135.631100610626, 15529.1650330025, 6918.714275206838, 0.632, -0.598, 0.528, 192.0, 0.0, 0.0, 0.0, 0.0, 0.0, 0.0, 0.0, 0.0, 0.0, 1.6636602113081968E9, 0.0, 2022-09-20 12:50:11.308
18.0, 23715.84906767, 44752.193361782236, 14751.77136084692, -10186.44990759491, -7338.390629099683, 42149.98092055094, 15031.145814793805, 7677.555999464513, 0.632, -0.598, 0.528, 192.0, 0.0, 0.0, 0.0, 0.0, 0.0, 0.0, 0.0, 0.0, 0.0, 1.663660211308228E9, 0.0, 2022-09-20 12:50:11.308
19.0, 22649.782615874126, 43879.87183092497, 13743.640630679207, -10856.979889509665, -9426.378837392193, 42160.97797882295, 13400.049614912226, 4535.370115681901, 0.632, -0.598, 0.528, 192.0, 0.0, 0.0, 0.0, 0.0, 0.0, 0.0, 0.0, 0.0, 0.0, 1.6636602113082588E9, 0.0, 2022-09-20 12:50:11.308
20.0, 22251.56393665838, 43440.011851788986, 13470.725830879908, -10927.54434675507, -11082.151363152429, 42130.98193776392, 12979.613301707901, 1990.6240094451916, 0.632, -0.598, 0.528, 192.0, 0.0, 0.0, 0.0, 0.0, 0.0, 0.0, 0.0, 0.0, 0.0, 1.66366021130829E9, 0.0, 2022-09-20 12:50:11.308
21.0, 23168.164273281607, 44143.62241549759, 14371.389373706506, -10273.398193526053, -9707.29556170649, 42111.71473404345, 14450.268679889285, 4136.43618064358, 0.632, -0.598, 0.528, 192.0, 0.0, 0.0, 0.0, 0.0, 0.0, 0.0, 0.0, 0.0, 0.0, 1.6636602113083208E9, 0.0, 2022-09-20 12:50:11.308
22.0, 23926.40250043899, 44808.609164787435, 15062.639422731332, -9935.953907484283, -7630.572632619457, 42127.383306906624, 15552.612012936117, 7055.462247784406, 0.632, -0.598, 0.528, 192.0, 0.0, 0.0, 0.0, 0.0, 0.0, 0.0, 0.0, 0.0, 0.0, 1.6636602113083527E9, 0.0, 2022-09-20 12:50:11.308
23.0, 23688.334070245513, 44732.61323363939, 14717.372026130204, -10213.808442808204, -7366.509123624459, 42151.76906010736, 14965.34227911738, 7646.643536882822, 0.632, -0.598, 0.528, 192.0, 0.0, 0.0, 0.0, 0.0, 0.0, 0.0, 0.0, 0.0, 0.0, 1.66366021130844E9, 0.0, 2022-09-20 12:50:11.308
24.0, 22602.03928971759, 43838.36464147147, 13699.048900490869, -10880.717442121202, -9541.6020800593, 42158.94397007751, 13325.864175065062, 4359.953625196651, 0.63, -0.598, 0.526, 192.0, 19.0, 176.0, 237.0, 80.0, 16.0, 112.0, 0.0, 0.0, 0.0, 1.6636602113084774E9, 0.0, 2022-09-20 12:50:11.308
25.0, 22279.861245138796, 43465.26932302348, 13500.990092872393, -10900.20816328623, -11054.479903516758, 42133.77590582084, 13026.44020634177, 2048.0456409508756, 0.63, -0.598, 0.526, 192.0, 0.0, 0.0, 0.0, 0.0, 0.0, 0.0, 0.0, 0.0, 0.0, 1.6636602113085113E9, 0.0, 2022-09-20 12:50:11.308
26.0, 23228.670445522126, 44196.417235901026, 14426.24055459983, -10248.811274625215, -9563.015051247485, 42115.96156548996, 14537.596945476169, 4351.325851836902, 0.63, -0.598, 0.526, 192.0, 0.0, 0.0, 0.0, 0.0, 0.0, 0.0, 0.0, 0.0, 0.0, 1.6636602113085408E9, 0.0, 2022-09-20 12:50:11.308
27.0, 23935.34319822111, 44821.461417849234, 15060.828931430451, -9947.68857332332, -7555.470771249626, 42122.62238533764, 15555.540091459763, 7181.257865578875, 0.63, -0.598, 0.526, 192.0, 0.0, 0.0, 0.0, 0.0, 0.0, 0.0, 0.0, 0.0, 0.0, 1.6636602113085735E9, 0.0, 2022-09-20 12:50:11.308
28.0, 23642.28947666758, 44698.862099511876, 14664.197226071028, -10247.626632169084, -7417.426397493648, 42143.4989146589, 14890.598045658833, 7594.295751368493, 0.63, -0.598, 0.526, 192.0, 0.0, 0.0, 0.0, 0.0, 0.0, 0.0, 0.0, 0.0, 0.0, 1.663660211308662E9, 0.0, 2022-09-20 12:50:11.308
29.0, 22548.685675702774, 43786.9332774798, 13650.947946423048, -10915.787329171579, -9660.62511928381, 42156.10529853169, 13258.585424254588, 4172.534247938901, 0.63, -0.598, 0.526, 192.0, 0.0, 0.0, 0.0, 0.0, 0.0, 0.0, 0.0, 0.0, 0.0, 1.6636602113086915E9, 0.0, 2022-09-20 12:50:11.308
30.0, 22305.342233817846, 43476.780471417966, 13523.878279194627, -10889.702843392235, -11037.313763775082, 42131.04899299729, 13070.830770830009, 2073.280760440917, 0.63, -0.598, 0.526, 192.0, 0.0, 0.0, 0.0, 0.0, 0.0, 0.0, 0.0, 0.0, 0.0, 1.6636602113087223E9, 0.0, 2022-09-20 12:50:11.308
31.0, 23276.41377167866, 44233.45407646347, 14467.568930097692, -10227.510062159308, -9446.562462635335, 42113.07819045522, 14617.862059815177, 4517.980458495672, 0.63, -0.598, 0.526, 192.0, 0.0, 0.0, 0.0, 0.0, 0.0, 0.0, 0.0, 0.0, 0.0, 1.6636602113087554E9, 0.0, 2022-09-20 12:50:11.308
32.0, 23943.92626809195, 44837.15234245686, 15063.68995472073, -9953.477675137243, -7482.358215136316, 42133.41827790955, 15568.437048010475, 7287.115727319208, 0.63, -0.598, 0.526, 192.0, 0.0, 0.0, 0.0, 0.0, 0.0, 0.0, 0.0, 0.0, 0.0, 1.6636602113087864E9, 0.0, 2022-09-20 12:50:11.308
33.0, 23594.635557488866, 44670.184811375715, 14616.431548170036, -10291.301940834754, -7475.675043544179, 42153.22192349695, 14817.910172690175, 7502.832413057377, 0.63, -0.598, 0.526, 192.0, 0.0, 0.0, 0.0, 0.0, 0.0, 0.0, 0.0, 0.0, 0.0, 1.6636602113088036E9, 0.0, 2022-09-20 12:50:11.308
34.0, 22495.667337854786, 43743.79441068106, 13606.3115127458, -10948.130303398408, -9794.780289504562, 42152.5960746522, 13187.283359442159, 3944.4123440280373, 0.632, -0.602, 0.526, 192.0, 19.0, 192.0, 237.0, 48.0, 16.0, 112.0, 0.0, 0.0, 0.0, 1.66366021130882E9, 0.0, 2022-09-20 12:50:11.308
35.0, 22328.163364906715, 43496.1147303718, 13547.951107972993, -10861.159665722807, -11034.475092229259, 42117.48148411292, 13112.427367261334, 2079.4721936550372, 0.632, -0.602, 0.526, 192.0, 0.0, 0.0, 0.0, 0.0, 0.0, 0.0, 0.0, 0.0, 0.0, 1.6636602113088372E9, 0.0, 2022-09-20 12:50:11.308
