%OpenBCI Raw EEG Data
%Number of channels = 8
%Sample Rate = 250 Hz
%Board = OpenBCI_GUI$BoardCytonSerial
Sample Index, EXG Channel 0, EXG Channel 1, EXG Channel 2, EXG Channel 3, EXG Channel 4, EXG Channel 5, EXG Channel 6, EXG Channel 7, Accel Channel 0, Accel Channel 1, Accel Channel 2, Other, Other, Other, Other, Other, Other, Other, Analog Channel 0, Analog Channel 1, Analog Channel 2, Timestamp, Other, Timestamp (Formatted)
31.0, -19938.247792511916, -32608.825875380742, -83194.95865046486, -53847.49816030242, -40153.12077440271, -21625.916257609875, 2684.645674782476, -30789.729152885575, 0.0, 0.0, 0.0, 192.0, 0.0, 0.0, 0.0, 0.0, 0.0, 0.0, 0.0, 0.0, 0.0, 1.6635011310940917E9, 0.0, 2022-09-18 16:38:51.094
32.0, -20310.806669092974, -32956.77548131651, -82983.95818280676, -54181.92496084273, -39964.42734771101, -21326.000550508565, 3045.715754713506, -30949.477070507655, 0.746, -0.468, 0.536, 192.0, 23.0, 80.0, 241.0, 96.0, 16.0, 192.0, 0.0, 0.0, 0.0, 1.6635011310941217E9, 0.0, 2022-09-18 16:38:51.094
1.0, -21334.40480642376, -34330.69250949532, -67147.9484019218, -54684.63804538704, -40271.74148222703, -22204.960549469062, -249.69133731023518, -30323.203542614407, 0.746, -0.468, 0.536, 192.0, 0.0, 0.0, 0.0, 0.0, 0.0, 0.0, 0.0, 0.0, 0.0, 1.663501131169204E9, 0.0, 2022-09-18 16:38:51.169
2.0, -21729.650703626958, -34763.131709472145, -67046.89616523936, -55034.21932866804, -40127.23745432347, -22033.03093111884, -544.6896606313778, -30453.290695344294, 0.746, -0.468, 0.536, 192.0, 0.0, 0.0, 0.0, 0.0, 0.0, 0.0, 0.0, 0.0, 0.0, 1.6635011311722732E9, 0.0, 2022-09-18 16:38:51.172
3.0, -21850.618344619077, -35509.79173300168, -67082.61425287894, -55204.204345250655, -40068.005331516906, -22036.13782359813, 1370.2736938325995, -30429.17316307702, 0.746, -0.468, 0.536, 192.0, 0.0, 0.0, 0.0, 0.0, 0.0, 0.0, 0.0, 0.0, 0.0, 1.6635011311751647E9, 0.0, 2022-09-18 16:38:51.175
4.0, -21329.21920171013, -35170.089920769926, -67215.3165597101, -54792.88754378409, -40233.9446823531, -22190.11899115074, 2833.418885877, -30397.791313861766, 0.746, -0.468, 0.536, 192.0, 0.0, 0.0, 0.0, 0.0, 0.0, 0.0, 0.0, 0.0, 0.0, 1.6635011311791635E9, 0.0, 2022-09-18 16:38:51.179
5.0, -21318.669178327225, -34861.56879205332, -67181.07368720457, -54775.90021799806, -40298.474168595574, -22194.34347085279, 1890.3987873075948, -30406.128514543598, 0.746, -0.468, 0.536, 192.0, 0.0, 0.0, 0.0, 0.0, 0.0, 0.0, 0.0, 0.0, 0.0, 1.6635011311831987E9, 0.0, 2022-09-18 16:38:51.183
6.0, -21278.25722435203, -34262.34087495099, -67147.63547749943, -54663.806219554695, -40260.43149953264, -22188.979052183517, -89.8763644547897, -30334.33471135315, 0.746, -0.468, 0.536, 192.0, 0.0, 0.0, 0.0, 0.0, 0.0, 0.0, 0.0, 0.0, 0.0, 1.6635011311872103E9, 0.0, 2022-09-18 16:38:51.187
7.0, -21631.32537976806, -34661.11834777812, -67029.70767375323, -54984.978435633, -40116.48626524046, -22036.56250674278, -321.082809100486, -30452.709549988456, 0.746, -0.468, 0.536, 192.0, 0.0, 0.0, 0.0, 0.0, 0.0, 0.0, 0.0, 0.0, 0.0, 1.6635011311911352E9, 0.0, 2022-09-18 16:38:51.191
8.0, -21800.7963062282, -35421.77056333668, -67062.74355205816, -55176.44347863716, -40072.341569941236, -22044.18445160204, 1558.2742164461872, -30431.87772415611, 0.754, -0.494, 0.51, 192.0, 23.0, 144.0, 240.0, 144.0, 15.0, 240.0, 0.0, 0.0, 0.0, 1.663501131196179E9, 0.0, 2022-09-18 16:38:51.196
9.0, -21334.069530256933, -35138.976292488136, -67222.73733886926, -54815.46280568395, -40233.85527537528, -22192.91295920765, 2927.989116667404, -30412.11878205762, 0.754, -0.494, 0.51, 192.0, 0.0, 0.0, 0.0, 0.0, 0.0, 0.0, 0.0, 0.0, 0.0, 1.66350113119926E9, 0.0, 2022-09-18 16:38:51.199
10.0, -21343.300800716974, -34876.36564688273, -67200.22913220276, -54843.603651953184, -40315.8638257818, -22218.595113586798, 1918.0925986877203, -30440.170221349028, 0.754, -0.494, 0.51, 192.0, 0.0, 0.0, 0.0, 0.0, 0.0, 0.0, 0.0, 0.0, 0.0, 1.6635011312022307E9, 0.0, 2022-09-18 16:38:51.202
11.0, -21267.64014573576, -34239.4303368843, -67160.77830323915, -54689.01898730028, -40281.66565676519, -22221.12086071025, 35.51692193948292, -30360.57565934368, 0.754, -0.494, 0.51, 192.0, 0.0, 0.0, 0.0, 0.0, 0.0, 0.0, 0.0, 0.0, 0.0, 1.66350113120726E9, 0.0, 2022-09-18 16:38:51.207
12.0, -21650.883156166456, -34651.283580217794, -67036.5249558121, -55015.22034588103, -40112.865282638704, -22034.170870086058, -241.82352326196713, -30448.59682900868, 0.754, -0.494, 0.51, 192.0, 0.0, 0.0, 0.0, 0.0, 0.0, 0.0, 0.0, 0.0, 0.0, 1.663501131211183E9, 0.0, 2022-09-18 16:38:51.211
13.0, -21814.07324243465, -35420.362403436, -67047.65612455083, -55202.19268824968, -40057.94704651202, -22041.189317845026, 1578.569600411606, -30417.416145493527, 0.754, -0.494, 0.51, 192.0, 0.0, 0.0, 0.0, 0.0, 0.0, 0.0, 0.0, 0.0, 0.0, 1.6635011312152562E9, 0.0, 2022-09-18 16:38:51.215
14.0, -21306.64393981027, -35091.009448887045, -67177.25153890271, -54790.250037938364, -40220.533635679916, -22198.791467999396, 3035.568062730797, -30382.368610187605, 0.754, -0.494, 0.51, 192.0, 0.0, 0.0, 0.0, 0.0, 0.0, 0.0, 0.0, 0.0, 0.0, 1.6635011312191987E9, 0.0, 2022-09-18 16:38:51.219
15.0, -21304.58757932038, -34809.57863445028, -67173.67525978986, -54798.81075606475, -40285.1078254113, -22198.67970927712, 2063.4906963694925, -30398.48421793988, 0.754, -0.494, 0.51, 192.0, 0.0, 0.0, 0.0, 0.0, 0.0, 0.0, 0.0, 0.0, 0.0, 1.6635011312232423E9, 0.0, 2022-09-18 16:38:51.223
16.0, -21216.991092800035, -34173.82796690798, -67156.12914039244, -54647.154169935486, -40252.764851184475, -22199.260854632957, 165.67112990273594, -30319.00141465681, 0.754, -0.494, 0.51, 192.0, 0.0, 0.0, 0.0, 0.0, 0.0, 0.0, 0.0, 0.0, 0.0, 1.6635011312273252E9, 0.0, 2022-09-18 16:38:51.227
17.0, -21622.719958152768, -34598.30994585871, -67040.5259180696, -54996.06490088283, -40118.833198408276, -22043.75976845739, -147.76738259403498, -30470.769759508345, 0.754, -0.494, 0.51, 192.0, 0.0, 0.0, 0.0, 0.0, 0.0, 0.0, 0.0, 0.0, 0.0, 1.6635011312302783E9, 0.0, 2022-09-18 16:38:51.230
18.0, -21814.78849825722, -35378.36347560448, -67092.9854623062, -55203.779662106004, -40078.1083200107, -22056.723780241464, 1631.1856068593988, -30468.869861229643, 0.75, -0.496, 0.508, 192.0, 23.0, 112.0, 240.0, 128.0, 15.0, 224.0, 0.0, 0.0, 0.0, 1.663501131234268E9, 0.0, 2022-09-18 16:38:51.234
19.0, -21315.36112014784, -35057.19125952617, -67218.31169346711, -54803.616381122636, -40244.718223180564, -22222.484317122024, 3066.8381532237713, -30452.866012199644, 0.75, -0.496, 0.508, 192.0, 0.0, 0.0, 0.0, 0.0, 0.0, 0.0, 0.0, 0.0, 0.0, 1.6635011312392728E9, 0.0, 2022-09-18 16:38:51.239
20.0, -21327.520469131527, -34775.82750032276, -67161.56061429509, -54807.237363724395, -40293.26621213749, -22206.34635762529, 2098.6946938866013, -30431.16246833354, 0.75, -0.496, 0.508, 192.0, 0.0, 0.0, 0.0, 0.0, 0.0, 0.0, 0.0, 0.0, 0.0, 1.6635011312433634E9, 0.0, 2022-09-18 16:38:51.243
21.0, -21254.407913018218, -34149.263399751595, -67158.74429449372, -54652.607995582584, -40253.815383173875, -22201.473677334034, 193.63316221632508, -30300.494170247817, 0.75, -0.496, 0.508, 192.0, 0.0, 0.0, 0.0, 0.0, 0.0, 0.0, 0.0, 0.0, 0.0, 1.6635011312472906E9, 0.0, 2022-09-18 16:38:51.247
22.0, -21641.003685117208, -34559.9543523734, -67028.65714176383, -54988.733528701494, -40103.41049473411, -22034.908477653084, -112.3622193768286, -30432.302407300762, 0.75, -0.496, 0.508, 192.0, 0.0, 0.0, 0.0, 0.0, 0.0, 0.0, 0.0, 0.0, 0.0, 1.6635011312512333E9, 0.0, 2022-09-18 16:38:51.251
23.0, -21819.03532970373, -35336.1410303284, -67055.14395894337, -55186.702929342144, -40047.62054057366, -22036.003713131395, 1668.7812410332253, -30431.02835786681, 0.75, -0.496, 0.508, 192.0, 0.0, 0.0, 0.0, 0.0, 0.0, 0.0, 0.0, 0.0, 0.0, 1.663501131255408E9, 0.0, 2022-09-18 16:38:51.255
24.0, -21309.773184034013, -35011.727811304074, -67217.57408590008, -54778.06833721022, -40215.86212108876, -22192.10829640726, 3103.360903663743, -30405.860293610134, 0.75, -0.496, 0.508, 192.0, 0.0, 0.0, 0.0, 0.0, 0.0, 0.0, 0.0, 0.0, 0.0, 1.663501131258365E9, 0.0, 2022-09-18 16:38:51.258
25.0, -21310.22021892312, -34736.17550565905, -67199.06684149109, -54795.83797405219, -40286.1583574007, -22187.906168449663, 2129.093066345819, -30412.49876171336, 0.75, -0.496, 0.508, 192.0, 0.0, 0.0, 0.0, 0.0, 0.0, 0.0, 0.0, 0.0, 0.0, 1.6635011312633133E9, 0.0, 2022-09-18 16:38:51.263
26.0, -21233.285514507952, -34110.79604754401, -67191.04256523163, -54659.53703636373, -40268.52283102546, -22209.676767549132, 228.1666073997745, -30329.082051406152, 0.75, -0.496, 0.508, 192.0, 0.0, 0.0, 0.0, 0.0, 0.0, 0.0, 0.0, 0.0, 0.0, 1.663501131267351E9, 0.0, 2022-09-18 16:38:51.267
27.0, -21612.482859192238, -34521.57640714364, -67068.62206084991, -55001.36226431874, -40124.063506610815, -22053.326315084258, -93.3632365898176, -30489.254652172884, 0.75, -0.496, 0.508, 192.0, 0.0, 0.0, 0.0, 0.0, 0.0, 0.0, 0.0, 0.0, 0.0, 1.663501131271294E9, 0.0, 2022-09-18 16:38:51.271
28.0, -21809.737004010323, -35311.26353874964, -67050.18187167429, -55202.70677837214, -40062.84207854773, -22054.332143584747, 1675.6879300699152, -30476.201233410986, 0.744, -0.492, 0.514, 192.0, 23.0, 64.0, 240.0, 160.0, 16.0, 16.0, 0.0, 0.0, 0.0, 1.6635011312753556E9, 0.0, 2022-09-18 16:38:51.275
29.0, -21315.115250958832, -34991.4100755942, -67176.13395167995, -54783.94684600197, -40212.86698733175, -22199.260854632957, 3120.1917672385894, -30389.87879632459, 0.744, -0.492, 0.514, 192.0, 0.0, 0.0, 0.0, 0.0, 0.0, 0.0, 0.0, 0.0, 0.0, 1.6635011312783759E9, 0.0, 2022-09-18 16:38:51.278
30.0, -21318.400957393762, -34714.06963039275, -67154.13983513592, -54789.73594781589, -40272.09911013831, -22192.801200485374, 2159.580845782858, -30379.77580783079, 0.744, -0.492, 0.514, 192.0, 0.0, 0.0, 0.0, 0.0, 0.0, 0.0, 0.0, 0.0, 0.0, 1.6635011312823887E9, 0.0, 2022-09-18 16:38:51.282
31.0, -21230.62565691777, -34078.81070122847, -67154.31864909157, -54641.78975126622, -40247.26632204847, -22199.283206377415, 269.6514451088244, -30298.951899880398, 0.744, -0.492, 0.514, 192.0, 0.0, 0.0, 0.0, 0.0, 0.0, 0.0, 0.0, 0.0, 0.0, 1.6635011312863595E9, 0.0, 2022-09-18 16:38:51.286
32.0, -21610.67236789136, -34488.3393631386, -67028.50067955264, -54978.317615785316, -40099.878919110175, -22032.427434018548, -51.40901224720624, -30448.08273888621, 0.744, -0.492, 0.514, 192.0, 0.0, 0.0, 0.0, 0.0, 0.0, 0.0, 0.0, 0.0, 0.0, 1.6635011312903435E9, 0.0, 2022-09-18 16:38:51.290
33.0, -21816.733100024834, -35290.319954195016, -67067.32565967151, -55197.05178702495, -40054.080194721246, -22045.34674231371, 1693.725787845348, -30467.41699784005, 0.744, -0.492, 0.514, 192.0, 0.0, 0.0, 0.0, 0.0, 0.0, 0.0, 0.0, 0.0, 0.0, 1.6635011312943623E9, 0.0, 2022-09-18 16:38:51.294
34.0, -21320.65848358375, -34978.736636488036, -67239.121167555, -54800.21891596543, -40235.75517365398, -22220.6961775656, 3118.4483311710756, -30440.01375913784, 0.744, -0.492, 0.514, 192.0, 0.0, 0.0, 0.0, 0.0, 0.0, 0.0, 0.0, 0.0, 0.0, 1.6635011312994022E9, 0.0, 2022-09-18 16:38:51.299
35.0, -21307.49330609957, -34688.7898074138, -67186.54986459612, -54795.97208451892, -40277.03884566294, -22198.076212176828, 2168.409784842704, -30404.273319753807, 0.744, -0.492, 0.514, 192.0, 0.0, 0.0, 0.0, 0.0, 0.0, 0.0, 0.0, 0.0, 0.0, 1.6635011313033931E9, 0.0, 2022-09-18 16:38:51.303
36.0, -21212.0066537865, -34054.0896718609, -67178.10090519201, -54646.19304492391, -40246.28284529244, -22202.077174434326, 270.2996456980283, -30300.203597569896, 0.744, -0.492, 0.514, 192.0, 0.0, 0.0, 0.0, 0.0, 0.0, 0.0, 0.0, 0.0, 0.0, 1.663501131306398E9, 0.0, 2022-09-18 16:38:51.306
37.0, -21608.70541437929, -34471.73201700831, -67041.84467099246, -54989.80641243535, -40106.40562849112, -22041.524594011855, -64.30596879791842, -30454.005951166866, 0.744, -0.492, 0.514, 192.0, 0.0, 0.0, 0.0, 0.0, 0.0, 0.0, 0.0, 0.0, 0.0, 1.6635011313104336E9, 0.0, 2022-09-18 16:38:51.310
38.0, -21818.856515748088, -35270.49395686316, -67051.23240366369, -55197.05178702495, -40042.68080504904, -22027.621808960655, 1691.6023721220938, -30447.859221441657, 0.74, -0.492, 0.514, 192.0, 23.0, 32.0, 240.0, 160.0, 16.0, 16.0, 0.0, 0.0, 0.0, 1.6635011313144317E9, 0.0, 2022-09-18 16:38:51.314
39.0, -21314.377643391806, -34953.076833853345, -67178.0114982142, -54778.67183431052, -40188.52593761992, -22171.656450230654, 3133.71457263405, -30394.59501440466, 0.74, -0.492, 0.514, 192.0, 0.0, 0.0, 0.0, 0.0, 0.0, 0.0, 0.0, 0.0, 0.0, 1.663501131318422E9, 0.0, 2022-09-18 16:38:51.318
40.0, -21304.297006642464, -34675.51287120734, -67151.43527405683, -54785.287950669284, -40253.7036244516, -22178.3843253117, 2172.321340122383, -30405.457962209937, 0.74, -0.492, 0.514, 192.0, 0.0, 0.0, 0.0, 0.0, 0.0, 0.0, 0.0, 0.0, 0.0, 1.66350113132343E9, 0.0, 2022-09-18 16:38:51.323
41.0, -21221.237924246543, -34044.187849067195, -67143.18748035282, -54643.175559422445, -40235.285787020424, -22196.10925866476, 275.0605672670087, -30315.46983903287, 0.74, -0.492, 0.514, 192.0, 0.0, 0.0, 0.0, 0.0, 0.0, 0.0, 0.0, 0.0, 0.0, 1.6635011313274333E9, 0.0, 2022-09-18 16:38:51.327
42.0, -21624.552801198104, -34468.64747627348, -67034.35683659994, -54989.53819150188, -40096.48145395297, -22036.964838142972, -68.37398628878431, -30450.183802865005, 0.74, -0.492, 0.514, 192.0, 0.0, 0.0, 0.0, 0.0, 0.0, 0.0, 0.0, 0.0, 0.0, 1.6635011313314128E9, 0.0, 2022-09-18 16:38:51.331
43.0, -21829.18302168644, -35271.20921268573, -67067.2809561826, -55196.20242073565, -40038.18810441352, -22039.043550377315, 1685.9473807749011, -30435.72222420242, 0.74, -0.492, 0.514, 192.0, 0.0, 0.0, 0.0, 0.0, 0.0, 0.0, 0.0, 0.0, 0.0, 1.6635011313344223E9, 0.0, 2022-09-18 16:38:51.334
44.0, -21314.556457347448, -34956.720168199565, -67238.42826347689, -54782.76220354583, -40199.143016236194, -22194.410526086158, 3130.8759010882263, -30400.20530226294, 0.74, -0.492, 0.514, 192.0, 0.0, 0.0, 0.0, 0.0, 0.0, 0.0, 0.0, 0.0, 0.0, 1.6635011313384683E9, 0.0, 2022-09-18 16:38:51.338
45.0, -21304.78874502048, -34682.57602245522, -67179.01732671467, -54797.22378220842, -40270.13215662625, -22205.16171516916, 2177.506944836014, -30423.384061263096, 0.74, -0.492, 0.514, 192.0, 0.0, 0.0, 0.0, 0.0, 0.0, 0.0, 0.0, 0.0, 0.0, 1.6635011313424404E9, 0.0, 2022-09-18 16:38:51.342
46.0, -21223.562505669895, -34049.015825869545, -67168.3555446095, -54656.43014388444, -40254.03890061843, -22220.53971535441, 283.17425050428517, -30340.503792822816, 0.74, -0.492, 0.514, 192.0, 0.0, 0.0, 0.0, 0.0, 0.0, 0.0, 0.0, 0.0, 0.0, 1.663501131346434E9, 0.0, 2022-09-18 16:38:51.346
47.0, -21606.13496376693, -34453.40358655496, -67024.85734520643, -54988.241790323475, -40096.32499174178, -22029.78992817282, -40.814285375390696, -30454.967076178444, 0.74, -0.492, 0.514, 192.0, 0.0, 0.0, 0.0, 0.0, 0.0, 0.0, 0.0, 0.0, 0.0, 1.6635011313504627E9, 0.0, 2022-09-18 16:38:51.350
48.0, -21811.905123222485, -35258.69223579076, -67058.18379618929, -55195.30835095744, -40042.323177137754, -22028.582933972233, 1716.144587534021, -30431.430689267003, 0.746, -0.49, 0.52, 192.0, 23.0, 80.0, 240.0, 176.0, 16.0, 64.0, 0.0, 0.0, 0.0, 1.66350113135545E9, 0.0, 2022-09-18 16:38:51.355
49.0, -21303.827620008902, -34944.49376398251, -67225.30778948162, -54783.07512796821, -40198.42776041362, -22186.922691693628, 3159.620244457751, -30375.037238006265, 0.746, -0.49, 0.52, 192.0, 0.0, 0.0, 0.0, 0.0, 0.0, 0.0, 0.0, 0.0, 0.0, 1.663501131359454E9, 0.0, 2022-09-18 16:38:51.359
50.0, -21297.233855394585, -34665.0299030578, -67188.20389368582, -54791.032348994304, -40263.314874567375, -22192.2871103629, 2200.7751108139887, -30391.15284575854, 0.746, -0.49, 0.52, 192.0, 0.0, 0.0, 0.0, 0.0, 0.0, 0.0, 0.0, 0.0, 0.0, 1.6635011313624885E9, 0.0, 2022-09-18 16:38:51.362
51.0, -21216.789927099937, -34023.423078468215, -67164.46634107428, -54644.76253327877, -40248.80859241588, -22209.430898360122, 301.3015152575392, -30312.25118783131, 0.746, -0.49, 0.52, 192.0, 0.0, 0.0, 0.0, 0.0, 0.0, 0.0, 0.0, 0.0, 0.0, 1.6635011313666067E9, 0.0, 2022-09-18 16:38:51.366
52.0, -21623.636379675434, -34440.26076081524, -67020.16347887082, -54992.7791944479, -40105.668020924095, -22039.959971899985, -44.68113716615882, -30459.59388728069, 0.746, -0.49, 0.52, 192.0, 0.0, 0.0, 0.0, 0.0, 0.0, 0.0, 0.0, 0.0, 0.0, 1.6635011313705196E9, 0.0, 2022-09-18 16:38:51.370
53.0, -21838.816623546678, -35251.673788031796, -67064.30817417004, -55211.178089520705, -40050.14628769711, -22033.589724730224, 1708.1873665079318, -30459.906811703066, 0.746, -0.49, 0.52, 192.0, 0.0, 0.0, 0.0, 0.0, 0.0, 0.0, 0.0, 0.0, 0.0, 1.6635011313746407E9, 0.0, 2022-09-18 16:38:51.374
54.0, -21322.848954540368, -34939.15169705769, -67233.80145237464, -54799.8836397986, -40213.403429198675, -22193.136476652202, 3155.976910111536, -30418.51138097184, 0.746, -0.49, 0.52, 192.0, 0.0, 0.0, 0.0, 0.0, 0.0, 0.0, 0.0, 0.0, 0.0, 1.6635011313796098E9, 0.0, 2022-09-18 16:38:51.379
55.0, -21307.917989244223, -34659.93370532199, -67196.38463215645, -54809.09255851419, -40287.38770334575, -22204.178238413126, 2198.67404683519, -30434.761099190844, 0.746, -0.49, 0.52, 192.0, 0.0, 0.0, 0.0, 0.0, 0.0, 0.0, 0.0, 0.0, 0.0, 1.663501131383581E9, 0.0, 2022-09-18 16:38:51.383
56.0, -21224.501278937016, -34015.9799475646, -67168.46730333177, -54655.469018872864, -40257.659883220185, -22219.26566592046, 288.18104126227394, -30321.638920502537, 0.746, -0.49, 0.52, 192.0, 0.0, 0.0, 0.0, 0.0, 0.0, 0.0, 0.0, 0.0, 0.0, 1.6635011313874881E9, 0.0, 2022-09-18 16:38:51.387
57.0, -21629.224315789263, -34428.704908931846, -67027.60660977443, -54998.05420613936, -40111.92650937158, -22061.305887854804, -63.38954727525083, -30457.60458202417, 0.746, -0.49, 0.52, 192.0, 0.0, 0.0, 0.0, 0.0, 0.0, 0.0, 0.0, 0.0, 0.0, 1.6635011313905668E9, 0.0, 2022-09-18 16:38:51.390
58.0, -21824.243286161814, -35222.795334195536, -67047.96904897322, -55198.325836458906, -40034.67888053404, -22046.061998136283, 1716.4575119563954, -30430.246046810873, 0.748, -0.496, 0.516, 192.0, 23.0, 96.0, 240.0, 128.0, 16.0, 32.0, 0.0, 0.0, 0.0, 1.6635011313946304E9, 0.0, 2022-09-18 16:38:51.394
59.0, -21322.26780918453, -34914.408315945664, -67216.41179518841, -54790.205334449456, -40200.48412090351, -22201.00429070047, 3170.6620062186726, -30389.29765096875, 0.748, -0.496, 0.516, 192.0, 0.0, 0.0, 0.0, 0.0, 0.0, 0.0, 0.0, 0.0, 0.0, 1.6635011313985229E9, 0.0, 2022-09-18 16:38:51.398
60.0, -21312.54480034647, -34629.51298111832, -67168.08732367604, -54792.26169493934, -40263.4042815452, -22195.550465053377, 2215.9742970435973, -30408.40839247804, 0.748, -0.496, 0.516, 192.0, 0.0, 0.0, 0.0, 0.0, 0.0, 0.0, 0.0, 0.0, 0.0, 1.6635011314025657E9, 0.0, 2022-09-18 16:38:51.402
61.0, -21223.473098692073, -33984.754560560534, -67155.81621597007, -54645.76836177926, -40246.86399064827, -22214.34828214029, 299.64748616784647, -30331.272522362775, 0.748, -0.496, 0.516, 192.0, 0.0, 0.0, 0.0, 0.0, 0.0, 0.0, 0.0, 0.0, 0.0, 1.6635011314075248E9, 0.0, 2022-09-18 16:38:51.407
62.0, -21610.27003649116, -34391.04221952465, -67009.99343514365, -54982.69855769856, -40093.68748589605, -22032.27097180736, -46.223407533575006, -30453.44715755548, 0.748, -0.496, 0.516, 192.0, 0.0, 0.0, 0.0, 0.0, 0.0, 0.0, 0.0, 0.0, 0.0, 1.6635011314115846E9, 0.0, 2022-09-18 16:38:51.411
63.0, -21820.152916926494, -35214.6592992138, -67069.35966841695, -55204.85254583986, -40041.78673527083, -22033.992056130417, 1708.0756077856552, -30430.000177621863, 0.748, -0.496, 0.516, 192.0, 0.0, 0.0, 0.0, 0.0, 0.0, 0.0, 0.0, 0.0, 0.0, 1.6635011314156275E9, 0.0, 2022-09-18 16:38:51.415
64.0, -21300.363099618327, -34905.04293501889, -67222.0667865356, -54796.50852638585, -40206.58614713981, -22200.35609011127, 3167.175134083645, -30397.63485165058, 0.748, -0.496, 0.516, 192.0, 0.0, 0.0, 0.0, 0.0, 0.0, 0.0, 0.0, 0.0, 0.0, 1.6635011314185886E9, 0.0, 2022-09-18 16:38:51.418
65.0, -21311.136640445788, -34630.2729404298, -67164.3992858409, -54810.23249748141, -40281.755063743, -22217.611636830767, 2209.0452562624523, -30408.073116311207, 0.748, -0.496, 0.516, 192.0, 0.0, 0.0, 0.0, 0.0, 0.0, 0.0, 0.0, 0.0, 0.0, 1.6635011314225771E9, 0.0, 2022-09-18 16:38:51.422
66.0, -21245.131939069266, -33989.24726119605, -67129.82113716855, -54656.54190260672, -40243.15360106869, -22214.884724007217, 277.5863143904584, -30295.017992856265, 0.748, -0.496, 0.516, 192.0, 0.0, 0.0, 0.0, 0.0, 0.0, 0.0, 0.0, 0.0, 0.0, 1.6635011314266727E9, 0.0, 2022-09-18 16:38:51.426
67.0, -21620.03774881813, -34387.95767878982, -67007.64650197583, -54981.26804605342, -40083.428035191064, -22026.16894557106, -70.54210550094909, -30428.50261074336, 0.748, -0.496, 0.516, 192.0, 0.0, 0.0, 0.0, 0.0, 0.0, 0.0, 0.0, 0.0, 0.0, 1.663501131430585E9, 0.0, 2022-09-18 16:38:51.430
68.0, -21817.068376191663, -35207.73025843266, -67057.580299089, -55206.7300923741, -40047.46407836248, -22044.16209985758, 1710.8025206092025, -30455.168241878542, 0.75, -0.498, 0.51, 192.0, 23.0, 112.0, 240.0, 112.0, 15.0, 240.0, 0.0, 0.0, 0.0, 1.6635011314345856E9, 0.0, 2022-09-18 16:38:51.434
69.0, -21308.521486344514, -34892.97299301303, -67225.26308599272, -54798.81075606475, -40223.193493270104, -22215.197648429592, 3195.58420128634, -30421.998253106864, 0.75, -0.498, 0.51, 192.0, 0.0, 0.0, 0.0, 0.0, 0.0, 0.0, 0.0, 0.0, 0.0, 1.6635011314396048E9, 0.0, 2022-09-18 16:38:51.439
70.0, -21301.97242521911, -34604.791951750754, -67157.6490590154, -54794.92155252952, -40267.651112991705, -22192.130648151717, 2235.6438321642677, -30400.11589528512, 0.75, -0.498, 0.51, 192.0, 0.0, 0.0, 0.0, 0.0, 0.0, 0.0, 0.0, 0.0, 0.0, 1.6635011314436188E9, 0.0, 2022-09-18 16:38:51.443
71.0, -21251.412779261205, -33985.91685127221, -67131.43046276933, -54657.27951017374, -40242.483048735034, -22204.11118317976, 246.5620930864922, -30298.817789413668, 0.75, -0.498, 0.51, 192.0, 0.0, 0.0, 0.0, 0.0, 0.0, 0.0, 0.0, 0.0, 0.0, 1.663501131446611E9, 0.0, 2022-09-18 16:38:51.446
72.0, -21628.37494949996, -34391.8692340695, -67000.87392340589, -54991.035758380385, -40086.42316894808, -22023.84436414771, -118.17367293520844, -30440.43844228249, 0.75, -0.498, 0.51, 192.0, 0.0, 0.0, 0.0, 0.0, 0.0, 0.0, 0.0, 0.0, 0.0, 1.663501131450746E9, 0.0, 2022-09-18 16:38:51.450
73.0, -21789.08399213362, -35181.71282788668, -67018.15182186983, -55194.03430152349, -40028.912130464574, -22021.609189702176, 1737.5799104666605, -30439.231448081908, 0.75, -0.498, 0.51, 192.0, 0.0, 0.0, 0.0, 0.0, 0.0, 0.0, 0.0, 0.0, 0.0, 1.6635011314546368E9, 0.0, 2022-09-18 16:38:51.454
74.0, -21265.270860823497, -34857.36666409572, -67196.69755657883, -54778.6271308216, -40197.62309761323, -22185.693345748587, 3262.304158485432, -30393.87975858209, 0.75, -0.498, 0.51, 192.0, 0.0, 0.0, 0.0, 0.0, 0.0, 0.0, 0.0, 0.0, 0.0, 1.6635011314586728E9, 0.0, 2022-09-18 16:38:51.458
75.0, -21301.346576374362, -34600.098085415135, -67162.72290500675, -54798.11785198663, -40263.06900537837, -22191.750668495974, 2230.2347100060833, -30391.801046347744, 0.75, -0.498, 0.51, 192.0, 0.0, 0.0, 0.0, 0.0, 0.0, 0.0, 0.0, 0.0, 0.0, 1.6635011314647884E9, 0.0, 2022-09-18 16:38:51.464
76.0, -21307.89563749977, -34009.721459117114, -67140.68408497382, -54676.27849296075, -40241.61133070127, -22206.391061114202, 122.17463519270841, -30311.17830409745, 0.75, -0.498, 0.51, 192.0, 0.0, 0.0, 0.0, 0.0, 0.0, 0.0, 0.0, 0.0, 0.0, 1.6635011314677296E9, 0.0, 2022-09-18 16:38:51.467
77.0, -21682.287357126163, -34419.451286727344, -67043.14107217087, -55012.292267357385, -40103.432846478565, -22046.732550469944, -243.4328488627492, -30451.12257613213, 0.75, -0.498, 0.51, 192.0, 0.0, 0.0, 0.0, 0.0, 0.0, 0.0, 0.0, 0.0, 0.0, 1.6635011314716704E9, 0.0, 2022-09-18 16:38:51.471
78.0, -21781.909082163464, -35180.304667986, -67065.60457534845, -55203.60084815036, -40052.962607498484, -22055.22621336296, 1746.6770704599703, -30442.651264983568, 0.75, -0.5, 0.516, 192.0, 23.0, 112.0, 240.0, 96.0, 16.0, 32.0, 0.0, 0.0, 0.0, 1.6635011314746785E9, 0.0, 2022-09-18 16:38:51.474
79.0, -21248.618811204295, -34840.75931796543, -67188.09213496353, -54782.40457563455, -40213.9398710656, -22208.045090203894, 3335.7519907655706, -30406.217921521416, 0.75, -0.5, 0.516, 192.0, 0.0, 0.0, 0.0, 0.0, 0.0, 0.0, 0.0, 0.0, 0.0, 1.6635011314787445E9, 0.0, 2022-09-18 16:38:51.478
80.0, -21328.101614487365, -34600.7686377488, -67140.7958436961, -54811.55125040427, -40267.986389158534, -22193.76232549695, 2238.147227543262, -30420.21011355044, 0.75, -0.5, 0.516, 192.0, 0.0, 0.0, 0.0, 0.0, 0.0, 0.0, 0.0, 0.0, 0.0, 1.6635011314827447E9, 0.0, 2022-09-18 16:38:51.482
81.0, -21359.90814684727, -34034.755412907056, -67129.70937844628, -54693.511687935796, -40230.5472171959, -22192.063592918348, 18.93192755364508, -30304.47278076086, 0.75, -0.5, 0.516, 192.0, 0.0, 0.0, 0.0, 0.0, 0.0, 0.0, 0.0, 0.0, 0.0, 1.6635011314867065E9, 0.0, 2022-09-18 16:38:51.486
82.0, -21689.77519151869, -34425.01687109672, -67021.83985970495, -55005.92202018762, -40086.40081720362, -22023.35262576969, -314.9807828641871, -30427.474430498416, 0.75, -0.5, 0.516, 192.0, 0.0, 0.0, 0.0, 0.0, 0.0, 0.0, 0.0, 0.0, 0.0, 1.663501131490833E9, 0.0, 2022-09-18 16:38:51.490
83.0, -21756.53985220669, -35171.878060326344, -67070.72312482871, -55199.53283065949, -40069.61465711769, -22067.78789374684, 1774.9073237070231, -30469.629820541126, 0.75, -0.5, 0.516, 192.0, 0.0, 0.0, 0.0, 0.0, 0.0, 0.0, 0.0, 0.0, 0.0, 1.6635011314947677E9, 0.0, 2022-09-18 16:38:51.494
84.0, -21216.38759569974, -34828.08587885927, -67211.38265268596, -54779.09651745517, -40225.89805434919, -22218.01396823096, 3393.0395118045226, -30421.55121821776, 0.75, -0.5, 0.516, 192.0, 0.0, 0.0, 0.0, 0.0, 0.0, 0.0, 0.0, 0.0, 0.0, 1.663501131499708E9, 0.0, 2022-09-18 16:38:51.499
85.0, -21309.46025961164, -34593.50432080082, -67153.44693105781, -54805.717445101436, -40269.84158394833, -22185.96156668205, 2251.535922471991, -30403.982747075886, 0.75, -0.5, 0.516, 192.0, 0.0, 0.0, 0.0, 0.0, 0.0, 0.0, 0.0, 0.0, 0.0, 1.6635011315027544E9, 0.0, 2022-09-18 16:38:51.502
86.0, -21362.769170137548, -34036.94588386368, -67148.90952693338, -54688.43784194444, -40238.48208647753, -22179.278395089914, -22.7764275999579, -30288.960670108878, 0.75, -0.5, 0.516, 192.0, 0.0, 0.0, 0.0, 0.0, 0.0, 0.0, 0.0, 0.0, 0.0, 1.663501131506683E9, 0.0, 2022-09-18 16:38:51.506
87.0, -21697.330081144584, -34428.414336253925, -67034.8262232335, -55010.30296210086, -40110.40659074862, -22041.099910867204, -355.079812417008, -30446.5851720077, 0.75, -0.5, 0.516, 192.0, 0.0, 0.0, 0.0, 0.0, 0.0, 0.0, 0.0, 0.0, 0.0, 1.663501131510838E9, 0.0, 2022-09-18 16:38:51.510
88.0, -21752.27066901573, -35161.1492229878, -67055.7251042992, -55192.514382900525, -40071.78277632985, -22070.537158314844, 1789.8606407476236, -30477.609393311668, 0.75, -0.5, 0.516, 192.0, 0.0, 0.0, 0.0, 0.0, 0.0, 0.0, 0.0, 0.0, 0.0, 1.6635011315148072E9, 0.0, 2022-09-18 16:38:51.514
89.0, -21213.30305496491, -34817.82642815429, -67195.49056237824, -54773.776802274806, -40223.41701071466, -22215.868200763252, 3418.1181690833773, -30420.74655541737, 0.746, -0.498, 0.514, 192.0, 23.0, 80.0, 240.0, 112.0, 16.0, 16.0, 0.0, 0.0, 0.0, 1.6635011315188162E9, 0.0, 2022-09-18 16:38:51.518
90.0, -21317.37277714882, -34591.98440217786, -67122.37800626493, -54800.35302643217, -40254.12830759625, -22178.67489798962, 2259.962530131642, -30394.170331260008, 0.746, -0.498, 0.514, 192.0, 0.0, 0.0, 0.0, 0.0, 0.0, 0.0, 0.0, 0.0, 0.0, 1.6635011315227728E9, 0.0, 2022-09-18 16:38:51.522
91.0, -21374.45913248767, -34045.864229901345, -67103.84841011147, -54685.93444656544, -40220.84656010229, -22183.592281769786, -34.86872135027902, -30289.206539297884, 0.746, -0.498, 0.514, 192.0, 0.0, 0.0, 0.0, 0.0, 0.0, 0.0, 0.0, 0.0, 0.0, 1.6635011315267696E9, 0.0, 2022-09-18 16:38:51.526
92.0, -21720.710005844834, -34443.90409516145, -67012.29566482254, -55008.35836033325, -40101.063561566305, -22049.817091204775, -369.0273009571196, -30426.35684327565, 0.746, -0.498, 0.514, 192.0, 0.0, 0.0, 0.0, 0.0, 0.0, 0.0, 0.0, 0.0, 0.0, 1.663501131529841E9, 0.0, 2022-09-18 16:38:51.529
93.0, -21768.945070379385, -35178.047141796014, -67071.97482251821, -55192.60378987835, -40078.22007873298, -22085.825751522276, 1777.947160952945, -30450.273209842828, 0.746, -0.498, 0.514, 192.0, 0.0, 0.0, 0.0, 0.0, 0.0, 0.0, 0.0, 0.0, 0.0, 1.6635011315348065E9, 0.0, 2022-09-18 16:38:51.534
94.0, -21222.377863213762, -34836.467783030006, -67225.41954820389, -54778.13539244359, -40243.93591212462, -22234.777776572442, 3403.1425002983215, -30422.422936251514, 0.746, -0.498, 0.514, 192.0, 0.0, 0.0, 0.0, 0.0, 0.0, 0.0, 0.0, 0.0, 0.0, 1.663501131538848E9, 0.0, 2022-09-18 16:38:51.538
95.0, -21319.563248105438, -34608.010602952316, -67163.9969544407, -54814.14405276109, -40291.23220339206, -22206.435764603113, 2241.1647130447286, -30425.351014775162, 0.746, -0.498, 0.514, 192.0, 0.0, 0.0, 0.0, 0.0, 0.0, 0.0, 0.0, 0.0, 0.0, 1.6635011315438845E9, 0.0, 2022-09-18 16:38:51.543
96.0, -21371.66516443076, -34041.058604843456, -67105.52479094562, -54690.04716754522, -40240.29257777841, -22195.48340982001, -36.81332311789073, -30312.944091909423, 0.746, -0.498, 0.514, 192.0, 0.0, 0.0, 0.0, 0.0, 0.0, 0.0, 0.0, 0.0, 0.0, 1.6635011315478709E9, 0.0, 2022-09-18 16:38:51.547
97.0, -21700.213456179317, -34421.59705419505, -66972.64367015882, -54998.54594451737, -40091.22879400597, -22032.472137507455, -360.57834155301356, -30452.284866843806, 0.746, -0.498, 0.514, 192.0, 0.0, 0.0, 0.0, 0.0, 0.0, 0.0, 0.0, 0.0, 0.0, 1.663501131550766E9, 0.0, 2022-09-18 16:38:51.550
98.0, -21745.386331723494, -35155.29306594051, -67044.66099079383, -55179.72918507209, -40056.874162778164, -22054.578012773756, 1783.40098660004, -30445.378177807117, 0.746, -0.498, 0.514, 192.0, 0.0, 0.0, 0.0, 0.0, 0.0, 0.0, 0.0, 0.0, 0.0, 1.6635011315548563E9, 0.0, 2022-09-18 16:38:51.554
99.0, -21211.67137761967, -34821.82739041178, -67204.364204927, -54765.64076729307, -40215.68330713312, -22206.167543669646, 3403.678942165249, -30383.709714854926, 0.746, -0.496, 0.508, 192.0, 23.0, 80.0, 240.0, 128.0, 15.0, 224.0, 0.0, 0.0, 0.0, 1.6635011315579247E9, 0.0, 2022-09-18 16:38:51.557
100.0, -21317.484535871095, -34596.186530135456, -67141.1981750963, -54796.15089847457, -40250.104993594294, -22168.370743795724, 2235.532073441991, -30374.746665328345, 0.746, -0.496, 0.508, 192.0, 0.0, 0.0, 0.0, 0.0, 0.0, 0.0, 0.0, 0.0, 0.0, 1.663501131562885E9, 0.0, 2022-09-18 16:38:51.562
101.0, -21374.213263298665, -34049.52991599201, -67138.29244831711, -54693.42228095797, -40224.78046712643, -22176.819703199828, -80.77920446147972, -30298.102533591096, 0.746, -0.496, 0.508, 192.0, 0.0, 0.0, 0.0, 0.0, 0.0, 0.0, 0.0, 0.0, 0.0, 1.6635011315668557E9, 0.0, 2022-09-18 16:38:51.566
102.0, -21706.80722079363, -34444.23937132828, -67063.41410439184, -55026.57503206433, -40123.68352695507, -22057.908422697597, -427.41005747438163, -30475.396570610592, 0.746, -0.496, 0.508, 192.0, 0.0, 0.0, 0.0, 0.0, 0.0, 0.0, 0.0, 0.0, 0.0, 1.663501131571041E9, 0.0, 2022-09-18 16:38:51.571
103.0, -21758.26093652975, -35171.67689462625, -67055.90391825484, -55204.24904873956, -40080.25408747841, -22083.344707887736, 1757.495314776339, -30487.041829471807, 0.746, -0.496, 0.508, 192.0, 0.0, 0.0, 0.0, 0.0, 0.0, 0.0, 0.0, 0.0, 0.0, 1.6635011315749564E9, 0.0, 2022-09-18 16:38:51.574
104.0, -21218.779232356457, -34823.548474734846, -67195.49056237824, -54776.54841858726, -40232.17889454113, -22223.646607833696, 3423.3708290303744, -30419.025471094308, 0.746, -0.496, 0.508, 192.0, 0.0, 0.0, 0.0, 0.0, 0.0, 0.0, 0.0, 0.0, 0.0, 1.6635011315789185E9, 0.0, 2022-09-18 16:38:51.578
105.0, -21323.94419001868, -34597.48293131387, -67151.94936417931, -54810.07603527022, -40282.73854049904, -22197.5397703099, 2271.965416904142, -30412.610520435635, 0.746, -0.496, 0.508, 192.0, 0.0, 0.0, 0.0, 0.0, 0.0, 0.0, 0.0, 0.0, 0.0, 1.6635011315819333E9, 0.0, 2022-09-18 16:38:51.581
106.0, -21392.541693752017, -34047.3841485243, -67106.35180549047, -54700.4630804614, -40243.82415340235, -22198.076212176828, -29.83957884783493, -30304.919815649966, 0.746, -0.496, 0.508, 192.0, 0.0, 0.0, 0.0, 0.0, 0.0, 0.0, 0.0, 0.0, 0.0, 1.6635011315859296E9, 0.0, 2022-09-18 16:38:51.585
107.0, -21717.826630810097, -34420.45711522784, -66986.25588253212, -55000.64700849617, -40090.714703883496, -22034.595553230713, -341.0429168990752, -30421.79708740677, 0.746, -0.496, 0.508, 192.0, 0.0, 0.0, 0.0, 0.0, 0.0, 0.0, 0.0, 0.0, 0.0, 1.6635011315899389E9, 0.0, 2022-09-18 16:38:51.589
108.0, -21752.985924838296, -35150.33097867143, -67063.63762183639, -55182.85842929583, -40073.01212227489, -22073.644050794133, 1839.1909407604865, -30457.64928551308, 0.746, -0.496, 0.508, 192.0, 0.0, 0.0, 0.0, 0.0, 0.0, 0.0, 0.0, 0.0, 0.0, 1.6635011315949197E9, 0.0, 2022-09-18 16:38:51.594
109.0, -21206.061089761388, -34813.71370717451, -67220.32335046808, -54772.48040109639, -40235.86693237626, -22225.546506112398, 3485.955713505234, -30413.951625102953, 0.752, -0.496, 0.506, 192.0, 23.0, 128.0, 240.0, 128.0, 15.0, 208.0, 0.0, 0.0, 0.0, 1.6635011315990272E9, 0.0, 2022-09-18 16:38:51.599
110.0, -21316.94809400417, -34593.101989400624, -67157.73846599323, -54809.204317236465, -40272.72495898306, -22193.807028985862, 2324.2237954406496, -30396.472560938902, 0.752, -0.496, 0.506, 192.0, 0.0, 0.0, 0.0, 0.0, 0.0, 0.0, 0.0, 0.0, 0.0, 1.6635011316029656E9, 0.0, 2022-09-18 16:38:51.602
111.0, -21369.36293475186, -34038.64461644228, -67120.9921981087, -54693.06465304669, -40229.139057295215, -22185.11220039275, 21.591785143826623, -30275.23669901332, 0.752, -0.496, 0.506, 192.0, 0.0, 0.0, 0.0, 0.0, 0.0, 0.0, 0.0, 0.0, 0.0, 1.6635011316069822E9, 0.0, 2022-09-18 16:38:51.606
112.0, -21633.18057455785, -34354.49711734022, -67005.25486531912, -54949.237996248965, -40104.975116845984, -22051.26995459437, -163.927693835222, -30421.953549617952, 0.752, -0.496, 0.506, 192.0, 0.0, 0.0, 0.0, 0.0, 0.0, 0.0, 0.0, 0.0, 0.0, 1.6635011316099627E9, 0.0, 2022-09-18 16:38:51.609
113.0, -21649.162071843395, -35034.63834937076, -67064.86696778143, -55109.321190037874, -40085.394988703134, -22080.12605668617, 2132.155255336196, -30464.22069838294, 0.752, -0.496, 0.506, 192.0, 0.0, 0.0, 0.0, 0.0, 0.0, 0.0, 0.0, 0.0, 0.0, 1.6635011316139488E9, 0.0, 2022-09-18 16:38:51.613
114.0, -21212.945427053623, -34782.68948587054, -67201.4584781478, -54779.09651745517, -40219.706621135076, -22207.218075659046, 3581.062386162566, -30408.006061077842, 0.752, -0.496, 0.506, 192.0, 0.0, 0.0, 0.0, 0.0, 0.0, 0.0, 0.0, 0.0, 0.0, 1.663501131617988E9, 0.0, 2022-09-18 16:38:51.617
115.0, -21298.59731180636, -34552.82414589216, -67194.21651294429, -54805.73979684589, -40280.21279337559, -22205.362880869256, 2420.917441954308, -30406.06145931023, 0.752, -0.496, 0.506, 192.0, 0.0, 0.0, 0.0, 0.0, 0.0, 0.0, 0.0, 0.0, 0.0, 1.663501131622959E9, 0.0, 2022-09-18 16:38:51.622
116.0, -21392.117010607366, -34042.578523466414, -67132.48099475873, -54729.520348253296, -40243.26535979097, -22194.81285748635, -3.8668517907681217, -30308.89842616301, 0.752, -0.496, 0.506, 192.0, 0.0, 0.0, 0.0, 0.0, 0.0, 0.0, 0.0, 0.0, 0.0, 1.663501131626984E9, 0.0, 2022-09-18 16:38:51.626
117.0, -21697.330081144584, -34391.846882325044, -66976.3093562495, -55000.02115965142, -40098.403703976124, -22050.040608649328, -297.7699396336007, -30448.70858773096, 0.752, -0.496, 0.506, 192.0, 0.0, 0.0, 0.0, 0.0, 0.0, 0.0, 0.0, 0.0, 0.0, 1.663501131630931E9, 0.0, 2022-09-18 16:38:51.630
118.0, -21721.313502945126, -35096.79855070097, -67042.00113320365, -55165.468772109605, -40077.48247116595, -22081.243643908936, 1932.9118052615888, -30477.095303189195, 0.752, -0.496, 0.506, 192.0, 0.0, 0.0, 0.0, 0.0, 0.0, 0.0, 0.0, 0.0, 0.0, 1.6635011316349285E9, 0.0, 2022-09-18 16:38:51.634
119.0, -21230.513898195495, -34800.8614541127, -67189.99203324223, -54792.351101917164, -40230.033127073424, -22214.34828214029, 3475.4280418667845, -30424.92633163051, 0.756, -0.494, 0.51, 192.0, 23.0, 160.0, 240.0, 144.0, 15.0, 240.0, 0.0, 0.0, 0.0, 1.6635011316380932E9, 0.0, 2022-09-18 16:38:51.638
120.0, -21354.61078341136, -34597.4158760805, -67137.35367504999, -54833.27714601483, -40261.236162333036, -22176.551482266364, 2250.2842247824938, -30391.197549247452, 0.756, -0.494, 0.51, 192.0, 0.0, 0.0, 0.0, 0.0, 0.0, 0.0, 0.0, 0.0, 0.0, 1.6635011316419284E9, 0.0, 2022-09-18 16:38:51.641
121.0, -21417.24037137513, -34056.95069515118, -67127.63066621193, -54720.35613302662, -40228.28969100591, -22184.91103469265, -97.56536454741533, -30286.032591585234, 0.756, -0.494, 0.51, 192.0, 0.0, 0.0, 0.0, 0.0, 0.0, 0.0, 0.0, 0.0, 0.0, 1.6635011316459537E9, 0.0, 2022-09-18 16:38:51.645
122.0, -21727.81786058162, -34431.275359544205, -67011.55805725552, -55025.3903896082, -40097.10730279771, -22042.32925681225, -440.463476236281, -30445.82521269622, 0.756, -0.494, 0.51, 192.0, 0.0, 0.0, 0.0, 0.0, 0.0, 0.0, 0.0, 0.0, 0.0, 1.6635011316499882E9, 0.0, 2022-09-18 16:38:51.649
123.0, -21756.897480117976, -35153.996664762104, -67049.66778155182, -55197.09649051386, -40061.6574360916, -22059.428341320556, 1756.2883205757526, -30459.862108214154, 0.756, -0.494, 0.51, 192.0, 0.0, 0.0, 0.0, 0.0, 0.0, 0.0, 0.0, 0.0, 0.0, 1.6635011316549773E9, 0.0, 2022-09-18 16:38:51.654
124.0, -21200.56256062538, -34803.92364310308, -67215.47302192128, -54769.84289525067, -40225.62983341573, -22209.229732660024, 3424.8236924199696, -30403.647470909058, 0.756, -0.494, 0.51, 192.0, 0.0, 0.0, 0.0, 0.0, 0.0, 0.0, 0.0, 0.0, 0.0, 1.6635011316589766E9, 0.0, 2022-09-18 16:38:51.658
125.0, -21303.268826397518, -34588.296364342736, -67178.8608645035, -54811.305381215265, -40269.28279033695, -22185.58158702631, 2243.8692741238206, -30394.147979515554, 0.756, -0.494, 0.51, 192.0, 0.0, 0.0, 0.0, 0.0, 0.0, 0.0, 0.0, 0.0, 0.0, 1.6635011316630328E9, 0.0, 2022-09-18 16:38:51.663
126.0, -21400.789487456022, -34069.02063715704, -67132.68216045883, -54729.229775575375, -40251.513153494976, -22211.666072805652, -117.7489897905576, -30321.303644335705, 0.756, -0.494, 0.51, 192.0, 0.0, 0.0, 0.0, 0.0, 0.0, 0.0, 0.0, 0.0, 0.0, 1.6635011316660802E9, 0.0, 2022-09-18 16:38:51.666
127.0, -21733.36109320654, -34438.606731725544, -66980.28796676254, -55031.04538095539, -40112.88763438316, -22059.428341320556, -448.7559734291999, -30471.015628697354, 0.756, -0.494, 0.51, 192.0, 0.0, 0.0, 0.0, 0.0, 0.0, 0.0, 0.0, 0.0, 0.0, 1.6635011316700637E9, 0.0, 2022-09-18 16:38:51.670
128.0, -21762.194843553883, -35162.78090033304, -67038.96129595772, -55204.8301940954, -40079.06944502228, -22079.477856096968, 1755.6401199865486, -30473.161396165062, 0.756, -0.494, 0.51, 192.0, 0.0, 0.0, 0.0, 0.0, 0.0, 0.0, 0.0, 0.0, 0.0, 1.6635011316740632E9, 0.0, 2022-09-18 16:38:51.674
129.0, -21211.447860175118, -34823.59317822375, -67212.18731548636, -54786.45024138096, -40245.90286563669, -22232.40849166018, 3425.717762198182, -30422.333529273696, 0.75, -0.492, 0.51, 192.0, 23.0, 112.0, 240.0, 160.0, 15.0, 240.0, 0.0, 0.0, 0.0, 1.6635011316791E9, 0.0, 2022-09-18 16:38:51.679
130.0, -21336.818794824936, -34621.24283566986, -67183.86765526148, -54839.42387574004, -40298.11654068429, -22213.700081551087, 2235.1967972751618, -30439.27615157082, 0.75, -0.492, 0.51, 192.0, 0.0, 0.0, 0.0, 0.0, 0.0, 0.0, 0.0, 0.0, 0.0, 1.663501131683053E9, 0.0, 2022-09-18 16:38:51.683
131.0, -21399.358975810883, -34078.721294250645, -67148.68600948883, -54726.79343542975, -40243.44417374661, -22197.07038367634, -118.10661770184252, -30311.513580264284, 0.75, -0.492, 0.51, 192.0, 0.0, 0.0, 0.0, 0.0, 0.0, 0.0, 0.0, 0.0, 0.0, 1.6635011316870508E9, 0.0, 2022-09-18 16:38:51.687
132.0, -21707.9248080164, -34441.33364454909, -67008.1158886094, -55020.69652327258, -40104.03634357886, -22049.5041667824, -450.52176124116914, -30429.530790988305, 0.75, -0.492, 0.51, 192.0, 0.0, 0.0, 0.0, 0.0, 0.0, 0.0, 0.0, 0.0, 0.0, 1.66350113169107E9, 0.0, 2022-09-18 16:38:51.691
133.0, -21734.59043915158, -35162.55738288848, -67066.36453465994, -55194.548391645956, -40078.84592757773, -22078.18145491856, 1760.7363177223585, -30460.01857042534, 0.75, -0.492, 0.51, 192.0, 0.0, 0.0, 0.0, 0.0, 0.0, 0.0, 0.0, 0.0, 0.0, 1.6635011316940722E9, 0.0, 2022-09-18 16:38:51.694
134.0, -21182.569406338862, -34814.585425208264, -67202.39725141494, -54768.36768011662, -40232.11183930777, -22216.40464263018, 3447.845989208936, -30406.888473855077, 0.75, -0.492, 0.51, 192.0, 0.0, 0.0, 0.0, 0.0, 0.0, 0.0, 0.0, 0.0, 0.0, 1.6635011316980824E9, 0.0, 2022-09-18 16:38:51.698
135.0, -21305.928683987702, -34605.57426280669, -67136.1466808494, -54808.13143350261, -40271.78618571594, -22185.045145159384, 2267.6068267353567, -30384.424970677494, 0.75, -0.492, 0.51, 192.0, 0.0, 0.0, 0.0, 0.0, 0.0, 0.0, 0.0, 0.0, 0.0, 1.663501131702093E9, 0.0, 2022-09-18 16:38:51.702
136.0, -21400.677728733746, -34079.213032628664, -67094.55008441808, -54707.36976949809, -40228.13322879472, -22174.137493865193, -104.89673672875604, -30279.08119905963, 0.75, -0.492, 0.51, 192.0, 0.0, 0.0, 0.0, 0.0, 0.0, 0.0, 0.0, 0.0, 0.0, 1.6635011317061036E9, 0.0, 2022-09-18 16:38:51.706
137.0, -21727.415529181424, -34454.47647028881, -67005.09840310793, -55016.04736042587, -40105.08687556826, -22038.97649514395, -461.1611916018953, -30436.012796880343, 0.75, -0.492, 0.51, 192.0, 0.0, 0.0, 0.0, 0.0, 0.0, 0.0, 0.0, 0.0, 0.0, 1.6635011317110379E9, 0.0, 2022-09-18 16:38:51.711
138.0, -21750.415474225938, -35175.320228972465, -67077.49570339867, -55198.28113297, -40083.94212531354, -22079.723725285974, 1757.7411839653473, -30461.47143381494, 0.75, -0.492, 0.51, 192.0, 0.0, 0.0, 0.0, 0.0, 0.0, 0.0, 0.0, 0.0, 0.0, 1.6635011317151308E9, 0.0, 2022-09-18 16:38:51.715
139.0, -21193.789982055427, -34826.45420151403, -67221.57504815758, -54775.38612787559, -40242.66186269067, -22237.504689395988, 3450.215274121198, -30418.421973994016, 0.746, -0.486, 0.514, 192.0, 23.0, 80.0, 240.0, 208.0, 16.0, 16.0, 0.0, 0.0, 0.0, 1.663501131719084E9, 0.0, 2022-09-18 16:38:51.719
140.0, -21301.815963007924, -34608.144713419046, -67155.90562294789, -54805.04689276778, -40262.97959840055, -22186.274491104425, 2271.339568059393, -30398.953604573442, 0.746, -0.486, 0.514, 192.0, 0.0, 0.0, 0.0, 0.0, 0.0, 0.0, 0.0, 0.0, 0.0, 1.6635011317220957E9, 0.0, 2022-09-18 16:38:51.722
141.0, -21389.03246987253, -34083.325753608435, -67124.590828966, -54714.745845168334, -40233.85527537528, -22199.73024126652, -117.14549269026432, -30319.67196699047, 0.746, -0.486, 0.514, 192.0, 0.0, 0.0, 0.0, 0.0, 0.0, 0.0, 0.0, 0.0, 0.0, 1.663501131726119E9, 0.0, 2022-09-18 16:38:51.726
142.0, -21718.363072677028, -34449.76025220874, -66995.19658031424, -55018.34959010477, -40100.303602254826, -22052.007562161394, -465.29626432612713, -30461.78435823731, 0.746, -0.486, 0.514, 192.0, 0.0, 0.0, 0.0, 0.0, 0.0, 0.0, 0.0, 0.0, 0.0, 1.6635011317301314E9, 0.0, 2022-09-18 16:38:51.730
143.0, -21732.131747261497, -35163.853784066894, -67070.47725563971, -55189.720414843614, -40071.58161062975, -22073.733457771952, 1767.6206550145932, -30472.781416509322, 0.746, -0.486, 0.514, 192.0, 0.0, 0.0, 0.0, 0.0, 0.0, 0.0, 0.0, 0.0, 0.0, 1.6635011317341523E9, 0.0, 2022-09-18 16:38:51.734
144.0, -21171.32647887784, -34818.34051827675, -67222.89380108044, -54768.61354930563, -40236.09044982081, -22231.11209048177, 3461.0558701820223, -30418.86900888312, 0.746, -0.486, 0.514, 192.0, 0.0, 0.0, 0.0, 0.0, 0.0, 0.0, 0.0, 0.0, 0.0, 1.663501131739143E9, 0.0, 2022-09-18 16:38:51.739
145.0, -21294.842218737867, -34609.03878319726, -67158.27490786015, -54809.9866282924, -40282.24680212102, -22206.703985536577, 2275.83226869491, -30407.894302355566, 0.746, -0.486, 0.514, 192.0, 0.0, 0.0, 0.0, 0.0, 0.0, 0.0, 0.0, 0.0, 0.0, 1.663501131743106E9, 0.0, 2022-09-18 16:38:51.743
146.0, -21406.08685089193, -34087.50552982158, -67110.59863693698, -54717.04807484723, -40237.4986097215, -22201.853656989773, -119.9394607471777, -30291.70993467688, 0.746, -0.486, 0.514, 192.0, 0.0, 0.0, 0.0, 0.0, 0.0, 0.0, 0.0, 0.0, 0.0, 1.663501131747306E9, 0.0, 2022-09-18 16:38:51.747
147.0, -21713.669206341412, -34442.16065909394, -66998.4152315158, -55005.49733704297, -40083.18216600206, -22032.27097180736, -466.5926655045349, -30418.06434608273, 0.746, -0.486, 0.514, 192.0, 0.0, 0.0, 0.0, 0.0, 0.0, 0.0, 0.0, 0.0, 0.0, 1.663501131750193E9, 0.0, 2022-09-18 16:38:51.750
148.0, -21726.007369280742, -35160.836298565424, -67055.21101417673, -55185.29476944146, -40067.46888964998, -22065.619774534676, 1768.0900416481545, -30470.65800078607, 0.746, -0.486, 0.514, 192.0, 0.0, 0.0, 0.0, 0.0, 0.0, 0.0, 0.0, 0.0, 0.0, 1.6635011317541E9, 0.0, 2022-09-18 16:38:51.754
149.0, -21173.494598090005, -34808.304585016325, -67193.56831235508, -54761.34923235765, -40229.34022299531, -22219.131555453725, 3474.7798412775805, -30428.815535165733, 0.748, -0.49, 0.518, 192.0, 23.0, 96.0, 240.0, 176.0, 16.0, 48.0, 0.0, 0.0, 0.0, 1.663501131758207E9, 0.0, 2022-09-18 16:38:51.758
150.0, -21303.98408222009, -34597.97466969188, -67124.25555279918, -54805.493927656884, -40266.42176704667, -22187.593244027288, 2290.0032746795746, -30423.384061263096, 0.748, -0.49, 0.518, 192.0, 0.0, 0.0, 0.0, 0.0, 0.0, 0.0, 0.0, 0.0, 0.0, 1.663501131762231E9, 0.0, 2022-09-18 16:38:51.762
151.0, -21397.928464165743, -34070.339390079906, -67078.76975283262, -54704.70991190791, -40220.243063002, -22176.596185755276, -111.11052168733141, -30300.13654233653, 0.748, -0.49, 0.518, 192.0, 0.0, 0.0, 0.0, 0.0, 0.0, 0.0, 0.0, 0.0, 0.0, 1.6635011317672467E9, 0.0, 2022-09-18 16:38:51.767
152.0, -21714.317406930615, -34430.47069674381, -66972.55426318101, -55001.384616063195, -40088.09954978222, -22036.78602418733, -467.978473660764, -30428.92729388801, 0.748, -0.49, 0.518, 192.0, 0.0, 0.0, 0.0, 0.0, 0.0, 0.0, 0.0, 0.0, 0.0, 1.6635011317711592E9, 0.0, 2022-09-18 16:38:51.771
153.0, -21738.54669792017, -35153.52727812854, -67059.36843864543, -55186.03237700849, -40075.42611067607, -22078.65084155212, 1768.5370765372606, -30448.30625633076, 0.748, -0.49, 0.518, 192.0, 0.0, 0.0, 0.0, 0.0, 0.0, 0.0, 0.0, 0.0, 0.0, 1.6635011317742276E9, 0.0, 2022-09-18 16:38:51.774
154.0, -21188.0008802415, -34810.36094550621, -67251.59344096106, -54772.23453190739, -40252.51898199546, -22243.606715632286, 3466.219123151198, -30417.30438677125, 0.748, -0.49, 0.518, 192.0, 0.0, 0.0, 0.0, 0.0, 0.0, 0.0, 0.0, 0.0, 0.0, 1.6635011317781456E9, 0.0, 2022-09-18 16:38:51.778
155.0, -21297.41266935023, -34594.39839057904, -67173.69761153431, -54810.03133178131, -40276.256534607, -22190.96835744004, 2279.9896931635967, -30408.073116311207, 0.748, -0.49, 0.518, 192.0, 0.0, 0.0, 0.0, 0.0, 0.0, 0.0, 0.0, 0.0, 0.0, 1.6635011317822757E9, 0.0, 2022-09-18 16:38:51.782
156.0, -21392.496990263106, -34065.153785366274, -67107.13411654641, -54705.51457470829, -40217.76201936746, -22172.505816519955, -125.3038794164514, -30284.691486917913, 0.748, -0.49, 0.518, 192.0, 0.0, 0.0, 0.0, 0.0, 0.0, 0.0, 0.0, 0.0, 0.0, 1.663501131786245E9, 0.0, 2022-09-18 16:38:51.786
157.0, -21702.023947480197, -34426.06740308612, -67000.67275770579, -55007.50899404395, -40093.285154495854, -22036.40604453159, -490.37492160498164, -30423.384061263096, 0.748, -0.49, 0.518, 192.0, 0.0, 0.0, 0.0, 0.0, 0.0, 0.0, 0.0, 0.0, 0.0, 1.6635011317902927E9, 0.0, 2022-09-18 16:38:51.790
158.0, -21732.86935482852, -35154.220182206656, -67035.94381045626, -55191.79912707795, -40072.78860483034, -22072.012373448895, 1753.4496490299284, -30462.991352437897, 0.748, -0.49, 0.518, 192.0, 0.0, 0.0, 0.0, 0.0, 0.0, 0.0, 0.0, 0.0, 0.0, 1.6635011317953231E9, 0.0, 2022-09-18 16:38:51.795
159.0, -21181.09419120481, -34805.421209981585, -67183.95706223931, -54771.18399991799, -40239.21969404456, -22234.01781726096, 3474.3998616218405, -30444.573515006727, 0.75, -0.488, 0.514, 192.0, 23.0, 112.0, 240.0, 192.0, 16.0, 16.0, 0.0, 0.0, 0.0, 1.663501131799279E9, 0.0, 2022-09-18 16:38:51.799
160.0, -21315.87521027031, -34596.70062025793, -67131.16224183586, -54813.45114868297, -40275.340113084334, -22195.39400284219, 2290.0256264240297, -30419.78543040579, 0.75, -0.488, 0.514, 192.0, 0.0, 0.0, 0.0, 0.0, 0.0, 0.0, 0.0, 0.0, 0.0, 1.6635011318022745E9, 0.0, 2022-09-18 16:38:51.802
161.0, -21419.363787098384, -34077.044913416496, -67097.16523851934, -54712.913002123, -40217.62790890073, -22172.86344443124, -125.57210034991508, -30276.331934491627, 0.75, -0.488, 0.514, 192.0, 0.0, 0.0, 0.0, 0.0, 0.0, 0.0, 0.0, 0.0, 0.0, 1.6635011318062515E9, 0.0, 2022-09-18 16:38:51.806
162.0, -21724.085119257586, -34434.33754853458, -66991.57559771248, -55004.7820812204, -40080.34349445623, -22025.051358348293, -490.62079079399, -30419.137229816584, 0.75, -0.488, 0.514, 192.0, 0.0, 0.0, 0.0, 0.0, 0.0, 0.0, 0.0, 0.0, 0.0, 1.663501131810305E9, 0.0, 2022-09-18 16:38:51.810
163.0, -21748.180299780404, -35163.00441777759, -67091.59965414998, -55199.219906237115, -40085.48439568096, -22087.36802188969, 1741.6479279575262, -30492.830931285735, 0.75, -0.488, 0.514, 192.0, 0.0, 0.0, 0.0, 0.0, 0.0, 0.0, 0.0, 0.0, 0.0, 1.6635011318143077E9, 0.0, 2022-09-18 16:38:51.814
164.0, -21172.824045756348, -34801.0626198128, -67218.37874870047, -54764.9255114705, -40235.978691098535, -22232.699064338096, 3471.44943135374, -30435.431651524505, 0.75, -0.488, 0.514, 192.0, 0.0, 0.0, 0.0, 0.0, 0.0, 0.0, 0.0, 0.0, 0.0, 1.6635011318182473E9, 0.0, 2022-09-18 16:38:51.818
165.0, -21311.091936956876, -34596.387695835554, -67103.31196824455, -54803.8846020561, -40261.66084547769, -22186.16273238215, 2283.856544954365, -30400.562930174226, 0.75, -0.488, 0.514, 192.0, 0.0, 0.0, 0.0, 0.0, 0.0, 0.0, 0.0, 0.0, 0.0, 1.663501131822326E9, 0.0, 2022-09-18 16:38:51.822
166.0, -21413.57468528446, -34075.726160493636, -67077.45099990976, -54705.91690610849, -40216.21974900005, -22172.52816826441, -136.92678653321107, -30283.909175861976, 0.75, -0.488, 0.514, 192.0, 0.0, 0.0, 0.0, 0.0, 0.0, 0.0, 0.0, 0.0, 0.0, 1.6635011318272903E9, 0.0, 2022-09-18 16:38:51.827
167.0, -21703.29799691415, -34427.922597875906, -66976.42111497177, -54999.909400929144, -40082.5116136684, -22026.21364905997, -503.49539560024687, -30422.266474040327, 0.75, -0.488, 0.514, 192.0, 0.0, 0.0, 0.0, 0.0, 0.0, 0.0, 0.0, 0.0, 0.0, 1.6635011318302872E9, 0.0, 2022-09-18 16:38:51.830
168.0, -21731.505898416748, -35159.33873168692, -67041.19647040326, -55191.86618231132, -40076.47664266547, -22077.153274673616, 1737.1552273220095, -30469.808634496767, 0.75, -0.488, 0.514, 192.0, 0.0, 0.0, 0.0, 0.0, 0.0, 0.0, 0.0, 0.0, 0.0, 1.6635011318343136E9, 0.0, 2022-09-18 16:38:51.834
169.0, -21164.531548563427, -34799.18507327856, -67162.54409105112, -54751.246243863854, -40223.72993513703, -22209.87793324923, 3472.991701721156, -30401.501703441347, 0.75, -0.492, 0.514, 192.0, 23.0, 112.0, 240.0, 160.0, 16.0, 16.0, 0.0, 0.0, 0.0, 1.6635011318383152E9, 0.0, 2022-09-18 16:38:51.838
170.0, -21302.285349641486, -34595.337163846154, -67101.70264264377, -54790.16063096054, -40261.72790071105, -22176.14915086617, 2291.0761584134293, -30387.934194556976, 0.75, -0.492, 0.514, 192.0, 0.0, 0.0, 0.0, 0.0, 0.0, 0.0, 0.0, 0.0, 0.0, 1.6635011318423488E9, 0.0, 2022-09-18 16:38:51.842
171.0, -21405.505705536092, -34078.87775646183, -67088.31394771504, -54694.405757714005, -40218.76784786795, -22168.258985073448, -128.72369631811338, -30264.12788201903, 0.75, -0.492, 0.514, 192.0, 0.0, 0.0, 0.0, 0.0, 0.0, 0.0, 0.0, 0.0, 0.0, 1.6635011318463242E9, 0.0, 2022-09-18 16:38:51.846
172.0, -21720.732357589288, -34441.400699782454, -66983.52896970857, -54993.15917410364, -40097.464930709, -22035.26610556437, -501.2602211547162, -30416.0303373373, 0.75, -0.492, 0.514, 192.0, 0.0, 0.0, 0.0, 0.0, 0.0, 0.0, 0.0, 0.0, 0.0, 1.663501131850371E9, 0.0, 2022-09-18 16:38:51.850
173.0, -21737.786738608687, -35162.82560382195, -67034.71446451121, -55170.52026635651, -40070.46402340699, -22065.84329197923, 1751.9073786625122, -30457.448119812983, 0.75, -0.492, 0.514, 192.0, 0.0, 0.0, 0.0, 0.0, 0.0, 0.0, 0.0, 0.0, 0.0, 1.6635011318553488E9, 0.0, 2022-09-18 16:38:51.855
174.0, -21164.151568907688, -34807.61168093821, -67173.98818421224, -54736.73996171236, -40218.96901356805, -22202.121877923237, 3486.961542005723, -30405.569720932213, 0.75, -0.492, 0.514, 192.0, 0.0, 0.0, 0.0, 0.0, 0.0, 0.0, 0.0, 0.0, 0.0, 1.663501131858345E9, 0.0, 2022-09-18 16:38:51.858
175.0, -21294.194018148664, -34603.83082673918, -67111.24683752618, -54786.003206491856, -40271.562668271385, -22170.7847321969, 2313.964344735664, -30404.16156103153, 0.75, -0.492, 0.514, 192.0, 0.0, 0.0, 0.0, 0.0, 0.0, 0.0, 0.0, 0.0, 0.0, 1.6635011318625324E9, 0.0, 2022-09-18 16:38:51.862
176.0, -21409.104336393397, -34091.52884382354, -67085.38586919139, -54701.334798495154, -40246.37225227025, -22173.310479320346, -88.55761153192658, -30294.123923078052, 0.75, -0.492, 0.514, 192.0, 0.0, 0.0, 0.0, 0.0, 0.0, 0.0, 0.0, 0.0, 0.0, 1.6635011318663669E9, 0.0, 2022-09-18 16:38:51.866
177.0, -21725.314465202628, -34449.179106852906, -66989.76510641159, -55007.039607410385, -40122.20831182102, -22047.514861525877, -427.65592666339, -30451.815480210244, 0.75, -0.492, 0.514, 192.0, 0.0, 0.0, 0.0, 0.0, 0.0, 0.0, 0.0, 0.0, 0.0, 1.6635011318703668E9, 0.0, 2022-09-18 16:38:51.870
178.0, -21731.12591876101, -35164.345522444906, -67050.51714784112, -55185.29476944146, -40081.08110202326, -22070.157178659105, 1864.1131358281536, -30472.714361275957, 0.75, -0.492, 0.514, 192.0, 0.0, 0.0, 0.0, 0.0, 0.0, 0.0, 0.0, 0.0, 0.0, 1.6635011318744185E9, 0.0, 2022-09-18 16:38:51.874
179.0, -21156.060237414866, -34817.42409675409, -67211.20383873032, -54760.14223815707, -40242.57245571285, -22222.640779333207, 3621.7425610712244, -30424.769869419324, 0.758, -0.494, 0.514, 192.0, 23.0, 176.0, 240.0, 144.0, 16.0, 16.0, 0.0, 0.0, 0.0, 1.6635011318784394E9, 0.0, 2022-09-18 16:38:51.878
180.0, -21297.613835050328, -34617.46539085691, -67101.74734613269, -54802.87877355561, -40275.92125844017, -22179.323098578825, 2468.39254717738, -30395.69024988297, 0.758, -0.494, 0.514, 192.0, 0.0, 0.0, 0.0, 0.0, 0.0, 0.0, 0.0, 0.0, 0.0, 1.6635011318833604E9, 0.0, 2022-09-18 16:38:51.883
181.0, -21408.14321138182, -34095.73097178114, -67065.71633407073, -54700.88776360605, -40217.180874011625, -22166.515549005933, 82.81321320691266, -30269.827576855136, 0.758, -0.494, 0.514, 192.0, 0.0, 0.0, 0.0, 0.0, 0.0, 0.0, 0.0, 0.0, 0.0, 1.6635011318863945E9, 0.0, 2022-09-18 16:38:51.886
182.0, -21725.381520435993, -34459.930295935905, -66988.28989127754, -55010.12414814522, -40110.38423900417, -22048.565393515277, -277.7427766016456, -30452.083701143707, 0.758, -0.494, 0.514, 192.0, 0.0, 0.0, 0.0, 0.0, 0.0, 0.0, 0.0, 0.0, 0.0, 1.6635011318894625E9, 0.0, 2022-09-18 16:38:51.889
183.0, -21740.468947943325, -35178.09184528492, -67023.76210972812, -55188.71458634312, -40076.655456621105, -22075.16396941709, 2003.677428207091, -30479.822216012744, 0.758, -0.494, 0.514, 192.0, 0.0, 0.0, 0.0, 0.0, 0.0, 0.0, 0.0, 0.0, 0.0, 1.6635011318943863E9, 0.0, 2022-09-18 16:38:51.894
184.0, -21177.58496732533, -34825.917759647105, -67173.4517423453, -54758.57761604519, -40238.236217288526, -22227.513459624464, 3760.0328040162094, -30423.942854874476, 0.758, -0.494, 0.514, 192.0, 0.0, 0.0, 0.0, 0.0, 0.0, 0.0, 0.0, 0.0, 0.0, 1.6635011318984392E9, 0.0, 2022-09-18 16:38:51.898
185.0, -21312.522448602016, -34620.929911247484, -67101.85910485496, -54805.11394800114, -40278.916392197185, -22188.62142427223, 2596.065711506094, -30409.905959356543, 0.758, -0.494, 0.514, 192.0, 0.0, 0.0, 0.0, 0.0, 0.0, 0.0, 0.0, 0.0, 0.0, 1.6635011319023623E9, 0.0, 2022-09-18 16:38:51.902
186.0, -21423.364749355886, -34104.314041651975, -67081.67547961182, -54717.74097892535, -40240.15846731168, -22192.71179350755, 181.74203416610172, -30300.158894080985, 0.758, -0.494, 0.514, 192.0, 0.0, 0.0, 0.0, 0.0, 0.0, 0.0, 0.0, 0.0, 0.0, 1.6635011319063756E9, 0.0, 2022-09-18 16:38:51.906
187.0, -21739.038436298186, -34459.170336624426, -66979.10332430642, -55016.80731973736, -40107.67967792507, -22045.682018480544, -186.7041214351799, -30440.483145771403, 0.758, -0.494, 0.514, 192.0, 0.0, 0.0, 0.0, 0.0, 0.0, 0.0, 0.0, 0.0, 0.0, 1.6635011319114E9, 0.0, 2022-09-18 16:38:51.911
188.0, -21744.425206711916, -35174.67202838326, -67045.01861870511, -55184.08777524088, -40073.41445367509, -22064.41278033409, 2081.640312867202, -30453.26834359984, 0.758, -0.494, 0.514, 192.0, 0.0, 0.0, 0.0, 0.0, 0.0, 0.0, 0.0, 0.0, 0.0, 1.6635011319143937E9, 0.0, 2022-09-18 16:38:51.914
189.0, -21172.1981969116, -34829.31522480431, -67198.41864090189, -54759.002299189844, -40239.86789463376, -22227.155831713182, 3820.784845445734, -30404.943872087464, 0.758, -0.494, 0.514, 192.0, 0.0, 0.0, 0.0, 0.0, 0.0, 0.0, 0.0, 0.0, 0.0, 1.6635011319174163E9, 0.0, 2022-09-18 16:38:51.917
190.0, -21300.206637407144, -34619.387640880064, -67104.87659035642, -54795.592104863186, -40271.89794443821, -22185.58158702631, 2655.2084273348364, -30391.689287625468, 0.762, -0.492, 0.508, 192.0, 23.0, 208.0, 240.0, 160.0, 15.0, 224.0, 0.0, 0.0, 0.0, 1.6635011319225004E9, 0.0, 2022-09-18 16:38:51.922
191.0, -21415.586342285438, -34099.776637527546, -67063.10117996945, -54703.18999328494, -40232.91650210816, -22180.463037546044, 244.68454655224642, -30280.51171070477, 0.762, -0.492, 0.508, 192.0, 0.0, 0.0, 0.0, 0.0, 0.0, 0.0, 0.0, 0.0, 0.0, 1.663501131926452E9, 0.0, 2022-09-18 16:38:51.926
192.0, -21729.561296649135, -34451.682502231895, -66972.33074573646, -55001.33991257429, -40107.634974436165, -22048.23011734845, -125.08036197189833, -30431.698910200466, 0.762, -0.492, 0.508, 192.0, 0.0, 0.0, 0.0, 0.0, 0.0, 0.0, 0.0, 0.0, 0.0, 1.6635011319304624E9, 0.0, 2022-09-18 16:38:51.930
193.0, -21734.076349029106, -35177.063665039976, -67054.20518567624, -55189.63100786579, -40082.64572413513, -22081.55656833131, 2128.735438434534, -30481.722114291446, 0.762, -0.492, 0.508, 192.0, 0.0, 0.0, 0.0, 0.0, 0.0, 0.0, 0.0, 0.0, 0.0, 1.6635011319344592E9, 0.0, 2022-09-18 16:38:51.934
194.0, -21164.062161929865, -34827.95176839254, -67205.28062644966, -54767.74183127187, -40255.87174366376, -22247.674733123153, 3868.7293373023676, -30433.419994523527, 0.762, -0.492, 0.508, 192.0, 0.0, 0.0, 0.0, 0.0, 0.0, 0.0, 0.0, 0.0, 0.0, 1.6635011319385045E9, 0.0, 2022-09-18 16:38:51.938
195.0, -21313.863553269333, -34625.60142583864, -67121.41688125335, -54815.775730106325, -40299.16707267369, -22213.521267595443, 2702.907050002462, -30432.123593345117, 0.762, -0.492, 0.508, 192.0, 0.0, 0.0, 0.0, 0.0, 0.0, 0.0, 0.0, 0.0, 0.0, 1.6635011319425E9, 0.0, 2022-09-18 16:38:51.942
196.0, -21417.128612652854, -34096.267413648064, -67041.822319248, -54707.79445264274, -40221.74062988051, -22169.130703107203, 296.92057334429904, -30290.212367798373, 0.762, -0.492, 0.508, 192.0, 0.0, 0.0, 0.0, 0.0, 0.0, 0.0, 0.0, 0.0, 0.0, 1.663501131945505E9, 0.0, 2022-09-18 16:38:51.945
197.0, -21723.079290757098, -34442.451231771855, -66950.51544314808, -54993.36033980374, -40093.64278240714, -22024.26904729236, -83.08143414037634, -30403.11102904213, 0.762, -0.492, 0.508, 192.0, 0.0, 0.0, 0.0, 0.0, 0.0, 0.0, 0.0, 0.0, 0.0, 1.663501131950483E9, 0.0, 2022-09-18 16:38:51.950
198.0, -21742.033570055195, -35164.36787418937, -67030.80290923154, -55172.42016463521, -40082.198689246026, -22068.79372224733, 2169.929703465665, -30442.338340561193, 0.762, -0.492, 0.508, 192.0, 0.0, 0.0, 0.0, 0.0, 0.0, 0.0, 0.0, 0.0, 0.0, 1.6635011319545605E9, 0.0, 2022-09-18 16:38:51.954
199.0, -21158.65303977168, -34799.3638872342, -67178.8608645035, -54730.481473264874, -40240.65020568969, -22224.093642722804, 3944.6358614725905, -30401.077020296696, 0.762, -0.492, 0.508, 192.0, 0.0, 0.0, 0.0, 0.0, 0.0, 0.0, 0.0, 0.0, 0.0, 1.6635011319585264E9, 0.0, 2022-09-18 16:38:51.958
200.0, -21238.046436076933, -34547.392671989524, -67111.6938724153, -54736.49409252335, -40278.22348811907, -22185.045145159384, 2866.4547641819436, -30393.119799270607, 0.756, -0.5, 0.514, 192.0, 23.0, 160.0, 240.0, 96.0, 16.0, 16.0, 0.0, 0.0, 0.0, 1.663501131962485E9, 0.0, 2022-09-18 16:38:51.962
201.0, -21398.688423477226, -34071.658143002765, -67041.93407797028, -54692.68467339095, -40228.356746239275, -22169.77890369641, 353.29167286058345, -30309.300757563207, 0.756, -0.5, 0.514, 192.0, 0.0, 0.0, 0.0, 0.0, 0.0, 0.0, 0.0, 0.0, 0.0, 1.6635011319664876E9, 0.0, 2022-09-18 16:38:51.966
202.0, -21659.75679871521, -34374.61368735, -66986.6582139323, -54947.33809797026, -40104.59513719024, -22060.03183842085, 50.73845991354703, -30438.7844131928, 0.756, -0.5, 0.514, 192.0, 0.0, 0.0, 0.0, 0.0, 0.0, 0.0, 0.0, 0.0, 0.0, 1.663501131970608E9, 0.0, 2022-09-18 16:38:51.970
203.0, -21627.52558321066, -35039.421622684196, -67067.79504630507, -55099.37466375526, -40106.718552913495, -22104.243588953446, 2423.040857677562, -30477.140006678106, 0.756, -0.5, 0.514, 192.0, 0.0, 0.0, 0.0, 0.0, 0.0, 0.0, 0.0, 0.0, 0.0, 1.6635011319735267E9, 0.0, 2022-09-18 16:38:51.973
204.0, -21192.068897732366, -34797.88867210015, -67167.5061783202, -54771.69809004046, -40243.24300804651, -22217.946912997595, 3911.5329279342805, -30421.484162984394, 0.756, -0.5, 0.514, 192.0, 0.0, 0.0, 0.0, 0.0, 0.0, 0.0, 0.0, 0.0, 0.0, 1.663501131978541E9, 0.0, 2022-09-18 16:38:51.978
205.0, -21347.74879786358, -34627.70248981744, -67083.03893602359, -54828.20330002347, -40277.374121829765, -22187.21326437155, 2632.834331135074, -30389.409409691027, 0.756, -0.5, 0.514, 192.0, 0.0, 0.0, 0.0, 0.0, 0.0, 0.0, 0.0, 0.0, 0.0, 1.6635011319825592E9, 0.0, 2022-09-18 16:38:51.982
206.0, -21445.403569388818, -34110.28195742154, -67014.03910089006, -54724.02181911729, -40226.1439235382, -22174.47277003202, 167.92865609272195, -30274.18616702392, 0.756, -0.5, 0.514, 192.0, 0.0, 0.0, 0.0, 0.0, 0.0, 0.0, 0.0, 0.0, 0.0, 1.663501131986559E9, 0.0, 2022-09-18 16:38:51.986
207.0, -21737.764386864234, -34447.18980159638, -66910.39406185079, -55004.15623237565, -40097.420227220086, -22043.06686437927, -250.13837219934135, -30425.373366519616, 0.756, -0.5, 0.514, 192.0, 0.0, 0.0, 0.0, 0.0, 0.0, 0.0, 0.0, 0.0, 0.0, 1.6635011319905717E9, 0.0, 2022-09-18 16:38:51.990
208.0, -21745.29692474567, -35167.631228879836, -67000.35983328341, -55181.271455439506, -40075.09083450924, -22082.540045087346, 1977.5258871943818, -30468.02049494034, 0.756, -0.5, 0.514, 192.0, 0.0, 0.0, 0.0, 0.0, 0.0, 0.0, 0.0, 0.0, 0.0, 1.6635011319945917E9, 0.0, 2022-09-18 16:38:51.994
209.0, -21175.90858649118, -34826.208332325026, -67182.01246047168, -54759.67285152351, -40246.3499005258, -22245.081930766337, 3699.8172044536122, -30434.35876779065, 0.756, -0.5, 0.514, 192.0, 0.0, 0.0, 0.0, 0.0, 0.0, 0.0, 0.0, 0.0, 0.0, 1.663501131998524E9, 0.0, 2022-09-18 16:38:51.998
210.0, -21296.250378638553, -34619.23117866888, -67095.22063675174, -54793.37928216211, -40261.996121644515, -22185.62629051522, 2512.850166898986, -30389.163540502017, 0.744, -0.496, 0.514, 192.0, 23.0, 64.0, 240.0, 128.0, 16.0, 16.0, 0.0, 0.0, 0.0, 1.6635011320015905E9, 0.0, 2022-09-18 16:38:52.001
211.0, -21397.48142927664, -34105.6998498082, -67044.30336288254, -54701.64772291753, -40203.278088960426, -22162.425179770613, 55.49938148252744, -30270.811053611167, 0.744, -0.496, 0.514, 192.0, 0.0, 0.0, 0.0, 0.0, 0.0, 0.0, 0.0, 0.0, 0.0, 1.663501132005598E9, 0.0, 2022-09-18 16:38:52.005
212.0, -21690.24457815225, -34448.30738881915, -66925.41443412476, -54993.44974678156, -40082.84688983523, -22030.192259573014, -358.6560915298571, -30433.50940150135, 0.744, -0.496, 0.514, 192.0, 0.0, 0.0, 0.0, 0.0, 0.0, 0.0, 0.0, 0.0, 0.0, 1.6635011320106075E9, 0.0, 2022-09-18 16:38:52.010
213.0, -21701.509857357723, -35164.278467211545, -66961.4007426978, -55169.447382622646, -40070.79929957382, -22080.438981108546, 1890.5105460298714, -30474.278983387827, 0.744, -0.496, 0.514, 192.0, 0.0, 0.0, 0.0, 0.0, 0.0, 0.0, 0.0, 0.0, 0.0, 1.6635011320146177E9, 0.0, 2022-09-18 16:38:52.014
214.0, -21156.529624048428, -34813.93722461906, -67117.23710504021, -54740.02566814729, -40233.85527537528, -22236.208288217582, 3640.0039362912103, -30425.999215364365, 0.744, -0.496, 0.514, 192.0, 0.0, 0.0, 0.0, 0.0, 0.0, 0.0, 0.0, 0.0, 0.0, 1.6635011320186028E9, 0.0, 2022-09-18 16:38:52.018
215.0, -21312.991835235578, -34615.18551292247, -67056.48506361069, -54788.61836059313, -40275.58598227334, -22203.328872123824, 2457.261378438637, -30401.524055185804, 0.744, -0.496, 0.514, 192.0, 0.0, 0.0, 0.0, 0.0, 0.0, 0.0, 0.0, 0.0, 0.0, 1.6635011320226483E9, 0.0, 2022-09-18 16:38:52.022
216.0, -21440.642647819837, -34108.11383820937, -67024.38795857286, -54707.25801077581, -40233.81057188637, -22198.12091566574, -4.649162846703869, -30270.31931523315, 0.744, -0.496, 0.514, 192.0, 0.0, 0.0, 0.0, 0.0, 0.0, 0.0, 0.0, 0.0, 0.0, 1.6635011320266392E9, 0.0, 2022-09-18 16:38:52.026
217.0, -21738.12201477552, -34444.01585388373, -66932.16466095026, -54994.83555493779, -40102.22585227798, -22053.572184273267, -410.8697665774544, -30417.68436642699, 0.744, -0.496, 0.514, 192.0, 0.0, 0.0, 0.0, 0.0, 0.0, 0.0, 0.0, 0.0, 0.0, 1.6635011320296636E9, 0.0, 2022-09-18 16:38:52.029
218.0, -21735.708026374345, -35154.15312697329, -67003.19850482923, -55175.750574559046, -40090.69235213904, -22094.185303948558, 1852.1326008001092, -30487.041829471807, 0.744, -0.496, 0.514, 192.0, 0.0, 0.0, 0.0, 0.0, 0.0, 0.0, 0.0, 0.0, 0.0, 1.663501132033677E9, 0.0, 2022-09-18 16:38:52.033
219.0, -21157.870728715745, -34798.849797111725, -67118.13117481842, -54742.998450159845, -40235.419897487154, -22226.73114856853, 3620.602622104004, -30417.550255960257, 0.744, -0.496, 0.514, 192.0, 0.0, 0.0, 0.0, 0.0, 0.0, 0.0, 0.0, 0.0, 0.0, 1.663501132038662E9, 0.0, 2022-09-18 16:38:52.038
220.0, -21293.67992802619, -34602.2662046273, -67081.22844472271, -54793.51339262884, -40281.509194554, -22194.946967953085, 2447.918349256319, -30388.269470723808, 0.742, -0.492, 0.522, 192.0, 23.0, 48.0, 240.0, 160.0, 16.0, 80.0, 0.0, 0.0, 0.0, 1.663501132042669E9, 0.0, 2022-09-18 16:38:52.042
221.0, -21410.780717227546, -34097.250890404095, -67059.7260665567, -54720.51259523781, -40250.61908371676, -22201.96541571205, -5.006790757988782, -30302.416420270973, 0.742, -0.492, 0.522, 192.0, 0.0, 0.0, 0.0, 0.0, 0.0, 0.0, 0.0, 0.0, 0.0, 1.6635011320466871E9, 0.0, 2022-09-18 16:38:52.046
222.0, -21712.261046440726, -34428.7272606763, -66910.81874499544, -55006.65962775465, -40113.24526229445, -22061.775274488366, -380.82902202952175, -30457.939858191, 0.742, -0.492, 0.522, 192.0, 0.0, 0.0, 0.0, 0.0, 0.0, 0.0, 0.0, 0.0, 0.0, 1.6635011320496657E9, 0.0, 2022-09-18 16:38:52.049
223.0, -21716.753747076244, -35134.01420521906, -66973.42598121476, -55176.68934782617, -40083.04805553533, -22085.08814395525, 1920.260717899885, -30484.337268392715, 0.742, -0.492, 0.522, 192.0, 0.0, 0.0, 0.0, 0.0, 0.0, 0.0, 0.0, 0.0, 0.0, 1.6635011320537236E9, 0.0, 2022-09-18 16:38:52.053
224.0, -21151.321667590342, -34783.98588704895, -67130.17876507984, -54754.24137762086, -40254.73180469654, -22244.478433666045, 3700.979495165288, -30433.040014867787, 0.742, -0.492, 0.522, 192.0, 0.0, 0.0, 0.0, 0.0, 0.0, 0.0, 0.0, 0.0, 0.0, 1.66350113205769E9, 0.0, 2022-09-18 16:38:52.057
225.0, -21305.88398049879, -34586.329410830665, -67037.75430175714, -54797.84963105317, -40288.17001440168, -22203.597093057288, 2553.1503621519046, -30387.755380601335, 0.742, -0.492, 0.522, 192.0, 0.0, 0.0, 0.0, 0.0, 0.0, 0.0, 0.0, 0.0, 0.0, 1.663501132061714E9, 0.0, 2022-09-18 16:38:52.061
226.0, -21432.394854115828, -34081.582317540924, -67017.1683451138, -54707.72739740937, -40238.86206613327, -22193.225883630024, 126.30970791694021, -30260.059864528164, 0.742, -0.492, 0.522, 192.0, 0.0, 0.0, 0.0, 0.0, 0.0, 0.0, 0.0, 0.0, 0.0, 1.6635011320667973E9, 0.0, 2022-09-18 16:38:52.066
227.0, -21716.194953464863, -34411.71758314581, -66897.89943670029, -54985.1796013331, -40099.07425630978, -22051.18054761655, -235.72149702566827, -30412.565816946724, 0.742, -0.492, 0.522, 192.0, 0.0, 0.0, 0.0, 0.0, 0.0, 0.0, 0.0, 0.0, 0.0, 1.6635011320707195E9, 0.0, 2022-09-18 16:38:52.070
228.0, -21723.749843090754, -35136.607007575876, -66960.7078386197, -55170.34145240086, -40076.99073278794, -22087.815056778796, 2056.829876521811, -30465.807672239265, 0.742, -0.492, 0.522, 192.0, 0.0, 0.0, 0.0, 0.0, 0.0, 0.0, 0.0, 0.0, 0.0, 1.6635011320746884E9, 0.0, 2022-09-18 16:38:52.074
229.0, -21152.08162690182, -34781.795416092325, -67107.62585492442, -54739.62333674709, -40233.07296431935, -22237.504689395988, 3858.201665663918, -30417.88553212709, 0.742, -0.492, 0.522, 192.0, 0.0, 0.0, 0.0, 0.0, 0.0, 0.0, 0.0, 0.0, 0.0, 1.6635011320776556E9, 0.0, 2022-09-18 16:38:52.077
230.0, -21282.034669164976, -34580.20503284992, -67041.12941516988, -54784.684453568996, -40263.605447245296, -22187.6379475162, 2711.9818582513167, -30393.656241137534, 0.744, -0.488, 0.526, 192.0, 23.0, 64.0, 240.0, 192.0, 16.0, 112.0, 0.0, 0.0, 0.0, 1.663501132081771E9, 0.0, 2022-09-18 16:38:52.081
231.0, -21396.788525198524, -34073.11100639236, -67004.00316762962, -54700.93246709496, -40220.22071125755, -22182.184121869104, 269.6514451088244, -30270.56518442216, 0.744, -0.488, 0.526, 192.0, 0.0, 0.0, 0.0, 0.0, 0.0, 0.0, 0.0, 0.0, 0.0, 1.6635011320857453E9, 0.0, 2022-09-18 16:38:52.085
232.0, -21711.456383640336, -34410.39883022295, -66888.77992496251, -54991.818069436325, -40097.73315164246, -22057.68490525304, -113.92684148870009, -30431.721261944924, 0.744, -0.488, 0.526, 192.0, 0.0, 0.0, 0.0, 0.0, 0.0, 0.0, 0.0, 0.0, 0.0, 1.6635011320897207E9, 0.0, 2022-09-18 16:38:52.089
233.0, -21729.20366873785, -35128.80624876097, -66974.23064401516, -55177.426955393195, -40085.03736079185, -22101.494324385443, 2174.154183167718, -30481.99033522491, 0.744, -0.488, 0.526, 192.0, 0.0, 0.0, 0.0, 0.0, 0.0, 0.0, 0.0, 0.0, 0.0, 1.663501132093766E9, 0.0, 2022-09-18 16:38:52.093
234.0, -21165.42561834164, -34778.82263407977, -67116.65595968437, -54740.78562745877, -40225.40631597117, -22228.07225323585, 3957.488114534392, -30394.326793471195, 0.744, -0.488, 0.526, 192.0, 0.0, 0.0, 0.0, 0.0, 0.0, 0.0, 0.0, 0.0, 0.0, 1.6635011320987425E9, 0.0, 2022-09-18 16:38:52.098
235.0, -21300.899541485258, -34581.009695650304, -67064.46463638124, -54786.27142742532, -40270.310970581886, -22191.817723729342, 2788.7153969663855, -30382.54742414325, 0.744, -0.488, 0.526, 192.0, 0.0, 0.0, 0.0, 0.0, 0.0, 0.0, 0.0, 0.0, 0.0, 1.6635011321027164E9, 0.0, 2022-09-18 16:38:52.102
236.0, -21426.76221451309, -34076.88845120531, -66997.99054837115, -54709.649647432525, -40230.457810218075, -22193.427049330123, 326.17900683629597, -30277.963611836865, 0.744, -0.488, 0.526, 192.0, 0.0, 0.0, 0.0, 0.0, 0.0, 0.0, 0.0, 0.0, 0.0, 1.6635011321057875E9, 0.0, 2022-09-18 16:38:52.105
237.0, -21732.31056121714, -34413.10339130204, -66879.25808182456, -54999.68588348459, -40097.017895819896, -22059.964783187483, -81.76268121751323, -30416.656186182045, 0.744, -0.488, 0.526, 192.0, 0.0, 0.0, 0.0, 0.0, 0.0, 0.0, 0.0, 0.0, 0.0, 1.6635011321097658E9, 0.0, 2022-09-18 16:38:52.109
238.0, -21736.847965341567, -35131.17553367323, -66944.45812040068, -55178.678653082694, -40070.79929957382, -22086.13867594465, 2192.6167240878017, -30450.675541243025, 0.744, -0.488, 0.526, 192.0, 0.0, 0.0, 0.0, 0.0, 0.0, 0.0, 0.0, 0.0, 0.0, 1.6635011321138427E9, 0.0, 2022-09-18 16:38:52.113
239.0, -21151.791054223904, -34774.48639565544, -67101.41206996585, -54735.60002274514, -40217.82907460083, -22218.282189164423, 3975.0118821873525, -30394.505607426836, 0.744, -0.488, 0.526, 192.0, 0.0, 0.0, 0.0, 0.0, 0.0, 0.0, 0.0, 0.0, 0.0, 1.663501132117732E9, 0.0, 2022-09-18 16:38:52.117
240.0, -21271.752866715535, -34573.544213002235, -67069.60553760595, -54779.16357268853, -40264.566572256874, -22186.877988204717, 2800.897097694528, -30393.365668459617, 0.744, -0.492, 0.518, 192.0, 23.0, 64.0, 240.0, 160.0, 16.0, 48.0, 0.0, 0.0, 0.0, 1.6635011321217515E9, 0.0, 2022-09-18 16:38:52.121
241.0, -21386.909054149277, -34062.158651609265, -66997.9681966267, -54693.62344665807, -40219.348993223786, -22180.19481661258, 337.9360244197875, -30276.130768791532, 0.744, -0.492, 0.518, 192.0, 0.0, 0.0, 0.0, 0.0, 0.0, 0.0, 0.0, 0.0, 0.0, 1.6635011321268792E9, 0.0, 2022-09-18 16:38:52.126
242.0, -21706.42724113789, -34396.78661784966, -66885.04718363848, -54982.76561293192, -40093.95570682952, -22044.519727768868, -75.34773055884011, -30412.16348554653, 0.744, -0.492, 0.518, 192.0, 0.0, 0.0, 0.0, 0.0, 0.0, 0.0, 0.0, 0.0, 0.0, 1.6635011321307738E9, 0.0, 2022-09-18 16:38:52.130
243.0, -21732.131747261497, -35118.16681840024, -66944.88280354533, -55164.708812798126, -40067.02185476087, -22068.279632124857, 2189.666293819701, -30448.93210517551, 0.744, -0.492, 0.518, 192.0, 0.0, 0.0, 0.0, 0.0, 0.0, 0.0, 0.0, 0.0, 0.0, 1.66350113213378E9, 0.0, 2022-09-18 16:38:52.133
244.0, -21161.71522876206, -34770.17250897557, -67100.42859320981, -54734.325973311184, -40224.33343223732, -22222.216096188557, 3964.2159896154394, -30397.411334206026, 0.744, -0.492, 0.518, 192.0, 0.0, 0.0, 0.0, 0.0, 0.0, 0.0, 0.0, 0.0, 0.0, 1.6635011321378553E9, 0.0, 2022-09-18 16:38:52.137
245.0, -21296.004509449544, -34573.56656474669, -67018.48709803667, -54782.22576167891, -40253.79303142941, -22182.072363146828, 2794.1021673801147, -30387.934194556976, 0.744, -0.492, 0.518, 192.0, 0.0, 0.0, 0.0, 0.0, 0.0, 0.0, 0.0, 0.0, 0.0, 1.663501132141871E9, 0.0, 2022-09-18 16:38:52.141
246.0, -21408.590246270927, -34055.31901780594, -66980.28796676254, -54686.33677796564, -40193.91270803365, -22163.028676870905, 335.1867598517847, -30253.488451658304, 0.744, -0.492, 0.518, 192.0, 0.0, 0.0, 0.0, 0.0, 0.0, 0.0, 0.0, 0.0, 0.0, 1.663501132145841E9, 0.0, 2022-09-18 16:38:52.145
247.0, -21704.460287625825, -34396.13841726046, -66933.17048945076, -54986.25248506695, -40094.715666141, -22046.017294647372, -103.26505938351863, -30410.06242156773, 0.744, -0.492, 0.518, 192.0, 0.0, 0.0, 0.0, 0.0, 0.0, 0.0, 0.0, 0.0, 0.0, 1.663501132149888E9, 0.0, 2022-09-18 16:38:52.149
248.0, -21722.185220978885, -35120.647862034784, -66958.53971940753, -55178.23161819358, -40077.39306418813, -22084.41759162159, 2162.263055117495, -30464.60067803868, 0.744, -0.492, 0.518, 192.0, 0.0, 0.0, 0.0, 0.0, 0.0, 0.0, 0.0, 0.0, 0.0, 1.6635011321548808E9, 0.0, 2022-09-18 16:38:52.154
249.0, -21155.94847869259, -34762.48350888294, -67080.51318890013, -54736.2705750788, -40212.777580353926, -22214.214171673557, 3955.0964778776743, -30381.474540409392, 0.744, -0.492, 0.518, 192.0, 0.0, 0.0, 0.0, 0.0, 0.0, 0.0, 0.0, 0.0, 0.0, 1.663501132158904E9, 0.0, 2022-09-18 16:38:52.158
250.0, -21290.058945424433, -34553.69586392592, -67000.29277805005, -54773.79915401926, -40245.7464034255, -22170.3824007967, 2802.148795384025, -30363.8166622897, 0.746, -0.494, 0.512, 192.0, 23.0, 80.0, 240.0, 144.0, 16.0, 0.0, 0.0, 0.0, 0.0, 1.6635011321619785E9, 0.0, 2022-09-18 16:38:52.161
251.0, -21419.43084233175, -34047.07122410193, -66977.65046091682, -54692.39410071303, -40206.63085062872, -22173.712810720543, 334.2479865846618, -30251.297980701685, 0.746, -0.494, 0.512, 192.0, 0.0, 0.0, 0.0, 0.0, 0.0, 0.0, 0.0, 0.0, 0.0, 1.663501132165858E9, 0.0, 2022-09-18 16:38:52.165
252.0, -21715.9267325314, -34377.742931573746, -66894.61373026535, -54982.095060598265, -40085.4620439365, -22041.21166958948, -93.18442263417515, -30414.465715225426, 0.746, -0.494, 0.512, 192.0, 0.0, 0.0, 0.0, 0.0, 0.0, 0.0, 0.0, 0.0, 0.0, 1.6635011321698627E9, 0.0, 2022-09-18 16:38:52.169
253.0, -21732.467023428326, -35103.21350135964, -66970.05086780201, -55179.237446694075, -40086.33376197026, -22100.935530774062, 2166.465183075092, -30496.004878998385, 0.746, -0.494, 0.512, 192.0, 0.0, 0.0, 0.0, 0.0, 0.0, 0.0, 0.0, 0.0, 0.0, 1.6635011321738985E9, 0.0, 2022-09-18 16:38:52.173
254.0, -21177.629670814236, -34762.61761934967, -67116.11951781744, -54754.93428169898, -40243.84650514681, -22247.63002963424, 3937.595061969169, -30404.563892431725, 0.746, -0.494, 0.512, 192.0, 0.0, 0.0, 0.0, 0.0, 0.0, 0.0, 0.0, 0.0, 0.0, 1.6635011321778908E9, 0.0, 2022-09-18 16:38:52.177
255.0, -21313.41651838023, -34563.955314630904, -67030.64644702035, -54790.45120363846, -40267.91933392517, -22187.369726582736, 2777.383062527545, -30354.808909274212, 0.746, -0.494, 0.512, 192.0, 0.0, 0.0, 0.0, 0.0, 0.0, 0.0, 0.0, 0.0, 0.0, 1.6635011321818652E9, 0.0, 2022-09-18 16:38:52.181
0.0, -21421.9565894552, -34050.491041003595, -66963.0100682986, -54692.952894324415, -40206.00500178397, -22161.66522045913, 318.9593933772318, -30228.096869957077, 0.746, -0.494, 0.512, 192.0, 0.0, 0.0, 0.0, 0.0, 0.0, 0.0, 0.0, 0.0, 0.0, 1.6635011321868846E9, 0.0, 2022-09-18 16:38:52.186
1.0, -21700.794601535155, -34377.7652833182, -66893.0938116424, -54973.8249151498, -40078.55535489981, -22026.057186848782, -120.63236482529221, -30377.048895007243, 0.746, -0.494, 0.512, 192.0, 0.0, 0.0, 0.0, 0.0, 0.0, 0.0, 0.0, 0.0, 0.0, 1.663501132189845E9, 0.0, 2022-09-18 16:38:52.189
2.0, -21708.371842905504, -35106.14157988329, -66955.9022135618, -55166.13932444326, -40065.59134311573, -22069.866605981184, 2120.152368563696, -30437.130384103108, 0.746, -0.494, 0.512, 192.0, 0.0, 0.0, 0.0, 0.0, 0.0, 0.0, 0.0, 0.0, 0.0, 1.6635011321938624E9, 0.0, 2022-09-18 16:38:52.193
3.0, -21147.454815799574, -34758.393139647626, -67099.9368548318, -54739.04219139126, -40226.92623459414, -22228.832212547328, 3887.0354160112643, -30404.094505798163, 0.746, -0.494, 0.512, 192.0, 0.0, 0.0, 0.0, 0.0, 0.0, 0.0, 0.0, 0.0, 0.0, 1.663501132198052E9, 0.0, 2022-09-18 16:38:52.198
4.0, -21285.946224444655, -34561.518974485276, -67049.66778155182, -54796.10619498565, -40283.11852015478, -22205.094659935792, 2699.3754743785234, -30424.054613596752, 0.744, -0.498, 0.512, 192.0, 23.0, 64.0, 240.0, 112.0, 16.0, 0.0, 0.0, 0.0, 0.0, 1.6635011322018807E9, 0.0, 2022-09-18 16:38:52.201
5.0, -21405.684519491737, -34048.54643923598, -66974.81178937099, -54709.7614061548, -40228.088525305815, -22181.20064511307, 207.13361586733055, -30279.260013015275, 0.744, -0.498, 0.512, 192.0, 0.0, 0.0, 0.0, 0.0, 0.0, 0.0, 0.0, 0.0, 0.0, 1.6635011322058864E9, 0.0, 2022-09-18 16:38:52.205
6.0, -21713.043357496663, -34373.65256233842, -66861.64490719377, -54983.570275732316, -40096.101474297226, -22043.871527179665, -257.1791717027631, -30385.900185811544, 0.744, -0.498, 0.512, 192.0, 0.0, 0.0, 0.0, 0.0, 0.0, 0.0, 0.0, 0.0, 0.0, 1.663501132210904E9, 0.0, 2022-09-18 16:38:52.210
7.0, -21738.01025605324, -35106.23098686111, -66929.9965417381, -55167.01104247702, -40067.31242743879, -22075.119265928184, 1960.069174774787, -30413.54929370276, 0.744, -0.498, 0.512, 192.0, 0.0, 0.0, 0.0, 0.0, 0.0, 0.0, 0.0, 0.0, 0.0, 1.66350113221496E9, 0.0, 2022-09-18 16:38:52.214
8.0, -21157.580156037828, -34752.35816864469, -67086.83873258099, -54727.17341508549, -40218.991365312504, -22223.758366555976, 3725.4770070883046, -30364.48721462336, 0.744, -0.498, 0.512, 192.0, 0.0, 0.0, 0.0, 0.0, 0.0, 0.0, 0.0, 0.0, 0.0, 1.6635011322179844E9, 0.0, 2022-09-18 16:38:52.217
9.0, -21277.944299929655, -34546.78917488923, -67051.70179029724, -54771.92160748501, -40265.281828079445, -22191.39304058469, 2555.8325714865414, -30369.091673981155, 0.744, -0.498, 0.512, 192.0, 0.0, 0.0, 0.0, 0.0, 0.0, 0.0, 0.0, 0.0, 0.0, 1.6635011322219532E9, 0.0, 2022-09-18 16:38:52.221
10.0, -21389.926539650744, -34036.61060769685, -67024.43266206178, -54697.15502228201, -40236.62689168774, -22195.036374930904, 68.61985547779268, -30292.693411432912, 0.744, -0.498, 0.512, 192.0, 0.0, 0.0, 0.0, 0.0, 0.0, 0.0, 0.0, 0.0, 0.0, 1.663501132226952E9, 0.0, 2022-09-18 16:38:52.226
11.0, -21706.874276027, -34365.38241688996, -66884.82366619393, -54993.98618864849, -40119.68256469758, -22068.16787340258, -388.2050976997731, -30453.916544189044, 0.744, -0.498, 0.512, 192.0, 0.0, 0.0, 0.0, 0.0, 0.0, 0.0, 0.0, 0.0, 0.0, 1.663501132229962E9, 0.0, 2022-09-18 16:38:52.229
12.0, -21731.86352632803, -35094.20574834415, -66919.20064916619, -55175.50470537004, -40065.01019775989, -22068.100818169216, 1851.104420555165, -30437.890343414587, 0.744, -0.498, 0.512, 192.0, 0.0, 0.0, 0.0, 0.0, 0.0, 0.0, 0.0, 0.0, 0.0, 1.6635011322340343E9, 0.0, 2022-09-18 16:38:52.234
13.0, -21156.529624048428, -34753.52045935637, -67083.88830231289, -54746.30650833923, -40232.11183930777, -22229.10043348079, 3624.827101806057, -30375.14899672854, 0.744, -0.498, 0.512, 192.0, 0.0, 0.0, 0.0, 0.0, 0.0, 0.0, 0.0, 0.0, 0.0, 1.6635011322379372E9, 0.0, 2022-09-18 16:38:52.237
14.0, -21297.390317605772, -34556.66864593847, -67015.98370265767, -54790.63001759411, -40277.48588055204, -22200.020813944437, 2470.068928011528, -30363.19081344495, 0.742, -0.496, 0.506, 192.0, 23.0, 48.0, 240.0, 128.0, 15.0, 208.0, 0.0, 0.0, 0.0, 1.6635011322420974E9, 0.0, 2022-09-18 16:38:52.242
15.0, -21400.76713571157, -34032.45318322816, -66998.99637687164, -54688.95193206691, -40210.251833230475, -22169.130703107203, 10.080636749343485, -30231.40492813646, 0.742, -0.496, 0.506, 192.0, 0.0, 0.0, 0.0, 0.0, 0.0, 0.0, 0.0, 0.0, 0.0, 1.6635011322459607E9, 0.0, 2022-09-18 16:38:52.245
16.0, -21698.559427089625, -34362.52139359968, -66924.96739923565, -54985.76074668894, -40102.29290751134, -22050.577050516255, -453.60630197600153, -30412.096430313162, 0.742, -0.496, 0.506, 192.0, 0.0, 0.0, 0.0, 0.0, 0.0, 0.0, 0.0, 0.0, 0.0, 1.6635011322500124E9, 0.0, 2022-09-18 16:38:52.250
17.0, -21728.711930359834, -35096.01623964503, -66914.43972759722, -55178.23161819358, -40061.568029113776, -22072.52646357137, 1788.9889227138667, -30449.7367679759, 0.742, -0.496, 0.506, 192.0, 0.0, 0.0, 0.0, 0.0, 0.0, 0.0, 0.0, 0.0, 0.0, 1.6635011322550237E9, 0.0, 2022-09-18 16:38:52.255
18.0, -21155.434388570116, -34745.54088658582, -67039.78831050257, -54735.77883670078, -40203.45690291606, -22210.30261639388, 3580.3918338289063, -30374.50079613934, 0.742, -0.496, 0.506, 192.0, 0.0, 0.0, 0.0, 0.0, 0.0, 0.0, 0.0, 0.0, 0.0, 1.6635011322581136E9, 0.0, 2022-09-18 16:38:52.258
19.0, -21288.40491633474, -34544.68811091043, -66987.88755987734, -54785.46676462493, -40259.962112899084, -22186.274491104425, 2434.462599094224, -30381.49689215385, 0.742, -0.496, 0.506, 192.0, 0.0, 0.0, 0.0, 0.0, 0.0, 0.0, 0.0, 0.0, 0.0, 1.6635011322610223E9, 0.0, 2022-09-18 16:38:52.261
20.0, -21403.628159001848, -34025.099459302364, -66955.34341995043, -54699.14432753853, -40211.659993131165, -22178.429028800612, -26.844445090823783, -30257.914097060457, 0.742, -0.496, 0.506, 192.0, 0.0, 0.0, 0.0, 0.0, 0.0, 0.0, 0.0, 0.0, 0.0, 1.6635011322659986E9, 0.0, 2022-09-18 16:38:52.265
21.0, -21702.560389347123, -34346.49519282523, -66866.47288399612, -54982.60915072074, -40076.811918832296, -22036.27193406486, -482.88708721245376, -30380.69222935346, 0.742, -0.496, 0.506, 192.0, 0.0, 0.0, 0.0, 0.0, 0.0, 0.0, 0.0, 0.0, 0.0, 1.6635011322700813E9, 0.0, 2022-09-18 16:38:52.270
22.0, -21724.018064024218, -35086.76261744054, -66954.38229493884, -55182.41139440673, -40061.277456435855, -22079.23198690796, 1746.9005879045235, -30430.760136933346, 0.742, -0.496, 0.506, 192.0, 0.0, 0.0, 0.0, 0.0, 0.0, 0.0, 0.0, 0.0, 0.0, 1.6635011322750475E9, 0.0, 2022-09-18 16:38:52.275
23.0, -21157.915432204656, -34749.38538663214, -67107.00000607967, -54760.902197468546, -40230.949548596094, -22244.679599366144, 3533.9449088507786, -30409.146000045064, 0.742, -0.496, 0.506, 192.0, 0.0, 0.0, 0.0, 0.0, 0.0, 0.0, 0.0, 0.0, 0.0, 1.6635011322790663E9, 0.0, 2022-09-18 16:38:52.279
24.0, -21288.98606169058, -34544.62105567707, -67051.63473506388, -54804.599857878675, -40274.06606365038, -22207.91097973716, 2397.470462020691, -30393.075095781696, 0.746, -0.496, 0.506, 192.0, 23.0, 80.0, 240.0, 128.0, 15.0, 208.0, 0.0, 0.0, 0.0, 1.663501132282129E9, 0.0, 2022-09-18 16:38:52.282
25.0, -21397.14615310981, -34023.847761612866, -67004.316092052, -54712.42126374499, -40212.95639430957, -22182.63115675821, -60.886151896256436, -30251.879126057524, 0.746, -0.496, 0.506, 192.0, 0.0, 0.0, 0.0, 0.0, 0.0, 0.0, 0.0, 0.0, 0.0, 1.6635011322861671E9, 0.0, 2022-09-18 16:38:52.286
26.0, -21685.19308390535, -34341.443698578325, -66871.47967475411, -54991.0804618693, -40081.50578516791, -22039.84821317771, -513.6654393274116, -30395.10910452713, 0.746, -0.496, 0.506, 192.0, 0.0, 0.0, 0.0, 0.0, 0.0, 0.0, 0.0, 0.0, 0.0, 1.663501132289112E9, 0.0, 2022-09-18 16:38:52.289
27.0, -21714.540924375167, -35075.25146904605, -66903.66618676975, -55180.51149612803, -40059.1540407126, -22074.247547894425, 1730.337945263141, -30439.298503315273, 0.746, -0.496, 0.506, 192.0, 0.0, 0.0, 0.0, 0.0, 0.0, 0.0, 0.0, 0.0, 0.0, 1.6635011322941525E9, 0.0, 2022-09-18 16:38:52.294
28.0, -21161.782283995424, -34736.48843008142, -67076.04284000908, -54755.89540671056, -40228.55791193937, -22237.996427774004, 3525.451245957762, -30405.59207267667, 0.746, -0.496, 0.506, 192.0, 0.0, 0.0, 0.0, 0.0, 0.0, 0.0, 0.0, 0.0, 0.0, 1.663501132298087E9, 0.0, 2022-09-18 16:38:52.298
29.0, -21294.328128615398, -34529.712442125376, -67017.32480732499, -54797.804927564255, -40261.77260419996, -22191.951834196072, 2394.1624038413056, -30399.35593597364, 0.746, -0.496, 0.506, 192.0, 0.0, 0.0, 0.0, 0.0, 0.0, 0.0, 0.0, 0.0, 0.0, 1.663501132302215E9, 0.0, 2022-09-18 16:38:52.302
30.0, -21409.774888727057, -34012.78364810749, -66969.313260235, -54710.163737555, -40211.168254753145, -22179.680726490107, -63.724823442080435, -30265.245469241796, 0.746, -0.496, 0.506, 192.0, 0.0, 0.0, 0.0, 0.0, 0.0, 0.0, 0.0, 0.0, 0.0, 1.6635011323060591E9, 0.0, 2022-09-18 16:38:52.306
31.0, -21708.036566738676, -34330.29017809513, -66878.90045391327, -54988.08532811229, -40085.663209636594, -22041.92692541205, -518.1357882184731, -30389.901148069042, 0.746, -0.496, 0.506, 192.0, 0.0, 0.0, 0.0, 0.0, 0.0, 0.0, 0.0, 0.0, 0.0, 1.6635011323100867E9, 0.0, 2022-09-18 16:38:52.310
32.0, -21745.29692474567, -35082.09110284938, -66956.304544962, -55194.99542653507, -40074.777910086865, -22082.785914276352, 1708.3885322080293, -30448.820346453234, 0.746, -0.496, 0.506, 192.0, 0.0, 0.0, 0.0, 0.0, 0.0, 0.0, 0.0, 0.0, 0.0, 1.6635011323141015E9, 0.0, 2022-09-18 16:38:52.314
33.0, -21161.692877017605, -34730.25229337839, -67067.77269456061, -54751.55916828623, -40205.66972561714, -22228.184011958125, 3517.3375627204855, -30383.597956132646, 0.746, -0.496, 0.506, 192.0, 0.0, 0.0, 0.0, 0.0, 0.0, 0.0, 0.0, 0.0, 0.0, 1.663501132317153E9, 0.0, 2022-09-18 16:38:52.317
34.0, -21276.15616037323, -34517.486037908326, -67006.50656300862, -54783.29864541277, -40239.82319114485, -22193.985842941507, 2392.9330578962636, -30368.801101303234, 0.746, -0.496, 0.506, 192.0, 0.0, 0.0, 0.0, 0.0, 0.0, 0.0, 0.0, 0.0, 0.0, 1.6635011323220787E9, 0.0, 2022-09-18 16:38:52.322
35.0, -21399.94012116672, -34011.9789853071, -66966.809864856, -54703.48056596286, -40210.58710939731, -22198.43384008811, -76.30885557041832, -30261.84800408459, 0.746, -0.496, 0.516, 192.0, 23.0, 80.0, 240.0, 128.0, 16.0, 32.0, 0.0, 0.0, 0.0, 1.663501132326134E9, 0.0, 2022-09-18 16:38:52.326
36.0, -21707.05308998264, -34329.93255018384, -66888.24348309559, -54989.47113626852, -40089.28419223836, -22062.065847166283, -541.9180443189198, -30432.615331723136, 0.746, -0.496, 0.516, 192.0, 0.0, 0.0, 0.0, 0.0, 0.0, 0.0, 0.0, 0.0, 0.0, 1.663501132330161E9, 0.0, 2022-09-18 16:38:52.330
37.0, -21723.235752968285, -35059.80641362744, -66948.72730359164, -55185.607693863836, -40060.83042154675, -22089.111457957206, 1698.3078954586858, -30477.47528284494, 0.746, -0.496, 0.516, 192.0, 0.0, 0.0, 0.0, 0.0, 0.0, 0.0, 0.0, 0.0, 0.0, 1.6635011323341138E9, 0.0, 2022-09-18 16:38:52.334
38.0, -21157.915432204656, -34716.193046116, -67089.27507272662, -54752.76616248681, -40218.03024030093, -22243.226735976546, 3505.535841648083, -30391.97986030339, 0.746, -0.496, 0.516, 192.0, 0.0, 0.0, 0.0, 0.0, 0.0, 0.0, 0.0, 0.0, 0.0, 1.6635011323381546E9, 0.0, 2022-09-18 16:38:52.338
39.0, -21293.9257972152, -34515.094401251605, -66975.70585914921, -54787.679587326005, -40240.672557434154, -22192.10829640726, 2386.272238048582, -30358.832223276167, 0.746, -0.496, 0.516, 192.0, 0.0, 0.0, 0.0, 0.0, 0.0, 0.0, 0.0, 0.0, 0.0, 1.6635011323422036E9, 0.0, 2022-09-18 16:38:52.342
40.0, -21414.51345855158, -34005.63108988179, -66926.53202134754, -54700.9101153505, -40191.14109172119, -22178.563139267342, -72.03967237945466, -30242.357282919562, 0.746, -0.496, 0.516, 192.0, 0.0, 0.0, 0.0, 0.0, 0.0, 0.0, 0.0, 0.0, 0.0, 1.66350113234518E9, 0.0, 2022-09-18 16:38:52.345
41.0, -21708.707119072333, -34321.77416345765, -66851.25134602205, -54983.45851701004, -40080.924639812074, -22054.04157090683, -533.782009337188, -30399.646508651556, 0.746, -0.496, 0.516, 192.0, 0.0, 0.0, 0.0, 0.0, 0.0, 0.0, 0.0, 0.0, 0.0, 1.6635011323502207E9, 0.0, 2022-09-18 16:38:52.350
42.0, -21737.853793842056, -35064.6790939187, -66929.41539638226, -55188.602827620845, -40068.608828617194, -22091.79366729184, 1700.9901047933229, -30472.51319557586, 0.746, -0.496, 0.516, 192.0, 0.0, 0.0, 0.0, 0.0, 0.0, 0.0, 0.0, 0.0, 0.0, 1.6635011323541825E9, 0.0, 2022-09-18 16:38:52.354
43.0, -21136.949495905577, -34699.04925811878, -67096.44998269678, -54734.84006343366, -40214.43160944362, -22230.933276526128, 3544.1149525779433, -30401.702869141445, 0.746, -0.496, 0.516, 192.0, 0.0, 0.0, 0.0, 0.0, 0.0, 0.0, 0.0, 0.0, 0.0, 1.6635011323582716E9, 0.0, 2022-09-18 16:38:52.358
44.0, -21215.33706371034, -34450.72137722032, -67052.08176995299, -54747.11117113962, -40272.00970316049, -22210.615540816252, 2522.036733870117, -30385.363743944617, 0.746, -0.496, 0.516, 192.0, 0.0, 0.0, 0.0, 0.0, 0.0, 0.0, 0.0, 0.0, 0.0, 1.6635011323621712E9, 0.0, 2022-09-18 16:38:52.362
45.0, -21400.38715605583, -33982.67584832619, -66952.16947223777, -54708.84498463214, -40210.65416463067, -22183.34641258078, -27.045610790921547, -30259.836347083612, 0.746, -0.498, 0.508, 192.0, 23.0, 80.0, 240.0, 112.0, 15.0, 224.0, 0.0, 0.0, 0.0, 1.6635011323661528E9, 0.0, 2022-09-18 16:38:52.366
46.0, -21670.57504303158, -34263.52551740712, -66867.74693343007, -54953.082496295276, -40086.311410225804, -22073.33112637176, -419.22931900373925, -30388.358877701627, 0.746, -0.498, 0.508, 192.0, 0.0, 0.0, 0.0, 0.0, 0.0, 0.0, 0.0, 0.0, 0.0, 1.6635011323702793E9, 0.0, 2022-09-18 16:38:52.370
47.0, -21650.48082476626, -34936.76006040097, -66938.98194300913, -55110.237611560544, -40077.728340354966, -22105.294120942846, 1962.5725701537813, -30449.580305764714, 0.746, -0.498, 0.508, 192.0, 0.0, 0.0, 0.0, 0.0, 0.0, 0.0, 0.0, 0.0, 0.0, 1.6635011323732083E9, 0.0, 2022-09-18 16:38:52.373
48.0, -21192.404173899195, -34690.33207778121, -67048.34902862896, -54769.21704640592, -40207.23434772901, -22227.200535202093, 3557.1907230842976, -30400.20530226294, 0.746, -0.498, 0.508, 192.0, 0.0, 0.0, 0.0, 0.0, 0.0, 0.0, 0.0, 0.0, 0.0, 1.6635011323772323E9, 0.0, 2022-09-18 16:38:52.377
49.0, -21326.22406795312, -34507.98654651482, -66988.13342906635, -54813.473500427426, -40244.53940922492, -22202.233636645513, 2387.2557148046153, -30390.862273080624, 0.746, -0.498, 0.508, 192.0, 0.0, 0.0, 0.0, 0.0, 0.0, 0.0, 0.0, 0.0, 0.0, 1.6635011323822775E9, 0.0, 2022-09-18 16:38:52.382
50.0, -21453.137272970354, -34010.61552889532, -66963.99354505462, -54740.36094431412, -40216.979708311526, -22207.329834381322, -106.59546930735938, -30302.52817899325, 0.746, -0.498, 0.508, 192.0, 0.0, 0.0, 0.0, 0.0, 0.0, 0.0, 0.0, 0.0, 0.0, 1.6635011323863184E9, 0.0, 2022-09-18 16:38:52.386
51.0, -21731.036511783186, -34320.74598321271, -66901.9451024467, -55016.11441565924, -40084.83619509175, -22058.221347119972, -585.7945186846875, -30428.413203765536, 0.746, -0.498, 0.508, 192.0, 0.0, 0.0, 0.0, 0.0, 0.0, 0.0, 0.0, 0.0, 0.0, 1.66350113239024E9, 0.0, 2022-09-18 16:38:52.390
52.0, -21729.6283518825, -35055.000788569545, -66953.01883852707, -55204.02553129501, -40054.52722961036, -22083.009431720904, 1653.6714617814378, -30442.964189405942, 0.746, -0.498, 0.508, 192.0, 0.0, 0.0, 0.0, 0.0, 0.0, 0.0, 0.0, 0.0, 0.0, 1.6635011323932364E9, 0.0, 2022-09-18 16:38:52.393
53.0, -21163.905699718678, -34709.62163324614, -67074.47821789721, -54761.103363168644, -40217.82907460083, -22242.01974177596, 3478.3337686459745, -30385.363743944617, 0.746, -0.498, 0.508, 192.0, 0.0, 0.0, 0.0, 0.0, 0.0, 0.0, 0.0, 0.0, 0.0, 1.663501132397232E9, 0.0, 2022-09-18 16:38:52.397
54.0, -21298.083221683886, -34505.43844764691, -66976.13054229386, -54797.55905837525, -40249.121516838255, -22194.76815399744, 2366.692109905733, -30372.667953094002, 0.746, -0.498, 0.508, 192.0, 0.0, 0.0, 0.0, 0.0, 0.0, 0.0, 0.0, 0.0, 0.0, 1.663501132401294E9, 0.0, 2022-09-18 16:38:52.401
55.0, -21419.90022896531, -33992.91294728672, -66924.63212306883, -54708.21913578739, -40195.67849584562, -22177.66906948913, -93.20677437863046, -30239.339797418095, 0.748, -0.494, 0.514, 192.0, 23.0, 96.0, 240.0, 144.0, 16.0, 16.0, 0.0, 0.0, 0.0, 1.663501132405265E9, 0.0, 2022-09-18 16:38:52.405
56.0, -21717.35724417654, -34304.36215452697, -66836.18627025918, -54986.11837460022, -40077.34836069922, -22048.78891095983, -558.7265561493107, -30396.941947572464, 0.748, -0.494, 0.514, 192.0, 0.0, 0.0, 0.0, 0.0, 0.0, 0.0, 0.0, 0.0, 0.0, 1.663501132410261E9, 0.0, 2022-09-18 16:38:52.410
57.0, -21735.529212418704, -35035.2194947266, -66905.23080888162, -55176.376423403795, -40043.61957831617, -22071.94531821553, 1690.8647645550686, -30435.11872710213, 0.748, -0.494, 0.514, 192.0, 0.0, 0.0, 0.0, 0.0, 0.0, 0.0, 0.0, 0.0, 0.0, 1.6635011324142897E9, 0.0, 2022-09-18 16:38:52.414
58.0, -21159.368295594253, -34695.09299935019, -67074.25470045266, -54745.43479030547, -40208.642507629695, -22231.02268350395, 3503.993571280667, -30393.857406837633, 0.748, -0.494, 0.514, 192.0, 0.0, 0.0, 0.0, 0.0, 0.0, 0.0, 0.0, 0.0, 0.0, 1.6635011324183855E9, 0.0, 2022-09-18 16:38:52.418
59.0, -21282.41464882072, -34492.63089807402, -67002.57265598449, -54787.36666290363, -40250.41791801667, -22194.946967953085, 2381.980703113163, -30395.44438069396, 0.748, -0.494, 0.514, 192.0, 0.0, 0.0, 0.0, 0.0, 0.0, 0.0, 0.0, 0.0, 0.0, 1.6635011324212682E9, 0.0, 2022-09-18 16:38:52.421
60.0, -21411.697138750213, -33988.599060606844, -66962.36186770939, -54717.7186271809, -40217.35968796727, -22200.892531978196, -95.71016975762484, -30310.731269208347, 0.748, -0.494, 0.514, 192.0, 0.0, 0.0, 0.0, 0.0, 0.0, 0.0, 0.0, 0.0, 0.0, 1.6635011324253442E9, 0.0, 2022-09-18 16:38:52.425
61.0, -21719.123031988507, -34302.48460799272, -66883.92959641572, -54998.14361311717, -40091.00527656142, -22060.79179773233, -573.3445970230815, -30427.07209909822, 0.748, -0.494, 0.514, 192.0, 0.0, 0.0, 0.0, 0.0, 0.0, 0.0, 0.0, 0.0, 0.0, 1.6635011324292831E9, 0.0, 2022-09-18 16:38:52.429
62.0, -21727.549639648158, -35036.22532322709, -66950.0013530256, -55183.93131302969, -40057.924694767564, -22084.17172243258, 1670.1670491894542, -30428.34614853217, 0.748, -0.494, 0.514, 192.0, 0.0, 0.0, 0.0, 0.0, 0.0, 0.0, 0.0, 0.0, 0.0, 1.6635011324333985E9, 0.0, 2022-09-18 16:38:52.433
63.0, -21154.003876924977, -34696.1882348285, -67067.45977013824, -54757.88471196708, -40228.17793228364, -22255.542547171422, 3490.9848560076784, -30396.718430127912, 0.748, -0.494, 0.514, 192.0, 0.0, 0.0, 0.0, 0.0, 0.0, 0.0, 0.0, 0.0, 0.0, 1.663501132438337E9, 0.0, 2022-09-18 16:38:52.438
64.0, -21292.62939603679, -34493.30145040768, -66985.76414415409, -54798.40842466455, -40264.74538621252, -22209.83322976032, 2379.8349356454537, -30389.29765096875, 0.748, -0.494, 0.514, 192.0, 0.0, 0.0, 0.0, 0.0, 0.0, 0.0, 0.0, 0.0, 0.0, 1.6635011324423716E9, 0.0, 2022-09-18 16:38:52.442
65.0, -21421.353092354908, -33983.34640065985, -66947.58736462443, -54716.77985391377, -40214.09633327679, -22196.44453483159, -88.55761153192658, -30265.647800641993, 0.746, -0.492, 0.514, 192.0, 23.0, 80.0, 240.0, 160.0, 16.0, 16.0, 0.0, 0.0, 0.0, 1.6635011324463744E9, 0.0, 2022-09-18 16:38:52.446
66.0, -21709.48943012827, -34285.385523484416, -66842.13183428429, -54988.666473468125, -40078.130671755156, -22051.471120294467, -555.8655328590313, -30403.87098835361, 0.746, -0.492, 0.514, 192.0, 0.0, 0.0, 0.0, 0.0, 0.0, 0.0, 0.0, 0.0, 0.0, 1.6635011324493864E9, 0.0, 2022-09-18 16:38:52.449
67.0, -21734.925715318408, -35027.68695684516, -66919.35711137738, -55190.525077644, -40064.920790782075, -22093.402992892625, 1681.3876249060186, -30462.186689637507, 0.746, -0.492, 0.514, 192.0, 0.0, 0.0, 0.0, 0.0, 0.0, 0.0, 0.0, 0.0, 0.0, 1.6635011324533968E9, 0.0, 2022-09-18 16:38:52.453
68.0, -21163.36925785175, -34690.510891736856, -67079.41795342183, -54765.84193299317, -40235.06226957587, -22257.777721616952, 3497.355103177441, -30409.168351789518, 0.746, -0.492, 0.514, 192.0, 0.0, 0.0, 0.0, 0.0, 0.0, 0.0, 0.0, 0.0, 0.0, 1.6635011324575129E9, 0.0, 2022-09-18 16:38:52.457
69.0, -21288.851951223845, -34484.58427007011, -67006.52891475307, -54800.01775026533, -40269.66276999268, -22204.62527330223, 2387.9039153938193, -30385.654316622535, 0.746, -0.492, 0.514, 192.0, 0.0, 0.0, 0.0, 0.0, 0.0, 0.0, 0.0, 0.0, 0.0, 1.6635011324613779E9, 0.0, 2022-09-18 16:38:52.461
70.0, -21418.46971732017, -33979.47954886908, -66961.557204909, -54719.238545803855, -40228.80378112839, -22197.62917728772, -82.23206785107469, -30265.021951797244, 0.746, -0.492, 0.514, 192.0, 0.0, 0.0, 0.0, 0.0, 0.0, 0.0, 0.0, 0.0, 0.0, 1.6635011324664145E9, 0.0, 2022-09-18 16:38:52.466
71.0, -21704.125011458997, -34285.43022697332, -66873.37957303281, -54995.662569482636, -40097.152006286626, -22060.590632032232, -561.3864137394922, -30415.628005937102, 0.746, -0.492, 0.514, 192.0, 0.0, 0.0, 0.0, 0.0, 0.0, 0.0, 0.0, 0.0, 0.0, 1.663501132470408E9, 0.0, 2022-09-18 16:38:52.470
72.0, -21720.844116311564, -35023.99891901004, -66913.54565781899, -55196.31417945793, -40069.56995362878, -22093.201827192526, 1677.2302004373314, -30479.55399507928, 0.746, -0.492, 0.514, 192.0, 0.0, 0.0, 0.0, 0.0, 0.0, 0.0, 0.0, 0.0, 0.0, 1.6635011324744437E9, 0.0, 2022-09-18 16:38:52.474
73.0, -21153.199214124586, -34679.379722998114, -67049.08663619598, -54759.49403756786, -40221.4947606915, -22245.037227277426, 3511.414350439829, -30415.672709426013, 0.746, -0.492, 0.514, 192.0, 0.0, 0.0, 0.0, 0.0, 0.0, 0.0, 0.0, 0.0, 0.0, 1.6635011324774525E9, 0.0, 2022-09-18 16:38:52.477
74.0, -21294.618701293315, -34484.62897355902, -66994.2578070471, -54799.481308398405, -40261.146755355214, -22205.11701168025, 2396.464633520202, -30375.640735106557, 0.746, -0.492, 0.514, 192.0, 0.0, 0.0, 0.0, 0.0, 0.0, 0.0, 0.0, 0.0, 0.0, 1.6635011324814165E9, 0.0, 2022-09-18 16:38:52.481
75.0, -21420.19080164323, -33976.75263604554, -66979.48330396216, -54711.4154352445, -40218.924310079135, -22193.941139452596, -77.38173930427305, -30246.42530041043, 0.744, -0.492, 0.514, 192.0, 23.0, 64.0, 240.0, 160.0, 16.0, 16.0, 0.0, 0.0, 0.0, 1.6635011324855092E9, 0.0, 2022-09-18 16:38:52.485
76.0, -21703.812087036622, -34280.98222982672, -66858.5827182034, -54981.31274954233, -40090.580593416766, -22047.917192926074, -555.0608700586403, -30387.464807923414, 0.744, -0.492, 0.514, 192.0, 0.0, 0.0, 0.0, 0.0, 0.0, 0.0, 0.0, 0.0, 0.0, 1.6635011324894135E9, 0.0, 2022-09-18 16:38:52.489
77.0, -21721.693482600866, -35013.94063400515, -66877.11231435684, -55174.36476640282, -40055.53305811084, -22070.872434481673, 1694.4410436679177, -30440.21492483794, 0.744, -0.492, 0.514, 192.0, 0.0, 0.0, 0.0, 0.0, 0.0, 0.0, 0.0, 0.0, 0.0, 1.6635011324934297E9, 0.0, 2022-09-18 16:38:52.493
78.0, -21144.95142042058, -34667.80151937026, -67058.51907235612, -54746.284156594775, -40225.920406093646, -22243.53966039892, 3521.0479523000663, -30400.62998540759, 0.744, -0.492, 0.514, 192.0, 0.0, 0.0, 0.0, 0.0, 0.0, 0.0, 0.0, 0.0, 0.0, 1.663501132498505E9, 0.0, 2022-09-18 16:38:52.498
79.0, -21286.616776778315, -34469.98858094079, -66979.61741442888, -54792.46286063944, -40256.609351230785, -22193.650566774675, 2405.76295921361, -30377.674743851992, 0.744, -0.492, 0.514, 192.0, 0.0, 0.0, 0.0, 0.0, 0.0, 0.0, 0.0, 0.0, 0.0, 1.6635011325024064E9, 0.0, 2022-09-18 16:38:52.502
80.0, -21418.983807442644, -33967.364903374306, -66940.41245465427, -54715.75167366883, -40212.509359420466, -22190.72248825103, -68.44104152215023, -30281.025800827243, 0.744, -0.492, 0.514, 192.0, 0.0, 0.0, 0.0, 0.0, 0.0, 0.0, 0.0, 0.0, 0.0, 1.6635011325054367E9, 0.0, 2022-09-18 16:38:52.505
81.0, -21712.39515690746, -34277.31654373605, -66858.20273854765, -54997.02602589441, -40092.36873297319, -22057.014352919385, -557.9218933489196, -30427.16150607604, 0.744, -0.492, 0.514, 192.0, 0.0, 0.0, 0.0, 0.0, 0.0, 0.0, 0.0, 0.0, 0.0, 1.6635011325094645E9, 0.0, 2022-09-18 16:38:52.509
82.0, -21722.274627956704, -35006.8104275239, -66896.8936081998, -55180.06446123892, -40044.49129634992, -22057.75196048641, 1691.6694273554597, -30425.239256052886, 0.744, -0.492, 0.514, 192.0, 0.0, 0.0, 0.0, 0.0, 0.0, 0.0, 0.0, 0.0, 0.0, 1.663501132513518E9, 0.0, 2022-09-18 16:38:52.513
83.0, -21147.432464055117, -34665.38753096909, -67062.69884856926, -54745.524197283296, -40206.42968492862, -22226.48527937952, 3518.7904261100803, -30374.210223461418, 0.744, -0.492, 0.514, 192.0, 0.0, 0.0, 0.0, 0.0, 0.0, 0.0, 0.0, 0.0, 0.0, 1.6635011325174916E9, 0.0, 2022-09-18 16:38:52.517
84.0, -21278.771314474503, -34469.72036000733, -66991.06150759, -54795.927381030015, -40254.26241806298, -22199.171447655135, 2402.4549010342243, -30371.416255404503, 0.744, -0.492, 0.514, 192.0, 0.0, 0.0, 0.0, 0.0, 0.0, 0.0, 0.0, 0.0, 0.0, 1.6635011325214653E9, 0.0, 2022-09-18 16:38:52.521
85.0, -21400.498914778105, -33961.844022493846, -66928.72249230415, -54712.801243400725, -40196.95254527957, -22184.620462014733, -70.72091945659155, -30239.429204395918, 0.746, -0.494, 0.512, 192.0, 23.0, 80.0, 240.0, 144.0, 16.0, 0.0, 0.0, 0.0, 0.0, 1.6635011325254917E9, 0.0, 2022-09-18 16:38:52.525
86.0, -21697.933578244876, -34268.107625020464, -66835.38160745878, -54989.091156612776, -40067.20066871651, -22049.83944294923, -557.877189860009, -30389.163540502017, 0.746, -0.494, 0.512, 192.0, 0.0, 0.0, 0.0, 0.0, 0.0, 0.0, 0.0, 0.0, 0.0, 1.6635011325305316E9, 0.0, 2022-09-18 16:38:52.530
87.0, -21724.241581468774, -35010.07378221438, -66888.1317243733, -55191.128574744296, -40041.272645148354, -22080.237815408447, 1680.0465202387002, -30459.906811703066, 0.746, -0.494, 0.512, 192.0, 0.0, 0.0, 0.0, 0.0, 0.0, 0.0, 0.0, 0.0, 0.0, 1.6635011325334892E9, 0.0, 2022-09-18 16:38:52.533
88.0, -21160.932917706123, -34675.82579562972, -67042.96225821522, -54765.39489810407, -40200.126492992225, -22241.01391327547, 3509.8720800724127, -30407.53667444428, 0.746, -0.494, 0.512, 192.0, 0.0, 0.0, 0.0, 0.0, 0.0, 0.0, 0.0, 0.0, 0.0, 1.6635011325375054E9, 0.0, 2022-09-18 16:38:52.537
89.0, -21291.735326258582, -34475.77768275472, -66976.35405973841, -54803.437567167, -40241.00783360098, -22200.73606976701, 2407.595802258945, -30373.986706016865, 0.746, -0.494, 0.512, 192.0, 0.0, 0.0, 0.0, 0.0, 0.0, 0.0, 0.0, 0.0, 0.0, 1.6635011325414948E9, 0.0, 2022-09-18 16:38:52.541
90.0, -21418.022682431067, -33970.67296155369, -66939.58544010943, -54719.12678708158, -40193.44332140009, -22186.430953315612, -66.56349498790443, -30244.860678298555, 0.746, -0.494, 0.512, 192.0, 0.0, 0.0, 0.0, 0.0, 0.0, 0.0, 0.0, 0.0, 0.0, 1.6635011325455475E9, 0.0, 2022-09-18 16:38:52.545
91.0, -21704.236770181273, -34274.187299512305, -66845.55165118595, -54993.87442992621, -40069.99463677343, -22053.147501128617, -562.459297473347, -30394.796180104757, 0.746, -0.494, 0.512, 192.0, 0.0, 0.0, 0.0, 0.0, 0.0, 0.0, 0.0, 0.0, 0.0, 1.6635011325495381E9, 0.0, 2022-09-18 16:38:52.549
92.0, -21732.7799478507, -35015.16997995019, -66903.62148328085, -55195.48716491308, -40042.36788062667, -22078.27086189638, 1674.793860291703, -30460.063273914253, 0.746, -0.494, 0.512, 192.0, 0.0, 0.0, 0.0, 0.0, 0.0, 0.0, 0.0, 0.0, 0.0, 1.6635011325535712E9, 0.0, 2022-09-18 16:38:52.553
93.0, -21151.41107456816, -34671.28839150529, -67060.84365377948, -54761.41628759102, -40207.48021691802, -22237.862317307274, 3513.8283388410023, -30428.681424699003, 0.746, -0.494, 0.512, 192.0, 0.0, 0.0, 0.0, 0.0, 0.0, 0.0, 0.0, 0.0, 0.0, 1.6635011325585115E9, 0.0, 2022-09-18 16:38:52.558
94.0, -21269.00360214753, -34465.048845416175, -66985.65238543182, -54796.44147115249, -40246.37225227025, -22187.883816705205, 2413.340200583959, -30408.8777791116, 0.746, -0.494, 0.512, 192.0, 0.0, 0.0, 0.0, 0.0, 0.0, 0.0, 0.0, 0.0, 0.0, 1.6635011325615299E9, 0.0, 2022-09-18 16:38:52.561
95.0, -21395.536827509026, -33964.68269403967, -66938.84783254241, -54719.372656270585, -40201.15467323717, -22175.657412488155, -74.20779159161945, -30265.31252447516, 0.738, -0.502, 0.508, 192.0, 23.0, 16.0, 240.0, 80.0, 15.0, 224.0, 0.0, 0.0, 0.0, 1.6635011325655546E9, 0.0, 2022-09-18 16:38:52.565
96.0, -21701.73337480228, -34274.09789253448, -66820.33888344036, -54994.99201714898, -40078.488299666446, -22047.336047570236, -571.6905679333887, -30390.951680058442, 0.738, -0.502, 0.508, 192.0, 0.0, 0.0, 0.0, 0.0, 0.0, 0.0, 0.0, 0.0, 0.0, 1.6635011325695713E9, 0.0, 2022-09-18 16:38:52.569
97.0, -21738.01025605324, -35020.467343386095, -66883.34845105988, -55194.39192943477, -40048.559313840786, -22074.60517580571, 1669.3176829001527, -30431.318930544727, 0.738, -0.502, 0.508, 192.0, 0.0, 0.0, 0.0, 0.0, 0.0, 0.0, 0.0, 0.0, 0.0, 1.6635011325735304E9, 0.0, 2022-09-18 16:38:52.573
98.0, -21159.815330483358, -34684.36416201165, -67069.71729632822, -54767.07127893821, -40225.74159213801, -22252.145082014213, 3503.4571294137395, -30397.903072584042, 0.738, -0.502, 0.508, 192.0, 0.0, 0.0, 0.0, 0.0, 0.0, 0.0, 0.0, 0.0, 0.0, 1.6635011325775654E9, 0.0, 2022-09-18 16:38:52.577
99.0, -21279.01718366351, -34469.34038035159, -66966.58634741144, -54795.2344769519, -40252.94366514011, -22198.880874977218, 2418.4811018086793, -30377.518281640805, 0.738, -0.502, 0.508, 192.0, 0.0, 0.0, 0.0, 0.0, 0.0, 0.0, 0.0, 0.0, 0.0, 1.6635011325816183E9, 0.0, 2022-09-18 16:38:52.581
100.0, -21416.301598108006, -33970.15887143122, -66919.11124218837, -54714.65643819052, -40195.72319933453, -22173.936328165095, -65.20003857613071, -30248.28049520022, 0.738, -0.502, 0.508, 192.0, 0.0, 0.0, 0.0, 0.0, 0.0, 0.0, 0.0, 0.0, 0.0, 1.663501132586562E9, 0.0, 2022-09-18 16:38:52.586
101.0, -21703.230941680784, -34275.841328602, -66856.12402631331, -54992.66743572563, -40082.26574447939, -22049.548870271312, -573.5457627231792, -30390.839921336166, 0.738, -0.502, 0.508, 192.0, 0.0, 0.0, 0.0, 0.0, 0.0, 0.0, 0.0, 0.0, 0.0, 1.6635011325895755E9, 0.0, 2022-09-18 16:38:52.589
102.0, -21719.994750022262, -35018.388631151756, -66911.55635256247, -55198.99638879256, -40055.84598253322, -22076.99681246243, 1657.0912786830997, -30448.26155284185, 0.738, -0.502, 0.508, 192.0, 0.0, 0.0, 0.0, 0.0, 0.0, 0.0, 0.0, 0.0, 0.0, 1.663501132593593E9, 0.0, 2022-09-18 16:38:52.593
103.0, -21143.342094819796, -34674.86467061814, -67047.65612455083, -54764.61258704813, -40209.693039619095, -22230.30742768138, 3504.284143958586, -30416.41031699304, 0.738, -0.502, 0.508, 192.0, 0.0, 0.0, 0.0, 0.0, 0.0, 0.0, 0.0, 0.0, 0.0, 1.663501132597621E9, 0.0, 2022-09-18 16:38:52.597
104.0, -21267.282517824475, -34470.32385710762, -66986.99349009914, -54806.87973581311, -40260.11857511027, -22204.468811091043, 2410.9932674161514, -30430.246046810873, 0.738, -0.502, 0.508, 192.0, 0.0, 0.0, 0.0, 0.0, 0.0, 0.0, 0.0, 0.0, 0.0, 1.6635011326016145E9, 0.0, 2022-09-18 16:38:52.601
105.0, -21400.275397333553, -33964.19095566165, -66918.17246892124, -54723.64183946155, -40204.37332443873, -22187.123857393726, -66.13881184325359, -30261.937411062412, 0.74, -0.498, 0.502, 192.0, 23.0, 32.0, 240.0, 112.0, 15.0, 176.0, 0.0, 0.0, 0.0, 1.663501132605626E9, 0.0, 2022-09-18 16:38:52.605
106.0, -21692.61386306451, -34261.35739819496, -66819.93655204018, -54989.3817292907, -40076.92367755457, -22048.945373171016, -561.58757943959, -30369.359894914618, 0.74, -0.498, 0.502, 192.0, 0.0, 0.0, 0.0, 0.0, 0.0, 0.0, 0.0, 0.0, 0.0, 1.66350113260967E9, 0.0, 2022-09-18 16:38:52.609
107.0, -21722.162869234427, -35003.92705248917, -66863.25423279456, -55187.66405435372, -40040.15505792559, -22064.569242545276, 1677.0290347372336, -30416.00798559284, 0.74, -0.498, 0.502, 192.0, 0.0, 0.0, 0.0, 0.0, 0.0, 0.0, 0.0, 0.0, 0.0, 1.6635011326146963E9, 0.0, 2022-09-18 16:38:52.614
108.0, -21154.38385658072, -34671.7354263944, -67033.08278716599, -54760.83514223518, -40207.99430704049, -22232.855526549283, 3510.319114961519, -30383.463845665916, 0.74, -0.498, 0.502, 192.0, 0.0, 0.0, 0.0, 0.0, 0.0, 0.0, 0.0, 0.0, 0.0, 1.6635011326176717E9, 0.0, 2022-09-18 16:38:52.617
109.0, -21283.733401743582, -34472.00023794177, -66960.1043415194, -54801.35885493265, -40255.08943260783, -22195.39400284219, 2410.6132877604114, -30378.993496774852, 0.74, -0.498, 0.502, 192.0, 0.0, 0.0, 0.0, 0.0, 0.0, 0.0, 0.0, 0.0, 0.0, 1.6635011326216953E9, 0.0, 2022-09-18 16:38:52.621
110.0, -21413.15000213981, -33972.90813599922, -66940.21128895417, -54724.58061272867, -40217.493798434, -22189.24727311698, -79.48280328307192, -30266.161890764462, 0.74, -0.498, 0.502, 192.0, 0.0, 0.0, 0.0, 0.0, 0.0, 0.0, 0.0, 0.0, 0.0, 1.663501132625699E9, 0.0, 2022-09-18 16:38:52.625
111.0, -21691.25040665274, -34273.85202334548, -66870.87617765382, -54998.389482306186, -40097.82255862028, -22061.060018665794, -587.0462163741847, -30405.68147965449, 0.74, -0.498, 0.502, 192.0, 0.0, 0.0, 0.0, 0.0, 0.0, 0.0, 0.0, 0.0, 0.0, 1.66350113262968E9, 0.0, 2022-09-18 16:38:52.629
112.0, -21709.645892339457, -35010.87844501477, -66907.64479728279, -55197.767042847525, -40071.291037951836, -22088.530312601368, 1659.6840810399153, -30453.089529644196, 0.74, -0.498, 0.502, 192.0, 0.0, 0.0, 0.0, 0.0, 0.0, 0.0, 0.0, 0.0, 0.0, 1.6635011326336806E9, 0.0, 2022-09-18 16:38:52.633
113.0, -21138.0894348728, -34669.81317637124, -67027.7183684967, -54758.91289221202, -40211.70469662007, -22224.78654680092, 3515.5270714196054, -30382.636831121068, 0.74, -0.498, 0.502, 192.0, 0.0, 0.0, 0.0, 0.0, 0.0, 0.0, 0.0, 0.0, 0.0, 1.6635011326376886E9, 0.0, 2022-09-18 16:38:52.637
114.0, -21266.72372421309, -34472.044941430686, -66958.6514781298, -54794.29570368477, -40251.33433953933, -22191.14717139568, 2420.0233721760956, -30360.419197132494, 0.74, -0.498, 0.502, 192.0, 0.0, 0.0, 0.0, 0.0, 0.0, 0.0, 0.0, 0.0, 0.0, 1.6635011326427112E9, 0.0, 2022-09-18 16:38:52.642
115.0, -21402.555275267994, -33979.34543840235, -66917.16664042075, -54718.679752192475, -40208.68721111861, -22181.938252680095, -74.29719856944068, -30242.826669553124, 0.746, -0.494, 0.504, 192.0, 23.0, 80.0, 240.0, 144.0, 15.0, 192.0, 0.0, 0.0, 0.0, 1.663501132645684E9, 0.0, 2022-09-18 16:38:52.645
116.0, -21689.171694418394, -34275.729569879724, -66802.3680808983, -54986.94538914507, -40077.79539558833, -22040.518765511366, -572.9646173673412, -30388.44828467945, 0.746, -0.494, 0.504, 192.0, 0.0, 0.0, 0.0, 0.0, 0.0, 0.0, 0.0, 0.0, 0.0, 1.6635011326487892E9, 0.0, 2022-09-18 16:38:52.648
117.0, -21718.92186628841, -35016.39932589523, -66866.74110492958, -55190.68153985519, -40049.96747374147, -22066.469140823978, 1671.4634503678622, -30443.72414871742, 0.746, -0.494, 0.504, 192.0, 0.0, 0.0, 0.0, 0.0, 0.0, 0.0, 0.0, 0.0, 0.0, 1.6635011326537263E9, 0.0, 2022-09-18 16:38:52.653
118.0, -21150.695818745593, -34685.21352830095, -67027.22663011869, -54765.39489810407, -40214.72218212154, -22233.526078882944, 3513.046027785066, -30408.117819800118, 0.746, -0.494, 0.504, 192.0, 0.0, 0.0, 0.0, 0.0, 0.0, 0.0, 0.0, 0.0, 0.0, 1.6635011326577249E9, 0.0, 2022-09-18 16:38:52.657
119.0, -21281.453523809138, -34489.00991547226, -66972.84483585892, -54808.310247458256, -40262.51021176699, -22199.81964824434, 2416.9611831857187, -30407.35786048864, 0.746, -0.494, 0.504, 192.0, 0.0, 0.0, 0.0, 0.0, 0.0, 0.0, 0.0, 0.0, 0.0, 1.6635011326617389E9, 0.0, 2022-09-18 16:38:52.661
120.0, -21407.249141603606, -33986.63210709478, -66924.63212306883, -54720.87022314909, -40198.47246390253, -22171.52233976392, -67.27875081047426, -30244.771271320737, 0.746, -0.494, 0.504, 192.0, 0.0, 0.0, 0.0, 0.0, 0.0, 0.0, 0.0, 0.0, 0.0, 1.6635011326657653E9, 0.0, 2022-09-18 16:38:52.665
121.0, -21691.87625549749, -34284.26793626165, -66839.56138367193, -54991.30397931385, -40080.90228806761, -22047.067826636772, -578.6643122034445, -30378.63586886357, 0.746, -0.494, 0.504, 192.0, 0.0, 0.0, 0.0, 0.0, 0.0, 0.0, 0.0, 0.0, 0.0, 1.6635011326698303E9, 0.0, 2022-09-18 16:38:52.669
122.0, -21714.63033135299, -35021.36141316431, -66875.2347678226, -55190.3239119439, -40044.580703327745, -22067.966707702482, 1669.563552089161, -30431.87772415611, 0.746, -0.494, 0.504, 192.0, 0.0, 0.0, 0.0, 0.0, 0.0, 0.0, 0.0, 0.0, 0.0, 1.6635011326727123E9, 0.0, 2022-09-18 16:38:52.672
123.0, -21135.496632515984, -34684.65473468957, -67029.26063886411, -54762.3774126026, -40202.071094759835, -22217.499878108487, 3517.3375627204855, -30384.134397999576, 0.746, -0.494, 0.504, 192.0, 0.0, 0.0, 0.0, 0.0, 0.0, 0.0, 0.0, 0.0, 0.0, 1.6635011326767817E9, 0.0, 2022-09-18 16:38:52.676
124.0, -21276.44673305115, -34494.79901728618, -66931.71762606116, -54807.729102102414, -40245.075851091846, -22186.20743587106, 2419.911613453819, -30383.642659621557, 0.746, -0.494, 0.504, 192.0, 0.0, 0.0, 0.0, 0.0, 0.0, 0.0, 0.0, 0.0, 0.0, 1.6635011326817453E9, 0.0, 2022-09-18 16:38:52.681
125.0, -21417.150964397308, -34002.85947356933, -66902.97328269163, -54735.108284367125, -40205.33444945031, -22182.608805013755, -71.45852702361668, -30260.59630639509, 0.748, -0.49, 0.51, 192.0, 23.0, 96.0, 240.0, 176.0, 15.0, 240.0, 0.0, 0.0, 0.0, 1.6635011326857755E9, 0.0, 2022-09-18 16:38:52.685
126.0, -21708.036566738676, -34302.66342194837, -66802.43513613167, -55007.9336771886, -40085.08206428076, -22050.532347027343, -580.3630447820478, -30393.320964970706, 0.748, -0.49, 0.51, 192.0, 0.0, 0.0, 0.0, 0.0, 0.0, 0.0, 0.0, 0.0, 0.0, 1.663501132689748E9, 0.0, 2022-09-18 16:38:52.689
127.0, -21740.446596198868, -35049.1222797778, -66869.78094217551, -55210.7310546316, -40060.11516572418, -22082.98707997645, 1662.9027322414795, -30450.876706943123, 0.748, -0.49, 0.51, 192.0, 0.0, 0.0, 0.0, 0.0, 0.0, 0.0, 0.0, 0.0, 0.0, 1.663501132693762E9, 0.0, 2022-09-18 16:38:52.693
128.0, -21146.404283810174, -34699.63040347462, -67054.60751707644, -54769.440563850476, -40231.5977491853, -22256.771893116464, 3542.1479990658763, -30423.317006029727, 0.748, -0.49, 0.51, 192.0, 0.0, 0.0, 0.0, 0.0, 0.0, 0.0, 0.0, 0.0, 0.0, 1.663501132696776E9, 0.0, 2022-09-18 16:38:52.696
129.0, -21223.495450436527, -34450.11788012003, -66984.06541157549, -54769.26174989483, -40263.89601992322, -22209.497953593487, 2550.356394094991, -30386.324868956195, 0.748, -0.49, 0.51, 192.0, 0.0, 0.0, 0.0, 0.0, 0.0, 0.0, 0.0, 0.0, 0.0, 1.663501132700781E9, 0.0, 2022-09-18 16:38:52.700
130.0, -21400.878894433845, -33989.314316429416, -66930.57768709394, -54731.196729087445, -40206.22851922852, -22175.970336910526, -23.268165977974654, -30252.97436153583, 0.748, -0.49, 0.51, 192.0, 0.0, 0.0, 0.0, 0.0, 0.0, 0.0, 0.0, 0.0, 0.0, 1.6635011327048323E9, 0.0, 2022-09-18 16:38:52.704
131.0, -21641.316609539583, -34246.31467417654, -66844.05408430744, -54966.560598201824, -40093.19574751804, -22070.581861803756, -465.8997614264204, -30390.705810869436, 0.748, -0.49, 0.51, 192.0, 0.0, 0.0, 0.0, 0.0, 0.0, 0.0, 0.0, 0.0, 0.0, 1.6635011327097735E9, 0.0, 2022-09-18 16:38:52.709
132.0, -21620.50713545169, -34925.85240910678, -66888.26583484004, -55131.67293449318, -40077.81774733278, -22095.101725471228, 1914.1586916635863, -30468.087550173706, 0.748, -0.49, 0.51, 192.0, 0.0, 0.0, 0.0, 0.0, 0.0, 0.0, 0.0, 0.0, 0.0, 1.6635011327138624E9, 0.0, 2022-09-18 16:38:52.713
133.0, -21183.351717394795, -34701.619708731145, -67013.52501076758, -54804.2869334563, -40224.95928108207, -22229.234543947525, 3536.8729873744237, -30425.0827938417, 0.748, -0.49, 0.51, 192.0, 0.0, 0.0, 0.0, 0.0, 0.0, 0.0, 0.0, 0.0, 0.0, 1.663501132717854E9, 0.0, 2022-09-18 16:38:52.717
134.0, -21333.153108734263, -34531.76880261526, -66943.80991981148, -54844.27420428684, -40253.748327940506, -22187.05680216036, 2377.845630388931, -30371.01392400431, 0.748, -0.49, 0.51, 192.0, 0.0, 0.0, 0.0, 0.0, 0.0, 0.0, 0.0, 0.0, 0.0, 1.6635011327218645E9, 0.0, 2022-09-18 16:38:52.721
135.0, -21451.10326422492, -34029.12277330432, -66892.289148842, -54749.61456651862, -40204.77565583893, -22172.595223497778, -106.37195186280631, -30240.390329407495, 0.748, -0.49, 0.51, 192.0, 0.0, 0.0, 0.0, 0.0, 0.0, 0.0, 0.0, 0.0, 0.0, 1.6635011327249043E9, 0.0, 2022-09-18 16:38:52.724
136.0, -21733.20463099535, -34321.41653554637, -66801.18343844217, -55012.56048829085, -40086.82550034827, -22052.253431350404, -616.9528504553855, -30395.578491160693, 0.746, -0.488, 0.514, 192.0, 23.0, 80.0, 240.0, 192.0, 16.0, 16.0, 0.0, 0.0, 0.0, 1.66350113272888E9, 0.0, 2022-09-18 16:38:52.728
137.0, -21750.080198059106, -35061.862774117326, -66889.7410499741, -55211.9827523211, -40057.12003196717, -22074.247547894425, 1622.0884468660888, -30447.322779574726, 0.746, -0.488, 0.514, 192.0, 0.0, 0.0, 0.0, 0.0, 0.0, 0.0, 0.0, 0.0, 0.0, 1.6635011327329583E9, 0.0, 2022-09-18 16:38:52.732
138.0, -21147.790091966403, -34721.66922350755, -67036.7261215122, -54776.43665986499, -40212.554062909374, -22226.909962524172, 3479.764280291114, -30403.178084275496, 0.746, -0.488, 0.514, 192.0, 0.0, 0.0, 0.0, 0.0, 0.0, 0.0, 0.0, 0.0, 0.0, 1.66350113273785E9, 0.0, 2022-09-18 16:38:52.737
139.0, -21276.714953984614, -34518.98360478683, -66924.18508817973, -54810.746587603884, -40250.932008139134, -22187.168560882637, 2406.6346772473667, -30373.830243805678, 0.746, -0.488, 0.514, 192.0, 0.0, 0.0, 0.0, 0.0, 0.0, 0.0, 0.0, 0.0, 0.0, 1.6635011327418647E9, 0.0, 2022-09-18 16:38:52.741
140.0, -21421.28603712154, -34022.95369183466, -66877.29112831248, -54731.0179151318, -40194.42679815612, -22166.3814385392, -80.06394863890989, -30233.774213048724, 0.746, -0.488, 0.514, 192.0, 0.0, 0.0, 0.0, 0.0, 0.0, 0.0, 0.0, 0.0, 0.0, 1.6635011327458732E9, 0.0, 2022-09-18 16:38:52.745
141.0, -21715.211476708828, -34318.019070389164, -66804.04446173245, -55005.653799254156, -40081.751654356915, -22041.21166958948, -600.5243182807349, -30393.455075437436, 0.746, -0.488, 0.514, 192.0, 0.0, 0.0, 0.0, 0.0, 0.0, 0.0, 0.0, 0.0, 0.0, 1.6635011327498677E9, 0.0, 2022-09-18 16:38:52.749
142.0, -21743.68759914489, -35056.38659672577, -66881.38149754782, -55210.17226102022, -40065.2560669489, -22073.420533349577, 1642.0262029202227, -30448.350959819672, 0.746, -0.488, 0.514, 192.0, 0.0, 0.0, 0.0, 0.0, 0.0, 0.0, 0.0, 0.0, 0.0, 1.6635011327529752E9, 0.0, 2022-09-18 16:38:52.752
143.0, -21154.89794670319, -34716.28245309382, -67041.12941516988, -54775.52023834232, -40223.595824670294, -22226.529982868433, 3497.4892136441727, -30390.7728661028, 0.746, -0.488, 0.514, 192.0, 0.0, 0.0, 0.0, 0.0, 0.0, 0.0, 0.0, 0.0, 0.0, 1.6635011327568953E9, 0.0, 2022-09-18 16:38:52.756
144.0, -21275.463256295116, -34517.10605825258, -66962.38421945384, -54814.099349272175, -40263.001950145, -22183.77109572543, 2412.401427316836, -30375.573679873192, 0.746, -0.488, 0.514, 192.0, 0.0, 0.0, 0.0, 0.0, 0.0, 0.0, 0.0, 0.0, 0.0, 1.663501132760886E9, 0.0, 2022-09-18 16:38:52.760
145.0, -21425.28699937904, -34026.9323023477, -66929.16952719325, -54746.59708101715, -40225.47337120454, -22187.14620913818, -81.29329458395179, -30266.631277398024, 0.746, -0.488, 0.514, 192.0, 0.0, 0.0, 0.0, 0.0, 0.0, 0.0, 0.0, 0.0, 0.0, 1.663501132764913E9, 0.0, 2022-09-18 16:38:52.764
146.0, -21699.34173814556, -34302.909291137374, -66818.26017120603, -55002.859831197246, -40091.40760796161, -22042.17279460106, -591.6953792208885, -30398.663031895525, 0.742, -0.496, 0.518, 192.0, 23.0, 48.0, 240.0, 128.0, 16.0, 48.0, 0.0, 0.0, 0.0, 1.6635011327699564E9, 0.0, 2022-09-18 16:38:52.769
147.0, -21709.95881676183, -35031.799677824936, -66874.89949165577, -55195.174240490705, -40057.50001162291, -22062.93756520004, 1650.18458964641, -30440.08081437121, 0.742, -0.496, 0.518, 192.0, 0.0, 0.0, 0.0, 0.0, 0.0, 0.0, 0.0, 0.0, 0.0, 1.6635011327740245E9, 0.0, 2022-09-18 16:38:52.774
148.0, -21133.55203074837, -34696.32234529524, -67038.11192966842, -54769.59702606166, -40229.697850906596, -22236.521212639957, 3507.83807132698, -30390.594052147157, 0.742, -0.496, 0.518, 192.0, 0.0, 0.0, 0.0, 0.0, 0.0, 0.0, 0.0, 0.0, 0.0, 1.6635011327779477E9, 0.0, 2022-09-18 16:38:52.777
149.0, -21272.579881260383, -34495.8942527645, -66933.66222782877, -54812.75824460486, -40269.059272892395, -22192.39886908518, 2434.2837851385816, -30390.638755636068, 0.742, -0.496, 0.518, 192.0, 0.0, 0.0, 0.0, 0.0, 0.0, 0.0, 0.0, 0.0, 0.0, 1.6635011327809272E9, 0.0, 2022-09-18 16:38:52.780
