%OpenBCI Raw EEG Data
%Number of channels = 8
%Sample Rate = 250 Hz
%Board = OpenBCI_GUI$BoardCytonSerial
Sample Index, EXG Channel 0, EXG Channel 1, EXG Channel 2, EXG Channel 3, EXG Channel 4, EXG Channel 5, EXG Channel 6, EXG Channel 7, Accel Channel 0, Accel Channel 1, Accel Channel 2, Other, Other, Other, Other, Other, Other, Other, Analog Channel 0, Analog Channel 1, Analog Channel 2, Timestamp, Other, Timestamp (Formatted)
91.0, 8452.312165774365, -3148.4890757190083, -46100.00355243726, -17422.849526745027, -78329.54267615589, -187500.02235174447, -24154.68086656104, -15930.356494230808, 0.0, 0.0, 0.0, 192.0, 0.0, 0.0, 0.0, 0.0, 0.0, 0.0, 0.0, 0.0, 0.0, 1.6635799745413496E9, 0.0, 2022-09-19 14:32:54.541
92.0, 8603.588772247884, -3030.024830105881, -46067.28059855469, -17440.59681184254, -78351.00035083298, -187500.02235174447, -24164.649744588107, -15973.249491840541, 0.0, 0.0, 0.0, 192.0, 0.0, 0.0, 0.0, 0.0, 0.0, 0.0, 0.0, 0.0, 0.0, 1.6635799745413733E9, 0.0, 2022-09-19 14:32:54.541
0.0, 0.0, 0.0, 0.0, 0.0, 0.0, 0.0, 0.0, 0.0, 0.0, 0.0, 0.0, 192.0, 0.0, 0.0, 0.0, 0.0, 0.0, 0.0, 0.0, 0.0, 0.0, 1.6635799746088243E9, 0.0, 2022-09-19 14:32:54.608
1.0, 8494.57931453935, -1443.6991743682831, -46127.65266032847, -16366.416676809393, -78833.08277524504, -187500.02235174447, -23915.517200889255, -15361.973984476805, 0.526, -0.8200000000000001, 0.28200000000000003, 192.0, 16.0, 112.0, 230.0, 96.0, 8.0, 208.0, 0.0, 0.0, 0.0, 1.663579974625929E9, 0.0, 2022-09-19 14:32:54.625
2.0, 8594.402205276752, -1379.2367433591776, -46105.926764717915, -16383.649871784435, -78857.7143976348, -187500.02235174447, -23928.615323140064, -15402.09536577408, 0.526, -0.8200000000000001, 0.28200000000000003, 192.0, 0.0, 0.0, 0.0, 0.0, 0.0, 0.0, 0.0, 0.0, 0.0, 1.6635799746290052E9, 0.0, 2022-09-19 14:32:54.629
3.0, 8727.976230141669, -1260.0795936679356, -46079.59640974956, -16400.704252803833, -78873.87470887598, -187500.02235174447, -23916.947712534395, -15414.746453135784, 0.526, -0.8200000000000001, 0.28200000000000003, 192.0, 0.0, 0.0, 0.0, 0.0, 0.0, 0.0, 0.0, 0.0, 0.0, 1.6635799746319065E9, 0.0, 2022-09-19 14:32:54.631
4.0, 8586.400280761753, -1336.5002079606304, -46133.08413423111, -16397.57500858009, -78844.19159223934, -187500.02235174447, -23948.17309953846, -15371.451124125853, 0.526, -0.8200000000000001, 0.28200000000000003, 192.0, 0.0, 0.0, 0.0, 0.0, 0.0, 0.0, 0.0, 0.0, 0.0, 1.6635799746348715E9, 0.0, 2022-09-19 14:32:54.634
5.0, 8460.224683311544, -1442.6486423788838, -46143.76826808075, -16373.837455968554, -78814.5978825805, -187500.02235174447, -23921.753337592287, -15366.623147323508, 0.526, -0.8200000000000001, 0.28200000000000003, 192.0, 0.0, 0.0, 0.0, 0.0, 0.0, 0.0, 0.0, 0.0, 0.0, 1.6635799746398733E9, 0.0, 2022-09-19 14:32:54.639
6.0, 8504.30232337741, -1434.5573108860626, -46122.24353817029, -16367.243691354239, -78823.96326350728, -187500.02235174447, -23921.663930614464, -15380.883560285994, 0.526, -0.8200000000000001, 0.28200000000000003, 192.0, 0.0, 0.0, 0.0, 0.0, 0.0, 0.0, 0.0, 0.0, 0.0, 1.6635799746439953E9, 0.0, 2022-09-19 14:32:54.643
7.0, 8609.713150228637, -1369.0219961431023, -46100.58469779309, -16372.80927572361, -78843.52103990568, -187500.02235174447, -23945.982628581838, -15371.987565992782, 0.526, -0.8200000000000001, 0.28200000000000003, 192.0, 0.0, 0.0, 0.0, 0.0, 0.0, 0.0, 0.0, 0.0, 0.0, 1.6635799746479475E9, 0.0, 2022-09-19 14:32:54.647
8.0, 8744.628279760871, -1257.5761982889412, -46084.513793529724, -16397.329139391084, -78865.64926691643, -187500.02235174447, -23937.064282544172, -15440.853290659583, 0.526, -0.8160000000000001, 0.29, 192.0, 16.0, 112.0, 230.0, 128.0, 9.0, 16.0, 0.0, 0.0, 0.0, 1.663579974651976E9, 0.0, 2022-09-19 14:32:54.651
9.0, 8597.911429156236, -1336.7237254051836, -46136.99568951079, -16397.977339980287, -78836.21201946879, -187500.02235174447, -23928.59297139561, -15402.743566363284, 0.526, -0.8160000000000001, 0.29, 192.0, 0.0, 0.0, 0.0, 0.0, 0.0, 0.0, 0.0, 0.0, 0.0, 1.6635799746549788E9, 0.0, 2022-09-19 14:32:54.654
10.0, 8465.410288025176, -1446.3590319584648, -46156.8440385871, -16379.693613015845, -78821.52692336166, -187500.02235174447, -23927.810660339674, -15383.588121365086, 0.526, -0.8160000000000001, 0.29, 192.0, 0.0, 0.0, 0.0, 0.0, 0.0, 0.0, 0.0, 0.0, 0.0, 1.6635799746590226E9, 0.0, 2022-09-19 14:32:54.659
11.0, 8507.900954234714, -1438.9829562882135, -46131.07247723013, -16367.556615776613, -78829.88647578793, -187500.02235174447, -23918.132354990525, -15369.014783980225, 0.526, -0.8160000000000001, 0.29, 192.0, 0.0, 0.0, 0.0, 0.0, 0.0, 0.0, 0.0, 0.0, 0.0, 1.6635799746629782E9, 0.0, 2022-09-19 14:32:54.662
12.0, 8615.256382853555, -1371.4359845442755, -46095.24263086828, -16375.267967613694, -78845.57740039556, -187500.02235174447, -23906.665910084954, -15386.493848144275, 0.526, -0.8160000000000001, 0.29, 192.0, 0.0, 0.0, 0.0, 0.0, 0.0, 0.0, 0.0, 0.0, 0.0, 1.6635799746679468E9, 0.0, 2022-09-19 14:32:54.667
13.0, 8745.611756516904, -1261.3312913574327, -46073.38262479098, -16391.42827885488, -78864.10699654902, -187500.02235174447, -23916.143049734004, -15407.973874565825, 0.526, -0.8160000000000001, 0.29, 192.0, 0.0, 0.0, 0.0, 0.0, 0.0, 0.0, 0.0, 0.0, 0.0, 1.663579974672008E9, 0.0, 2022-09-19 14:32:54.672
14.0, 8594.223391321111, -1345.0385743425577, -46129.08317197361, -16376.117333902996, -78836.32377819107, -187500.02235174447, -23934.672645887455, -15391.388880179988, 0.526, -0.8160000000000001, 0.29, 192.0, 0.0, 0.0, 0.0, 0.0, 0.0, 0.0, 0.0, 0.0, 0.0, 1.663579974675969E9, 0.0, 2022-09-19 14:32:54.675
15.0, 8461.163456578668, -1452.7739826171378, -46142.9412535359, -16361.231072095761, -78820.38698439444, -187500.02235174447, -23914.131392733027, -15370.534702603187, 0.526, -0.8160000000000001, 0.29, 192.0, 0.0, 0.0, 0.0, 0.0, 0.0, 0.0, 0.0, 0.0, 0.0, 1.663579974679001E9, 0.0, 2022-09-19 14:32:54.679
16.0, 8503.899991977214, -1444.7273546132274, -46116.43208461191, -16363.57800526357, -78825.5055338747, -187500.02235174447, -23903.2907966722, -15365.192635678368, 0.526, -0.8160000000000001, 0.29, 192.0, 0.0, 0.0, 0.0, 0.0, 0.0, 0.0, 0.0, 0.0, 0.0, 1.663579974682999E9, 0.0, 2022-09-19 14:32:54.682
17.0, 8614.049388652968, -1376.9568654247362, -46086.056063897144, -16374.060973413109, -78838.93893229234, -187500.02235174447, -23904.766011806252, -15400.62015064003, 0.526, -0.8160000000000001, 0.29, 192.0, 0.0, 0.0, 0.0, 0.0, 0.0, 0.0, 0.0, 0.0, 0.0, 1.6635799746870809E9, 0.0, 2022-09-19 14:32:54.687
18.0, 8741.566090770495, -1274.6976345417065, -46075.14841260295, -16387.628482297478, -78861.3130284921, -187500.02235174447, -23931.45399468589, -15434.81831965665, 0.528, -0.8180000000000001, 0.29, 192.0, 16.0, 128.0, 230.0, 112.0, 9.0, 16.0, 0.0, 0.0, 0.0, 1.6635799746910634E9, 0.0, 2022-09-19 14:32:54.691
19.0, 8585.997949361557, -1359.3436907939542, -46129.64196558499, -16373.010441423708, -78833.68627234534, -187500.02235174447, -23929.44233768491, -15350.082856426581, 0.528, -0.8180000000000001, 0.29, 192.0, 0.0, 0.0, 0.0, 0.0, 0.0, 0.0, 0.0, 0.0, 0.0, 1.6635799746960697E9, 0.0, 2022-09-19 14:32:54.696
20.0, 8457.073087343346, -1462.899322855392, -46142.02483201323, -16350.56928999058, -78818.44238262682, -187500.02235174447, -23911.06920374265, -15338.951687687837, 0.528, -0.8180000000000001, 0.29, 192.0, 0.0, 0.0, 0.0, 0.0, 0.0, 0.0, 0.0, 0.0, 0.0, 1.6635799747000444E9, 0.0, 2022-09-19 14:32:54.700
21.0, 8493.081747660846, -1456.1043925409786, -46126.17744519442, -16358.660621483401, -78833.41805141188, -187500.02235174447, -23924.770823093753, -15404.598761153075, 0.528, -0.8180000000000001, 0.29, 192.0, 0.0, 0.0, 0.0, 0.0, 0.0, 0.0, 0.0, 0.0, 0.0, 1.663579974704078E9, 0.0, 2022-09-19 14:32:54.704
22.0, 8598.93960940118, -1385.1823073842893, -46094.34856109006, -16367.37780182097, -78848.75134810821, -187500.02235174447, -23920.83691606962, -15389.511333645742, 0.528, -0.8180000000000001, 0.29, 192.0, 0.0, 0.0, 0.0, 0.0, 0.0, 0.0, 0.0, 0.0, 0.0, 1.6635799747070525E9, 0.0, 2022-09-19 14:32:54.707
23.0, 8731.798378443526, -1273.8482682524048, -46065.13483108698, -16372.138723389951, -78864.01758957119, -187500.02235174447, -23906.665910084954, -15388.103173745058, 0.528, -0.8180000000000001, 0.29, 192.0, 0.0, 0.0, 0.0, 0.0, 0.0, 0.0, 0.0, 0.0, 0.0, 1.663579974711014E9, 0.0, 2022-09-19 14:32:54.711
24.0, 8573.928007355691, -1362.9199699068035, -46123.22701492632, -16369.23299661076, -78840.97294103778, -187500.02235174447, -23928.92824756244, -15365.125580445003, 0.528, -0.8180000000000001, 0.29, 192.0, 0.0, 0.0, 0.0, 0.0, 0.0, 0.0, 0.0, 0.0, 0.0, 1.6635799747151353E9, 0.0, 2022-09-19 14:32:54.715
25.0, 8446.567767449353, -1466.3414915015092, -46134.98403250981, -16354.883176670453, -78822.53275186215, -187500.02235174447, -23909.01284325276, -15354.508501828732, 0.528, -0.8180000000000001, 0.29, 192.0, 0.0, 0.0, 0.0, 0.0, 0.0, 0.0, 0.0, 0.0, 0.0, 1.6635799747191331E9, 0.0, 2022-09-19 14:32:54.719
26.0, 8484.543381278918, -1456.7078896412718, -46114.9345177334, -16363.510950030202, -78831.22758045526, -187500.02235174447, -23898.686337314408, -15376.972005006315, 0.528, -0.8180000000000001, 0.29, 192.0, 0.0, 0.0, 0.0, 0.0, 0.0, 0.0, 0.0, 0.0, 0.0, 1.6635799747230823E9, 0.0, 2022-09-19 14:32:54.723
27.0, 8598.067891367424, -1387.193964385267, -46087.73244473129, -16373.345717590539, -78846.87380157398, -187500.02235174447, -23894.595968079087, -15397.08857501609, 0.528, -0.8180000000000001, 0.29, 192.0, 0.0, 0.0, 0.0, 0.0, 0.0, 0.0, 0.0, 0.0, 0.0, 1.663579974728201E9, 0.0, 2022-09-19 14:32:54.728
28.0, 8725.696352207226, -1283.191297434723, -46075.93072365889, -16375.692650758345, -78867.50446170622, -187500.02235174447, -23914.39961366649, -15391.724156346818, 0.534, -0.8180000000000001, 0.28400000000000003, 192.0, 16.0, 176.0, 230.0, 112.0, 8.0, 224.0, 0.0, 0.0, 0.0, 1.663579974732139E9, 0.0, 2022-09-19 14:32:54.732
29.0, 8569.725879398095, -1371.4359845442755, -46135.31930867664, -16373.591586779547, -78835.6085223685, -187500.02235174447, -23931.521049919254, -15353.033286694681, 0.534, -0.8180000000000001, 0.28400000000000003, 192.0, 0.0, 0.0, 0.0, 0.0, 0.0, 0.0, 0.0, 0.0, 0.0, 1.6635799747351625E9, 0.0, 2022-09-19 14:32:54.735
30.0, 8447.841816883305, -1476.2433142952102, -46148.73035534983, -16356.872481926977, -78818.42003088236, -187500.02235174447, -23909.325767675135, -15387.186752222391, 0.534, -0.8180000000000001, 0.28400000000000003, 192.0, 0.0, 0.0, 0.0, 0.0, 0.0, 0.0, 0.0, 0.0, 0.0, 1.6635799747391434E9, 0.0, 2022-09-19 14:32:54.739
31.0, 8492.925285449659, -1473.7846224051266, -46130.51368361875, -16362.23690059625, -78839.87770555947, -187500.02235174447, -23910.77863106473, -15375.675603827907, 0.534, -0.8180000000000001, 0.28400000000000003, 192.0, 0.0, 0.0, 0.0, 0.0, 0.0, 0.0, 0.0, 0.0, 0.0, 1.6635799747431464E9, 0.0, 2022-09-19 14:32:54.743
32.0, 8607.254458338555, -1402.9519442262583, -46099.333000103594, -16369.389458821948, -78854.20517375531, -187500.02235174447, -23919.629921869033, -15368.299528157655, 0.534, -0.8180000000000001, 0.28400000000000003, 192.0, 0.0, 0.0, 0.0, 0.0, 0.0, 0.0, 0.0, 0.0, 0.0, 1.663579974747121E9, 0.0, 2022-09-19 14:32:54.747
33.0, 8735.978154656668, -1292.8696027838712, -46078.098842871055, -16380.162999649407, -78869.33730475156, -187500.02235174447, -23917.64061661251, -15396.328615704611, 0.534, -0.8180000000000001, 0.28400000000000003, 192.0, 0.0, 0.0, 0.0, 0.0, 0.0, 0.0, 0.0, 0.0, 0.0, 1.6635799747521565E9, 0.0, 2022-09-19 14:32:54.752
34.0, 8583.718071427116, -1376.8451067024598, -46130.69249757439, -16365.164979119896, -78837.08373750254, -187500.02235174447, -23954.722160663863, -15392.059432513648, 0.534, -0.8180000000000001, 0.28400000000000003, 192.0, 0.0, 0.0, 0.0, 0.0, 0.0, 0.0, 0.0, 0.0, 0.0, 1.663579974756112E9, 0.0, 2022-09-19 14:32:54.756
35.0, 8462.281043801433, -1476.7574044176822, -46138.38149766702, -16342.299144542116, -78815.24608316971, -187500.02235174447, -23905.056584484173, -15334.213117863312, 0.534, -0.8180000000000001, 0.28400000000000003, 192.0, 0.0, 0.0, 0.0, 0.0, 0.0, 0.0, 0.0, 0.0, 0.0, 1.663579974760148E9, 0.0, 2022-09-19 14:32:54.760
36.0, 8498.222648885567, -1468.800183391593, -46118.17552067942, -16337.717036928778, -78821.54927510611, -187500.02235174447, -23899.02161348124, -15345.679562768884, 0.534, -0.8180000000000001, 0.28400000000000003, 192.0, 0.0, 0.0, 0.0, 0.0, 0.0, 0.0, 0.0, 0.0, 0.0, 1.6635799747631507E9, 0.0, 2022-09-19 14:32:54.763
37.0, 8603.588772247884, -1398.481595335197, -46089.431177309896, -16353.162092347397, -78843.74455735023, -187500.02235174447, -23888.7398110318, -15373.127504960003, 0.534, -0.8180000000000001, 0.28400000000000003, 192.0, 0.0, 0.0, 0.0, 0.0, 0.0, 0.0, 0.0, 0.0, 0.0, 1.663579974767156E9, 0.0, 2022-09-19 14:32:54.767
38.0, 8722.880032405857, -1296.7811580635498, -46077.69651147086, -16373.748048990734, -78863.03411281516, -187500.02235174447, -23911.44918339839, -15413.740624635295, 0.532, -0.8160000000000001, 0.28200000000000003, 192.0, 16.0, 160.0, 230.0, 128.0, 8.0, 208.0, 0.0, 0.0, 0.0, 1.663579974771212E9, 0.0, 2022-09-19 14:32:54.771
39.0, 8553.02912628998, -1394.8606127334372, -46145.57875938163, -16374.686822257856, -78838.71541484779, -187500.02235174447, -23953.06813157417, -15371.875807270504, 0.532, -0.8160000000000001, 0.28200000000000003, 192.0, 0.0, 0.0, 0.0, 0.0, 0.0, 0.0, 0.0, 0.0, 0.0, 1.6635799747751715E9, 0.0, 2022-09-19 14:32:54.775
40.0, 8435.1907295216, -1494.705855215294, -46148.015099527256, -16362.862749441, -78823.18095245135, -187500.02235174447, -23917.126526490036, -15342.103283656035, 0.532, -0.8160000000000001, 0.28200000000000003, 192.0, 0.0, 0.0, 0.0, 0.0, 0.0, 0.0, 0.0, 0.0, 0.0, 1.6635799747792048E9, 0.0, 2022-09-19 14:32:54.779
41.0, 8475.937959663624, -1487.1062621004894, -46122.779980037216, -16355.75489470421, -78840.6600166154, -187500.02235174447, -23911.896218287497, -15358.42005710841, 0.532, -0.8160000000000001, 0.28200000000000003, 192.0, 0.0, 0.0, 0.0, 0.0, 0.0, 0.0, 0.0, 0.0, 0.0, 1.6635799747842257E9, 0.0, 2022-09-19 14:32:54.784
42.0, 8585.483859239086, -1416.5641565995404, -46094.34856109006, -16372.71986874579, -78860.24014475825, -187500.02235174447, -23909.01284325276, -15398.206162238857, 0.532, -0.8160000000000001, 0.28200000000000003, 192.0, 0.0, 0.0, 0.0, 0.0, 0.0, 0.0, 0.0, 0.0, 0.0, 1.6635799747872045E9, 0.0, 2022-09-19 14:32:54.787
43.0, 8708.999599099112, -1314.4390361832425, -46079.484651027284, -16389.32721487608, -78881.45195024634, -187500.02235174447, -23919.987549780315, -15419.61913342704, 0.532, -0.8160000000000001, 0.28200000000000003, 192.0, 0.0, 0.0, 0.0, 0.0, 0.0, 0.0, 0.0, 0.0, 0.0, 1.663579974790203E9, 0.0, 2022-09-19 14:32:54.790
44.0, 8550.1681029997, -1410.2609646631438, -46140.41550641245, -16377.77136299269, -78854.13811852195, -187500.02235174447, -23945.915573348473, -15345.388990090965, 0.532, -0.8160000000000001, 0.28200000000000003, 192.0, 0.0, 0.0, 0.0, 0.0, 0.0, 0.0, 0.0, 0.0, 0.0, 1.6635799747952082E9, 0.0, 2022-09-19 14:32:54.795
45.0, 8433.782569620917, -1510.4861868007406, -46158.11808802105, -16373.658642012912, -78841.17410673788, -187500.02235174447, -23939.433567456435, -15338.370542331999, 0.532, -0.8160000000000001, 0.28200000000000003, 192.0, 0.0, 0.0, 0.0, 0.0, 0.0, 0.0, 0.0, 0.0, 0.0, 1.6635799747992163E9, 0.0, 2022-09-19 14:32:54.799
46.0, 8481.034157399436, -1496.7398639607268, -46138.761477322754, -16374.060973413109, -78847.2090777408, -187500.02235174447, -23948.284858260737, -15385.28685394369, 0.532, -0.8160000000000001, 0.28200000000000003, 192.0, 0.0, 0.0, 0.0, 0.0, 0.0, 0.0, 0.0, 0.0, 0.0, 1.6635799748032205E9, 0.0, 2022-09-19 14:32:54.803
47.0, 8594.201039576656, -1420.3639531569427, -46101.858747227045, -16365.902586686921, -78862.02828431467, -187500.02235174447, -23893.612491323056, -15430.370322510043, 0.532, -0.8160000000000001, 0.28200000000000003, 192.0, 0.0, 0.0, 0.0, 0.0, 0.0, 0.0, 0.0, 0.0, 0.0, 1.6635799748071945E9, 0.0, 2022-09-19 14:32:54.807
48.0, 8708.329046765453, -1317.5235769180747, -46093.78976747868, -16377.659604270411, -78889.9232613949, -187500.02235174447, -23938.763015122775, -15400.486040173299, 0.53, -0.8140000000000001, 0.29, 192.0, 16.0, 144.0, 230.0, 144.0, 9.0, 16.0, 0.0, 0.0, 0.0, 1.6635799748122916E9, 0.0, 2022-09-19 14:32:54.812
49.0, 8544.64722211924, -1413.5019676091633, -46150.98788153981, -16363.57800526357, -78860.84364185853, -187500.02235174447, -23949.089521061127, -15358.822388508606, 0.53, -0.8140000000000001, 0.29, 192.0, 0.0, 0.0, 0.0, 0.0, 0.0, 0.0, 0.0, 0.0, 0.0, 1.6635799748152635E9, 0.0, 2022-09-19 14:32:54.815
50.0, 8437.627069667229, -1510.7544077342043, -46154.81002984167, -16350.010496379198, -78841.73290034925, -187500.02235174447, -23893.321918645135, -15349.278193626189, 0.53, -0.8140000000000001, 0.29, 192.0, 0.0, 0.0, 0.0, 0.0, 0.0, 0.0, 0.0, 0.0, 0.0, 1.6635799748192255E9, 0.0, 2022-09-19 14:32:54.819
51.0, 8479.447183543109, -1500.4726052847632, -46133.8887970315, -16355.956060404309, -78850.40537719791, -187500.02235174447, -23905.503619373278, -15344.450216823843, 0.53, -0.8140000000000001, 0.29, 192.0, 0.0, 0.0, 0.0, 0.0, 0.0, 0.0, 0.0, 0.0, 0.0, 1.6635799748232896E9, 0.0, 2022-09-19 14:32:54.823
52.0, 8584.008644105035, -1433.484427152208, -46101.63522978249, -16359.487636028247, -78870.00785708522, -187500.02235174447, -23897.16641869145, -15385.242150454778, 0.53, -0.8140000000000001, 0.29, 192.0, 0.0, 0.0, 0.0, 0.0, 0.0, 0.0, 0.0, 0.0, 0.0, 1.663579974827409E9, 0.0, 2022-09-19 14:32:54.827
53.0, 8700.751805395104, -1335.74024864915, -46090.88404069949, -16381.459400827815, -78889.90090965045, -187500.02235174447, -23923.20620098188, -15424.089482318102, 0.53, -0.8140000000000001, 0.29, 192.0, 0.0, 0.0, 0.0, 0.0, 0.0, 0.0, 0.0, 0.0, 0.0, 1.66357997483132E9, 0.0, 2022-09-19 14:32:54.831
54.0, 8528.129282966767, -1439.0723632660347, -46153.02189028524, -16382.755802006222, -78864.68814190486, -187500.02235174447, -23951.481157717844, -15387.94671153387, 0.53, -0.8140000000000001, 0.29, 192.0, 0.0, 0.0, 0.0, 0.0, 0.0, 0.0, 0.0, 0.0, 0.0, 1.6635799748352687E9, 0.0, 2022-09-19 14:32:54.835
55.0, 8412.99544727748, -1536.2577481577098, -46156.21818974235, -16356.201929593317, -78845.68915911784, -187500.02235174447, -23919.205238724382, -15353.167397161413, 0.53, -0.8140000000000001, 0.29, 192.0, 0.0, 0.0, 0.0, 0.0, 0.0, 0.0, 0.0, 0.0, 0.0, 1.6635799748402617E9, 0.0, 2022-09-19 14:32:54.840
56.0, 8448.422962239143, -1528.8146172540926, -46141.26487270175, -16378.017232181697, -78858.80963311311, -187500.02235174447, -23928.570619651156, -15390.85243831306, 0.53, -0.8140000000000001, 0.29, 192.0, 0.0, 0.0, 0.0, 0.0, 0.0, 0.0, 0.0, 0.0, 0.0, 1.6635799748433745E9, 0.0, 2022-09-19 14:32:54.843
57.0, 8572.586902688374, -1448.773020359638, -46106.46320658484, -16381.459400827815, -78868.84556637354, -187500.02235174447, -23926.55896265018, -15387.2314557113, 0.53, -0.8140000000000001, 0.29, 192.0, 0.0, 0.0, 0.0, 0.0, 0.0, 0.0, 0.0, 0.0, 0.0, 1.6635799748463056E9, 0.0, 2022-09-19 14:32:54.846
58.0, 8697.779023382547, -1346.2679202875997, -46087.330113331096, -16375.245615869238, -78881.34019152405, -187500.02235174447, -23915.740718333807, -15416.981627581315, 0.534, -0.812, 0.28600000000000003, 192.0, 16.0, 176.0, 230.0, 160.0, 8.0, 240.0, 0.0, 0.0, 0.0, 1.663579974851297E9, 0.0, 2022-09-19 14:32:54.851
59.0, 8536.332373181865, -1442.156904000867, -46146.49518090429, -16361.298127329128, -78845.77856609566, -187500.02235174447, -23936.17021276596, -15343.779664490185, 0.534, -0.812, 0.28600000000000003, 192.0, 0.0, 0.0, 0.0, 0.0, 0.0, 0.0, 0.0, 0.0, 0.0, 1.6635799748553393E9, 0.0, 2022-09-19 14:32:54.855
60.0, 8427.56878466234, -1534.4696086012852, -46157.20166649839, -16345.853071910511, -78832.74749907822, -187500.02235174447, -23936.41608195497, -15334.056655652126, 0.534, -0.812, 0.28600000000000003, 192.0, 0.0, 0.0, 0.0, 0.0, 0.0, 0.0, 0.0, 0.0, 0.0, 1.663579974859328E9, 0.0, 2022-09-19 14:32:54.859
61.0, 8469.165381093668, -1521.8185212395813, -46130.96071850786, -16352.46918826928, -78841.88936256044, -187500.02235174447, -23926.69307311691, -15361.839874010073, 0.534, -0.812, 0.28600000000000003, 192.0, 0.0, 0.0, 0.0, 0.0, 0.0, 0.0, 0.0, 0.0, 0.0, 1.6635799748633313E9, 0.0, 2022-09-19 14:32:54.863
62.0, 8584.880362138792, -1443.8556365794702, -46093.901526200956, -16361.052258140118, -78858.45200520182, -187500.02235174447, -23884.15770341846, -15400.731909362306, 0.534, -0.812, 0.28600000000000003, 192.0, 0.0, 0.0, 0.0, 0.0, 0.0, 0.0, 0.0, 0.0, 0.0, 1.6635799748683991E9, 0.0, 2022-09-19 14:32:54.868
63.0, 8704.52925020805, -1342.0881440744572, -46088.98414242079, -16371.244653611739, -78878.34505776704, -187500.02235174447, -23918.221761968347, -15364.835007767084, 0.534, -0.812, 0.28600000000000003, 192.0, 0.0, 0.0, 0.0, 0.0, 0.0, 0.0, 0.0, 0.0, 0.0, 1.6635799748713942E9, 0.0, 2022-09-19 14:32:54.871
64.0, 8531.079713234867, -1445.509665669163, -46155.10060251959, -16367.243691354239, -78855.94860982282, -187500.02235174447, -23944.105082047594, -15364.164455433423, 0.534, -0.812, 0.28600000000000003, 192.0, 0.0, 0.0, 0.0, 0.0, 0.0, 0.0, 0.0, 0.0, 0.0, 1.6635799748743896E9, 0.0, 2022-09-19 14:32:54.874
65.0, 8423.009028793458, -1539.7222685482823, -46159.07921303263, -16354.167920847884, -78840.68236835985, -187500.02235174447, -23912.834991554617, -15353.547376817152, 0.534, -0.812, 0.28600000000000003, 192.0, 0.0, 0.0, 0.0, 0.0, 0.0, 0.0, 0.0, 0.0, 0.0, 1.663579974879391E9, 0.0, 2022-09-19 14:32:54.879
66.0, 8469.746526449506, -1527.8758439869696, -46136.03456449921, -16357.051295882618, -78846.7620428517, -187500.02235174447, -23905.414212395455, -15366.243167667768, 0.534, -0.812, 0.28600000000000003, 192.0, 0.0, 0.0, 0.0, 0.0, 0.0, 0.0, 0.0, 0.0, 0.0, 1.6635799748834033E9, 0.0, 2022-09-19 14:32:54.883
67.0, 8583.025167349002, -1454.1821425178223, -46108.54191881918, -16357.923013916376, -78866.65509541692, -187500.02235174447, -23900.720346059843, -15395.56865639313, 0.534, -0.812, 0.28600000000000003, 192.0, 0.0, 0.0, 0.0, 0.0, 0.0, 0.0, 0.0, 0.0, 0.0, 1.6635799748873973E9, 0.0, 2022-09-19 14:32:54.887
68.0, 8699.991846083623, -1352.906388390826, -46100.964677448836, -16378.978357193275, -78890.28088930617, -187500.02235174447, -23927.676549872944, -15441.836767415616, 0.534, -0.812, 0.28600000000000003, 192.0, 0.0, 0.0, 0.0, 0.0, 0.0, 0.0, 0.0, 0.0, 0.0, 1.6635799748913715E9, 0.0, 2022-09-19 14:32:54.891
69.0, 8532.510224880007, -1449.6894418823056, -46155.27941647523, -16372.585758279058, -78861.80476687012, -187500.02235174447, -23945.6026489261, -15364.119751944514, 0.53, -0.8160000000000001, 0.28600000000000003, 192.0, 16.0, 144.0, 230.0, 128.0, 8.0, 240.0, 0.0, 0.0, 0.0, 1.663579974895364E9, 0.0, 2022-09-19 14:32:54.895
70.0, 8421.489110170498, -1540.795152282137, -46156.48641067582, -16343.908470142898, -78845.7562143512, -187500.02235174447, -23913.505543888277, -15346.774798247196, 0.53, -0.8160000000000001, 0.28600000000000003, 192.0, 0.0, 0.0, 0.0, 0.0, 0.0, 0.0, 0.0, 0.0, 0.0, 1.6635799748994255E9, 0.0, 2022-09-19 14:32:54.899
71.0, 8463.935072891125, -1530.6474602994276, -46142.58362562462, -16348.602336478512, -78867.54916519513, -187500.02235174447, -23923.87675331554, -15372.680470070896, 0.53, -0.8160000000000001, 0.28600000000000003, 192.0, 0.0, 0.0, 0.0, 0.0, 0.0, 0.0, 0.0, 0.0, 0.0, 1.6635799749024076E9, 0.0, 2022-09-19 14:32:54.902
72.0, 8594.379853532297, -1447.6777848813279, -46110.240651397784, -16360.47111278428, -78882.88246189148, -187500.02235174447, -23921.17219223645, -15384.66100509894, 0.53, -0.8160000000000001, 0.28600000000000003, 192.0, 0.0, 0.0, 0.0, 0.0, 0.0, 0.0, 0.0, 0.0, 0.0, 1.663579974906438E9, 0.0, 2022-09-19 14:32:54.906
73.0, 8714.274610790564, -1348.5925017109516, -46098.84126172558, -16376.184389136362, -78891.84551141805, -187500.02235174447, -23916.29951194519, -15402.497697174276, 0.53, -0.8160000000000001, 0.28600000000000003, 192.0, 0.0, 0.0, 0.0, 0.0, 0.0, 0.0, 0.0, 0.0, 0.0, 1.6635799749114473E9, 0.0, 2022-09-19 14:32:54.911
74.0, 8545.54129189745, -1449.734145371216, -46153.13364900752, -16372.742220490245, -78860.2177930138, -187500.02235174447, -23914.623131111042, -15388.885484800994, 0.53, -0.8160000000000001, 0.28600000000000003, 192.0, 0.0, 0.0, 0.0, 0.0, 0.0, 0.0, 0.0, 0.0, 0.0, 1.663579974915428E9, 0.0, 2022-09-19 14:32:54.915
75.0, 8442.678563914129, -1538.984660981257, -46153.580683896624, -16356.626612737968, -78850.7630051092, -187500.02235174447, -23898.6416338255, -15377.351984662055, 0.53, -0.8160000000000001, 0.28600000000000003, 192.0, 0.0, 0.0, 0.0, 0.0, 0.0, 0.0, 0.0, 0.0, 0.0, 1.663579974919458E9, 0.0, 2022-09-19 14:32:54.919
76.0, 8489.77368948146, -1522.511425317696, -46133.06178248666, -16347.28358355565, -78862.45296745932, -187500.02235174447, -23899.15572394797, -15340.091626655058, 0.53, -0.8160000000000001, 0.28600000000000003, 192.0, 0.0, 0.0, 0.0, 0.0, 0.0, 0.0, 0.0, 0.0, 0.0, 1.6635799749234133E9, 0.0, 2022-09-19 14:32:54.923
77.0, 8604.706359470649, -1450.225883749233, -46106.03852344019, -16350.770455690677, -78879.26147928971, -187500.02235174447, -23895.2888721572, -15381.598816108564, 0.53, -0.8160000000000001, 0.28600000000000003, 192.0, 0.0, 0.0, 0.0, 0.0, 0.0, 0.0, 0.0, 0.0, 0.0, 1.663579974926426E9, 0.0, 2022-09-19 14:32:54.926
78.0, 8722.72357019467, -1345.9773476096807, -46088.1794796204, -16360.337002317548, -78888.82802591659, -187500.02235174447, -23906.084764729116, -15381.554112619653, 0.53, -0.8160000000000001, 0.28600000000000003, 192.0, 0.0, 0.0, 0.0, 0.0, 0.0, 0.0, 0.0, 0.0, 0.0, 1.6635799749304671E9, 0.0, 2022-09-19 14:32:54.930
79.0, 8552.537387911963, -1445.0179272911464, -46145.2434832148, -16353.564423747592, -78859.1672610244, -187500.02235174447, -23926.246038227804, -15361.996336221258, 0.54, -0.8160000000000001, 0.28600000000000003, 192.0, 16.0, 224.0, 230.0, 128.0, 8.0, 240.0, 0.0, 0.0, 0.0, 1.6635799749344788E9, 0.0, 2022-09-19 14:32:54.934
80.0, 8441.315107502354, -1540.7280970487711, -46160.91205607797, -16344.131987587452, -78852.6629033879, -187500.02235174447, -23914.511372388766, -15367.293699657166, 0.54, -0.8160000000000001, 0.28600000000000003, 192.0, 0.0, 0.0, 0.0, 0.0, 0.0, 0.0, 0.0, 0.0, 0.0, 1.663579974939483E9, 0.0, 2022-09-19 14:32:54.939
81.0, 8486.86796270227, -1526.5347393196512, -46134.13466622051, -16344.891946898932, -78858.40730171291, -187500.02235174447, -23896.29470065769, -15339.957516188326, 0.54, -0.8160000000000001, 0.28600000000000003, 192.0, 0.0, 0.0, 0.0, 0.0, 0.0, 0.0, 0.0, 0.0, 0.0, 1.6635799749435215E9, 0.0, 2022-09-19 14:32:54.943
82.0, 8602.98527514759, -1449.5329796711183, -46100.674104770915, -16353.653830725412, -78874.12057806499, -187500.02235174447, -23911.91857003195, -15386.024461510715, 0.54, -0.8160000000000001, 0.28600000000000003, 192.0, 0.0, 0.0, 0.0, 0.0, 0.0, 0.0, 0.0, 0.0, 0.0, 1.6635799749475112E9, 0.0, 2022-09-19 14:32:54.947
83.0, 8714.855756146402, -1350.8500279009377, -46086.346636575065, -16367.198987865328, -78886.72696193779, -187500.02235174447, -23909.21400895286, -15412.511278690254, 0.54, -0.8160000000000001, 0.28600000000000003, 192.0, 0.0, 0.0, 0.0, 0.0, 0.0, 0.0, 0.0, 0.0, 0.0, 1.663579974950493E9, 0.0, 2022-09-19 14:32:54.950
84.0, 8535.483006892564, -1461.9158460993585, -46155.055899030674, -16382.28641537266, -78867.61622042849, -187500.02235174447, -23937.01957905526, -15393.3334819476, 0.54, -0.8160000000000001, 0.28600000000000003, 192.0, 0.0, 0.0, 0.0, 0.0, 0.0, 0.0, 0.0, 0.0, 0.0, 1.663579974954584E9, 0.0, 2022-09-19 14:32:54.954
85.0, 8438.81171212336, -1545.2878529176537, -46166.49999219179, -16354.346734803526, -78859.8154616136, -187500.02235174447, -23939.992361067816, -15352.2733273832, 0.54, -0.8160000000000001, 0.28600000000000003, 192.0, 0.0, 0.0, 0.0, 0.0, 0.0, 0.0, 0.0, 0.0, 0.0, 1.6635799749585829E9, 0.0, 2022-09-19 14:32:54.958
86.0, 8492.612361027284, -1522.8690532289809, -46139.677898845424, -16341.606240464002, -78870.00785708522, -187500.02235174447, -23905.570674606643, -15357.838911752573, 0.54, -0.8160000000000001, 0.28600000000000003, 192.0, 0.0, 0.0, 0.0, 0.0, 0.0, 0.0, 0.0, 0.0, 0.0, 1.663579974962572E9, 0.0, 2022-09-19 14:32:54.962
87.0, 8613.200022363666, -1440.636985377906, -46101.098787915565, -16339.929859629854, -78886.83872066006, -187500.02235174447, -23878.30154637117, -15380.838856797083, 0.54, -0.8160000000000001, 0.28600000000000003, 192.0, 0.0, 0.0, 0.0, 0.0, 0.0, 0.0, 0.0, 0.0, 0.0, 1.663579974967517E9, 0.0, 2022-09-19 14:32:54.967
88.0, 8723.595288228427, -1338.1095335614127, -46095.55555529065, -16362.795694207633, -78905.48007553579, -187500.02235174447, -23915.4948491448, -15404.062319286148, 0.54, -0.8160000000000001, 0.28600000000000003, 192.0, 0.0, 0.0, 0.0, 0.0, 0.0, 0.0, 0.0, 0.0, 0.0, 1.663579974971582E9, 0.0, 2022-09-19 14:32:54.971
89.0, 8554.191417001655, -1437.3065754540653, -46151.68078561792, -16345.271926554673, -78866.87861286147, -187500.02235174447, -23931.20812549688, -15370.355888647544, 0.534, -0.8160000000000001, 0.28400000000000003, 192.0, 16.0, 176.0, 230.0, 128.0, 8.0, 224.0, 0.0, 0.0, 0.0, 1.6635799749755225E9, 0.0, 2022-09-19 14:32:54.975
90.0, 8454.748505919993, -1527.6746782868718, -46153.871256574545, -16332.687894426334, -78854.62985689996, -187500.02235174447, -23902.4414303829, -15392.059432513648, 0.534, -0.8160000000000001, 0.28400000000000003, 192.0, 0.0, 0.0, 0.0, 0.0, 0.0, 0.0, 0.0, 0.0, 0.0, 1.6635799749785411E9, 0.0, 2022-09-19 14:32:54.978
91.0, 8503.274143132467, -1507.4463495548189, -46136.258081943764, -16339.907507885398, -78873.07004607559, -187500.02235174447, -23909.124601975036, -15348.250013381245, 0.534, -0.8160000000000001, 0.28400000000000003, 192.0, 0.0, 0.0, 0.0, 0.0, 0.0, 0.0, 0.0, 0.0, 0.0, 1.6635799749825165E9, 0.0, 2022-09-19 14:32:54.982
92.0, 8614.362313075342, -1430.869273050937, -46108.8324914971, -16341.002743363708, -78891.1749590844, -187500.02235174447, -23893.858360512062, -15380.145952718969, 0.534, -0.8160000000000001, 0.28400000000000003, 192.0, 0.0, 0.0, 0.0, 0.0, 0.0, 0.0, 0.0, 0.0, 0.0, 1.6635799749886403E9, 0.0, 2022-09-19 14:32:54.988
93.0, 8712.15119506731, -1336.1872835382562, -46105.0326949397, -16357.565386005092, -78909.74925872675, -187500.02235174447, -23924.100270760093, -15415.90874384746, 0.534, -0.8160000000000001, 0.28400000000000003, 192.0, 0.0, 0.0, 0.0, 0.0, 0.0, 0.0, 0.0, 0.0, 0.0, 1.663579974991582E9, 0.0, 2022-09-19 14:32:54.991
94.0, 8529.44803588963, -1441.441648178297, -46169.51747769326, -16360.113484872996, -78886.19052007086, -187500.02235174447, -23955.951506608904, -15399.390804694987, 0.534, -0.8160000000000001, 0.28400000000000003, 192.0, 0.0, 0.0, 0.0, 0.0, 0.0, 0.0, 0.0, 0.0, 0.0, 1.66357997499635E9, 0.0, 2022-09-19 14:32:54.996
95.0, 8436.420075466642, -1523.316088118087, -46169.20455327089, -16337.8064439066, -78869.02438032918, -187500.02235174447, -23909.281064186223, -15349.41230409292, 0.534, -0.8160000000000001, 0.28400000000000003, 192.0, 0.0, 0.0, 0.0, 0.0, 0.0, 0.0, 0.0, 0.0, 0.0, 1.6635799749995887E9, 0.0, 2022-09-19 14:32:54.999
96.0, 8490.48894530403, -1504.3841605644418, -46141.42133491294, -16337.582926462046, -78873.00299084223, -187500.02235174447, -23900.429773381922, -15363.09157169957, 0.534, -0.8160000000000001, 0.28400000000000003, 192.0, 0.0, 0.0, 0.0, 0.0, 0.0, 0.0, 0.0, 0.0, 0.0, 1.6635799750036137E9, 0.0, 2022-09-19 14:32:55.003
97.0, 8613.222374108122, -1426.130703226412, -46109.50304383076, -16330.653885680902, -78889.34211603906, -187500.02235174447, -23912.477363643335, -15395.792173837683, 0.534, -0.8160000000000001, 0.28400000000000003, 192.0, 0.0, 0.0, 0.0, 0.0, 0.0, 0.0, 0.0, 0.0, 0.0, 1.6635799750066235E9, 0.0, 2022-09-19 14:32:55.006
98.0, 8715.548660224516, -1339.2941760175438, -46103.825700739115, -16341.829757908556, -78906.12827612499, -187500.02235174447, -23915.383090422525, -15400.776612851218, 0.534, -0.8160000000000001, 0.28400000000000003, 192.0, 0.0, 0.0, 0.0, 0.0, 0.0, 0.0, 0.0, 0.0, 0.0, 1.663579975010598E9, 0.0, 2022-09-19 14:32:55.010
99.0, 8535.393599914742, -1446.8507703364814, -46165.24829450229, -16343.126159086964, -78880.84845314604, -187500.02235174447, -23942.92043959146, -15369.551225847154, 0.53, -0.812, 0.28, 192.0, 16.0, 144.0, 230.0, 160.0, 8.0, 192.0, 0.0, 0.0, 0.0, 1.6635799750146253E9, 0.0, 2022-09-19 14:32:55.014
100.0, 8441.00218307998, -1524.6571927854054, -46160.82264910015, -16331.972638603764, -78864.79990062713, -187500.02235174447, -23910.085726986617, -15355.80490300714, 0.53, -0.812, 0.28, 192.0, 0.0, 0.0, 0.0, 0.0, 0.0, 0.0, 0.0, 0.0, 0.0, 1.6635799750186872E9, 0.0, 2022-09-19 14:32:55.018
101.0, 8485.191581868123, -1512.6543060129054, -46134.26877668724, -16331.65971418139, -78877.45098798884, -187500.02235174447, -23892.070220955637, -15379.542455618675, 0.53, -0.812, 0.28, 192.0, 0.0, 0.0, 0.0, 0.0, 0.0, 0.0, 0.0, 0.0, 0.0, 1.6635799750226357E9, 0.0, 2022-09-19 14:32:55.022
102.0, 8606.852126938358, -1431.673935851328, -46105.703247273355, -16338.342885773527, -78893.05250561865, -187500.02235174447, -23904.855418784075, -15417.562772937152, 0.53, -0.812, 0.28, 192.0, 0.0, 0.0, 0.0, 0.0, 0.0, 0.0, 0.0, 0.0, 0.0, 1.663579975027618E9, 0.0, 2022-09-19 14:32:55.027
103.0, 8714.073445090467, -1334.1532747928234, -46099.333000103594, -16361.43223779586, -78907.6258430035, -187500.02235174447, -23916.344215434103, -15409.180868766412, 0.53, -0.812, 0.28, 192.0, 0.0, 0.0, 0.0, 0.0, 0.0, 0.0, 0.0, 0.0, 0.0, 1.663579975031627E9, 0.0, 2022-09-19 14:32:55.031
104.0, 8535.639469103751, -1439.0947150104898, -46158.65452988798, -16350.681048712857, -78876.3110490216, -187500.02235174447, -23925.30726496068, -15362.711592043828, 0.53, -0.812, 0.28, 192.0, 0.0, 0.0, 0.0, 0.0, 0.0, 0.0, 0.0, 0.0, 0.0, 1.663579975034681E9, 0.0, 2022-09-19 14:32:55.034
105.0, 8435.86128185526, -1529.373410865475, -46167.55052418119, -16336.398284005916, -78873.7629501537, -187500.02235174447, -23916.29951194519, -15377.083763728591, 0.53, -0.812, 0.28, 192.0, 0.0, 0.0, 0.0, 0.0, 0.0, 0.0, 0.0, 0.0, 0.0, 1.6635799750386877E9, 0.0, 2022-09-19 14:32:55.038
106.0, 8485.683320246138, -1514.2412798692324, -46145.0423175147, -16342.030923608652, -78890.30324105064, -187500.02235174447, -23914.489020644312, -15394.384013936999, 0.53, -0.812, 0.28, 192.0, 0.0, 0.0, 0.0, 0.0, 0.0, 0.0, 0.0, 0.0, 0.0, 1.663579975042674E9, 0.0, 2022-09-19 14:32:55.042
107.0, 8608.953190917158, -1433.0373922631018, -46110.26300314224, -16342.656772453402, -78909.07870639309, -187500.02235174447, -23922.26742771476, -15393.825220325616, 0.53, -0.812, 0.28, 192.0, 0.0, 0.0, 0.0, 0.0, 0.0, 0.0, 0.0, 0.0, 0.0, 1.6635799750466375E9, 0.0, 2022-09-19 14:32:55.046
108.0, 8713.112320078888, -1338.9812515951696, -46099.154186147956, -16354.860824926, -78920.00870943174, -187500.02235174447, -23916.232456711827, -15412.511278690254, 0.53, -0.812, 0.28, 192.0, 0.0, 0.0, 0.0, 0.0, 0.0, 0.0, 0.0, 0.0, 0.0, 1.6635799750507865E9, 0.0, 2022-09-19 14:32:55.050
109.0, 8535.348896425832, -1445.800238347082, -46155.212361241865, -16345.137816087941, -78886.1681683264, -187500.02235174447, -23927.251866728293, -15368.120714202014, 0.532, -0.804, 0.28200000000000003, 192.0, 16.0, 160.0, 230.0, 224.0, 8.0, 208.0, 0.0, 0.0, 0.0, 1.6635799750556948E9, 0.0, 2022-09-19 14:32:55.055
110.0, 8446.165436049156, -1524.8136549965925, -46156.397003697995, -16336.085359583542, -78871.37131349699, -187500.02235174447, -23921.64157887001, -15341.70095225584, 0.532, -0.804, 0.28200000000000003, 192.0, 0.0, 0.0, 0.0, 0.0, 0.0, 0.0, 0.0, 0.0, 0.0, 1.663579975059668E9, 0.0, 2022-09-19 14:32:55.059
111.0, 8493.126451149756, -1505.926430931858, -46134.96168076536, -16340.242784052229, -78880.73669442376, -187500.02235174447, -23920.658102113975, -15365.192635678368, 0.532, -0.804, 0.28200000000000003, 192.0, 0.0, 0.0, 0.0, 0.0, 0.0, 0.0, 0.0, 0.0, 0.0, 1.6635799750627198E9, 0.0, 2022-09-19 14:32:55.062
112.0, 8616.329266587409, -1423.448493891775, -46098.304819858655, -16335.146586316418, -78898.99806964376, -187500.02235174447, -23899.15572394797, -15397.915589560938, 0.532, -0.804, 0.28200000000000003, 192.0, 0.0, 0.0, 0.0, 0.0, 0.0, 0.0, 0.0, 0.0, 0.0, 1.6635799750667243E9, 0.0, 2022-09-19 14:32:55.066
113.0, 8718.879070148358, -1334.354440492921, -46091.733406988795, -16351.798635935622, -78917.50531405275, -187500.02235174447, -23929.21882024036, -15414.366473480044, 0.532, -0.804, 0.28200000000000003, 192.0, 0.0, 0.0, 0.0, 0.0, 0.0, 0.0, 0.0, 0.0, 0.0, 1.6635799750707226E9, 0.0, 2022-09-19 14:32:55.070
114.0, 8539.953355783624, -1444.8167615910486, -46151.36786119555, -16356.04546738213, -78896.62878473148, -187500.02235174447, -23952.82226238516, -15395.054566270659, 0.532, -0.804, 0.28200000000000003, 192.0, 0.0, 0.0, 0.0, 0.0, 0.0, 0.0, 0.0, 0.0, 0.0, 1.6635799750747418E9, 0.0, 2022-09-19 14:32:55.074
115.0, 8451.686316929618, -1524.9701172077796, -46157.872218832046, -16333.000818848708, -78887.66573520491, -187500.02235174447, -23950.58708793963, -15393.266426714234, 0.532, -0.804, 0.28200000000000003, 192.0, 0.0, 0.0, 0.0, 0.0, 0.0, 0.0, 0.0, 0.0, 0.0, 1.663579975078746E9, 0.0, 2022-09-19 14:32:55.078
116.0, 8497.619151785273, -1507.602811766006, -46132.39123015299, -16333.04552233762, -78894.3712585415, -187500.02235174447, -23915.696014844896, -15407.169211765435, 0.532, -0.804, 0.28200000000000003, 192.0, 0.0, 0.0, 0.0, 0.0, 0.0, 0.0, 0.0, 0.0, 0.0, 1.6635799750837448E9, 0.0, 2022-09-19 14:32:55.083
117.0, 8621.1348916453, -1421.9956305021801, -46093.56625003413, -16328.642228679924, -78910.86684594952, -187500.02235174447, -23898.01578498075, -15391.2324179688, 0.532, -0.804, 0.28200000000000003, 192.0, 0.0, 0.0, 0.0, 0.0, 0.0, 0.0, 0.0, 0.0, 0.0, 1.6635799750877552E9, 0.0, 2022-09-19 14:32:55.087
118.0, 8716.353323024909, -1330.6664026577953, -46091.62164826652, -16344.959002132298, -78925.99897694576, -187500.02235174447, -23924.189677737915, -15376.726135817307, 0.532, -0.804, 0.28200000000000003, 192.0, 0.0, 0.0, 0.0, 0.0, 0.0, 0.0, 0.0, 0.0, 0.0, 1.6635799750908859E9, 0.0, 2022-09-19 14:32:55.090
119.0, 8531.459692890608, -1438.8264940770262, -46155.815858342154, -16347.305935300104, -78901.32265106711, -187500.02235174447, -23941.825204113153, -15371.004089236749, 0.53, -0.81, 0.28600000000000003, 192.0, 16.0, 144.0, 230.0, 176.0, 8.0, 240.0, 0.0, 0.0, 0.0, 1.663579975094704E9, 0.0, 2022-09-19 14:32:55.094
120.0, 8438.38702897871, -1514.7777217361597, -46160.04033804421, -16330.318609514072, -78894.84064517506, -187500.02235174447, -23920.3451776916, -15382.381127164499, 0.53, -0.81, 0.28600000000000003, 192.0, 0.0, 0.0, 0.0, 0.0, 0.0, 0.0, 0.0, 0.0, 0.0, 1.6635799750987632E9, 0.0, 2022-09-19 14:32:55.098
121.0, 8483.179924867145, -1496.471643027263, -46141.2425209573, -16321.288504754128, -78902.64140398997, -187500.02235174447, -23935.454956943388, -15374.155685204947, 0.53, -0.81, 0.28600000000000003, 192.0, 0.0, 0.0, 0.0, 0.0, 0.0, 0.0, 0.0, 0.0, 0.0, 1.663579975102785E9, 0.0, 2022-09-19 14:32:55.102
122.0, 8615.32343808692, -1407.064665206035, -46097.947191947365, -16326.742330401223, -78912.63263376149, -187500.02235174447, -23895.557093090665, -15374.021574738215, 0.53, -0.81, 0.28600000000000003, 192.0, 0.0, 0.0, 0.0, 0.0, 0.0, 0.0, 0.0, 0.0, 0.0, 1.6635799751067352E9, 0.0, 2022-09-19 14:32:55.106
123.0, 8706.38444499784, -1319.8481583414268, -46091.21931686632, -16346.52362424417, -78919.13699139799, -187500.02235174447, -23916.45597415638, -15397.870886072027, 0.53, -0.81, 0.28600000000000003, 192.0, 0.0, 0.0, 0.0, 0.0, 0.0, 0.0, 0.0, 0.0, 0.0, 1.66357997511088E9, 0.0, 2022-09-19 14:32:55.110
124.0, 8521.714332308095, -1432.2103777182554, -46153.0442420297, -16356.246633082228, -78890.07972360608, -187500.02235174447, -23949.849480372606, -15382.783458564694, 0.53, -0.81, 0.28600000000000003, 192.0, 0.0, 0.0, 0.0, 0.0, 0.0, 0.0, 0.0, 0.0, 0.0, 1.6635799751148596E9, 0.0, 2022-09-19 14:32:55.114
125.0, 8439.370505734743, -1509.502710044707, -46146.20460822638, -16325.04359782262, -78878.83679614506, -187500.02235174447, -23905.950654262382, -15355.626089051497, 0.53, -0.81, 0.28600000000000003, 192.0, 0.0, 0.0, 0.0, 0.0, 0.0, 0.0, 0.0, 0.0, 0.0, 1.6635799751178408E9, 0.0, 2022-09-19 14:32:55.117
126.0, 8492.120622649267, -1486.5251167446515, -46121.95296549237, -16323.836603622032, -78889.83385441707, -187500.02235174447, -23899.35688964807, -15383.074031242613, 0.53, -0.81, 0.28600000000000003, 192.0, 0.0, 0.0, 0.0, 0.0, 0.0, 0.0, 0.0, 0.0, 0.0, 1.6635799751227925E9, 0.0, 2022-09-19 14:32:55.122
127.0, 8614.831699708904, -1402.8848889928925, -46088.98414242079, -16327.658751923891, -78909.9727761713, -187500.02235174447, -23896.67468031343, -15396.99916803827, 0.53, -0.81, 0.28600000000000003, 192.0, 0.0, 0.0, 0.0, 0.0, 0.0, 0.0, 0.0, 0.0, 0.0, 1.6635799751269028E9, 0.0, 2022-09-19 14:32:55.126
128.0, 8706.071520575468, -1320.9210420752815, -46091.241668610775, -16341.114502085986, -78928.34591011357, -187500.02235174447, -23922.960331792874, -15387.52202838922, 0.53, -0.81, 0.28600000000000003, 192.0, 0.0, 0.0, 0.0, 0.0, 0.0, 0.0, 0.0, 0.0, 0.0, 1.6635799751308208E9, 0.0, 2022-09-19 14:32:55.130
129.0, 8526.810530043904, -1433.931462041314, -46155.65939613097, -16335.571269461068, -78903.31195632363, -187500.02235174447, -23952.554041451698, -15360.632879809486, 0.534, -0.81, 0.28800000000000003, 192.0, 16.0, 176.0, 230.0, 176.0, 9.0, 0.0, 0.0, 0.0, 0.0, 1.6635799751347964E9, 0.0, 2022-09-19 14:32:55.134
130.0, 8442.253880769478, -1512.9895821797352, -46160.77794561123, -16318.673350652856, -78898.70749696583, -187500.02235174447, -23913.930227032928, -15359.962327475827, 0.534, -0.81, 0.28800000000000003, 192.0, 0.0, 0.0, 0.0, 0.0, 0.0, 0.0, 0.0, 0.0, 0.0, 1.663579975139917E9, 0.0, 2022-09-19 14:32:55.139
131.0, 8489.103137147802, -1496.2481255827101, -46136.50395113277, -16324.909487355888, -78907.71524998132, -187500.02235174447, -23906.464744384855, -15364.767952533717, 0.534, -0.81, 0.28800000000000003, 192.0, 0.0, 0.0, 0.0, 0.0, 0.0, 0.0, 0.0, 0.0, 0.0, 1.663579975142888E9, 0.0, 2022-09-19 14:32:55.142
132.0, 8615.099920642368, -1414.1725199428226, -46104.92093621742, -16339.996914863219, -78927.89887522446, -187500.02235174447, -23920.523991647246, -15410.276104244722, 0.534, -0.81, 0.28800000000000003, 192.0, 0.0, 0.0, 0.0, 0.0, 0.0, 0.0, 0.0, 0.0, 0.0, 1.663579975145821E9, 0.0, 2022-09-19 14:32:55.145
133.0, 8708.261991532087, -1328.610042167907, -46095.30968610164, -16351.932746402354, -78935.56552357263, -187500.02235174447, -23912.834991554617, -15399.055528528159, 0.534, -0.81, 0.28800000000000003, 192.0, 0.0, 0.0, 0.0, 0.0, 0.0, 0.0, 0.0, 0.0, 0.0, 1.663579975150854E9, 0.0, 2022-09-19 14:32:55.150
134.0, 8530.677381834672, -1435.965470786747, -46149.669128616944, -16346.18834807734, -78905.83770344708, -187500.02235174447, -23938.74066337832, -15376.793191050672, 0.534, -0.81, 0.28800000000000003, 192.0, 0.0, 0.0, 0.0, 0.0, 0.0, 0.0, 0.0, 0.0, 0.0, 1.663579975154884E9, 0.0, 2022-09-19 14:32:55.154
135.0, 8447.238319783011, -1513.2130996242881, -46154.20653274137, -16337.292353784127, -78902.55199701214, -187500.02235174447, -23914.15374447748, -15344.383161590476, 0.534, -0.81, 0.28800000000000003, 192.0, 0.0, 0.0, 0.0, 0.0, 0.0, 0.0, 0.0, 0.0, 0.0, 1.6635799751589067E9, 0.0, 2022-09-19 14:32:55.158
136.0, 8493.998169183513, -1496.0469598826123, -46128.94906150688, -16323.635437921936, -78906.88823543648, -187500.02235174447, -23898.6416338255, -15368.14306594647, 0.534, -0.81, 0.28800000000000003, 192.0, 0.0, 0.0, 0.0, 0.0, 0.0, 0.0, 0.0, 0.0, 0.0, 1.6635799751628773E9, 0.0, 2022-09-19 14:32:55.162
137.0, 8616.843356709882, -1415.580679843507, -46093.968581434325, -16335.213641549784, -78921.70744201035, -187500.02235174447, -23904.810715295163, -15385.979758021804, 0.534, -0.81, 0.28800000000000003, 192.0, 0.0, 0.0, 0.0, 0.0, 0.0, 0.0, 0.0, 0.0, 0.0, 1.6635799751668763E9, 0.0, 2022-09-19 14:32:55.166
138.0, 8702.338779251431, -1333.54977769253, -46090.392302321474, -16344.847243410022, -78925.88721822348, -187500.02235174447, -23936.3490267216, -15395.076918015113, 0.534, -0.81, 0.28800000000000003, 192.0, 0.0, 0.0, 0.0, 0.0, 0.0, 0.0, 0.0, 0.0, 0.0, 1.6635799751708763E9, 0.0, 2022-09-19 14:32:55.170
139.0, 8519.345047395831, -1440.8381510780039, -46145.80227682618, -16330.497423469715, -78894.19244458586, -187500.02235174447, -23931.92338131945, -15336.291830097656, 0.538, -0.81, 0.28400000000000003, 192.0, 16.0, 208.0, 230.0, 176.0, 8.0, 224.0, 0.0, 0.0, 0.0, 1.6635799751739097E9, 0.0, 2022-09-19 14:32:55.173
140.0, 8435.727171388527, -1515.7611984921932, -46147.165733237955, -16310.492612182214, -78885.7658369262, -187500.02235174447, -23907.247055440792, -15335.733036486274, 0.538, -0.81, 0.28400000000000003, 192.0, 0.0, 0.0, 0.0, 0.0, 0.0, 0.0, 0.0, 0.0, 0.0, 1.663579975178848E9, 0.0, 2022-09-19 14:32:55.178
141.0, 8484.901009190204, -1496.1363668604336, -46125.19396843838, -16318.114557041474, -78897.00876438722, -187500.02235174447, -23902.48613387181, -15368.65715606894, 0.538, -0.81, 0.28400000000000003, 192.0, 0.0, 0.0, 0.0, 0.0, 0.0, 0.0, 0.0, 0.0, 0.0, 1.6635799751828942E9, 0.0, 2022-09-19 14:32:55.182
142.0, 8617.17863287671, -1409.389246629387, -46085.20669760784, -16330.720940914267, -78917.50531405275, -187500.02235174447, -23895.4900378573, -15411.661912400952, 0.538, -0.81, 0.28400000000000003, 192.0, 0.0, 0.0, 0.0, 0.0, 0.0, 0.0, 0.0, 0.0, 0.0, 1.6635799751869342E9, 0.0, 2022-09-19 14:32:55.186
143.0, 8703.456366474196, -1331.2475480136334, -46084.960828418836, -16341.785054419644, -78934.89497123897, -187500.02235174447, -23913.706709588376, -15388.66196735644, 0.538, -0.81, 0.28400000000000003, 192.0, 0.0, 0.0, 0.0, 0.0, 0.0, 0.0, 0.0, 0.0, 0.0, 1.6635799751909668E9, 0.0, 2022-09-19 14:32:55.190
144.0, 8517.847480517326, -1449.7117936267607, -46154.38534669702, -16341.740350930733, -78916.56654078561, -187500.02235174447, -23938.427738955947, -15358.867091997516, 0.538, -0.81, 0.28400000000000003, 192.0, 0.0, 0.0, 0.0, 0.0, 0.0, 0.0, 0.0, 0.0, 0.0, 1.66357997519594E9, 0.0, 2022-09-19 14:32:55.195
145.0, 8438.901119101181, -1527.2276433977656, -46156.50876242027, -16348.624688222968, -78914.19725587335, -187500.02235174447, -23920.97102653635, -15406.208086753857, 0.538, -0.81, 0.28400000000000003, 192.0, 0.0, 0.0, 0.0, 0.0, 0.0, 0.0, 0.0, 0.0, 0.0, 1.6635799751989577E9, 0.0, 2022-09-19 14:32:55.198
146.0, 8486.48798304653, -1508.2733640996653, -46135.140494720996, -16336.219470050273, -78922.5344565552, -187500.02235174447, -23916.724195089842, -15391.612397624542, 0.538, -0.81, 0.28400000000000003, 192.0, 0.0, 0.0, 0.0, 0.0, 0.0, 0.0, 0.0, 0.0, 0.0, 1.6635799752019408E9, 0.0, 2022-09-19 14:32:55.201
147.0, 8606.51685077153, -1422.6214793469287, -46104.518604817225, -16336.688856683835, -78933.3303491271, -187500.02235174447, -23936.97487556635, -15381.330595175099, 0.538, -0.81, 0.28400000000000003, 192.0, 0.0, 0.0, 0.0, 0.0, 0.0, 0.0, 0.0, 0.0, 0.0, 1.66357997520698E9, 0.0, 2022-09-19 14:32:55.206
148.0, 8690.805279112492, -1341.641109185351, -46094.90735470145, -16341.449778252814, -78931.51985782622, -187500.02235174447, -23927.34127370611, -15378.626034096007, 0.538, -0.81, 0.28400000000000003, 192.0, 0.0, 0.0, 0.0, 0.0, 0.0, 0.0, 0.0, 0.0, 0.0, 1.6635799752109454E9, 0.0, 2022-09-19 14:32:55.210
149.0, 8517.646314817228, -1448.1024680259786, -46139.834361056615, -16321.154394287396, -78896.82995043158, -187500.02235174447, -23907.15764846297, -15348.808806992629, 0.534, -0.8140000000000001, 0.28200000000000003, 192.0, 16.0, 176.0, 230.0, 144.0, 8.0, 208.0, 0.0, 0.0, 0.0, 1.6635799752149541E9, 0.0, 2022-09-19 14:32:55.214
150.0, 8439.437560968108, -1519.1810153938552, -46139.94611977889, -16322.316684999072, -78895.71236320882, -187500.02235174447, -23900.429773381922, -15330.882707939472, 0.534, -0.8140000000000001, 0.28200000000000003, 192.0, 0.0, 0.0, 0.0, 0.0, 0.0, 0.0, 0.0, 0.0, 0.0, 1.6635799752190855E9, 0.0, 2022-09-19 14:32:55.219
151.0, 8477.81550619787, -1506.3064105875983, -46126.98210799481, -16331.7044176703, -78909.23516860428, -187500.02235174447, -23907.671738585443, -15362.04103971017, 0.534, -0.8140000000000001, 0.28200000000000003, 192.0, 0.0, 0.0, 0.0, 0.0, 0.0, 0.0, 0.0, 0.0, 0.0, 1.6635799752230523E9, 0.0, 2022-09-19 14:32:55.223
152.0, 8600.928914657703, -1425.0578194925572, -46098.371875092016, -16330.60918219199, -78928.12239266901, -187500.02235174447, -23916.970064278852, -15385.823295810616, 0.534, -0.8140000000000001, 0.28200000000000003, 192.0, 0.0, 0.0, 0.0, 0.0, 0.0, 0.0, 0.0, 0.0, 0.0, 1.6635799752270107E9, 0.0, 2022-09-19 14:32:55.227
153.0, 8685.86554358787, -1347.3408040214545, -46097.70132275836, -16346.054237610608, -78940.72877654182, -187500.02235174447, -23931.811622597175, -15391.411231924443, 0.534, -0.8140000000000001, 0.28200000000000003, 192.0, 0.0, 0.0, 0.0, 0.0, 0.0, 0.0, 0.0, 0.0, 0.0, 1.6635799752299268E9, 0.0, 2022-09-19 14:32:55.229
154.0, 8510.605515313806, -1457.8031251195819, -46153.93831180791, -16335.28069678315, -78910.4198110604, -187500.02235174447, -23945.714407648375, -15352.809769250129, 0.534, -0.8140000000000001, 0.28200000000000003, 192.0, 0.0, 0.0, 0.0, 0.0, 0.0, 0.0, 0.0, 0.0, 0.0, 1.6635799752340806E9, 0.0, 2022-09-19 14:32:55.234
155.0, 8445.181959293122, -1526.1100561750004, -46148.70800360537, -16325.04359782262, -78902.26142433423, -187500.02235174447, -23915.718366589354, -15327.574649760087, 0.534, -0.8140000000000001, 0.28200000000000003, 192.0, 0.0, 0.0, 0.0, 0.0, 0.0, 0.0, 0.0, 0.0, 0.0, 1.6635799752389991E9, 0.0, 2022-09-19 14:32:55.238
156.0, 8498.78144249695, -1503.9818291642464, -46124.76928529373, -16327.144661801418, -78909.95042442685, -187500.02235174447, -23905.10128797308, -15354.732019273284, 0.534, -0.8140000000000001, 0.28200000000000003, 192.0, 0.0, 0.0, 0.0, 0.0, 0.0, 0.0, 0.0, 0.0, 0.0, 1.663579975242992E9, 0.0, 2022-09-19 14:32:55.242
157.0, 8627.102807414867, -1418.799331045071, -46094.19209887888, -16341.114502085986, -78930.11169792553, -187500.02235174447, -23905.011880995262, -15404.95638906436, 0.534, -0.8140000000000001, 0.28200000000000003, 192.0, 0.0, 0.0, 0.0, 0.0, 0.0, 0.0, 0.0, 0.0, 0.0, 1.66357997524704E9, 0.0, 2022-09-19 14:32:55.247
158.0, 8706.987942098134, -1341.5964056964406, -46093.2309738673, -16346.747141688722, -78941.26521840873, -187500.02235174447, -23923.63088412653, -15397.557961649652, 0.534, -0.8140000000000001, 0.28200000000000003, 192.0, 0.0, 0.0, 0.0, 0.0, 0.0, 0.0, 0.0, 0.0, 0.0, 1.6635799752510507E9, 0.0, 2022-09-19 14:32:55.251
159.0, 8526.072922476878, -1453.511590184163, -46155.74880310879, -16340.734522430244, -78919.13699139799, -187500.02235174447, -23944.730930892343, -15369.439467124877, 0.53, -0.8160000000000001, 0.28600000000000003, 192.0, 16.0, 144.0, 230.0, 128.0, 8.0, 240.0, 0.0, 0.0, 0.0, 1.6635799752550228E9, 0.0, 2022-09-19 14:32:55.255
160.0, 8454.927319875636, -1516.2976403591206, -46152.396041440494, -16320.215621020274, -78906.03886914717, -187500.02235174447, -23919.853439313585, -15342.505615056232, 0.53, -0.8160000000000001, 0.28600000000000003, 192.0, 0.0, 0.0, 0.0, 0.0, 0.0, 0.0, 0.0, 0.0, 0.0, 1.6635799752580266E9, 0.0, 2022-09-19 14:32:55.258
161.0, 8505.643428044728, -1498.3491895615089, -46127.22797718382, -16317.600466919002, -78910.44216280487, -187500.02235174447, -23921.373357936547, -15359.381182119989, 0.53, -0.8160000000000001, 0.28600000000000003, 192.0, 0.0, 0.0, 0.0, 0.0, 0.0, 0.0, 0.0, 0.0, 0.0, 1.6635799752620826E9, 0.0, 2022-09-19 14:32:55.262
162.0, 8633.696572029183, -1415.4242176323198, -46094.236802367785, -16337.761740417689, -78930.84930549256, -187500.02235174447, -23921.954503292385, -15427.285781775212, 0.53, -0.8160000000000001, 0.28600000000000003, 192.0, 0.0, 0.0, 0.0, 0.0, 0.0, 0.0, 0.0, 0.0, 0.0, 1.663579975267054E9, 0.0, 2022-09-19 14:32:55.267
163.0, 8707.546735709517, -1340.9258533627813, -46092.35925583354, -16340.287487541138, -78939.11945094103, -187500.02235174447, -23919.205238724382, -15374.89329277197, 0.53, -0.8160000000000001, 0.28600000000000003, 192.0, 0.0, 0.0, 0.0, 0.0, 0.0, 0.0, 0.0, 0.0, 0.0, 1.6635799752710316E9, 0.0, 2022-09-19 14:32:55.271
164.0, 8525.961163754602, -1454.2939012400986, -46146.383422182014, -16320.237972764728, -78906.93293892538, -187500.02235174447, -23933.286837731226, -15345.724266257796, 0.53, -0.8160000000000001, 0.28600000000000003, 192.0, 0.0, 0.0, 0.0, 0.0, 0.0, 0.0, 0.0, 0.0, 0.0, 1.66357997527512E9, 0.0, 2022-09-19 14:32:55.275
165.0, 8457.587177465819, -1521.282079372654, -46147.232788471316, -16317.84633610801, -78901.36735455602, -187500.02235174447, -23931.610456897077, -15360.811693765128, 0.53, -0.8160000000000001, 0.28600000000000003, 192.0, 0.0, 0.0, 0.0, 0.0, 0.0, 0.0, 0.0, 0.0, 0.0, 1.6635799752780857E9, 0.0, 2022-09-19 14:32:55.278
166.0, 8498.602628541306, -1503.0654076415788, -46128.904358017964, -16321.512022198682, -78915.33719484058, -187500.02235174447, -23923.228552726338, -15365.214987422823, 0.53, -0.8160000000000001, 0.28600000000000003, 192.0, 0.0, 0.0, 0.0, 0.0, 0.0, 0.0, 0.0, 0.0, 0.0, 1.6635799752820768E9, 0.0, 2022-09-19 14:32:55.282
167.0, 8629.874423727326, -1413.904299009359, -46085.96665691932, -16332.531432215148, -78928.65883453595, -187500.02235174447, -23886.839912753097, -15380.257711441245, 0.53, -0.8160000000000001, 0.28600000000000003, 192.0, 0.0, 0.0, 0.0, 0.0, 0.0, 0.0, 0.0, 0.0, 0.0, 1.6635799752860832E9, 0.0, 2022-09-19 14:32:55.286
168.0, 8706.809128142491, -1340.4117632403093, -46088.35829357604, -16361.298127329128, -78940.25938990824, -187500.02235174447, -23910.26454094226, -15401.514220418243, 0.53, -0.8160000000000001, 0.28600000000000003, 192.0, 0.0, 0.0, 0.0, 0.0, 0.0, 0.0, 0.0, 0.0, 0.0, 1.6635799752900717E9, 0.0, 2022-09-19 14:32:55.290
169.0, 8512.863041503793, -1462.6758054108388, -46156.262893231265, -16334.498385727215, -78916.18656112989, -187500.02235174447, -23930.761090607775, -15370.221778180812, 0.532, -0.8160000000000001, 0.28800000000000003, 192.0, 16.0, 160.0, 230.0, 128.0, 9.0, 0.0, 0.0, 0.0, 0.0, 1.6635799752951112E9, 0.0, 2022-09-19 14:32:55.295
170.0, 8447.551244205386, -1522.533777062151, -46148.350375694085, -16321.601429176502, -78905.70359298034, -187500.02235174447, -23903.715479816852, -15350.820463993607, 0.532, -0.8160000000000001, 0.28800000000000003, 192.0, 0.0, 0.0, 0.0, 0.0, 0.0, 0.0, 0.0, 0.0, 0.0, 1.6635799752991028E9, 0.0, 2022-09-19 14:32:55.299
171.0, 8500.502526820008, -1503.3336285750424, -46127.27268067273, -16324.864783866977, -78913.48200005079, -187500.02235174447, -23906.35298566258, -15366.08670545658, 0.532, -0.8160000000000001, 0.28800000000000003, 192.0, 0.0, 0.0, 0.0, 0.0, 0.0, 0.0, 0.0, 0.0, 0.0, 1.6635799753031392E9, 0.0, 2022-09-19 14:32:55.303
172.0, 8632.601336550873, -1413.9937059871802, -46092.96275293383, -16326.049426323108, -78932.52568632671, -187500.02235174447, -23897.72521230283, -15367.114885701525, 0.532, -0.8160000000000001, 0.28800000000000003, 192.0, 0.0, 0.0, 0.0, 0.0, 0.0, 0.0, 0.0, 0.0, 0.0, 1.6635799753061385E9, 0.0, 2022-09-19 14:32:55.306
173.0, 8697.600209426906, -1345.7314784206724, -46088.6265145095, -16337.873499139965, -78936.68311079539, -187500.02235174447, -23921.485116658823, -15381.71057483084, 0.532, -0.8160000000000001, 0.28800000000000003, 192.0, 0.0, 0.0, 0.0, 0.0, 0.0, 0.0, 0.0, 0.0, 0.0, 1.6635799753101025E9, 0.0, 2022-09-19 14:32:55.310
174.0, 8511.901916492214, -1463.48046821123, -46146.76340183776, -16330.09509206952, -78912.56557852813, -187500.02235174447, -23952.866965874073, -15377.955481762348, 0.532, -0.8160000000000001, 0.28800000000000003, 192.0, 0.0, 0.0, 0.0, 0.0, 0.0, 0.0, 0.0, 0.0, 0.0, 1.6635799753141222E9, 0.0, 2022-09-19 14:32:55.314
175.0, 8453.742677419505, -1521.6397072839388, -46138.60501511157, -16320.997932076209, -78907.93876742588, -187500.02235174447, -23901.972043749338, -15354.821426251106, 0.532, -0.8160000000000001, 0.28800000000000003, 192.0, 0.0, 0.0, 0.0, 0.0, 0.0, 0.0, 0.0, 0.0, 0.0, 1.6635799753181543E9, 0.0, 2022-09-19 14:32:55.318
176.0, 8505.35285536681, -1497.186898849833, -46113.79457876618, -16329.737464158234, -78921.7744972437, -187500.02235174447, -23896.07118321314, -15325.630047992474, 0.532, -0.8160000000000001, 0.28800000000000003, 192.0, 0.0, 0.0, 0.0, 0.0, 0.0, 0.0, 0.0, 0.0, 0.0, 1.663579975322136E9, 0.0, 2022-09-19 14:32:55.322
177.0, 8627.929821959713, -1411.7361797971942, -46084.64790399646, -16330.139795558429, -78949.06597722364, -187500.02235174447, -23899.423944881433, -15374.826237538606, 0.532, -0.8160000000000001, 0.28800000000000003, 192.0, 0.0, 0.0, 0.0, 0.0, 0.0, 0.0, 0.0, 0.0, 0.0, 1.66357997532719E9, 0.0, 2022-09-19 14:32:55.327
178.0, 8694.359206480885, -1342.2446062856445, -46093.09686340056, -16368.607147766013, -78961.69471284088, -187500.02235174447, -23929.330578962636, -15419.82029912714, 0.532, -0.8160000000000001, 0.28800000000000003, 192.0, 0.0, 0.0, 0.0, 0.0, 0.0, 0.0, 0.0, 0.0, 0.0, 1.6635799753312232E9, 0.0, 2022-09-19 14:32:55.331
179.0, 8514.695884549128, -1450.2035320047776, -46154.83238158612, -16342.008571864197, -78923.71909901132, -187500.02235174447, -23950.296515261714, -15341.209213877824, 0.532, -0.8160000000000001, 0.28800000000000003, 192.0, 0.0, 0.0, 0.0, 0.0, 0.0, 0.0, 0.0, 0.0, 0.0, 1.6635799753341162E9, 0.0, 2022-09-19 14:32:55.334
180.0, 8453.653270441684, -1507.4910530437296, -46151.434916428916, -16317.153432029896, -78913.79492447316, -187500.02235174447, -23933.219782497858, -15355.044943695659, 0.532, -0.812, 0.28800000000000003, 192.0, 16.0, 160.0, 230.0, 160.0, 9.0, 0.0, 0.0, 0.0, 0.0, 1.663579975338223E9, 0.0, 2022-09-19 14:32:55.338
181.0, 8508.280933890455, -1481.6971399423053, -46125.70805856086, -16311.721958127257, -78922.08742166609, -187500.02235174447, -23906.889427529506, -15373.596891593563, 0.532, -0.812, 0.28800000000000003, 192.0, 0.0, 0.0, 0.0, 0.0, 0.0, 0.0, 0.0, 0.0, 0.0, 1.6635799753422396E9, 0.0, 2022-09-19 14:32:55.342
182.0, 8641.586737821906, -1388.1550893968451, -46083.753834218245, -16319.500365197704, -78939.49943059677, -187500.02235174447, -23873.071238168628, -15371.965214248326, 0.532, -0.812, 0.28800000000000003, 192.0, 0.0, 0.0, 0.0, 0.0, 0.0, 0.0, 0.0, 0.0, 0.0, 1.663579975346208E9, 0.0, 2022-09-19 14:32:55.346
183.0, 8705.512726964083, -1322.6197746538849, -46093.14156688948, -16340.488653241237, -78953.82689879261, -187500.02235174447, -23912.11973573205, -15380.727098074807, 0.532, -0.812, 0.28800000000000003, 192.0, 0.0, 0.0, 0.0, 0.0, 0.0, 0.0, 0.0, 0.0, 0.0, 1.663579975350226E9, 0.0, 2022-09-19 14:32:55.350
184.0, 8525.02239048748, -1435.1384562419005, -46152.03841352921, -16327.546993201613, -78924.45670657835, -187500.02235174447, -23936.863116844073, -15335.911850441917, 0.532, -0.812, 0.28800000000000003, 192.0, 0.0, 0.0, 0.0, 0.0, 0.0, 0.0, 0.0, 0.0, 0.0, 1.663579975355188E9, 0.0, 2022-09-19 14:32:55.355
185.0, 8464.315052546866, -1493.543564503618, -46141.06370700165, -16308.100975525496, -78911.87267445, -187500.02235174447, -23903.2907966722, -15346.394818591454, 0.532, -0.812, 0.28800000000000003, 192.0, 0.0, 0.0, 0.0, 0.0, 0.0, 0.0, 0.0, 0.0, 0.0, 1.6635799753591924E9, 0.0, 2022-09-19 14:32:55.359
186.0, 8515.366436882787, -1468.6884246693164, -46119.31545964664, -16316.460527951782, -78925.88721822348, -187500.02235174447, -23896.853494269075, -15368.455990368842, 0.532, -0.812, 0.28800000000000003, 192.0, 0.0, 0.0, 0.0, 0.0, 0.0, 0.0, 0.0, 0.0, 0.0, 1.6635799753622203E9, 0.0, 2022-09-19 14:32:55.362
187.0, 8648.024040225035, -1378.0297491585911, -46089.05119765415, -16323.009589077186, -78953.84925053707, -187500.02235174447, -23896.518218102243, -15353.882652983983, 0.532, -0.812, 0.28800000000000003, 192.0, 0.0, 0.0, 0.0, 0.0, 0.0, 0.0, 0.0, 0.0, 0.0, 1.6635799753662276E9, 0.0, 2022-09-19 14:32:55.366
188.0, 8714.922811379769, -1309.678114614262, -46093.25332561175, -16331.212679292285, -78959.5936488621, -187500.02235174447, -23919.853439313585, -15370.445295625364, 0.532, -0.812, 0.28800000000000003, 192.0, 0.0, 0.0, 0.0, 0.0, 0.0, 0.0, 0.0, 0.0, 0.0, 1.6635799753702765E9, 0.0, 2022-09-19 14:32:55.370
189.0, 8528.0622277334, -1426.0412962485907, -46151.18904723991, -16332.620839192969, -78931.65396829296, -187500.02235174447, -23944.17213728096, -15351.491016327265, 0.532, -0.812, 0.28800000000000003, 192.0, 0.0, 0.0, 0.0, 0.0, 0.0, 0.0, 0.0, 0.0, 0.0, 1.6635799753742828E9, 0.0, 2022-09-19 14:32:55.374
190.0, 8467.086668859323, -1485.3181225440649, -46145.15407623698, -16317.667522152367, -78926.06603217912, -187500.02235174447, -23927.40832893948, -15352.876824483494, 0.534, -0.81, 0.28600000000000003, 192.0, 16.0, 176.0, 230.0, 176.0, 8.0, 240.0, 0.0, 0.0, 0.0, 1.6635799753782642E9, 0.0, 2022-09-19 14:32:55.378
191.0, 8514.762939782493, -1463.5698751890511, -46123.405828881965, -16325.334170500539, -78936.07961369511, -187500.02235174447, -23900.094497215094, -15394.115793003535, 0.534, -0.81, 0.28600000000000003, 192.0, 0.0, 0.0, 0.0, 0.0, 0.0, 0.0, 0.0, 0.0, 0.0, 1.6635799753832576E9, 0.0, 2022-09-19 14:32:55.383
192.0, 8644.827740767925, -1372.3300543224877, -46083.23974409577, -16323.747196644212, -78946.96491324484, -187500.02235174447, -23889.29860464318, -15352.541548316663, 0.534, -0.81, 0.28600000000000003, 192.0, 0.0, 0.0, 0.0, 0.0, 0.0, 0.0, 0.0, 0.0, 0.0, 1.6635799753872328E9, 0.0, 2022-09-19 14:32:55.387
193.0, 8709.223116543664, -1299.4410156537315, -46087.665389497924, -16338.633458451446, -78949.69182606839, -187500.02235174447, -23919.987549780315, -15341.097455155546, 0.534, -0.81, 0.28600000000000003, 192.0, 0.0, 0.0, 0.0, 0.0, 0.0, 0.0, 0.0, 0.0, 0.0, 1.66357997539028E9, 0.0, 2022-09-19 14:32:55.390
194.0, 8519.434454373653, -1418.0840752225013, -46157.20166649839, -16322.607257676991, -78928.52472406921, -187500.02235174447, -23948.418968727467, -15341.835062722572, 0.534, -0.81, 0.28600000000000003, 192.0, 0.0, 0.0, 0.0, 0.0, 0.0, 0.0, 0.0, 0.0, 0.0, 1.66357997539432E9, 0.0, 2022-09-19 14:32:55.394
195.0, 8469.254788071488, -1474.3657677609644, -46154.81002984167, -16303.22829523424, -78927.87652348001, -187500.02235174447, -23919.74168059131, -15342.3715045895, 0.534, -0.81, 0.28600000000000003, 192.0, 0.0, 0.0, 0.0, 0.0, 0.0, 0.0, 0.0, 0.0, 0.0, 1.6635799753983307E9, 0.0, 2022-09-19 14:32:55.398
196.0, 8517.914535750691, -1453.8915698399032, -46138.87323604504, -16318.069853552564, -78946.00378823325, -187500.02235174447, -23910.555113620176, -15367.293699657166, 0.534, -0.81, 0.28600000000000003, 192.0, 0.0, 0.0, 0.0, 0.0, 0.0, 0.0, 0.0, 0.0, 0.0, 1.663579975402342E9, 0.0, 2022-09-19 14:32:55.402
197.0, 8645.028906468024, -1364.3281298074878, -46102.30578211615, -16321.713187898778, -78962.27585819672, -187500.02235174447, -23895.802962279675, -15370.020612480714, 0.534, -0.81, 0.28600000000000003, 192.0, 0.0, 0.0, 0.0, 0.0, 0.0, 0.0, 0.0, 0.0, 0.0, 1.663579975406246E9, 0.0, 2022-09-19 14:32:55.406
198.0, 8699.00836932759, -1301.3409139324324, -46110.01713395323, -16332.911411870888, -78969.94250654489, -187500.02235174447, -23934.49383193181, -15383.275196942712, 0.534, -0.81, 0.28600000000000003, 192.0, 0.0, 0.0, 0.0, 0.0, 0.0, 0.0, 0.0, 0.0, 0.0, 1.6635799754113424E9, 0.0, 2022-09-19 14:32:55.411
199.0, 8519.16623344019, -1412.8761187644147, -46161.895532834, -16323.166051288374, -78936.95133172887, -187500.02235174447, -23934.73970112082, -15363.382144377489, 0.534, -0.81, 0.28600000000000003, 192.0, 0.0, 0.0, 0.0, 0.0, 0.0, 0.0, 0.0, 0.0, 0.0, 1.663579975414296E9, 0.0, 2022-09-19 14:32:55.414
200.0, 8469.992395638514, -1467.8167066355595, -46156.48641067582, -16318.427481463848, -78928.05533743565, -187500.02235174447, -23927.251866728293, -15381.442353897377, 0.532, -0.8160000000000001, 0.28800000000000003, 192.0, 16.0, 160.0, 230.0, 128.0, 9.0, 0.0, 0.0, 0.0, 0.0, 1.6635799754173229E9, 0.0, 2022-09-19 14:32:55.417
201.0, 8522.87662301977, -1445.0402790356015, -46132.12300921953, -16317.689873896823, -78931.58691305958, -187500.02235174447, -23914.690186344407, -15332.447330051344, 0.532, -0.8160000000000001, 0.28800000000000003, 192.0, 0.0, 0.0, 0.0, 0.0, 0.0, 0.0, 0.0, 0.0, 0.0, 1.663579975422362E9, 0.0, 2022-09-19 14:32:55.422
202.0, 8652.114409460355, -1357.3543855374319, -46095.130872146, -16320.506193698193, -78953.26810518124, -187500.02235174447, -23881.49784582828, -15363.046868210658, 0.532, -0.8160000000000001, 0.28800000000000003, 192.0, 0.0, 0.0, 0.0, 0.0, 0.0, 0.0, 0.0, 0.0, 0.0, 1.6635799754264183E9, 0.0, 2022-09-19 14:32:55.426
203.0, 8705.87035487537, -1304.4925099006307, -46111.134721176, -16343.61789746498, -78970.92598330093, -187500.02235174447, -23928.145936506506, -15399.547266906175, 0.532, -0.8160000000000001, 0.28800000000000003, 192.0, 0.0, 0.0, 0.0, 0.0, 0.0, 0.0, 0.0, 0.0, 0.0, 1.6635799754303408E9, 0.0, 2022-09-19 14:32:55.430
204.0, 8526.296439921432, -1419.7604560566492, -46164.37657646854, -16332.464376981781, -78937.57718057361, -187500.02235174447, -23929.755262107286, -15404.866982086538, 0.532, -0.8160000000000001, 0.28800000000000003, 192.0, 0.0, 0.0, 0.0, 0.0, 0.0, 0.0, 0.0, 0.0, 0.0, 1.663579975434368E9, 0.0, 2022-09-19 14:32:55.434
205.0, 8472.361680550775, -1473.1140700714673, -46152.194875740395, -16316.527583185147, -78924.4343548339, -187500.02235174447, -23899.64746232599, -15342.617373778508, 0.532, -0.8160000000000001, 0.28800000000000003, 192.0, 0.0, 0.0, 0.0, 0.0, 0.0, 0.0, 0.0, 0.0, 0.0, 1.6635799754394312E9, 0.0, 2022-09-19 14:32:55.439
206.0, 8521.647277074728, -1452.7292791282273, -46131.25129118578, -16331.056217081097, -78930.02229094772, -187500.02235174447, -23906.800020551687, -15352.69801052785, 0.532, -0.8160000000000001, 0.28800000000000003, 192.0, 0.0, 0.0, 0.0, 0.0, 0.0, 0.0, 0.0, 0.0, 0.0, 1.6635799754423912E9, 0.0, 2022-09-19 14:32:55.442
207.0, 8647.80052278048, -1363.3893565403648, -46096.1814041354, -16313.867725594966, -78947.09902371158, -187500.02235174447, -23909.281064186223, -15380.99531900827, 0.532, -0.8160000000000001, 0.28800000000000003, 192.0, 0.0, 0.0, 0.0, 0.0, 0.0, 0.0, 0.0, 0.0, 0.0, 1.663579975445373E9, 0.0, 2022-09-19 14:32:55.445
208.0, 8703.501069963106, -1300.4915476431308, -46102.10461641605, -16318.539240186125, -78950.27297142423, -187500.02235174447, -23909.593988608598, -15388.684319100896, 0.532, -0.8160000000000001, 0.28800000000000003, 192.0, 0.0, 0.0, 0.0, 0.0, 0.0, 0.0, 0.0, 0.0, 0.0, 1.6635799754504106E9, 0.0, 2022-09-19 14:32:55.450
209.0, 8519.389750884742, -1418.7546275561606, -46157.0452042872, -16313.13011802794, -78924.14378215597, -187500.02235174447, -23921.507468403277, -15385.823295810616, 0.532, -0.8160000000000001, 0.28800000000000003, 192.0, 0.0, 0.0, 0.0, 0.0, 0.0, 0.0, 0.0, 0.0, 0.0, 1.6635799754543808E9, 0.0, 2022-09-19 14:32:55.454
210.0, 8460.984642623025, -1478.2773230406433, -46160.308558977675, -16312.012530805176, -78930.02229094772, -187500.02235174447, -23930.716387118864, -15354.41909485091, 0.532, -0.812, 0.28800000000000003, 192.0, 16.0, 160.0, 230.0, 160.0, 9.0, 0.0, 0.0, 0.0, 0.0, 1.6635799754583657E9, 0.0, 2022-09-19 14:32:55.458
211.0, 8506.91747747868, -1452.6175204059507, -46139.63319535652, -16306.51400166917, -78937.30895964014, -187500.02235174447, -23909.30341593068, -15330.994466661748, 0.532, -0.812, 0.28800000000000003, 192.0, 0.0, 0.0, 0.0, 0.0, 0.0, 0.0, 0.0, 0.0, 0.0, 1.663579975462444E9, 0.0, 2022-09-19 14:32:55.462
212.0, 8637.764589520048, -1362.6964524622504, -46103.24455538327, -16318.785109375134, -78953.02223599223, -187500.02235174447, -23900.742697804297, -15368.031307224192, 0.532, -0.812, 0.28800000000000003, 192.0, 0.0, 0.0, 0.0, 0.0, 0.0, 0.0, 0.0, 0.0, 0.0, 1.663579975467425E9, 0.0, 2022-09-19 14:32:55.467
213.0, 8689.1512500228, -1304.2019372227119, -46108.787788008194, -16330.743292658723, -78959.66070409546, -187500.02235174447, -23920.5463433917, -15404.263484986244, 0.532, -0.812, 0.28800000000000003, 192.0, 0.0, 0.0, 0.0, 0.0, 0.0, 0.0, 0.0, 0.0, 0.0, 1.6635799754704027E9, 0.0, 2022-09-19 14:32:55.470
214.0, 8506.939829223136, -1418.0393717335908, -46167.68463464792, -16319.098033797507, -78933.28564563819, -187500.02235174447, -23945.133262292537, -15352.250975638746, 0.532, -0.812, 0.28800000000000003, 192.0, 0.0, 0.0, 0.0, 0.0, 0.0, 0.0, 0.0, 0.0, 0.0, 1.6635799754734008E9, 0.0, 2022-09-19 14:32:55.473
215.0, 8461.47638100104, -1468.934293858325, -46159.30273047718, -16306.737519113723, -78930.31286362563, -187500.02235174447, -23914.556075877677, -15328.513423027209, 0.532, -0.812, 0.28800000000000003, 192.0, 0.0, 0.0, 0.0, 0.0, 0.0, 0.0, 0.0, 0.0, 0.0, 1.6635799754784124E9, 0.0, 2022-09-19 14:32:55.478
216.0, 8519.322695651377, -1444.928520313325, -46139.3873261675, -16299.339091699016, -78939.87941025251, -187500.02235174447, -23904.989529250804, -15339.935164443872, 0.532, -0.812, 0.28800000000000003, 192.0, 0.0, 0.0, 0.0, 0.0, 0.0, 0.0, 0.0, 0.0, 0.0, 1.6635799754824224E9, 0.0, 2022-09-19 14:32:55.482
217.0, 8653.611976338861, -1350.224179056189, -46103.87040422802, -16305.307007468584, -78955.01154124875, -187500.02235174447, -23894.88654075701, -15379.050717240658, 0.532, -0.812, 0.28800000000000003, 192.0, 0.0, 0.0, 0.0, 0.0, 0.0, 0.0, 0.0, 0.0, 0.0, 1.6635799754864287E9, 0.0, 2022-09-19 14:32:55.486
218.0, 8699.991846083623, -1296.4011784078095, -46113.77222702173, -16327.7034554128, -78965.5392128872, -187500.02235174447, -23921.082785258626, -15411.661912400952, 0.532, -0.812, 0.28800000000000003, 192.0, 0.0, 0.0, 0.0, 0.0, 0.0, 0.0, 0.0, 0.0, 0.0, 1.6635799754904888E9, 0.0, 2022-09-19 14:32:55.490
219.0, 8521.49081486354, -1408.741046040183, -46169.27160850425, -16326.362350745483, -78941.82401202012, -187500.02235174447, -23934.426776698445, -15384.638653354485, 0.532, -0.812, 0.28800000000000003, 192.0, 0.0, 0.0, 0.0, 0.0, 0.0, 0.0, 0.0, 0.0, 0.0, 1.6635799754944687E9, 0.0, 2022-09-19 14:32:55.494
220.0, 8471.668776472661, -1460.9100175988697, -46167.90815209248, -16312.236048249728, -78947.12137545603, -187500.02235174447, -23923.00503528178, -15341.365676089012, 0.53, -0.8140000000000001, 0.28400000000000003, 192.0, 16.0, 144.0, 230.0, 144.0, 8.0, 224.0, 0.0, 0.0, 0.0, 1.6635799754984488E9, 0.0, 2022-09-19 14:32:55.498
221.0, 8520.105006707312, -1441.9557383007693, -46148.88681756101, -16301.551914400092, -78957.11260522755, -187500.02235174447, -23920.032253269226, -15357.03424895218, 0.53, -0.8140000000000001, 0.28400000000000003, 192.0, 0.0, 0.0, 0.0, 0.0, 0.0, 0.0, 0.0, 0.0, 0.0, 1.6635799755014312E9, 0.0, 2022-09-19 14:32:55.501
222.0, 8653.097886216388, -1349.352461022432, -46112.341715376584, -16315.499402940202, -78977.89972757098, -187500.02235174447, -23909.951616519884, -15392.90879880295, 0.53, -0.8140000000000001, 0.28400000000000003, 192.0, 0.0, 0.0, 0.0, 0.0, 0.0, 0.0, 0.0, 0.0, 0.0, 1.6635799755055504E9, 0.0, 2022-09-19 14:32:55.505
223.0, 8705.19980254171, -1289.226268437656, -46114.75570377776, -16319.723882642256, -78976.26805022574, -187500.02235174447, -23912.276197943236, -15389.667795856929, 0.53, -0.8140000000000001, 0.28400000000000003, 192.0, 0.0, 0.0, 0.0, 0.0, 0.0, 0.0, 0.0, 0.0, 0.0, 1.6635799755104785E9, 0.0, 2022-09-19 14:32:55.510
224.0, 8518.652143317717, -1407.80227277306, -46169.58453292662, -16312.057234294087, -78946.45082312237, -187500.02235174447, -23928.30239871769, -15357.369525119011, 0.53, -0.8140000000000001, 0.28400000000000003, 192.0, 0.0, 0.0, 0.0, 0.0, 0.0, 0.0, 0.0, 0.0, 0.0, 1.663579975514484E9, 0.0, 2022-09-19 14:32:55.514
225.0, 8466.907854903682, -1462.4075844773752, -46161.71671887836, -16297.17097248685, -78946.8308027781, -187500.02235174447, -23911.829163054128, -15352.787417505673, 0.53, -0.8140000000000001, 0.28400000000000003, 192.0, 0.0, 0.0, 0.0, 0.0, 0.0, 0.0, 0.0, 0.0, 0.0, 1.6635799755185373E9, 0.0, 2022-09-19 14:32:55.518
226.0, 8518.02629447297, -1443.0509737790792, -46147.76923033825, -16296.433364919827, -78961.1359192295, -187500.02235174447, -23932.951561564394, -15365.438504867376, 0.53, -0.8140000000000001, 0.28400000000000003, 192.0, 0.0, 0.0, 0.0, 0.0, 0.0, 0.0, 0.0, 0.0, 0.0, 1.6635799755225945E9, 0.0, 2022-09-19 14:32:55.522
227.0, 8652.226168182631, -1349.7994959115383, -46112.81110201015, -16307.586885403025, -78979.79962584969, -187500.02235174447, -23915.02546251124, -15375.586196850087, 0.53, -0.8140000000000001, 0.28400000000000003, 192.0, 0.0, 0.0, 0.0, 0.0, 0.0, 0.0, 0.0, 0.0, 0.0, 1.6635799755255847E9, 0.0, 2022-09-19 14:32:55.525
228.0, 8705.691540919726, -1293.1378237173349, -46117.37085787903, -16314.404167461893, -78978.7937973492, -187500.02235174447, -23932.50452667529, -15401.044833784681, 0.53, -0.8140000000000001, 0.28400000000000003, 192.0, 0.0, 0.0, 0.0, 0.0, 0.0, 0.0, 0.0, 0.0, 0.0, 1.663579975529559E9, 0.0, 2022-09-19 14:32:55.529
229.0, 8524.821224787382, -1411.4232553748197, -46177.429995230435, -16319.746234386712, -78958.76663431725, -187500.02235174447, -23926.4472039279, -15378.42486839591, 0.53, -0.8140000000000001, 0.28400000000000003, 192.0, 0.0, 0.0, 0.0, 0.0, 0.0, 0.0, 0.0, 0.0, 0.0, 1.6635799755336957E9, 0.0, 2022-09-19 14:32:55.533
230.0, 8476.340291063821, -1463.8827996114255, -46173.67490216195, -16308.458603436782, -78961.4935471408, -187500.02235174447, -23912.92439853244, -15331.597963762042, 0.538, -0.8180000000000001, 0.28200000000000003, 192.0, 16.0, 208.0, 230.0, 112.0, 8.0, 208.0, 0.0, 0.0, 0.0, 1.663579975538584E9, 0.0, 2022-09-19 14:32:55.538
231.0, 8525.871756776782, -1444.6826511243166, -46153.893608319, -16290.778373572633, -78969.92015480043, -187500.02235174447, -23907.40351765198, -15350.641650037964, 0.538, -0.8180000000000001, 0.28200000000000003, 192.0, 0.0, 0.0, 0.0, 0.0, 0.0, 0.0, 0.0, 0.0, 0.0, 1.663579975542581E9, 0.0, 2022-09-19 14:32:55.542
232.0, 8657.47882812963, -1351.8558564014265, -46120.6342125695, -16320.148565786907, -78987.80155036469, -187500.02235174447, -23904.766011806252, -15408.979703066314, 0.538, -0.8180000000000001, 0.28200000000000003, 192.0, 0.0, 0.0, 0.0, 0.0, 0.0, 0.0, 0.0, 0.0, 0.0, 1.663579975546599E9, 0.0, 2022-09-19 14:32:55.546
233.0, 8700.707101906193, -1301.0056377656028, -46127.96558475085, -16308.771527859155, -78987.46627419785, -187500.02235174447, -23928.79413709571, -15370.199426436357, 0.538, -0.8180000000000001, 0.28200000000000003, 192.0, 0.0, 0.0, 0.0, 0.0, 0.0, 0.0, 0.0, 0.0, 0.0, 1.6635799755515716E9, 0.0, 2022-09-19 14:32:55.551
234.0, 8515.746416538526, -1420.1627874568449, -46184.58255345614, -16283.93873976931, -78954.96683775984, -187500.02235174447, -23941.333465735133, -15344.56197554612, 0.538, -0.8180000000000001, 0.28200000000000003, 192.0, 0.0, 0.0, 0.0, 0.0, 0.0, 0.0, 0.0, 0.0, 0.0, 1.6635799755545511E9, 0.0, 2022-09-19 14:32:55.554
235.0, 8468.763049693473, -1473.7846224051266, -46178.078195819646, -16288.833771805022, -78956.84438429409, -187500.02235174447, -23912.142087476503, -15356.855434996538, 0.538, -0.8180000000000001, 0.28200000000000003, 192.0, 0.0, 0.0, 0.0, 0.0, 0.0, 0.0, 0.0, 0.0, 0.0, 1.6635799755585425E9, 0.0, 2022-09-19 14:32:55.558
236.0, 8523.524823608974, -1446.671956380839, -46153.245407729795, -16292.566513129059, -78961.1359192295, -187500.02235174447, -23904.92247401744, -15357.101304185548, 0.538, -0.8180000000000001, 0.28200000000000003, 192.0, 0.0, 0.0, 0.0, 0.0, 0.0, 0.0, 0.0, 0.0, 0.0, 1.663579975562593E9, 0.0, 2022-09-19 14:32:55.562
237.0, 8657.456476385174, -1357.7343651931722, -46122.31059340365, -16308.771527859155, -78984.9405270744, -187500.02235174447, -23909.459878141868, -15395.322787204123, 0.538, -0.8180000000000001, 0.28200000000000003, 192.0, 0.0, 0.0, 0.0, 0.0, 0.0, 0.0, 0.0, 0.0, 0.0, 1.663579975566546E9, 0.0, 2022-09-19 14:32:55.566
238.0, 8705.445671730718, -1303.039646511036, -46130.51368361875, -16308.592713903514, -78986.72866663084, -187500.02235174447, -23932.25865748628, -15397.893237816483, 0.538, -0.8180000000000001, 0.28200000000000003, 192.0, 0.0, 0.0, 0.0, 0.0, 0.0, 0.0, 0.0, 0.0, 0.0, 1.6635799755696356E9, 0.0, 2022-09-19 14:32:55.569
239.0, 8522.250774175021, -1417.7935025445822, -46184.15787031149, -16303.675330123346, -78960.42066340693, -187500.02235174447, -23940.26058200128, -15373.954519504849, 0.538, -0.8180000000000001, 0.28200000000000003, 192.0, 0.0, 0.0, 0.0, 0.0, 0.0, 0.0, 0.0, 0.0, 0.0, 1.663579975573579E9, 0.0, 2022-09-19 14:32:55.573
240.0, 8470.238264827522, -1468.8895903694142, -46184.87312613406, -16304.256475479184, -78969.65193386698, -187500.02235174447, -23945.44618671491, -15349.41230409292, 0.534, -0.8160000000000001, 0.28, 192.0, 16.0, 176.0, 230.0, 128.0, 8.0, 192.0, 0.0, 0.0, 0.0, 1.663579975578626E9, 0.0, 2022-09-19 14:32:55.578
241.0, 8523.748341053528, -1438.804142332571, -46161.85082934509, -16292.812382318067, -78976.80449209268, -187500.02235174447, -23912.656177598976, -15372.255786926245, 0.534, -0.8160000000000001, 0.28, 192.0, 0.0, 0.0, 0.0, 0.0, 0.0, 0.0, 0.0, 0.0, 0.0, 1.6635799755825984E9, 0.0, 2022-09-19 14:32:55.582
242.0, 8668.632348612828, -1338.064830072502, -46123.405828881965, -16298.310911454073, -78992.31660274466, -187500.02235174447, -23894.327747145624, -15369.66298456943, 0.534, -0.8160000000000001, 0.28, 192.0, 0.0, 0.0, 0.0, 0.0, 0.0, 0.0, 0.0, 0.0, 0.0, 1.6635799755865595E9, 0.0, 2022-09-19 14:32:55.586
243.0, 8709.334875265942, -1290.522669616064, -46143.321233191644, -16336.308877028094, -79003.91715811696, -187500.02235174447, -23920.859267814074, -15424.514165462753, 0.534, -0.8160000000000001, 0.28, 192.0, 0.0, 0.0, 0.0, 0.0, 0.0, 0.0, 0.0, 0.0, 0.0, 1.6635799755905724E9, 0.0, 2022-09-19 14:32:55.590
244.0, 8527.16815795519, -1400.8732319919147, -46190.639876203524, -16304.904676068387, -78963.4381489084, -187500.02235174447, -23928.16828825096, -15385.353909177054, 0.534, -0.8160000000000001, 0.28, 192.0, 0.0, 0.0, 0.0, 0.0, 0.0, 0.0, 0.0, 0.0, 0.0, 1.663579975593629E9, 0.0, 2022-09-19 14:32:55.593
245.0, 8491.628884271251, -1441.7098691117608, -46168.981035826335, -16267.644318061391, -78952.0834627251, -187500.02235174447, -23903.91664551695, -15335.621277763998, 0.534, -0.8160000000000001, 0.28, 192.0, 0.0, 0.0, 0.0, 0.0, 0.0, 0.0, 0.0, 0.0, 0.0, 1.6635799755975757E9, 0.0, 2022-09-19 14:32:55.597
246.0, 8542.523806395986, -1419.80515954556, -46142.02483201323, -16269.968899484742, -78962.76759657475, -187500.02235174447, -23902.217912938348, -15376.279100928201, 0.534, -0.8160000000000001, 0.28, 192.0, 0.0, 0.0, 0.0, 0.0, 0.0, 0.0, 0.0, 0.0, 0.0, 1.6635799756015885E9, 0.0, 2022-09-19 14:32:55.601
247.0, 8675.695499860705, -1327.2689375005887, -46108.54191881918, -16285.190437458807, -78988.71797188735, -187500.02235174447, -23896.272348913237, -15412.131299034512, 0.534, -0.8160000000000001, 0.28, 192.0, 0.0, 0.0, 0.0, 0.0, 0.0, 0.0, 0.0, 0.0, 0.0, 1.6635799756056201E9, 0.0, 2022-09-19 14:32:55.605
248.0, 8717.605020714405, -1272.4401083517205, -46123.87521551552, -16288.453792149281, -78988.98619282081, -187500.02235174447, -23930.15759350748, -15388.013766767237, 0.534, -0.8160000000000001, 0.28, 192.0, 0.0, 0.0, 0.0, 0.0, 0.0, 0.0, 0.0, 0.0, 0.0, 1.6635799756107333E9, 0.0, 2022-09-19 14:32:55.610
249.0, 8534.611288858807, -1382.991836427669, -46177.07236731915, -16282.619986846446, -78960.82299480712, -187500.02235174447, -23935.879640088042, -15356.251937896246, 0.534, -0.8160000000000001, 0.28, 192.0, 0.0, 0.0, 0.0, 0.0, 0.0, 0.0, 0.0, 0.0, 0.0, 1.663579975614597E9, 0.0, 2022-09-19 14:32:55.614
250.0, 8489.639579014729, -1425.5719096150292, -46163.12487877904, -16272.539350097102, -78957.89491628349, -187500.02235174447, -23904.944825761897, -15370.914682258926, 0.528, -0.8160000000000001, 0.278, 192.0, 16.0, 128.0, 230.0, 128.0, 8.0, 176.0, 0.0, 0.0, 0.0, 1.6635799756187224E9, 0.0, 2022-09-19 14:32:55.618
251.0, 8547.97763204308, -1397.6992842792613, -46139.56614012315, -16254.54619581058, -78957.64904709447, -187500.02235174447, -23903.603721094576, -15366.176112434401, 0.528, -0.8160000000000001, 0.278, 192.0, 0.0, 0.0, 0.0, 0.0, 0.0, 0.0, 0.0, 0.0, 0.0, 1.6635799756216934E9, 0.0, 2022-09-19 14:32:55.621
252.0, 8684.882066831835, -1299.3069051869995, -46114.0851514441, -16279.803667045078, -78983.01827705125, -187500.02235174447, -23904.58719785061, -15388.170228978424, 0.528, -0.8160000000000001, 0.278, 192.0, 0.0, 0.0, 0.0, 0.0, 0.0, 0.0, 0.0, 0.0, 0.0, 1.6635799756256912E9, 0.0, 2022-09-19 14:32:55.625
253.0, 8722.142424838832, -1247.2496923505894, -46125.55159634967, -16290.264283450162, -78982.61594565105, -187500.02235174447, -23919.518163146757, -15381.37529866401, 0.528, -0.8160000000000001, 0.278, 192.0, 0.0, 0.0, 0.0, 0.0, 0.0, 0.0, 0.0, 0.0, 0.0, 1.6635799756296604E9, 0.0, 2022-09-19 14:32:55.629
254.0, 8538.79106507195, -1363.5905222404626, -46174.144288795505, -16264.157445926363, -78945.22147717733, -187500.02235174447, -23936.17021276596, -15355.89430998496, 0.528, -0.8160000000000001, 0.278, 192.0, 0.0, 0.0, 0.0, 0.0, 0.0, 0.0, 0.0, 0.0, 0.0, 1.6635799756336555E9, 0.0, 2022-09-19 14:32:55.633
255.0, 8497.038006429435, -1413.2337466756996, -46163.19193401241, -16264.60448081547, -78945.28853241069, -187500.02235174447, -23933.26448598677, -15356.408400107432, 0.528, -0.8160000000000001, 0.278, 192.0, 0.0, 0.0, 0.0, 0.0, 0.0, 0.0, 0.0, 0.0, 0.0, 1.6635799756386724E9, 0.0, 2022-09-19 14:32:55.638
0.0, 8545.474236664086, -1391.3737405984093, -46133.77703830922, -16261.251719147172, -78955.90561102696, -187500.02235174447, -23890.97498547733, -15354.642612295464, 0.528, -0.8160000000000001, 0.278, 192.0, 0.0, 0.0, 0.0, 0.0, 0.0, 0.0, 0.0, 0.0, 0.0, 1.6635799756426563E9, 0.0, 2022-09-19 14:32:55.642
1.0, 8679.472944673651, -1300.9162307877816, -46097.92484020291, -16263.732762781712, -78973.60819263557, -187500.02235174447, -23889.812694765653, -15372.792228793172, 0.528, -0.8160000000000001, 0.278, 192.0, 0.0, 0.0, 0.0, 0.0, 0.0, 0.0, 0.0, 0.0, 0.0, 1.6635799756456761E9, 0.0, 2022-09-19 14:32:55.645
2.0, 8715.123977079866, -1253.4634773091648, -46117.05793345666, -16276.808533288067, -78974.94929730288, -187500.02235174447, -23936.483137188334, -15373.172208448912, 0.528, -0.8160000000000001, 0.278, 192.0, 0.0, 0.0, 0.0, 0.0, 0.0, 0.0, 0.0, 0.0, 0.0, 1.6635799756496468E9, 0.0, 2022-09-19 14:32:55.649
3.0, 8537.941698782646, -1365.2221995857, -46165.494163691306, -16268.806608773068, -78937.80069801817, -187500.02235174447, -23918.422927668445, -15347.154777902935, 0.528, -0.8160000000000001, 0.278, 192.0, 0.0, 0.0, 0.0, 0.0, 0.0, 0.0, 0.0, 0.0, 0.0, 1.6635799756536689E9, 0.0, 2022-09-19 14:32:55.653
4.0, 8506.716311778584, -1408.383418128898, -46150.47379141734, -16269.65597506237, -78937.75599452925, -187500.02235174447, -23888.516293587243, -15376.837894539583, 0.524, -0.812, 0.28, 192.0, 16.0, 96.0, 230.0, 160.0, 8.0, 192.0, 0.0, 0.0, 0.0, 1.6635799756576812E9, 0.0, 2022-09-19 14:32:55.657
5.0, 8552.447980934141, -1390.6808365202949, -46137.442724399894, -16268.136056439407, -78955.32446567112, -187500.02235174447, -23903.67077632794, -15353.189748905868, 0.524, -0.812, 0.28, 192.0, 0.0, 0.0, 0.0, 0.0, 0.0, 0.0, 0.0, 0.0, 0.0, 1.6635799756616826E9, 0.0, 2022-09-19 14:32:55.661
6.0, 8683.33979646442, -1300.9832860211475, -46109.65950604195, -16267.97959422822, -78978.03383803772, -187500.02235174447, -23916.657139856477, -15378.603682351553, 0.524, -0.812, 0.28, 192.0, 0.0, 0.0, 0.0, 0.0, 0.0, 0.0, 0.0, 0.0, 0.0, 1.663579975666783E9, 0.0, 2022-09-19 14:32:55.666
7.0, 8720.443692260229, -1254.4469540651983, -46116.409732867454, -16276.473257121237, -78975.4410356809, -187500.02235174447, -23915.986587522817, -15391.679452857907, 0.524, -0.812, 0.28, 192.0, 0.0, 0.0, 0.0, 0.0, 0.0, 0.0, 0.0, 0.0, 0.0, 1.663579975670724E9, 0.0, 2022-09-19 14:32:55.670
8.0, 8537.494663893542, -1372.5535717670407, -46167.03643405872, -16263.732762781712, -78945.10971845505, -187500.02235174447, -23929.26352372927, -15337.834100465072, 0.524, -0.812, 0.28, 192.0, 0.0, 0.0, 0.0, 0.0, 0.0, 0.0, 0.0, 0.0, 0.0, 1.6635799756737232E9, 0.0, 2022-09-19 14:32:55.673
9.0, 8505.822242000371, -1415.1783484433113, -46160.3979659555, -16250.969916697732, -78939.65589280795, -187500.02235174447, -23911.940921776408, -15325.719454970296, 0.524, -0.812, 0.28, 192.0, 0.0, 0.0, 0.0, 0.0, 0.0, 0.0, 0.0, 0.0, 0.0, 1.6635799756777143E9, 0.0, 2022-09-19 14:32:55.677
10.0, 8556.02426004699, -1390.479670820197, -46143.745916336295, -16259.687097035301, -78951.81524179164, -187500.02235174447, -23901.81558153815, -15355.17905416239, 0.524, -0.812, 0.28, 192.0, 0.0, 0.0, 0.0, 0.0, 0.0, 0.0, 0.0, 0.0, 0.0, 1.663579975681733E9, 0.0, 2022-09-19 14:32:55.681
11.0, 8686.737261621627, -1299.0386842535358, -46115.82858751161, -16270.661803562858, -78981.40895145047, -187500.02235174447, -23905.280101928725, -15363.270385655213, 0.524, -0.812, 0.28, 192.0, 0.0, 0.0, 0.0, 0.0, 0.0, 0.0, 0.0, 0.0, 0.0, 1.66357997568573E9, 0.0, 2022-09-19 14:32:55.685
12.0, 8721.963610883191, -1249.6413290073071, -46126.62448008353, -16276.361498398961, -78985.5887276636, -187500.02235174447, -23934.40442495399, -15356.721324529806, 0.524, -0.812, 0.28, 192.0, 0.0, 0.0, 0.0, 0.0, 0.0, 0.0, 0.0, 0.0, 0.0, 1.6635799756897118E9, 0.0, 2022-09-19 14:32:55.689
13.0, 8538.835768560859, -1368.642016487362, -46178.346416753106, -16273.433419875315, -78960.30890468466, -187500.02235174447, -23954.789215897228, -15351.066333182614, 0.524, -0.812, 0.28, 192.0, 0.0, 0.0, 0.0, 0.0, 0.0, 0.0, 0.0, 0.0, 0.0, 1.6635799756937072E9, 0.0, 2022-09-19 14:32:55.693
14.0, 8513.01950371498, -1406.7517407836606, -46162.968416567855, -16255.864948733444, -78954.43039589291, -187500.02235174447, -23903.78253505022, -15361.839874010073, 0.536, -0.8180000000000001, 0.28, 192.0, 16.0, 192.0, 230.0, 112.0, 8.0, 192.0, 0.0, 0.0, 0.0, 1.66357997569878E9, 0.0, 2022-09-19 14:32:55.698
15.0, 8567.758925886026, -1376.934513680281, -46144.52822739223, -16262.79398951459, -78965.02512276472, -187500.02235174447, -23919.853439313585, -15363.89623449996, 0.536, -0.8180000000000001, 0.28, 192.0, 0.0, 0.0, 0.0, 0.0, 0.0, 0.0, 0.0, 0.0, 0.0, 1.6635799757017577E9, 0.0, 2022-09-19 14:32:55.701
16.0, 8701.936447851234, -1280.933771244737, -46114.35337237756, -16278.239044933207, -78988.42739920944, -187500.02235174447, -23924.748471349296, -15386.09151674408, 0.536, -0.8180000000000001, 0.28, 192.0, 0.0, 0.0, 0.0, 0.0, 0.0, 0.0, 0.0, 0.0, 0.0, 1.6635799757057383E9, 0.0, 2022-09-19 14:32:55.705
17.0, 8733.094779621933, -1233.1904450882012, -46124.098732960076, -16284.162257213862, -78992.4954167003, -187500.02235174447, -23918.35587243508, -15388.304339445156, 0.536, -0.8180000000000001, 0.28, 192.0, 0.0, 0.0, 0.0, 0.0, 0.0, 0.0, 0.0, 0.0, 0.0, 1.6635799757097924E9, 0.0, 2022-09-19 14:32:55.709
18.0, 8547.798818087438, -1350.0900685894571, -46176.580628941134, -16265.230329660219, -78963.59461111958, -187500.02235174447, -23931.521049919254, -15333.028475407182, 0.536, -0.8180000000000001, 0.28, 192.0, 0.0, 0.0, 0.0, 0.0, 0.0, 0.0, 0.0, 0.0, 0.0, 1.6635799757137887E9, 0.0, 2022-09-19 14:32:55.713
19.0, 8509.152651924212, -1394.5029848221523, -46168.221076514856, -16260.469408091238, -78961.91823028545, -187500.02235174447, -23916.388918923014, -15355.715496029317, 0.536, -0.8180000000000001, 0.28, 192.0, 0.0, 0.0, 0.0, 0.0, 0.0, 0.0, 0.0, 0.0, 0.0, 1.663579975717794E9, 0.0, 2022-09-19 14:32:55.717
20.0, 8567.021318319, -1364.775164696594, -46142.11423899105, -16247.63950677389, -78961.31473318515, -187500.02235174447, -23916.903009045483, -15379.050717240658, 0.536, -0.8180000000000001, 0.28, 192.0, 0.0, 0.0, 0.0, 0.0, 0.0, 0.0, 0.0, 0.0, 0.0, 1.6635799757218916E9, 0.0, 2022-09-19 14:32:55.721
21.0, 8705.535078708539, -1265.3099018704775, -46108.430160096905, -16252.579242298514, -78986.639259653, -187500.02235174447, -23904.944825761897, -15373.105153215547, 0.536, -0.8180000000000001, 0.28, 192.0, 0.0, 0.0, 0.0, 0.0, 0.0, 0.0, 0.0, 0.0, 0.0, 1.6635799757268035E9, 0.0, 2022-09-19 14:32:55.726
22.0, 8727.596250485927, -1224.585023472908, -46126.35625915006, -16262.190492414296, -78993.88122485652, -187500.02235174447, -23938.69595988941, -15380.771801563717, 0.536, -0.8180000000000001, 0.28, 192.0, 0.0, 0.0, 0.0, 0.0, 0.0, 0.0, 0.0, 0.0, 0.0, 1.6635799757298903E9, 0.0, 2022-09-19 14:32:55.729
23.0, 8538.388733671753, -1348.7266121776834, -46183.37555925555, -16249.159425396852, -78970.70246585638, -187500.02235174447, -23944.97680008135, -15374.245092182768, 0.536, -0.8180000000000001, 0.28, 192.0, 0.0, 0.0, 0.0, 0.0, 0.0, 0.0, 0.0, 0.0, 0.0, 1.6635799757338173E9, 0.0, 2022-09-19 14:32:55.733
24.0, 8514.181794426655, -1384.6905690062724, -46160.174448510945, -16238.967029925232, -78963.99694251978, -187500.02235174447, -23905.68243332892, -15375.60854859454, 0.536, -0.8180000000000001, 0.28, 192.0, 0.0, 0.0, 0.0, 0.0, 0.0, 0.0, 0.0, 0.0, 0.0, 1.6635799757378623E9, 0.0, 2022-09-19 14:32:55.737
25.0, 8575.805553889937, -1356.3038535480325, -46134.24642494279, -16222.806718684045, -78971.70829435687, -187500.02235174447, -23906.688261829408, -15339.823405721594, 0.532, -0.8140000000000001, 0.28, 192.0, 16.0, 160.0, 230.0, 144.0, 8.0, 192.0, 0.0, 0.0, 0.0, 1.663579975741825E9, 0.0, 2022-09-19 14:32:55.741
26.0, 8710.541869466528, -1261.48775356862, -46103.24455538327, -16237.40240781336, -79002.37488774954, -187500.02235174447, -23915.673663100442, -15357.302469885644, 0.532, -0.8140000000000001, 0.28, 192.0, 0.0, 0.0, 0.0, 0.0, 0.0, 0.0, 0.0, 0.0, 0.0, 1.663579975745833E9, 0.0, 2022-09-19 14:32:55.745
27.0, 8733.810035444503, -1219.1535495702685, -46125.99863123878, -16250.567585297536, -79009.05805934168, -187500.02235174447, -23957.672590931965, -15375.921473016915, 0.532, -0.8140000000000001, 0.28, 192.0, 0.0, 0.0, 0.0, 0.0, 0.0, 0.0, 0.0, 0.0, 0.0, 1.66357997574983E9, 0.0, 2022-09-19 14:32:55.749
28.0, 8552.850312334336, -1336.254338771622, -46172.646721917, -16238.363532824938, -78979.12907351603, -187500.02235174447, -23936.237267999324, -15372.926339259904, 0.532, -0.8140000000000001, 0.28, 192.0, 0.0, 0.0, 0.0, 0.0, 0.0, 0.0, 0.0, 0.0, 0.0, 1.6635799757548265E9, 0.0, 2022-09-19 14:32:55.754
29.0, 8523.323657908877, -1375.7275194796944, -46154.98884379731, -16220.124509349407, -78976.89389907049, -187500.02235174447, -23903.760183305763, -15345.187824390869, 0.532, -0.8140000000000001, 0.28, 192.0, 0.0, 0.0, 0.0, 0.0, 0.0, 0.0, 0.0, 0.0, 0.0, 1.663579975757929E9, 0.0, 2022-09-19 14:32:55.757
30.0, 8570.530542198485, -1358.1366965933678, -46140.61667211255, -16239.704637492257, -78991.51193994426, -187500.02235174447, -23910.152782219982, -15396.686243615895, 0.532, -0.8140000000000001, 0.28, 192.0, 0.0, 0.0, 0.0, 0.0, 0.0, 0.0, 0.0, 0.0, 0.0, 1.6635799757618742E9, 0.0, 2022-09-19 14:32:55.761
31.0, 8703.38931124083, -1268.0144629495696, -46114.26396539974, -16261.721105780734, -79015.40595476699, -187500.02235174447, -23932.59393365311, -15389.958368534848, 0.532, -0.8140000000000001, 0.28, 192.0, 0.0, 0.0, 0.0, 0.0, 0.0, 0.0, 0.0, 0.0, 0.0, 1.66357997576585E9, 0.0, 2022-09-19 14:32:55.765
32.0, 8721.494224249629, -1232.9222241547375, -46128.16675045094, -16265.230329660219, -79012.27671054324, -187500.02235174447, -23940.238230256826, -15385.309205688145, 0.532, -0.8140000000000001, 0.28, 192.0, 0.0, 0.0, 0.0, 0.0, 0.0, 0.0, 0.0, 0.0, 0.0, 1.6635799757699366E9, 0.0, 2022-09-19 14:32:55.769
33.0, 8544.133131996767, -1353.1075540909237, -46175.50774520728, -16253.540367310092, -78982.7947596067, -187500.02235174447, -23921.418061425455, -15370.42294388091, 0.532, -0.8140000000000001, 0.28, 192.0, 0.0, 0.0, 0.0, 0.0, 0.0, 0.0, 0.0, 0.0, 0.0, 1.663579975773897E9, 0.0, 2022-09-19 14:32:55.773
34.0, 8516.081692705357, -1396.2911243785768, -46165.09183229111, -16243.63854451639, -78985.00758230776, -187500.02235174447, -23906.95648276287, -15351.714533771818, 0.532, -0.8140000000000001, 0.28, 192.0, 0.0, 0.0, 0.0, 0.0, 0.0, 0.0, 0.0, 0.0, 0.0, 1.6635799757780745E9, 0.0, 2022-09-19 14:32:55.778
35.0, 8569.100030553345, -1373.6711589898061, -46137.21920695534, -16238.676457247313, -78989.07559979864, -187500.02235174447, -23893.120752945037, -15376.748487561761, 0.532, -0.8140000000000001, 0.28200000000000003, 192.0, 16.0, 160.0, 230.0, 144.0, 8.0, 208.0, 0.0, 0.0, 0.0, 1.6635799757829163E9, 0.0, 2022-09-19 14:32:55.782
36.0, 8709.826613643958, -1273.937675230226, -46101.83639548259, -16244.800835228067, -79006.84523664061, -187500.02235174447, -23903.335500161113, -15383.319900431623, 0.532, -0.8140000000000001, 0.28200000000000003, 192.0, 0.0, 0.0, 0.0, 0.0, 0.0, 0.0, 0.0, 0.0, 0.0, 1.6635799757860265E9, 0.0, 2022-09-19 14:32:55.786
37.0, 8728.467968519684, -1237.5266835125308, -46123.383477137504, -16253.428608587816, -79008.92394887494, -187500.02235174447, -23931.02931154124, -15371.696993314863, 0.532, -0.8140000000000001, 0.28200000000000003, 192.0, 0.0, 0.0, 0.0, 0.0, 0.0, 0.0, 0.0, 0.0, 0.0, 1.6635799757909648E9, 0.0, 2022-09-19 14:32:55.790
38.0, 8543.26141396301, -1359.7460221941499, -46176.62533243005, -16248.198300385273, -78982.05715203968, -187500.02235174447, -23930.984608052328, -15356.408400107432, 0.532, -0.8140000000000001, 0.28200000000000003, 192.0, 0.0, 0.0, 0.0, 0.0, 0.0, 0.0, 0.0, 0.0, 0.0, 1.6635799757939692E9, 0.0, 2022-09-19 14:32:55.793
39.0, 8515.187622927144, -1400.2026796582556, -46166.05295730269, -16245.113759650441, -78979.97843980533, -187500.02235174447, -23917.528857890233, -15348.115902914513, 0.532, -0.8140000000000001, 0.28200000000000003, 192.0, 0.0, 0.0, 0.0, 0.0, 0.0, 0.0, 0.0, 0.0, 0.0, 1.6635799757979949E9, 0.0, 2022-09-19 14:32:55.797
40.0, 8569.904693353736, -1374.7887462125716, -46148.149209993986, -16235.077826390008, -78988.20388176489, -187500.02235174447, -23929.68820687392, -15365.237339167279, 0.532, -0.8140000000000001, 0.28200000000000003, 192.0, 0.0, 0.0, 0.0, 0.0, 0.0, 0.0, 0.0, 0.0, 0.0, 1.6635799758019493E9, 0.0, 2022-09-19 14:32:55.801
41.0, 8702.607000184895, -1281.8054892784942, -46115.493311344784, -16254.188567899297, -79014.4001262665, -187500.02235174447, -23903.31314841666, -15384.504542887753, 0.532, -0.8140000000000001, 0.28200000000000003, 192.0, 0.0, 0.0, 0.0, 0.0, 0.0, 0.0, 0.0, 0.0, 0.0, 1.6635799758060071E9, 0.0, 2022-09-19 14:32:55.806
42.0, 8720.06371260449, -1246.3779743168325, -46131.22893944132, -16268.516036095149, -79019.38456528004, -187500.02235174447, -23926.78248009473, -15410.56667692264, 0.532, -0.8140000000000001, 0.28200000000000003, 192.0, 0.0, 0.0, 0.0, 0.0, 0.0, 0.0, 0.0, 0.0, 0.0, 1.6635799758100178E9, 0.0, 2022-09-19 14:32:55.810
43.0, 8535.058323747913, -1371.6371502443733, -46180.156908053985, -16263.375134870426, -78993.68005915642, -187500.02235174447, -23931.543401663712, -15381.040022497182, 0.532, -0.8140000000000001, 0.28200000000000003, 192.0, 0.0, 0.0, 0.0, 0.0, 0.0, 0.0, 0.0, 0.0, 0.0, 1.6635799758129482E9, 0.0, 2022-09-19 14:32:55.812
44.0, 8509.197355413122, -1415.8041972880599, -46163.527210179236, -16236.240117101685, -78991.37782947754, -187500.02235174447, -23908.565808363655, -15358.330650130589, 0.532, -0.8140000000000001, 0.28200000000000003, 192.0, 0.0, 0.0, 0.0, 0.0, 0.0, 0.0, 0.0, 0.0, 0.0, 1.663579975816913E9, 0.0, 2022-09-19 14:32:55.816
45.0, 8565.903731096236, -1388.8479934749596, -46143.43299191392, -16238.92232643632, -79000.96672784886, -187500.02235174447, -23925.396671938503, -15369.059487469136, 0.53, -0.8140000000000001, 0.28, 192.0, 16.0, 144.0, 230.0, 144.0, 8.0, 192.0, 0.0, 0.0, 0.0, 1.6635799758220153E9, 0.0, 2022-09-19 14:32:55.822
46.0, 8707.77025315407, -1284.7559195465947, -46108.31840137463, -16254.568547555036, -79023.72080370436, -187500.02235174447, -23912.477363643335, -15385.130391732502, 0.53, -0.8140000000000001, 0.28, 192.0, 0.0, 0.0, 0.0, 0.0, 0.0, 0.0, 0.0, 0.0, 0.0, 1.6635799758259816E9, 0.0, 2022-09-19 14:32:55.825
47.0, 8728.691485964238, -1245.1933318607012, -46126.2892039167, -16257.563681312047, -79018.04346061271, -187500.02235174447, -23924.01086378227, -15392.104136002557, 0.53, -0.8140000000000001, 0.28, 192.0, 0.0, 0.0, 0.0, 0.0, 0.0, 0.0, 0.0, 0.0, 0.0, 1.6635799758299792E9, 0.0, 2022-09-19 14:32:55.829
48.0, 8542.188530229156, -1368.1726298538006, -46180.08985282062, -16243.705599749757, -78986.86277709756, -187500.02235174447, -23944.5521169367, -15362.488074599276, 0.53, -0.8140000000000001, 0.28, 192.0, 0.0, 0.0, 0.0, 0.0, 0.0, 0.0, 0.0, 0.0, 0.0, 1.6635799758339665E9, 0.0, 2022-09-19 14:32:55.833
49.0, 8511.074901947368, -1406.3047058945544, -46163.303692734684, -16242.051570660064, -78991.51193994426, -187500.02235174447, -23898.30635765867, -15385.666833599429, 0.53, -0.8140000000000001, 0.28, 192.0, 0.0, 0.0, 0.0, 0.0, 0.0, 0.0, 0.0, 0.0, 0.0, 1.6635799758380897E9, 0.0, 2022-09-19 14:32:55.838
50.0, 8563.757963628526, -1381.2707521046107, -46144.97526228133, -16248.712390507746, -79004.36419300607, -187500.02235174447, -23903.648424583487, -15366.533740345687, 0.53, -0.8140000000000001, 0.28, 192.0, 0.0, 0.0, 0.0, 0.0, 0.0, 0.0, 0.0, 0.0, 0.0, 1.6635799758409984E9, 0.0, 2022-09-19 14:32:55.840
51.0, 8711.905325878302, -1272.618922307363, -46107.871366485524, -16243.593841027481, -79025.12896360505, -187500.02235174447, -23904.318976917148, -15397.42385118292, 0.53, -0.8140000000000001, 0.28, 192.0, 0.0, 0.0, 0.0, 0.0, 0.0, 0.0, 0.0, 0.0, 0.0, 1.6635799758450003E9, 0.0, 2022-09-19 14:32:55.845
52.0, 8722.187128327743, -1239.650099235785, -46131.1395324635, -16249.919384708332, -79025.48659151634, -187500.02235174447, -23947.12256754906, -15391.14301099098, 0.53, -0.8140000000000001, 0.28, 192.0, 0.0, 0.0, 0.0, 0.0, 0.0, 0.0, 0.0, 0.0, 0.0, 1.66357997585005E9, 0.0, 2022-09-19 14:32:55.850
53.0, 8549.721068110593, -1352.5040569906303, -46168.824573615144, -16219.476308760204, -78986.86277709756, -187500.02235174447, -23915.383090422525, -15331.486205039766, 0.53, -0.8140000000000001, 0.28, 192.0, 0.0, 0.0, 0.0, 0.0, 0.0, 0.0, 0.0, 0.0, 0.0, 1.6635799758540776E9, 0.0, 2022-09-19 14:32:55.854
54.0, 8528.375152155775, -1388.7809382415937, -46157.648701387494, -16217.665817459325, -78992.27189925575, -187500.02235174447, -23900.63093908202, -15347.624164536497, 0.53, -0.8140000000000001, 0.28, 192.0, 0.0, 0.0, 0.0, 0.0, 0.0, 0.0, 0.0, 0.0, 0.0, 1.6635799758580635E9, 0.0, 2022-09-19 14:32:55.858
55.0, 8586.780260417492, -1357.130868092879, -46137.442724399894, -16222.40438728385, -78999.26799527026, -187500.02235174447, -23897.814619280653, -15393.065261014137, 0.53, -0.8180000000000001, 0.28200000000000003, 192.0, 16.0, 144.0, 230.0, 112.0, 8.0, 208.0, 0.0, 0.0, 0.0, 1.6635799758620515E9, 0.0, 2022-09-19 14:32:55.862
56.0, 8729.071465619978, -1252.457648808676, -46104.33979086159, -16238.140015380386, -79023.29612055971, -187500.02235174447, -23906.621206596043, -15395.769822093229, 0.53, -0.8180000000000001, 0.28200000000000003, 192.0, 0.0, 0.0, 0.0, 0.0, 0.0, 0.0, 0.0, 0.0, 0.0, 1.6635799758650343E9, 0.0, 2022-09-19 14:32:55.865
57.0, 8731.0607708765, -1222.327497282922, -46126.691535316895, -16244.443207316783, -79022.31264380369, -187500.02235174447, -23923.11679400406, -15372.926339259904, 0.53, -0.8180000000000001, 0.28200000000000003, 192.0, 0.0, 0.0, 0.0, 0.0, 0.0, 0.0, 0.0, 0.0, 0.0, 1.6635799758691356E9, 0.0, 2022-09-19 14:32:55.869
58.0, 8547.396486687241, -1343.8315801419712, -46172.4455562169, -16225.801852441056, -78987.6450881535, -187500.02235174447, -23916.768898578754, -15369.528874102698, 0.53, -0.8180000000000001, 0.28200000000000003, 192.0, 0.0, 0.0, 0.0, 0.0, 0.0, 0.0, 0.0, 0.0, 0.0, 1.6635799758731558E9, 0.0, 2022-09-19 14:32:55.873
59.0, 8526.251736432521, -1381.9189526938144, -46162.02964330073, -16231.367436810428, -78989.3438207321, -187500.02235174447, -23918.601741624087, -15350.216966893313, 0.53, -0.8180000000000001, 0.28200000000000003, 192.0, 0.0, 0.0, 0.0, 0.0, 0.0, 0.0, 0.0, 0.0, 0.0, 1.6635799758780754E9, 0.0, 2022-09-19 14:32:55.878
60.0, 8577.884266124282, -1355.2980250475437, -46141.80131456868, -16236.463634546237, -79000.76556214876, -187500.02235174447, -23904.20721819487, -15363.829179266595, 0.53, -0.8180000000000001, 0.28200000000000003, 192.0, 0.0, 0.0, 0.0, 0.0, 0.0, 0.0, 0.0, 0.0, 0.0, 1.6635799758821E9, 0.0, 2022-09-19 14:32:55.882
61.0, 8718.163814325788, -1250.8483232078938, -46106.99964845177, -16256.915480722844, -79025.19601883841, -187500.02235174447, -23894.10422970107, -15400.754261106762, 0.53, -0.8180000000000001, 0.28200000000000003, 192.0, 0.0, 0.0, 0.0, 0.0, 0.0, 0.0, 0.0, 0.0, 0.0, 1.6635799758861597E9, 0.0, 2022-09-19 14:32:55.886
62.0, 8722.902384150313, -1224.8085409174612, -46128.45732312886, -16255.283803377606, -79027.2523793283, -187500.02235174447, -23929.710558618375, -15418.345083993088, 0.53, -0.8180000000000001, 0.28200000000000003, 192.0, 0.0, 0.0, 0.0, 0.0, 0.0, 0.0, 0.0, 0.0, 0.0, 1.6635799758902097E9, 0.0, 2022-09-19 14:32:55.890
63.0, 8544.781332585972, -1348.257225544122, -46175.86537311857, -16234.049646145064, -79001.61492843807, -187500.02235174447, -23942.49575644681, -15348.406475592432, 0.53, -0.8180000000000001, 0.28200000000000003, 192.0, 0.0, 0.0, 0.0, 0.0, 0.0, 0.0, 0.0, 0.0, 0.0, 1.6635799758931372E9, 0.0, 2022-09-19 14:32:55.893
64.0, 8528.553966111418, -1379.8625922039262, -46155.16765775295, -16213.709558690734, -78995.73641964632, -187500.02235174447, -23897.188770435903, -15332.067350395602, 0.53, -0.8180000000000001, 0.28200000000000003, 192.0, 0.0, 0.0, 0.0, 0.0, 0.0, 0.0, 0.0, 0.0, 0.0, 1.663579975897159E9, 0.0, 2022-09-19 14:32:55.897
65.0, 8584.142754571767, -1350.9170831343035, -46135.74399182129, -16220.348026793961, -79006.42055349596, -187500.02235174447, -23916.92536078994, -15363.18097867739, 0.532, -0.8180000000000001, 0.28800000000000003, 192.0, 16.0, 160.0, 230.0, 112.0, 9.0, 0.0, 0.0, 0.0, 0.0, 1.6635799759011345E9, 0.0, 2022-09-19 14:32:55.901
66.0, 8730.569032498483, -1247.2720440950447, -46091.241668610775, -16231.099215876964, -79026.11244036107, -187500.02235174447, -23887.331651131113, -15396.395670937976, 0.532, -0.8180000000000001, 0.28800000000000003, 192.0, 0.0, 0.0, 0.0, 0.0, 0.0, 0.0, 0.0, 0.0, 0.0, 1.663579975905129E9, 0.0, 2022-09-19 14:32:55.905
67.0, 8736.089913378944, -1218.2594797920563, -46111.3358868761, -16249.360591096949, -79021.86560891457, -187500.02235174447, -23909.459878141868, -15414.545287435687, 0.532, -0.8180000000000001, 0.28800000000000003, 192.0, 0.0, 0.0, 0.0, 0.0, 0.0, 0.0, 0.0, 0.0, 0.0, 1.6635799759101324E9, 0.0, 2022-09-19 14:32:55.910
68.0, 8549.162274499211, -1342.7810481525719, -46168.53400093723, -16235.949544423765, -78994.50707370127, -187500.02235174447, -23927.251866728293, -15364.052696711147, 0.532, -0.8180000000000001, 0.28800000000000003, 192.0, 0.0, 0.0, 0.0, 0.0, 0.0, 0.0, 0.0, 0.0, 0.0, 1.6635799759141524E9, 0.0, 2022-09-19 14:32:55.914
69.0, 8525.894108521237, -1380.287275348577, -46155.92761706444, -16228.171137353318, -78995.46819871286, -187500.02235174447, -23910.68922408691, -15340.784530733174, 0.532, -0.8180000000000001, 0.28800000000000003, 192.0, 0.0, 0.0, 0.0, 0.0, 0.0, 0.0, 0.0, 0.0, 0.0, 1.6635799759181504E9, 0.0, 2022-09-19 14:32:55.918
70.0, 8587.517867984518, -1348.190170310756, -46125.95392774987, -16221.823241928012, -78999.93854760392, -187500.02235174447, -23887.331651131113, -15376.748487561761, 0.532, -0.8180000000000001, 0.28800000000000003, 192.0, 0.0, 0.0, 0.0, 0.0, 0.0, 0.0, 0.0, 0.0, 0.0, 1.6635799759212415E9, 0.0, 2022-09-19 14:32:55.921
71.0, 8733.854738933414, -1240.521817269542, -46089.900563943454, -16239.12349213642, -79018.71401294638, -187500.02235174447, -23894.506561101265, -15407.772708865728, 0.532, -0.8180000000000001, 0.28800000000000003, 192.0, 0.0, 0.0, 0.0, 0.0, 0.0, 0.0, 0.0, 0.0, 0.0, 1.6635799759251878E9, 0.0, 2022-09-19 14:32:55.925
72.0, 8737.453369790717, -1211.1069215663579, -46114.68864854439, -16253.69682952128, -79013.28253904374, -187500.02235174447, -23925.10609926058, -15385.197446965867, 0.532, -0.8180000000000001, 0.28800000000000003, 192.0, 0.0, 0.0, 0.0, 0.0, 0.0, 0.0, 0.0, 0.0, 0.0, 1.6635799759291792E9, 0.0, 2022-09-19 14:32:55.929
73.0, 8551.129228011278, -1331.3146032469992, -46168.37753872604, -16225.824204185512, -78988.2485852538, -187500.02235174447, -23942.562811680178, -15351.155740160435, 0.532, -0.8180000000000001, 0.28800000000000003, 192.0, 0.0, 0.0, 0.0, 0.0, 0.0, 0.0, 0.0, 0.0, 0.0, 1.6635799759332616E9, 0.0, 2022-09-19 14:32:55.933
74.0, 8533.806626058415, -1361.645920472851, -46151.144343750995, -16216.838802914477, -78986.57220441964, -187500.02235174447, -23896.71938380234, -15349.278193626189, 0.532, -0.8180000000000001, 0.28800000000000003, 192.0, 0.0, 0.0, 0.0, 0.0, 0.0, 0.0, 0.0, 0.0, 0.0, 1.6635799759383004E9, 0.0, 2022-09-19 14:32:55.938
75.0, 8590.64711220826, -1334.0862195594573, -46129.73137256281, -16214.089538346476, -78991.8472161111, -187500.02235174447, -23892.293738400193, -15360.409362364933, 0.532, -0.8180000000000001, 0.28800000000000003, 192.0, 16.0, 160.0, 230.0, 112.0, 9.0, 0.0, 0.0, 0.0, 0.0, 1.6635799759421847E9, 0.0, 2022-09-19 14:32:55.942
76.0, 8733.25124183312, -1233.3022038104777, -46094.996761679264, -16234.653143245358, -79022.51380950378, -187500.02235174447, -23902.083802471614, -15408.19739201038, 0.532, -0.8180000000000001, 0.28800000000000003, 192.0, 0.0, 0.0, 0.0, 0.0, 0.0, 0.0, 0.0, 0.0, 0.0, 1.663579975946238E9, 0.0, 2022-09-19 14:32:55.946
77.0, 8741.230814603665, -1202.881479606805, -46115.87329100052, -16245.35962883945, -79019.27280655775, -187500.02235174447, -23924.726119604842, -15394.473420914821, 0.532, -0.8180000000000001, 0.28800000000000003, 192.0, 0.0, 0.0, 0.0, 0.0, 0.0, 0.0, 0.0, 0.0, 0.0, 1.6635799759492636E9, 0.0, 2022-09-19 14:32:55.949
78.0, 8560.248739749044, -1321.7927601090385, -46160.934407822424, -16225.73479720769, -78986.8404253531, -187500.02235174447, -23929.64350338501, -15348.965269203814, 0.532, -0.8180000000000001, 0.28800000000000003, 192.0, 0.0, 0.0, 0.0, 0.0, 0.0, 0.0, 0.0, 0.0, 0.0, 1.6635799759532683E9, 0.0, 2022-09-19 14:32:55.953
79.0, 8539.461617405608, -1358.5390279935632, -46152.77602109624, -16230.674532732313, -78998.10570455858, -187500.02235174447, -23917.30534044568, -15369.215949680323, 0.532, -0.8180000000000001, 0.28800000000000003, 192.0, 0.0, 0.0, 0.0, 0.0, 0.0, 0.0, 0.0, 0.0, 0.0, 1.663579975957268E9, 0.0, 2022-09-19 14:32:55.957
80.0, 8591.60823721984, -1332.968632336692, -46138.85088430058, -16249.517053308136, -79019.02693736875, -187500.02235174447, -23911.024500253738, -15437.634639458018, 0.532, -0.8180000000000001, 0.28800000000000003, 192.0, 0.0, 0.0, 0.0, 0.0, 0.0, 0.0, 0.0, 0.0, 0.0, 1.6635799759612877E9, 0.0, 2022-09-19 14:32:55.961
81.0, 8732.20070984372, -1226.7531426850728, -46101.299953615664, -16254.009753943654, -79037.78005096676, -187500.02235174447, -23899.82627628163, -15389.019595267726, 0.532, -0.8180000000000001, 0.28800000000000003, 192.0, 0.0, 0.0, 0.0, 0.0, 0.0, 0.0, 0.0, 0.0, 0.0, 1.6635799759672468E9, 0.0, 2022-09-19 14:32:55.967
82.0, 8741.074352392478, -1192.040883545981, -46115.64977355597, -16246.320753851029, -79021.5973879811, -187500.02235174447, -23926.49190741681, -15371.764048548228, 0.532, -0.8180000000000001, 0.28800000000000003, 192.0, 0.0, 0.0, 0.0, 0.0, 0.0, 0.0, 0.0, 0.0, 0.0, 1.6635799759704645E9, 0.0, 2022-09-19 14:32:55.970
83.0, 8571.871646865804, -1308.292306458033, -46148.57389313864, -16214.938904635777, -78978.99496304929, -187500.02235174447, -23898.753392547776, -15335.442463808355, 0.532, -0.8180000000000001, 0.28800000000000003, 192.0, 0.0, 0.0, 0.0, 0.0, 0.0, 0.0, 0.0, 0.0, 0.0, 1.663579975973467E9, 0.0, 2022-09-19 14:32:55.973
84.0, 8559.354669970831, -1339.808266140016, -46132.30182317518, -16207.451070243249, -78981.07367528364, -187500.02235174447, -23888.11396218705, -15343.958478445826, 0.532, -0.8180000000000001, 0.28800000000000003, 192.0, 0.0, 0.0, 0.0, 0.0, 0.0, 0.0, 0.0, 0.0, 0.0, 1.6635799759772837E9, 0.0, 2022-09-19 14:32:55.977
85.0, 8613.535298530496, -1313.8802425718598, -46115.06862820013, -16212.63667495688, -78993.45654171187, -187500.02235174447, -23892.271386655735, -15339.398722576943, 0.53, -0.8220000000000001, 0.274, 192.0, 16.0, 144.0, 230.0, 80.0, 8.0, 144.0, 0.0, 0.0, 0.0, 1.66357997598128E9, 0.0, 2022-09-19 14:32:55.981
86.0, 8749.098628651933, -1214.8620146348494, -46086.614857508524, -16230.07103563202, -79020.27863505825, -187500.02235174447, -23904.609549595065, -15395.054566270659, 0.53, -0.8220000000000001, 0.274, 192.0, 0.0, 0.0, 0.0, 0.0, 0.0, 0.0, 0.0, 0.0, 0.0, 1.66357997598535E9, 0.0, 2022-09-19 14:32:55.985
87.0, 8745.54470128354, -1188.1963834996682, -46105.34561936207, -16230.562774010037, -79012.83550415463, -187500.02235174447, -23926.06722427216, -15373.216911937823, 0.53, -0.8220000000000001, 0.274, 192.0, 0.0, 0.0, 0.0, 0.0, 0.0, 0.0, 0.0, 0.0, 0.0, 1.6635799759893188E9, 0.0, 2022-09-19 14:32:55.989
88.0, 8556.44894319164, -1313.0532280270133, -46151.23375072882, -16223.276105317605, -78984.60525090758, -187500.02235174447, -23910.242189197805, -15334.973077174793, 0.53, -0.8220000000000001, 0.274, 192.0, 0.0, 0.0, 0.0, 0.0, 0.0, 0.0, 0.0, 0.0, 0.0, 1.6635799759933171E9, 0.0, 2022-09-19 14:32:55.993
89.0, 8541.607384873318, -1345.1056295759238, -46129.10552371806, -16205.618227197914, -78980.9395648169, -187500.02235174447, -23890.01386046575, -15349.188786648368, 0.53, -0.8220000000000001, 0.274, 192.0, 0.0, 0.0, 0.0, 0.0, 0.0, 0.0, 0.0, 0.0, 0.0, 1.6635799759983113E9, 0.0, 2022-09-19 14:32:55.998
90.0, 8595.519792499517, -1323.715010132195, -46111.17942466491, -16212.25669530114, -78991.0425533107, -187500.02235174447, -23889.49977034328, -15361.348135632055, 0.53, -0.8220000000000001, 0.274, 192.0, 0.0, 0.0, 0.0, 0.0, 0.0, 0.0, 0.0, 0.0, 0.0, 1.663579976001264E9, 0.0, 2022-09-19 14:32:56.001
91.0, 8735.329954067463, -1224.4509130061763, -46085.74313947477, -16234.899012434365, -79023.2067135819, -187500.02235174447, -23897.904026258475, -15398.13910700549, 0.53, -0.8220000000000001, 0.274, 192.0, 0.0, 0.0, 0.0, 0.0, 0.0, 0.0, 0.0, 0.0, 0.0, 1.663579976005346E9, 0.0, 2022-09-19 14:32:56.005
92.0, 8727.126863852365, -1207.3518284978663, -46119.36016313555, -16239.235250858696, -79022.71497520387, -187500.02235174447, -23938.293628489213, -15376.972005006315, 0.53, -0.8220000000000001, 0.274, 192.0, 0.0, 0.0, 0.0, 0.0, 0.0, 0.0, 0.0, 0.0, 0.0, 1.6635799760092993E9, 0.0, 2022-09-19 14:32:56.009
93.0, 8540.623908117284, -1331.1357892913568, -46170.14332653801, -16217.956390137244, -78993.79181787871, -187500.02235174447, -23946.988457082327, -15337.409417320421, 0.53, -0.8220000000000001, 0.274, 192.0, 0.0, 0.0, 0.0, 0.0, 0.0, 0.0, 0.0, 0.0, 0.0, 1.663579976013304E9, 0.0, 2022-09-19 14:32:56.013
94.0, 8522.474291619576, -1367.0103391421246, -46156.21818974235, -16224.103119862453, -78999.42445748145, -187500.02235174447, -23904.11781121705, -15346.573632547097, 0.53, -0.8220000000000001, 0.274, 192.0, 0.0, 0.0, 0.0, 0.0, 0.0, 0.0, 0.0, 0.0, 0.0, 1.6635799760173724E9, 0.0, 2022-09-19 14:32:56.017
95.0, 8579.381833002786, -1344.0103940976137, -46145.71286984836, -16244.778483483611, -79014.08720184413, -187500.02235174447, -23916.29951194519, -15388.304339445156, 0.528, -0.8200000000000001, 0.276, 192.0, 16.0, 128.0, 230.0, 96.0, 8.0, 160.0, 0.0, 0.0, 0.0, 1.663579976021327E9, 0.0, 2022-09-19 14:32:56.021
96.0, 8736.805169201514, -1233.0786863659248, -46102.79752049417, -16255.306155122062, -79027.92293166196, -187500.02235174447, -23884.560034818656, -15377.799019551161, 0.528, -0.8200000000000001, 0.276, 192.0, 0.0, 0.0, 0.0, 0.0, 0.0, 0.0, 0.0, 0.0, 0.0, 1.6635799760263755E9, 0.0, 2022-09-19 14:32:56.026
97.0, 8727.126863852365, -1215.0184768460367, -46128.1891021954, -16262.88339649241, -79018.82577166865, -187500.02235174447, -23920.92632304744, -15379.877731785506, 0.528, -0.8200000000000001, 0.276, 192.0, 0.0, 0.0, 0.0, 0.0, 0.0, 0.0, 0.0, 0.0, 0.0, 1.663579976029388E9, 0.0, 2022-09-19 14:32:56.029
98.0, 8543.50728315202, -1341.7081644187172, -46175.95478009639, -16249.651163774868, -78987.75684687577, -187500.02235174447, -23937.891297089016, -15342.550318545142, 0.528, -0.8200000000000001, 0.276, 192.0, 0.0, 0.0, 0.0, 0.0, 0.0, 0.0, 0.0, 0.0, 0.0, 1.6635799760334296E9, 0.0, 2022-09-19 14:32:56.033
99.0, 8535.17008247019, -1372.061833389024, -46154.631215886024, -16251.528710309114, -78986.23692825281, -187500.02235174447, -23903.35785190557, -15332.782606218172, 0.528, -0.8200000000000001, 0.276, 192.0, 0.0, 0.0, 0.0, 0.0, 0.0, 0.0, 0.0, 0.0, 0.0, 1.6635799760373745E9, 0.0, 2022-09-19 14:32:56.037
100.0, 8589.082490096389, -1349.3077575335215, -46131.47480863033, -16244.219689872229, -78994.52942544573, -187500.02235174447, -23887.44340985339, -15378.201350951356, 0.528, -0.8200000000000001, 0.276, 192.0, 0.0, 0.0, 0.0, 0.0, 0.0, 0.0, 0.0, 0.0, 0.0, 1.6635799760424197E9, 0.0, 2022-09-19 14:32:56.042
101.0, 8734.659401733805, -1245.5062562830753, -46095.80142447966, -16240.218727614729, -79018.42344026845, -187500.02235174447, -23890.863226755053, -15377.016708495226, 0.528, -0.8200000000000001, 0.276, 192.0, 0.0, 0.0, 0.0, 0.0, 0.0, 0.0, 0.0, 0.0, 0.0, 1.6635799760464165E9, 0.0, 2022-09-19 14:32:56.046
102.0, 8726.702180707714, -1226.0825903514137, -46117.54967183467, -16244.487910805692, -79014.91421638898, -187500.02235174447, -23916.478325900833, -15364.857359511538, 0.528, -0.8200000000000001, 0.276, 192.0, 0.0, 0.0, 0.0, 0.0, 0.0, 0.0, 0.0, 0.0, 0.0, 1.6635799760494056E9, 0.0, 2022-09-19 14:32:56.049
103.0, 8549.408143688219, -1345.5079609761192, -46156.642872887, -16226.673570474813, -78985.43226545241, -187500.02235174447, -23910.465706642357, -15327.46289103781, 0.528, -0.8200000000000001, 0.276, 192.0, 0.0, 0.0, 0.0, 0.0, 0.0, 0.0, 0.0, 0.0, 0.0, 1.6635799760544293E9, 0.0, 2022-09-19 14:32:56.054
104.0, 8538.321678438388, -1374.9452084237587, -46141.95777677987, -16219.342198293472, -78988.7403236318, -187500.02235174447, -23904.475439128335, -15340.538661544164, 0.528, -0.8200000000000001, 0.276, 192.0, 0.0, 0.0, 0.0, 0.0, 0.0, 0.0, 0.0, 0.0, 0.0, 1.663579976057494E9, 0.0, 2022-09-19 14:32:56.057
105.0, 8591.69764419766, -1351.8111529125158, -46133.70998307586, -16230.674532732313, -79007.85106514109, -187500.02235174447, -23926.134279505528, -15357.056600696636, 0.528, -0.8220000000000001, 0.28, 192.0, 16.0, 128.0, 230.0, 80.0, 8.0, 192.0, 0.0, 0.0, 0.0, 1.6635799760614338E9, 0.0, 2022-09-19 14:32:56.061
106.0, 8727.886823163846, -1252.614111019863, -46106.753779262755, -16249.002963185665, -79038.91998993397, -187500.02235174447, -23917.215933467858, -15382.492885886775, 0.528, -0.8220000000000001, 0.28, 192.0, 0.0, 0.0, 0.0, 0.0, 0.0, 0.0, 0.0, 0.0, 0.0, 1.6635799760654776E9, 0.0, 2022-09-19 14:32:56.065
107.0, 8710.340703766431, -1236.3643928008548, -46133.48646563131, -16255.306155122062, -79031.2086380969, -187500.02235174447, -23911.180962464925, -15378.80484805165, 0.528, -0.8220000000000001, 0.28, 192.0, 0.0, 0.0, 0.0, 0.0, 0.0, 0.0, 0.0, 0.0, 0.0, 1.6635799760694556E9, 0.0, 2022-09-19 14:32:56.069
108.0, 8535.348896425832, -1356.8402954149599, -46176.737091152325, -16240.106968892453, -78995.73641964632, -187500.02235174447, -23911.717404331852, -15354.910833228927, 0.528, -0.8220000000000001, 0.28, 192.0, 0.0, 0.0, 0.0, 0.0, 0.0, 0.0, 0.0, 0.0, 0.0, 1.6635799760734427E9, 0.0, 2022-09-19 14:32:56.073
109.0, 8526.11762596579, -1386.9927986851692, -46164.711852635366, -16245.717256750735, -79003.20190229439, -187500.02235174447, -23903.961349005862, -15385.867999299528, 0.528, -0.8220000000000001, 0.28, 192.0, 0.0, 0.0, 0.0, 0.0, 0.0, 0.0, 0.0, 0.0, 0.0, 1.6635799760774524E9, 0.0, 2022-09-19 14:32:56.077
110.0, 8590.915333141726, -1349.9559581227254, -46144.77409658123, -16236.888317690888, -79011.27088204275, -187500.02235174447, -23901.703822815874, -15324.780681703172, 0.528, -0.8220000000000001, 0.28, 192.0, 0.0, 0.0, 0.0, 0.0, 0.0, 0.0, 0.0, 0.0, 0.0, 1.66357997608246E9, 0.0, 2022-09-19 14:32:56.082
111.0, 8741.789608215047, -1242.7346399706173, -46107.46903508533, -16247.572451540525, -79033.28735033123, -187500.02235174447, -23905.503619373278, -15353.927356472894, 0.528, -0.8220000000000001, 0.28, 192.0, 0.0, 0.0, 0.0, 0.0, 0.0, 0.0, 0.0, 0.0, 0.0, 1.663579976085434E9, 0.0, 2022-09-19 14:32:56.085
112.0, 8725.070503362478, -1228.7647996860505, -46128.23380568431, -16235.63662000139, -79024.9501496494, -187500.02235174447, -23915.07016600015, -15371.831103781595, 0.528, -0.8220000000000001, 0.28, 192.0, 0.0, 0.0, 0.0, 0.0, 0.0, 0.0, 0.0, 0.0, 0.0, 1.66357997608851E9, 0.0, 2022-09-19 14:32:56.088
113.0, 8545.429533175175, -1345.9549958652253, -46161.224980500345, -16209.127451077396, -78986.57220441964, -187500.02235174447, -23899.736869303808, -15328.491071282753, 0.528, -0.8220000000000001, 0.28, 192.0, 0.0, 0.0, 0.0, 0.0, 0.0, 0.0, 0.0, 0.0, 0.0, 1.6635799760934546E9, 0.0, 2022-09-19 14:32:56.093
114.0, 8528.621021344785, -1376.1074991354346, -46148.26096871626, -16233.870832189421, -78997.7480766473, -187500.02235174447, -23891.042040710694, -15359.47058909781, 0.528, -0.8220000000000001, 0.28, 192.0, 0.0, 0.0, 0.0, 0.0, 0.0, 0.0, 0.0, 0.0, 0.0, 1.6635799760974827E9, 0.0, 2022-09-19 14:32:56.097
115.0, 8578.21954229111, -1351.9899668681583, -46134.581701109615, -16240.151672381364, -79019.71984144686, -187500.02235174447, -23895.78061053522, -15359.202368164346, 0.528, -0.81, 0.28, 192.0, 16.0, 128.0, 230.0, 176.0, 8.0, 192.0, 0.0, 0.0, 0.0, 1.6635799761015902E9, 0.0, 2022-09-19 14:32:56.101
116.0, 8724.39995102882, -1245.036869649514, -46102.5292995607, -16254.680306277312, -79048.3077226052, -187500.02235174447, -23898.284005914215, -15384.526894632208, 0.528, -0.81, 0.28, 192.0, 0.0, 0.0, 0.0, 0.0, 0.0, 0.0, 0.0, 0.0, 0.0, 1.6635799761056335E9, 0.0, 2022-09-19 14:32:56.105
117.0, 8710.519517722072, -1229.1224275973354, -46128.434971384406, -16263.777466270623, -79043.18917312493, -187500.02235174447, -23930.35875920758, -15378.961310262837, 0.528, -0.81, 0.28, 192.0, 0.0, 0.0, 0.0, 0.0, 0.0, 0.0, 0.0, 0.0, 0.0, 1.663579976109556E9, 0.0, 2022-09-19 14:32:56.109
118.0, 8527.97282075558, -1353.5545889800298, -46173.92077135095, -16253.003925443165, -79014.46718149987, -187500.02235174447, -23942.652218657997, -15370.221778180812, 0.528, -0.81, 0.28, 192.0, 0.0, 0.0, 0.0, 0.0, 0.0, 0.0, 0.0, 0.0, 0.0, 1.663579976113547E9, 0.0, 2022-09-19 14:32:56.113
119.0, 8518.786253784448, -1383.1706503833116, -46158.60982639907, -16245.560794539548, -79020.0551176137, -187500.02235174447, -23892.763125033754, -15352.206272149835, 0.528, -0.81, 0.28, 192.0, 0.0, 0.0, 0.0, 0.0, 0.0, 0.0, 0.0, 0.0, 0.0, 1.6635799761165662E9, 0.0, 2022-09-19 14:32:56.116
120.0, 8572.922178855202, -1360.5730367389963, -46152.53015190722, -16248.868852718933, -79035.61193175458, -187500.02235174447, -23927.11775626156, -15362.286908899177, 0.528, -0.81, 0.28, 192.0, 0.0, 0.0, 0.0, 0.0, 0.0, 0.0, 0.0, 0.0, 0.0, 1.663579976121585E9, 0.0, 2022-09-19 14:32:56.121
121.0, 8722.902384150313, -1256.8609424663714, -46111.022962453724, -16261.274070891628, -79053.71684476339, -187500.02235174447, -23895.802962279675, -15391.56769413563, 0.528, -0.81, 0.28, 192.0, 0.0, 0.0, 0.0, 0.0, 0.0, 0.0, 0.0, 0.0, 0.0, 1.6635799761265917E9, 0.0, 2022-09-19 14:32:56.126
122.0, 8710.430110744252, -1244.1875033602123, -46136.258081943764, -16267.398448872382, -79041.19986786842, -187500.02235174447, -23920.63575036952, -15388.773726078716, 0.528, -0.81, 0.28, 192.0, 0.0, 0.0, 0.0, 0.0, 0.0, 0.0, 0.0, 0.0, 0.0, 1.6635799761305852E9, 0.0, 2022-09-19 14:32:56.130
123.0, 8527.659896333205, -1367.3456153089542, -46188.18118431344, -16242.476253804714, -79007.67225118545, -187500.02235174447, -23934.292666231715, -15384.593949865575, 0.528, -0.81, 0.28, 192.0, 0.0, 0.0, 0.0, 0.0, 0.0, 0.0, 0.0, 0.0, 0.0, 1.663579976135564E9, 0.0, 2022-09-19 14:32:56.135
124.0, 8530.83384404586, -1382.7459672386608, -46164.510686935275, -16223.92430590681, -78996.96576559136, -187500.02235174447, -23907.40351765198, -15303.434765748354, 0.528, -0.81, 0.28, 192.0, 0.0, 0.0, 0.0, 0.0, 0.0, 0.0, 0.0, 0.0, 0.0, 1.66357997613864E9, 0.0, 2022-09-19 14:32:56.138
