%OpenBCI Raw EEG Data
%Number of channels = 8
%Sample Rate = 250 Hz
%Board = OpenBCI_GUI$BoardCytonSerial
Sample Index, EXG Channel 0, EXG Channel 1, EXG Channel 2, EXG Channel 3, EXG Channel 4, EXG Channel 5, EXG Channel 6, EXG Channel 7, Accel Channel 0, Accel Channel 1, Accel Channel 2, Other, Other, Other, Other, Other, Other, Other, Analog Channel 0, Analog Channel 1, Analog Channel 2, Timestamp, Other, Timestamp (Formatted)
215.0, 13426.447025113945, 28396.617281033672, -37636.91784583543, -37533.67513819637, -17166.229148653645, -187500.02235174447, 14971.48900884259, -5157.441515617552, 0.0, 0.0, 0.0, 192.0, 0.0, 0.0, 0.0, 0.0, 0.0, 0.0, 0.0, 0.0, 0.0, 1.6634961036331975E9, 0.0, 2022-09-18 15:15:03.633
216.0, 13977.953967804191, 29380.71988591193, -37650.798279142175, -37564.878173455974, -17208.339835207444, -187500.02235174447, 14537.261669309339, -5298.682188830637, 0.0, 0.0, 0.0, 192.0, 0.0, 0.0, 0.0, 0.0, 0.0, 0.0, 0.0, 0.0, 0.0, 1.6634961036332269E9, 0.0, 2022-09-18 15:15:03.633
217.0, 13220.14042379146, 28572.65962036367, -37497.88999532342, -37483.62958236093, -16849.14730181066, -187500.02235174447, 14668.913444151098, -5264.260502369464, 0.0, 0.0, 0.0, 192.0, 0.0, 0.0, 0.0, 0.0, 0.0, 0.0, 0.0, 0.0, 0.0, 1.663496103633243E9, 0.0, 2022-09-18 15:15:03.633
218.0, 12665.727754322024, 27612.473382052587, -37477.639314846914, -37468.273933920136, -16702.944541328496, -187500.02235174447, 15271.44941943281, -4956.968719597902, 0.0, 0.0, 0.0, 192.0, 0.0, 0.0, 0.0, 0.0, 0.0, 0.0, 0.0, 0.0, 0.0, 1.6634961036332583E9, 0.0, 2022-09-18 15:15:03.633
219.0, 12886.942969196198, 27684.11072303185, -37554.395205306435, -37494.51488191067, -16882.406697560156, -187500.02235174447, 15486.316738881676, -4887.812422253182, 0.0, 0.0, 0.0, 192.0, 0.0, 0.0, 0.0, 0.0, 0.0, 0.0, 0.0, 0.0, 0.0, 1.6634961036332736E9, 0.0, 2022-09-18 15:15:03.633
220.0, 13431.207946682925, 28392.81748447627, -37624.28911021818, -37517.827751377554, -17152.080494413436, -187500.02235174447, 14977.30046240097, -5156.413335372607, 0.0, 0.0, 0.0, 192.0, 0.0, 0.0, 0.0, 0.0, 0.0, 0.0, 0.0, 0.0, 0.0, 1.6634961036332884E9, 0.0, 2022-09-18 15:15:03.633
221.0, 13981.597302150405, 29375.355467242658, -37641.25408425976, -37552.62941749447, -17200.181448481257, -187500.02235174447, 14541.128521100107, -5309.276915702452, 0.0, 0.0, 0.0, 192.0, 0.0, 0.0, 0.0, 0.0, 0.0, 0.0, 0.0, 0.0, 0.0, 1.6634961036333032E9, 0.0, 2022-09-18 15:15:03.633
222.0, 13230.288115774169, 28573.240765719507, -37484.99303877271, -37468.475099620235, -16842.19590928506, -187500.02235174447, 14674.344918053737, -5272.597703051294, 0.0, 0.0, 0.0, 192.0, 0.0, 0.0, 0.0, 0.0, 0.0, 0.0, 0.0, 0.0, 0.0, 1.663496103633318E9, 0.0, 2022-09-18 15:15:03.633
223.0, 12671.248635202484, 27610.349966329333, -37467.715140308756, -37463.93769549581, -16695.233189491413, -187500.02235174447, 15278.266701491679, -4963.69659467895, 0.0, 0.0, 0.0, 192.0, 0.0, 0.0, 0.0, 0.0, 0.0, 0.0, 0.0, 0.0, 0.0, 1.6634961036333327E9, 0.0, 2022-09-18 15:15:03.633
224.0, 12890.765117498055, 27683.261356742547, -37542.794649934134, -37494.8501580775, -16873.48835152249, -187500.02235174447, 15494.2069046744, -4889.041768198224, 0.554, -0.744, 0.41400000000000003, 192.0, 17.0, 80.0, 232.0, 192.0, 12.0, 240.0, 0.0, 0.0, 0.0, 1.6634961036333475E9, 0.0, 2022-09-18 15:15:03.633
225.0, 13433.376065895089, 28389.442371063516, -37613.627328113005, -37516.24077752123, -17144.01151466507, -187500.02235174447, 14984.229503182114, -5160.101373207734, 0.554, -0.744, 0.41400000000000003, 192.0, 0.0, 0.0, 0.0, 0.0, 0.0, 0.0, 0.0, 0.0, 0.0, 1.6634961036333652E9, 0.0, 2022-09-18 15:15:03.633
226.0, 13984.927712074246, 29377.545938199277, -37629.72058412082, -37542.794649934134, -17190.54784662102, -187500.02235174447, 14547.476416525415, -5307.444072657117, 0.554, -0.744, 0.41400000000000003, 192.0, 0.0, 0.0, 0.0, 0.0, 0.0, 0.0, 0.0, 0.0, 0.0, 1.663496103633381E9, 0.0, 2022-09-18 15:15:03.633
227.0, 13228.745845406753, 28578.694591366602, -37485.44007366182, -37475.24767819019, -16841.86063311823, -187500.02235174447, 14673.272034319883, -5279.459688599073, 0.554, -0.744, 0.41400000000000003, 192.0, 0.0, 0.0, 0.0, 0.0, 0.0, 0.0, 0.0, 0.0, 0.0, 1.663496103633396E9, 0.0, 2022-09-18 15:15:03.633
228.0, 12666.465361889048, 27616.295530354444, -37471.000846743686, -37465.72583505223, -16696.998977303385, -187500.02235174447, 15276.791486357628, -4973.531362239285, 0.554, -0.744, 0.41400000000000003, 192.0, 0.0, 0.0, 0.0, 0.0, 0.0, 0.0, 0.0, 0.0, 0.0, 1.6634961036334114E9, 0.0, 2022-09-18 15:15:03.633
229.0, 12886.317120351448, 27683.998964309572, -37548.58375174806, -37495.20778598879, -16879.165694614137, -187500.02235174447, 15494.475125607863, -4897.714245046884, 0.554, -0.744, 0.41400000000000003, 192.0, 0.0, 0.0, 0.0, 0.0, 0.0, 0.0, 0.0, 0.0, 0.0, 1.6634961036334264E9, 0.0, 2022-09-18 15:15:03.633
230.0, 13425.485900102365, 28384.23441460543, -37623.909130562446, -37520.33114675655, -17149.66650601226, -187500.02235174447, 14983.693061315187, -5159.54257959635, 0.554, -0.744, 0.41400000000000003, 192.0, 0.0, 0.0, 0.0, 0.0, 0.0, 0.0, 0.0, 0.0, 0.0, 1.6634961036334422E9, 0.0, 2022-09-18 15:15:03.633
231.0, 13975.741145103115, 29373.947307341972, -37650.463002975346, -37560.49723154274, -17205.009425283602, -187500.02235174447, 14539.96623038843, -5313.389636682229, 0.554, -0.744, 0.41400000000000003, 192.0, 0.0, 0.0, 0.0, 0.0, 0.0, 0.0, 0.0, 0.0, 0.0, 1.6634961036335902E9, 0.0, 2022-09-18 15:15:03.633
232.0, 13226.71183666132, 28582.51673966846, -37499.76754185767, -37481.3944079154, -16853.595298957265, -187500.02235174447, 14668.712278451, -5278.9679502210565, 0.554, -0.744, 0.41400000000000003, 192.0, 0.0, 0.0, 0.0, 0.0, 0.0, 0.0, 0.0, 0.0, 0.0, 1.663496103633606E9, 0.0, 2022-09-18 15:15:03.633
233.0, 12666.64417584469, 27615.84849546534, -37476.92405902434, -37465.345855396496, -16701.64814015009, -187500.02235174447, 15274.757477612196, -4962.958987111925, 0.554, -0.744, 0.41400000000000003, 192.0, 0.0, 0.0, 0.0, 0.0, 0.0, 0.0, 0.0, 0.0, 0.0, 1.6634961036336212E9, 0.0, 2022-09-18 15:15:03.633
234.0, 12884.953663939676, 27683.46252244264, -37552.85293493902, -37489.888070808425, -16876.170560857125, -187500.02235174447, 15496.218561675378, -4886.091337930124, 0.552, -0.74, 0.418, 192.0, 17.0, 64.0, 232.0, 224.0, 13.0, 16.0, 0.0, 0.0, 0.0, 1.6634961036336365E9, 0.0, 2022-09-18 15:15:03.633
235.0, 13422.110786689615, 28384.23441460543, -37620.86929331652, -37506.76363787218, -17145.10675014338, -187500.02235174447, 14989.079831728915, -5144.991593955946, 0.552, -0.74, 0.418, 192.0, 0.0, 0.0, 0.0, 0.0, 0.0, 0.0, 0.0, 0.0, 0.0, 1.6634961036336532E9, 0.0, 2022-09-18 15:15:03.633
236.0, 13978.065726526467, 29378.976449844416, -37635.420278956924, -37538.90544639891, -17194.0570705005, -187500.02235174447, 14548.30343107026, -5296.268200429464, 0.552, -0.74, 0.418, 192.0, 0.0, 0.0, 0.0, 0.0, 0.0, 0.0, 0.0, 0.0, 0.0, 1.6634961036336691E9, 0.0, 2022-09-18 15:15:03.633
237.0, 13230.869261130007, 28589.222263005053, -37488.189338229815, -37472.63252408893, -16845.30280176435, -187500.02235174447, 14669.449886018025, -5277.224514153542, 0.552, -0.74, 0.418, 192.0, 0.0, 0.0, 0.0, 0.0, 0.0, 0.0, 0.0, 0.0, 0.0, 1.6634961036336884E9, 0.0, 2022-09-18 15:15:03.633
238.0, 12667.605300856269, 27618.597760033343, -37467.46927111975, -37460.093195449495, -16695.993148802896, -187500.02235174447, 15273.572835156065, -4969.93273138198, 0.552, -0.74, 0.418, 192.0, 0.0, 0.0, 0.0, 0.0, 0.0, 0.0, 0.0, 0.0, 0.0, 1.6634961036337037E9, 0.0, 2022-09-18 15:15:03.633
239.0, 12886.384175584815, 27685.563586421442, -37539.82186792158, -37491.45269292029, -16873.24248233348, -187500.02235174447, 15502.857029778605, -4887.812422253182, 0.552, -0.74, 0.418, 192.0, 0.0, 0.0, 0.0, 0.0, 0.0, 0.0, 0.0, 0.0, 0.0, 1.6634961036337197E9, 0.0, 2022-09-18 15:15:03.633
240.0, 13421.283772144769, 28380.769894214856, -37607.34648792106, -37513.89384435342, -17142.513947786563, -187500.02235174447, 14998.087584744406, -5147.15971316811, 0.552, -0.74, 0.418, 192.0, 0.0, 0.0, 0.0, 0.0, 0.0, 0.0, 0.0, 0.0, 0.0, 1.6634961036337347E9, 0.0, 2022-09-18 15:15:03.633
241.0, 13980.47971492764, 29378.641173677588, -37628.04420328668, -37552.04827213863, -17194.839381556438, -187500.02235174447, 14554.316050328738, -5299.196278953109, 0.552, -0.74, 0.418, 192.0, 0.0, 0.0, 0.0, 0.0, 0.0, 0.0, 0.0, 0.0, 0.0, 1.66349610363375E9, 0.0, 2022-09-18 15:15:03.633
242.0, 13237.552432722145, 28597.71592589807, -37480.38857941492, -37476.14174796841, -16840.31836275081, -187500.02235174447, 14672.154447097117, -5262.159438390665, 0.552, -0.74, 0.418, 192.0, 0.0, 0.0, 0.0, 0.0, 0.0, 0.0, 0.0, 0.0, 0.0, 1.6634961036337655E9, 0.0, 2022-09-18 15:15:03.633
243.0, 12664.096076976786, 27620.698824012143, -37454.39350061339, -37467.53632635312, -16687.231264976414, -187500.02235174447, 15273.237558989234, -4954.688841663461, 0.552, -0.74, 0.418, 192.0, 0.0, 0.0, 0.0, 0.0, 0.0, 0.0, 0.0, 0.0, 0.0, 1.6634961036337805E9, 0.0, 2022-09-18 15:15:03.633
244.0, 12876.616463257846, 27681.540272419486, -37536.89378939793, -37501.689791880824, -16869.77796194291, -187500.02235174447, 15500.197172188422, -4882.492707072819, 0.558, -0.742, 0.422, 192.0, 17.0, 112.0, 232.0, 208.0, 13.0, 48.0, 0.0, 0.0, 0.0, 1.6634961036337955E9, 0.0, 2022-09-18 15:15:03.633
245.0, 13410.867859228596, 28374.846681934203, -37614.387287424484, -37528.51188522719, -17147.63249726683, -187500.02235174447, 14992.723166075131, -5149.908977736113, 0.558, -0.742, 0.422, 192.0, 0.0, 0.0, 0.0, 0.0, 0.0, 0.0, 0.0, 0.0, 0.0, 1.6634961036338117E9, 0.0, 2022-09-18 15:15:03.633
246.0, 13973.19304623521, 29377.18831028799, -37633.72154637832, -37560.139603631455, -17199.35443393641, -187500.02235174447, 14550.002163648864, -5299.196278953109, 0.558, -0.742, 0.422, 192.0, 0.0, 0.0, 0.0, 0.0, 0.0, 0.0, 0.0, 0.0, 0.0, 1.6634961036338859E9, 0.0, 2022-09-18 15:15:03.633
247.0, 13237.843005400064, 28609.29412952592, -37486.26708820666, -37488.12228299645, -16841.704170907044, -187500.02235174447, 14683.95616816952, -5254.001051664478, 0.558, -0.742, 0.422, 192.0, 0.0, 0.0, 0.0, 0.0, 0.0, 0.0, 0.0, 0.0, 0.0, 1.6634961036339011E9, 0.0, 2022-09-18 15:15:03.633
248.0, 12660.050411230375, 27630.757109017028, -37471.000846743686, -37479.94154452581, -16693.64621563509, -187500.02235174447, 15291.007195831204, -4948.564463682707, 0.558, -0.742, 0.422, 192.0, 0.0, 0.0, 0.0, 0.0, 0.0, 0.0, 0.0, 0.0, 0.0, 1.6634961036339164E9, 0.0, 2022-09-18 15:15:03.633
249.0, 12871.11793412184, 27686.167083521737, -37547.48851626975, -37504.483759937735, -16870.046182876373, -187500.02235174447, 15507.617951347585, -4878.87172447106, 0.558, -0.742, 0.422, 192.0, 0.0, 0.0, 0.0, 0.0, 0.0, 0.0, 0.0, 0.0, 0.0, 1.6634961036339345E9, 0.0, 2022-09-18 15:15:03.633
250.0, 13405.414033581501, 28378.981754658435, -37622.6797846174, -37523.572149702566, -17139.362351818367, -187500.02235174447, 15006.804765081975, -5140.185968898055, 0.558, -0.742, 0.422, 192.0, 0.0, 0.0, 0.0, 0.0, 0.0, 0.0, 0.0, 0.0, 0.0, 1.6634961036339557E9, 0.0, 2022-09-18 15:15:03.633
251.0, 13964.498217642096, 29377.00949633235, -37649.07719481912, -37556.071586140584, -17199.46619265869, -187500.02235174447, 14544.92831765751, -5299.464499886572, 0.558, -0.742, 0.422, 192.0, 0.0, 0.0, 0.0, 0.0, 0.0, 0.0, 0.0, 0.0, 0.0, 1.663496103633979E9, 0.0, 2022-09-18 15:15:03.633
252.0, 13239.407627511935, 28619.53122848645, -37498.13586451243, -37483.40606491638, -16842.352371496247, -187500.02235174447, 14683.106801880218, -5252.279967341419, 0.558, -0.742, 0.422, 192.0, 0.0, 0.0, 0.0, 0.0, 0.0, 0.0, 0.0, 0.0, 0.0, 1.6634961036339943E9, 0.0, 2022-09-18 15:15:03.633
253.0, 12651.98143148201, 27627.158478159727, -37477.39344565791, -37470.48675662121, -16696.127259269626, -187500.02235174447, 15279.11606778098, -4962.333138267176, 0.558, -0.742, 0.422, 192.0, 0.0, 0.0, 0.0, 0.0, 0.0, 0.0, 0.0, 0.0, 0.0, 1.6634961036340103E9, 0.0, 2022-09-18 15:15:03.634
254.0, 12856.902224648265, 27675.371190949823, -37552.42825179437, -37496.41478018937, -16872.750743955465, -187500.02235174447, 15491.837619762138, -4892.036901955235, 0.556, -0.742, 0.42, 192.0, 17.0, 96.0, 232.0, 208.0, 13.0, 32.0, 0.0, 0.0, 0.0, 1.6634961036340256E9, 0.0, 2022-09-18 15:15:03.634
255.0, 13387.733803717352, 28362.352056783686, -37628.982976553794, -37519.99587058972, -17143.11744488686, -187500.02235174447, 14987.202285194671, -5143.292861377342, 0.556, -0.742, 0.42, 192.0, 0.0, 0.0, 0.0, 0.0, 0.0, 0.0, 0.0, 0.0, 0.0, 1.663496103634042E9, 0.0, 2022-09-18 15:15:03.634
0.0, 13954.395229148296, 29367.599411916664, -37654.62042744403, -37563.38060657747, -17206.35052995092, -187500.02235174447, 14536.993448375875, -5291.440223627117, 0.556, -0.742, 0.42, 192.0, 0.0, 0.0, 0.0, 0.0, 0.0, 0.0, 0.0, 0.0, 0.0, 1.6634961036340573E9, 0.0, 2022-09-18 15:15:03.634
1.0, 13222.4203017259, 28606.097830068808, -37503.2544139927, -37493.95608829929, -16861.373706027713, -187500.02235174447, 14650.763827653389, -5275.8610577417685, 0.556, -0.742, 0.42, 192.0, 0.0, 0.0, 0.0, 0.0, 0.0, 0.0, 0.0, 0.0, 0.0, 1.663496103634072E9, 0.0, 2022-09-18 15:15:03.634
2.0, 12640.380876109706, 27613.501562297533, -37477.572259613546, -37475.91823052386, -16711.125279799136, -187500.02235174447, 15250.841111045018, -4981.265065820821, 0.556, -0.742, 0.42, 192.0, 0.0, 0.0, 0.0, 0.0, 0.0, 0.0, 0.0, 0.0, 0.0, 1.6634961036340904E9, 0.0, 2022-09-18 15:15:03.634
3.0, 12855.315250791939, 27668.844481568874, -37553.076452383575, -37503.65674539289, -16888.01698541844, -187500.02235174447, 15491.435288361943, -4891.3887013660315, 0.556, -0.742, 0.42, 192.0, 0.0, 0.0, 0.0, 0.0, 0.0, 0.0, 0.0, 0.0, 0.0, 1.663496103634106E9, 0.0, 2022-09-18 15:15:03.634
4.0, 13384.761021704797, 28352.0926060787, -37631.35226146606, -37531.395260261925, -17167.458494598686, -187500.02235174447, 14988.5880933509, -5163.968224998502, 0.556, -0.742, 0.42, 192.0, 0.0, 0.0, 0.0, 0.0, 0.0, 0.0, 0.0, 0.0, 0.0, 1.6634961036341212E9, 0.0, 2022-09-18 15:15:03.634
5.0, 13959.066743739457, 29360.91624032453, -37655.51449722225, -37565.57107753409, -17233.239678530656, -187500.02235174447, 14535.182957074996, -5323.716142620581, 0.556, -0.742, 0.42, 192.0, 0.0, 0.0, 0.0, 0.0, 0.0, 0.0, 0.0, 0.0, 0.0, 1.6634961036341527E9, 0.0, 2022-09-18 15:15:03.634
6.0, 13239.698200189854, 28608.064783580874, -37507.635355905935, -37491.94443129831, -16883.881912694207, -187500.02235174447, 14648.685115419044, -5298.6374853417265, 0.556, -0.742, 0.42, 192.0, 0.0, 0.0, 0.0, 0.0, 0.0, 0.0, 0.0, 0.0, 0.0, 1.663496103634168E9, 0.0, 2022-09-18 15:15:03.634
7.0, 12653.769571038434, 27614.59679777584, -37484.7471695837, -37484.79187307261, -16730.705407941987, -187500.02235174447, 15249.611765099975, -4994.296132838265, 0.556, -0.742, 0.42, 192.0, 0.0, 0.0, 0.0, 0.0, 0.0, 0.0, 0.0, 0.0, 0.0, 1.6634961036341834E9, 0.0, 2022-09-18 15:15:03.634
8.0, 12864.25594857406, 27668.755074591052, -37560.407824564914, -37513.33505074204, -16905.093718182292, -187500.02235174447, 15491.122363939568, -4899.524736347764, 0.552, -0.742, 0.41600000000000004, 192.0, 17.0, 64.0, 232.0, 208.0, 13.0, 0.0, 0.0, 0.0, 0.0, 1.6634961036341987E9, 0.0, 2022-09-18 15:15:03.634
9.0, 13390.214847351892, 28348.359864754664, -37633.27451148922, -37541.36413828899, -17176.555654591997, -187500.02235174447, 14992.276131186025, -5172.774812313893, 0.552, -0.742, 0.41600000000000004, 192.0, 0.0, 0.0, 0.0, 0.0, 0.0, 0.0, 0.0, 0.0, 0.0, 1.6634961036342149E9, 0.0, 2022-09-18 15:15:03.634
10.0, 13963.604147863884, 29360.491557179877, -37653.636950688, -37575.092920672054, -17240.280478034078, -187500.02235174447, 14543.564861245735, -5322.330334464352, 0.552, -0.742, 0.41600000000000004, 192.0, 0.0, 0.0, 0.0, 0.0, 0.0, 0.0, 0.0, 0.0, 0.0, 1.6634961036342297E9, 0.0, 2022-09-18 15:15:03.634
11.0, 13242.00042986875, 28612.71394642758, -37502.740323870225, -37505.02020180466, -16895.571875044334, -187500.02235174447, 14657.804627156811, -5293.742453306014, 0.552, -0.742, 0.41600000000000004, 192.0, 0.0, 0.0, 0.0, 0.0, 0.0, 0.0, 0.0, 0.0, 0.0, 1.6634961036342452E9, 0.0, 2022-09-18 15:15:03.634
12.0, 12648.986297724998, 27612.875713452784, -37479.78508231462, -37494.31371621057, -16743.848233681707, -187500.02235174447, 15254.238576202224, -4998.9229439405135, 0.552, -0.742, 0.41600000000000004, 192.0, 0.0, 0.0, 0.0, 0.0, 0.0, 0.0, 0.0, 0.0, 0.0, 1.663496103634261E9, 0.0, 2022-09-18 15:15:03.634
13.0, 12858.086867104395, 27662.69775184366, -37562.017150165695, -37529.04832709412, -16922.10339571278, -187500.02235174447, 15493.223427918367, -4912.287582431743, 0.552, -0.742, 0.41600000000000004, 192.0, 0.0, 0.0, 0.0, 0.0, 0.0, 0.0, 0.0, 0.0, 0.0, 1.663496103634276E9, 0.0, 2022-09-18 15:15:03.634
14.0, 13384.381042049055, 28339.486222205906, -37634.660319645445, -37548.51669651469, -17192.000710010616, -187500.02235174447, 14996.63472135481, -5175.5464286263505, 0.552, -0.742, 0.41600000000000004, 192.0, 0.0, 0.0, 0.0, 0.0, 0.0, 0.0, 0.0, 0.0, 0.0, 1.6634961036342912E9, 0.0, 2022-09-18 15:15:03.634
15.0, 13960.631365851328, 29354.52364141031, -37657.70496817887, -37583.16190042042, -17254.786760185572, -187500.02235174447, 14546.381181047105, -5332.656840402704, 0.552, -0.742, 0.41600000000000004, 192.0, 0.0, 0.0, 0.0, 0.0, 0.0, 0.0, 0.0, 0.0, 0.0, 1.6634961036343064E9, 0.0, 2022-09-18 15:15:03.634
16.0, 13242.872147902508, 28615.016176106477, -37511.45750420779, -37511.412800718885, -16905.652511793676, -187500.02235174447, 14654.161292810595, -5303.1525377216985, 0.552, -0.742, 0.41600000000000004, 192.0, 0.0, 0.0, 0.0, 0.0, 0.0, 0.0, 0.0, 0.0, 0.0, 1.663496103634322E9, 0.0, 2022-09-18 15:15:03.634
17.0, 12644.448893600571, 27611.825181463384, -37485.37301842845, -37500.61690814697, -16744.764655204377, -187500.02235174447, 15253.188044212824, -4998.408853818042, 0.552, -0.742, 0.41600000000000004, 192.0, 0.0, 0.0, 0.0, 0.0, 0.0, 0.0, 0.0, 0.0, 0.0, 1.6634961036343377E9, 0.0, 2022-09-18 15:15:03.634
18.0, 12854.108256591351, 27662.206013465646, -37559.87138269799, -37521.02405083466, -16909.38525311771, -187500.02235174447, 15501.292407666733, -4899.63649507004, 0.552, -0.742, 0.41600000000000004, 192.0, 0.0, 0.0, 0.0, 0.0, 0.0, 0.0, 0.0, 0.0, 0.0, 1.6634961036343527E9, 0.0, 2022-09-18 15:15:03.634
19.0, 13374.255701810802, 28337.56397218275, -37632.492200433284, -37540.51477199969, -17175.527474347055, -187500.02235174447, 15004.882515058818, -5165.8010680438365, 0.554, -0.75, 0.41200000000000003, 192.0, 17.0, 80.0, 232.0, 144.0, 12.0, 224.0, 0.0, 0.0, 0.0, 1.6634961036343684E9, 0.0, 2022-09-18 15:15:03.634
20.0, 13952.540034358506, 29354.925972810506, -37656.45327048937, -37576.72459801729, -17238.045303588548, -187500.02235174447, 14550.829178193711, -5329.460540945594, 0.554, -0.75, 0.41200000000000003, 192.0, 0.0, 0.0, 0.0, 0.0, 0.0, 0.0, 0.0, 0.0, 0.0, 1.6634961036343849E9, 0.0, 2022-09-18 15:15:03.634
21.0, 13236.792473410664, 28622.95104538811, -37508.28355649514, -37503.030896548145, -16884.15013362767, -187500.02235174447, 14657.089371334241, -5304.873622044757, 0.554, -0.75, 0.41200000000000003, 192.0, 0.0, 0.0, 0.0, 0.0, 0.0, 0.0, 0.0, 0.0, 0.0, 1.6634961036344466E9, 0.0, 2022-09-18 15:15:03.634
22.0, 12639.106826675752, 27621.682300768174, -37479.91919278135, -37487.47408240725, -16716.35558800168, -187500.02235174447, 15256.272584947657, -4998.230039862399, 0.554, -0.75, 0.41200000000000003, 192.0, 0.0, 0.0, 0.0, 0.0, 0.0, 0.0, 0.0, 0.0, 0.0, 1.663496103634462E9, 0.0, 2022-09-18 15:15:03.634
23.0, 12847.089808832385, 27667.503376901554, -37556.988007663254, -37515.7043356543, -16886.43001156211, -187500.02235174447, 15504.868686779582, -4905.112672461591, 0.554, -0.75, 0.41200000000000003, 192.0, 0.0, 0.0, 0.0, 0.0, 0.0, 0.0, 0.0, 0.0, 0.0, 1.66349610363448E9, 0.0, 2022-09-18 15:15:03.634
24.0, 13368.64541395252, 28334.725300636925, -37631.41931669942, -37545.029824379664, -17160.864729984372, -187500.02235174447, 15007.944704049196, -5184.107146752733, 0.554, -0.75, 0.41200000000000003, 192.0, 0.0, 0.0, 0.0, 0.0, 0.0, 0.0, 0.0, 0.0, 0.0, 1.6634961036344953E9, 0.0, 2022-09-18 15:15:03.634
25.0, 13953.255290181076, 29355.79769084426, -37654.06163383265, -37575.53995556116, -17226.668265660795, -187500.02235174447, 14551.633840994102, -5339.071791061377, 0.554, -0.75, 0.41200000000000003, 192.0, 0.0, 0.0, 0.0, 0.0, 0.0, 0.0, 0.0, 0.0, 0.0, 1.6634961036345105E9, 0.0, 2022-09-18 15:15:03.634
26.0, 13248.884767160986, 28631.221190836575, -37506.98715531673, -37504.9531465713, -16881.266758592934, -187500.02235174447, 14656.463522489492, -5306.9746860235555, 0.554, -0.75, 0.41200000000000003, 192.0, 0.0, 0.0, 0.0, 0.0, 0.0, 0.0, 0.0, 0.0, 0.0, 1.6634961036345258E9, 0.0, 2022-09-18 15:15:03.634
27.0, 12649.478036103015, 27622.263446124012, -37480.790910815114, -37487.11645449596, -16720.289495025812, -187500.02235174447, 15251.668125589864, -5005.092025410178, 0.554, -0.75, 0.41200000000000003, 192.0, 0.0, 0.0, 0.0, 0.0, 0.0, 0.0, 0.0, 0.0, 0.0, 1.663496103634541E9, 0.0, 2022-09-18 15:15:03.634
28.0, 12859.472675260626, 27669.738551347084, -37553.1658593614, -37510.96576582977, -16886.653529006664, -187500.02235174447, 15504.756928057306, -4905.671466072973, 0.554, -0.75, 0.41200000000000003, 192.0, 0.0, 0.0, 0.0, 0.0, 0.0, 0.0, 0.0, 0.0, 0.0, 1.6634961036345563E9, 0.0, 2022-09-18 15:15:03.634
29.0, 13380.044803624727, 28336.89341984909, -37629.92174982092, -37535.39622251943, -17160.238881139623, -187500.02235174447, 15011.006893039572, -5171.6125216022165, 0.558, -0.75, 0.40800000000000003, 192.0, 17.0, 112.0, 232.0, 144.0, 12.0, 192.0, 0.0, 0.0, 0.0, 1.6634961036345716E9, 0.0, 2022-09-18 15:15:03.634
30.0, 13967.448647910196, 29360.268039735325, -37655.20157279987, -37567.38156883497, -17233.17262329729, -187500.02235174447, 14554.517216028837, -5324.029067042955, 0.558, -0.75, 0.40800000000000003, 192.0, 0.0, 0.0, 0.0, 0.0, 0.0, 0.0, 0.0, 0.0, 0.0, 1.6634961036345885E9, 0.0, 2022-09-18 15:15:03.634
31.0, 13263.391049312479, 28639.357225818305, -37507.56830067257, -37497.93469881233, -16886.698232495575, -187500.02235174447, 14653.021353843375, -5298.413967897173, 0.558, -0.75, 0.40800000000000003, 192.0, 0.0, 0.0, 0.0, 0.0, 0.0, 0.0, 0.0, 0.0, 0.0, 1.6634961036346035E9, 0.0, 2022-09-18 15:15:03.634
32.0, 12652.27200415993, 27624.3198066139, -37476.521727624146, -37486.60236437349, -16720.088329325717, -187500.02235174447, 15247.421294143356, -4995.614885761129, 0.558, -0.75, 0.40800000000000003, 192.0, 0.0, 0.0, 0.0, 0.0, 0.0, 0.0, 0.0, 0.0, 0.0, 1.6634961036346192E9, 0.0, 2022-09-18 15:15:03.634
33.0, 12855.292899047483, 27667.145748990268, -37548.15906860341, -37519.39237348943, -16889.559255785854, -187500.02235174447, 15503.460526878898, -4899.3682741365765, 0.558, -0.75, 0.40800000000000003, 192.0, 0.0, 0.0, 0.0, 0.0, 0.0, 0.0, 0.0, 0.0, 0.0, 1.6634961036346345E9, 0.0, 2022-09-18 15:15:03.634
34.0, 13376.401469278511, 28334.27826574782, -37615.46017115834, -37536.089126597544, -17155.947346204204, -187500.02235174447, 15014.359654707869, -5163.185913942566, 0.558, -0.75, 0.40800000000000003, 192.0, 0.0, 0.0, 0.0, 0.0, 0.0, 0.0, 0.0, 0.0, 0.0, 1.663496103634654E9, 0.0, 2022-09-18 15:15:03.634
35.0, 13965.615804864861, 29366.124196782614, -37640.09179354808, -37569.19206013585, -17222.44378595874, -187500.02235174447, 14559.546358531281, -5318.172909995665, 0.558, -0.75, 0.40800000000000003, 192.0, 0.0, 0.0, 0.0, 0.0, 0.0, 0.0, 0.0, 0.0, 0.0, 1.6634961036346693E9, 0.0, 2022-09-18 15:15:03.634
36.0, 13259.546549266166, 28650.220173623584, -37496.727704611745, -37504.32729772655, -16881.222055104026, -187500.02235174447, 14655.23417654445, -5299.5762586088495, 0.558, -0.75, 0.40800000000000003, 192.0, 0.0, 0.0, 0.0, 0.0, 0.0, 0.0, 0.0, 0.0, 0.0, 1.663496103634699E9, 0.0, 2022-09-18 15:15:03.634
37.0, 12644.292431389384, 27628.18665840467, -37469.65974207637, -37487.65289636289, -16715.282704267825, -187500.02235174447, 15246.370762153956, -4997.291266595276, 0.558, -0.75, 0.40800000000000003, 192.0, 0.0, 0.0, 0.0, 0.0, 0.0, 0.0, 0.0, 0.0, 0.0, 1.6634961036347148E9, 0.0, 2022-09-18 15:15:03.634
38.0, 12848.96735536663, 27669.96206879164, -37548.315530814594, -37513.04447806412, -16879.76919171443, -187500.02235174447, 15506.92504726947, -4893.042730455724, 0.558, -0.75, 0.40800000000000003, 192.0, 0.0, 0.0, 0.0, 0.0, 0.0, 0.0, 0.0, 0.0, 0.0, 1.6634961036347308E9, 0.0, 2022-09-18 15:15:03.634
39.0, 13367.617233707577, 28332.84775410268, -37621.96452879483, -37531.752888173214, -17153.1980816362, -187500.02235174447, 15016.706587875677, -5157.150942939633, 0.558, -0.742, 0.41400000000000003, 192.0, 17.0, 112.0, 232.0, 208.0, 12.0, 240.0, 0.0, 0.0, 0.0, 1.6634961036347463E9, 0.0, 2022-09-18 15:15:03.634
40.0, 13963.201816463688, 29366.079493293702, -37643.44455521638, -37561.324246087584, -17220.812108613507, -187500.02235174447, 14559.613413764646, -5313.411988426685, 0.558, -0.742, 0.41400000000000003, 192.0, 0.0, 0.0, 0.0, 0.0, 0.0, 0.0, 0.0, 0.0, 0.0, 1.6634961036347632E9, 0.0, 2022-09-18 15:15:03.634
41.0, 13267.10143889206, 28659.607906294812, -37501.17570175835, -37494.73839935522, -16880.037412647893, -187500.02235174447, 14651.926118365065, -5295.597648095804, 0.558, -0.742, 0.41400000000000003, 192.0, 0.0, 0.0, 0.0, 0.0, 0.0, 0.0, 0.0, 0.0, 0.0, 1.6634961036347797E9, 0.0, 2022-09-18 15:15:03.634
42.0, 12652.763742537945, 27638.356702131834, -37473.236021189216, -37477.70637008028, -16713.2933990113, -187500.02235174447, 15243.465035374766, -4996.754824728349, 0.558, -0.742, 0.41400000000000003, 192.0, 0.0, 0.0, 0.0, 0.0, 0.0, 0.0, 0.0, 0.0, 0.0, 1.663496103634796E9, 0.0, 2022-09-18 15:15:03.634
43.0, 12850.040239100486, 27676.28761247249, -37556.87624894098, -37514.98907983173, -16888.776944729918, -187500.02235174447, 15502.991140245336, -4904.151547450012, 0.558, -0.742, 0.41400000000000003, 192.0, 0.0, 0.0, 0.0, 0.0, 0.0, 0.0, 0.0, 0.0, 0.0, 1.6634961036348116E9, 0.0, 2022-09-18 15:15:03.634
44.0, 13360.621137693064, 28332.579533169217, -37631.32990972161, -37534.92683588587, -17161.49057882912, -187500.02235174447, 15012.616218640354, -5167.253931433432, 0.558, -0.742, 0.41400000000000003, 192.0, 0.0, 0.0, 0.0, 0.0, 0.0, 0.0, 0.0, 0.0, 0.0, 1.663496103634828E9, 0.0, 2022-09-18 15:15:03.634
45.0, 13956.183368704722, 29366.973563071915, -37656.967360611845, -37571.181365392375, -17232.233850030167, -187500.02235174447, 14550.717419471433, -5322.889128075734, 0.558, -0.742, 0.41400000000000003, 192.0, 0.0, 0.0, 0.0, 0.0, 0.0, 0.0, 0.0, 0.0, 0.0, 1.6634961036348472E9, 0.0, 2022-09-18 15:15:03.634
46.0, 13256.998450398261, 28663.608868552314, -37513.46916120877, -37499.20874824628, -16888.084040651804, -187500.02235174447, 14638.604478669702, -5305.834747056335, 0.558, -0.742, 0.41400000000000003, 192.0, 0.0, 0.0, 0.0, 0.0, 0.0, 0.0, 0.0, 0.0, 0.0, 1.663496103634863E9, 0.0, 2022-09-18 15:15:03.634
47.0, 12636.491672574482, 27642.4247196227, -37485.685942850825, -37480.36622767046, -16718.25548628038, -187500.02235174447, 15232.177404424836, -4997.179507873, 0.558, -0.742, 0.41400000000000003, 192.0, 0.0, 0.0, 0.0, 0.0, 0.0, 0.0, 0.0, 0.0, 0.0, 1.6634961036348796E9, 0.0, 2022-09-18 15:15:03.634
48.0, 12831.890622602776, 27678.031048540004, -37564.7664147337, -37514.29617575362, -16888.329909840813, -187500.02235174447, 15497.649073320517, -4894.16031767849, 0.558, -0.742, 0.41400000000000003, 192.0, 0.0, 0.0, 0.0, 0.0, 0.0, 0.0, 0.0, 0.0, 0.0, 1.6634961036348977E9, 0.0, 2022-09-18 15:15:03.634
49.0, 13347.366553231068, 28332.825402358223, -37632.46984868882, -37530.03180385015, -17161.4011718513, -187500.02235174447, 15013.420881440745, -5150.7136405365045, 0.558, -0.746, 0.42, 192.0, 17.0, 112.0, 232.0, 176.0, 13.0, 32.0, 0.0, 0.0, 0.0, 1.6634961036349142E9, 0.0, 2022-09-18 15:15:03.634
50.0, 13951.534205858017, 29372.516795696833, -37656.900305378476, -37566.643961267946, -17238.60409719993, -187500.02235174447, 14555.59009976269, -5309.1428052357205, 0.558, -0.746, 0.42, 192.0, 0.0, 0.0, 0.0, 0.0, 0.0, 0.0, 0.0, 0.0, 0.0, 1.663496103634932E9, 0.0, 2022-09-18 15:15:03.634
51.0, 13257.803113198652, 28675.47764485808, -37512.597443175015, -37503.74615237071, -16899.371671601733, -187500.02235174447, 14642.493682204926, -5300.537383620427, 0.558, -0.746, 0.42, 192.0, 0.0, 0.0, 0.0, 0.0, 0.0, 0.0, 0.0, 0.0, 0.0, 1.6634961036349487E9, 0.0, 2022-09-18 15:15:03.634
52.0, 12634.055332428854, 27641.865926011316, -37479.4945096367, -37493.017315032164, -16729.520765485857, -187500.02235174447, 15232.512680591666, -5016.558470315751, 0.558, -0.746, 0.42, 192.0, 0.0, 0.0, 0.0, 0.0, 0.0, 0.0, 0.0, 0.0, 0.0, 1.6634961036349823E9, 0.0, 2022-09-18 15:15:03.634
53.0, 12832.427064469704, 27673.314830459934, -37549.634283737454, -37514.58674843154, -16895.750688999975, -187500.02235174447, 15499.34780589912, -4902.341056149132, 0.558, -0.746, 0.42, 192.0, 0.0, 0.0, 0.0, 0.0, 0.0, 0.0, 0.0, 0.0, 0.0, 1.6634961036349993E9, 0.0, 2022-09-18 15:15:03.634
54.0, 13347.970050331362, 28329.249123245376, -37623.2832817177, -37532.42344050687, -17169.179578921747, -187500.02235174447, 15017.868878587351, -5162.448306375541, 0.558, -0.746, 0.42, 192.0, 0.0, 0.0, 0.0, 0.0, 0.0, 0.0, 0.0, 0.0, 0.0, 1.6634961036350152E9, 0.0, 2022-09-18 15:15:03.635
55.0, 13952.987069247612, 29372.181519530004, -37648.87602911902, -37564.878173455974, -17244.192033313757, -187500.02235174447, 14559.456951553459, -5320.251622230008, 0.558, -0.746, 0.42, 192.0, 0.0, 0.0, 0.0, 0.0, 0.0, 0.0, 0.0, 0.0, 0.0, 1.663496103635034E9, 0.0, 2022-09-18 15:15:03.635
56.0, 13266.185017369393, 28681.982002494577, -37505.44488494931, -37502.13682676993, -16902.657378036663, -187500.02235174447, 14644.214766527983, -5308.181680224143, 0.558, -0.746, 0.42, 192.0, 0.0, 0.0, 0.0, 0.0, 0.0, 0.0, 0.0, 0.0, 0.0, 1.6634961036350508E9, 0.0, 2022-09-18 15:15:03.635
57.0, 12639.330344120306, 27647.878545269796, -37476.36526541296, -37483.36136142747, -16727.88908814062, -187500.02235174447, 15231.81977651355, -5011.574031302218, 0.558, -0.746, 0.42, 192.0, 0.0, 0.0, 0.0, 0.0, 0.0, 0.0, 0.0, 0.0, 0.0, 1.663496103635067E9, 0.0, 2022-09-18 15:15:03.635
58.0, 12831.309477246938, 27673.1807199932, -37554.551667517626, -37521.269920023675, -16897.136497156203, -187500.02235174447, 15498.006701231803, -4912.6899138319395, 0.558, -0.746, 0.42, 192.0, 0.0, 0.0, 0.0, 0.0, 0.0, 0.0, 0.0, 0.0, 0.0, 1.6634961036350827E9, 0.0, 2022-09-18 15:15:03.635
59.0, 13339.20816650488, 28321.157791752554, -37629.139438764985, -37548.5614000036, -17170.83360801144, -187500.02235174447, 15015.007855297072, -5171.389004157663, 0.556, -0.746, 0.418, 192.0, 17.0, 96.0, 232.0, 176.0, 13.0, 16.0, 0.0, 0.0, 0.0, 1.663496103635099E9, 0.0, 2022-09-18 15:15:03.635
60.0, 13937.653772551272, 29363.397283959068, -37659.35899726856, -37584.65946729892, -17250.338763038966, -187500.02235174447, 14553.198463105973, -5326.308944977396, 0.556, -0.746, 0.418, 192.0, 0.0, 0.0, 0.0, 0.0, 0.0, 0.0, 0.0, 0.0, 0.0, 1.6634961036351163E9, 0.0, 2022-09-18 15:15:03.635
61.0, 13249.62237472801, 28679.500958860037, -37514.98907983173, -37518.0065653332, -16910.368729873746, -187500.02235174447, 14636.525766435358, -5309.589840124827, 0.556, -0.746, 0.418, 192.0, 0.0, 0.0, 0.0, 0.0, 0.0, 0.0, 0.0, 0.0, 0.0, 1.663496103635132E9, 0.0, 2022-09-18 15:15:03.635
62.0, 12616.844489198267, 27642.916458000716, -37488.77048358566, -37502.62856514795, -16741.03191388034, -187500.02235174447, 15224.309590376568, -5016.737284271394, 0.556, -0.746, 0.418, 192.0, 0.0, 0.0, 0.0, 0.0, 0.0, 0.0, 0.0, 0.0, 0.0, 1.6634961036351476E9, 0.0, 2022-09-18 15:15:03.635
63.0, 12808.980084536086, 27670.52086240302, -37571.9189729594, -37539.173667332376, -16908.178258917127, -187500.02235174447, 15493.625759318562, -4916.981448767358, 0.556, -0.746, 0.418, 192.0, 0.0, 0.0, 0.0, 0.0, 0.0, 0.0, 0.0, 0.0, 0.0, 1.663496103635163E9, 0.0, 2022-09-18 15:15:03.635
64.0, 13320.835032562618, 28317.40269868406, -37640.136497037, -37552.42825179437, -17176.667413314273, -187500.02235174447, 15011.83390758442, -5176.284036193376, 0.556, -0.746, 0.418, 192.0, 0.0, 0.0, 0.0, 0.0, 0.0, 0.0, 0.0, 0.0, 0.0, 1.6634961036351976E9, 0.0, 2022-09-18 15:15:03.635
65.0, 13936.156205672767, 29363.710208381442, -37662.488241492305, -37579.652676540936, -17254.920870652302, -187500.02235174447, 14550.851529938165, -5334.7355526370475, 0.556, -0.746, 0.418, 192.0, 0.0, 0.0, 0.0, 0.0, 0.0, 0.0, 0.0, 0.0, 0.0, 1.6634961036352139E9, 0.0, 2022-09-18 15:15:03.635
66.0, 13263.659270245942, 28689.49218863156, -37516.19607403232, -37504.23789074873, -16913.87795375323, -187500.02235174447, 14635.005847812397, -5314.373113438262, 0.556, -0.746, 0.418, 192.0, 0.0, 0.0, 0.0, 0.0, 0.0, 0.0, 0.0, 0.0, 0.0, 1.6634961036352334E9, 0.0, 2022-09-18 15:15:03.635
67.0, 12632.580117294803, 27647.163289447224, -37483.4954718942, -37483.026085260644, -16739.69080921302, -187500.02235174447, 15219.839241485506, -5014.8820894816035, 0.556, -0.746, 0.418, 192.0, 0.0, 0.0, 0.0, 0.0, 0.0, 0.0, 0.0, 0.0, 0.0, 1.6634961036352696E9, 0.0, 2022-09-18 15:15:03.635
68.0, 12830.884794102287, 27673.225423482112, -37560.407824564914, -37521.76165840169, -16905.943084471593, -187500.02235174447, 15494.229256418856, -4909.046579485725, 0.556, -0.746, 0.418, 192.0, 0.0, 0.0, 0.0, 0.0, 0.0, 0.0, 0.0, 0.0, 0.0, 1.6634961036352868E9, 0.0, 2022-09-18 15:15:03.635
69.0, 13338.537614171222, 28318.45323067346, -37635.912017334944, -37538.70428069881, -17179.12610520436, -187500.02235174447, 15014.851393085884, -5169.757326812426, 0.56, -0.752, 0.41600000000000004, 192.0, 17.0, 128.0, 232.0, 128.0, 13.0, 0.0, 0.0, 0.0, 0.0, 1.6634961036353028E9, 0.0, 2022-09-18 15:15:03.635
70.0, 13944.739275543605, 29365.52069968232, -37669.484337506816, -37580.92672597489, -17266.588481257975, -187500.02235174447, 14546.761160702845, -5328.789988611936, 0.56, -0.752, 0.41600000000000004, 192.0, 0.0, 0.0, 0.0, 0.0, 0.0, 0.0, 0.0, 0.0, 0.0, 1.6634961036353245E9, 0.0, 2022-09-18 15:15:03.635
71.0, 13271.460029060845, 28698.164665480217, -37525.27088228117, -37519.660594422894, -16933.167509218158, -187500.02235174447, 14625.774577352355, -5318.731703607047, 0.56, -0.752, 0.41600000000000004, 192.0, 0.0, 0.0, 0.0, 0.0, 0.0, 0.0, 0.0, 0.0, 0.0, 1.6634961036353405E9, 0.0, 2022-09-18 15:15:03.635
72.0, 12636.849300485766, 27657.981533763592, -37492.950259798796, -37504.23789074873, -16760.36617283418, -187500.02235174447, 15211.926723948327, -5029.656592566561, 0.56, -0.752, 0.41600000000000004, 192.0, 0.0, 0.0, 0.0, 0.0, 0.0, 0.0, 0.0, 0.0, 0.0, 1.6634961036353564E9, 0.0, 2022-09-18 15:15:03.635
73.0, 12829.186061523684, 27681.741438119585, -37566.17457463439, -37522.47691422426, -16921.49989861249, -187500.02235174447, 15491.837619762138, -4900.798785781716, 0.56, -0.752, 0.41600000000000004, 192.0, 0.0, 0.0, 0.0, 0.0, 0.0, 0.0, 0.0, 0.0, 0.0, 1.6634961036353726E9, 0.0, 2022-09-18 15:15:03.635
74.0, 13335.698942625397, 28322.32008246423, -37638.90715109195, -37543.73342320126, -17196.135782734847, -187500.02235174447, 15016.416015197758, -5157.262701661909, 0.56, -0.752, 0.41600000000000004, 192.0, 0.0, 0.0, 0.0, 0.0, 0.0, 0.0, 0.0, 0.0, 0.0, 1.663496103635389E9, 0.0, 2022-09-18 15:15:03.635
75.0, 13952.584737847417, 29376.785978887798, -37672.904154408476, -37585.039446954666, -17283.553455299552, -187500.02235174447, 14552.751428216867, -5318.418779184673, 0.56, -0.752, 0.41600000000000004, 192.0, 0.0, 0.0, 0.0, 0.0, 0.0, 0.0, 0.0, 0.0, 0.0, 1.6634961036354048E9, 0.0, 2022-09-18 15:15:03.635
76.0, 13283.038232688694, 28717.454220945147, -37530.076507339065, -37511.27869025215, -16944.656305868186, -187500.02235174447, 14628.121510520163, -5308.919287791167, 0.56, -0.752, 0.41600000000000004, 192.0, 0.0, 0.0, 0.0, 0.0, 0.0, 0.0, 0.0, 0.0, 0.0, 1.6634961036354208E9, 0.0, 2022-09-18 15:15:03.635
77.0, 12638.324515619817, 27671.414932181233, -37503.27676573715, -37498.42643719035, -16772.32435611777, -187500.02235174447, 15216.709997261763, -5015.105606926156, 0.56, -0.752, 0.41600000000000004, 192.0, 0.0, 0.0, 0.0, 0.0, 0.0, 0.0, 0.0, 0.0, 0.0, 1.663496103635437E9, 0.0, 2022-09-18 15:15:03.635
78.0, 12830.705980146646, 27693.699621403175, -37580.122063174495, -37533.071641096074, -16941.527061644443, -187500.02235174447, 15495.816230275183, -4903.413939882987, 0.56, -0.752, 0.41600000000000004, 192.0, 0.0, 0.0, 0.0, 0.0, 0.0, 0.0, 0.0, 0.0, 0.0, 1.6634961036354527E9, 0.0, 2022-09-18 15:15:03.635
79.0, 13335.698942625397, 28333.65241690307, -37657.01206410075, -37559.69256874234, -17220.23096325767, -187500.02235174447, 15027.256611258581, -5162.560065097817, 0.56, -0.742, 0.42, 192.0, 17.0, 128.0, 232.0, 208.0, 13.0, 32.0, 0.0, 0.0, 0.0, 1.6634961036354687E9, 0.0, 2022-09-18 15:15:03.635
80.0, 13942.615859820351, 29378.842339377683, -37688.81859646065, -37591.09676970205, -17311.00139749067, -187500.02235174447, 14543.922489157021, -5336.881320104757, 0.56, -0.742, 0.42, 192.0, 0.0, 0.0, 0.0, 0.0, 0.0, 0.0, 0.0, 0.0, 0.0, 1.6634961036354861E9, 0.0, 2022-09-18 15:15:03.635
0.0, 0.0, 0.0, 0.0, 0.0, 0.0, 0.0, 0.0, 0.0, 0.558, -0.754, 0.378, 192.0, 17.0, 112.0, 232.0, 112.0, 11.0, 208.0, 0.0, 0.0, 0.0, 1.663496103748928E9, 0.0, 2022-09-18 15:15:03.748
1.0, 12327.277639779764, 25002.303719795196, -37770.76009163381, -37461.076672205534, -17222.197916769735, -187500.02235174447, 15526.348713201132, -4780.434641889888, 0.558, -0.754, 0.378, 192.0, 0.0, 0.0, 0.0, 0.0, 0.0, 0.0, 0.0, 0.0, 0.0, 1.6634961042291124E9, 0.0, 2022-09-18 15:15:04.229
2.0, 13041.77350303811, 25877.866253598484, -37859.31770316574, -37511.94924258581, -17495.716213669326, -187500.02235174447, 15250.505834878188, -5029.120150699634, 0.558, -0.754, 0.378, 192.0, 0.0, 0.0, 0.0, 0.0, 0.0, 0.0, 0.0, 0.0, 0.0, 1.6634961042291527E9, 0.0, 2022-09-18 15:15:04.229
3.0, 13655.12772263619, 26946.279638562162, -37876.26032546286, -37549.12019361499, -17524.61701925004, -187500.02235174447, 15079.023251417071, -5154.602844071727, 0.558, -0.754, 0.378, 192.0, 0.0, 0.0, 0.0, 0.0, 0.0, 0.0, 0.0, 0.0, 0.0, 1.6634961042293036E9, 0.0, 2022-09-18 15:15:04.229
4.0, 12686.581931898825, 25938.059501416625, -37712.84672175011, -37444.69284351979, -17169.850131255404, -187500.02235174447, 15001.954436535174, -5137.839035730247, 0.558, -0.754, 0.378, 192.0, 0.0, 0.0, 0.0, 0.0, 0.0, 0.0, 0.0, 0.0, 0.0, 1.6634961042293203E9, 0.0, 2022-09-18 15:15:04.229
5.0, 12059.302575505088, 24910.996843695266, -37689.533852283224, -37426.118543877434, -17040.94762098165, -187500.02235174447, 15347.780626747684, -4830.860177381061, 0.558, -0.754, 0.378, 192.0, 0.0, 0.0, 0.0, 0.0, 0.0, 0.0, 0.0, 0.0, 0.0, 1.6634961042293367E9, 0.0, 2022-09-18 15:15:04.229
6.0, 12321.846165877125, 25012.56317050018, -37768.99430382184, -37471.02319848814, -17231.89857386334, -187500.02235174447, 15531.959001059415, -4790.403519916955, 0.558, -0.754, 0.378, 192.0, 0.0, 0.0, 0.0, 0.0, 0.0, 0.0, 0.0, 0.0, 0.0, 1.6634961042293613E9, 0.0, 2022-09-18 15:15:04.229
7.0, 13047.584956596489, 25899.100410831026, -37846.30898789275, -37499.029934290644, -17493.97277760181, -187500.02235174447, 15258.887739048927, -5021.453502351464, 0.558, -0.754, 0.378, 192.0, 0.0, 0.0, 0.0, 0.0, 0.0, 0.0, 0.0, 0.0, 0.0, 1.6634961042293763E9, 0.0, 2022-09-18 15:15:04.229
8.0, 13661.98970818397, 26970.978316185276, -37866.134985224606, -37528.44482999382, -17512.636484221995, -187500.02235174447, 15089.483867822155, -5138.487236319451, 0.558, -0.766, 0.35000000000000003, 192.0, 17.0, 112.0, 232.0, 16.0, 10.0, 240.0, 0.0, 0.0, 0.0, 1.663496104229391E9, 0.0, 2022-09-18 15:15:04.229
9.0, 12690.001748800487, 25956.14206268097, -37706.811750747176, -37431.05827940205, -17154.4497793257, -187500.02235174447, 15013.06325352946, -5125.746741979926, 0.558, -0.766, 0.35000000000000003, 192.0, 0.0, 0.0, 0.0, 0.0, 0.0, 0.0, 0.0, 0.0, 0.0, 1.6634961042294068E9, 0.0, 2022-09-18 15:15:04.229
10.0, 12062.811799384572, 24927.157154936453, -37693.244241862805, -37422.05052638656, -17034.84559474535, -187500.02235174447, 15352.98858320577, -4824.199357533379, 0.558, -0.766, 0.35000000000000003, 192.0, 0.0, 0.0, 0.0, 0.0, 0.0, 0.0, 0.0, 0.0, 0.0, 1.663496104229421E9, 0.0, 2022-09-18 15:15:04.229
11.0, 12330.429235747963, 25033.104423654608, -37771.47534745638, -37465.07763446303, -17224.768367382094, -187500.02235174447, 15533.523623171286, -4787.654255348952, 0.558, -0.766, 0.35000000000000003, 192.0, 0.0, 0.0, 0.0, 0.0, 0.0, 0.0, 0.0, 0.0, 0.0, 1.6634961042294352E9, 0.0, 2022-09-18 15:15:04.229
12.0, 13048.523729863613, 25915.46188777231, -37852.36631064014, -37503.52263492616, -17485.03207981969, -187500.02235174447, 15255.020887258159, -5029.053095466268, 0.558, -0.766, 0.35000000000000003, 192.0, 0.0, 0.0, 0.0, 0.0, 0.0, 0.0, 0.0, 0.0, 0.0, 1.6634961042294495E9, 0.0, 2022-09-18 15:15:04.229
13.0, 13663.50962680693, 26979.29316512265, -37863.27396193433, -37532.91517888489, -17499.292492782177, -187500.02235174447, 15087.963949199195, -5142.488198576952, 0.558, -0.766, 0.35000000000000003, 192.0, 0.0, 0.0, 0.0, 0.0, 0.0, 0.0, 0.0, 0.0, 0.0, 1.6634961042294638E9, 0.0, 2022-09-18 15:15:04.229
14.0, 12688.437126688616, 25958.3772371265, -37705.694163524415, -37434.34398583698, -17143.944459431703, -187500.02235174447, 15011.409224439769, -5128.026619914368, 0.558, -0.766, 0.35000000000000003, 192.0, 0.0, 0.0, 0.0, 0.0, 0.0, 0.0, 0.0, 0.0, 0.0, 1.663496104229478E9, 0.0, 2022-09-18 15:15:04.229
15.0, 12059.615499927462, 24930.9345997494, -37698.139273898516, -37429.91834043483, -17030.33054236538, -187500.02235174447, 15351.356905860534, -4838.951508873882, 0.558, -0.766, 0.35000000000000003, 192.0, 0.0, 0.0, 0.0, 0.0, 0.0, 0.0, 0.0, 0.0, 0.0, 1.6634961042294922E9, 0.0, 2022-09-18 15:15:04.229
16.0, 12331.077436337166, 25039.832298735655, -37773.41994922399, -37471.64904733289, -17220.342721979945, -187500.02235174447, 15534.887079583059, -4804.753339857261, 0.558, -0.766, 0.35000000000000003, 192.0, 0.0, 0.0, 0.0, 0.0, 0.0, 0.0, 0.0, 0.0, 0.0, 1.6634961042295065E9, 0.0, 2022-09-18 15:15:04.229
17.0, 13055.877453789408, 25929.431728056876, -37849.32647339421, -37502.51680642567, -17483.020422818714, -187500.02235174447, 15259.513587893676, -5032.003525734369, 0.558, -0.766, 0.35000000000000003, 192.0, 0.0, 0.0, 0.0, 0.0, 0.0, 0.0, 0.0, 0.0, 0.0, 1.663496104229556E9, 0.0, 2022-09-18 15:15:04.229
18.0, 13653.697210991051, 26980.567214556602, -37866.000874757876, -37531.08233583955, -17503.092289339576, -187500.02235174447, 15082.353661340912, -5149.260777146909, 0.554, -0.774, 0.34, 192.0, 17.0, 80.0, 231.0, 208.0, 10.0, 160.0, 0.0, 0.0, 0.0, 1.6634961042295704E9, 0.0, 2022-09-18 15:15:04.229
19.0, 12676.501295149481, 25955.382103369488, -37703.727210012345, -37430.99122416869, -17141.128139630335, -187500.02235174447, 15009.285808716513, -5123.422160556574, 0.554, -0.774, 0.34, 192.0, 0.0, 0.0, 0.0, 0.0, 0.0, 0.0, 0.0, 0.0, 0.0, 1.6634961042295856E9, 0.0, 2022-09-18 15:15:04.229
20.0, 12060.15194179439, 24940.098814976074, -37688.25980284927, -37420.374145552414, -17018.08178640387, -187500.02235174447, 15359.403533864444, -4819.907822597959, 0.554, -0.774, 0.34, 192.0, 0.0, 0.0, 0.0, 0.0, 0.0, 0.0, 0.0, 0.0, 0.0, 1.6634961042295997E9, 0.0, 2022-09-18 15:15:04.229
21.0, 12330.406884003507, 25051.76813027479, -37764.92628633098, -37460.5402303386, -17209.770346852583, -187500.02235174447, 15540.78794011926, -4783.765051813728, 0.554, -0.774, 0.34, 192.0, 0.0, 0.0, 0.0, 0.0, 0.0, 0.0, 0.0, 0.0, 0.0, 1.6634961042296135E9, 0.0, 2022-09-18 15:15:04.229
22.0, 13055.832750300498, 25942.52985030769, -37846.845429759676, -37503.81320760408, -17477.79011461617, -187500.02235174447, 15261.92757629485, -5026.6838105540055, 0.554, -0.774, 0.34, 192.0, 0.0, 0.0, 0.0, 0.0, 0.0, 0.0, 0.0, 0.0, 0.0, 1.663496104229628E9, 0.0, 2022-09-18 15:15:04.229
23.0, 13656.424123814599, 26993.017136218208, -37851.36048213965, -37524.08623982504, -17490.955292100345, -187500.02235174447, 15090.55675155601, -5141.504721820917, 0.554, -0.774, 0.34, 192.0, 0.0, 0.0, 0.0, 0.0, 0.0, 0.0, 0.0, 0.0, 0.0, 1.6634961042296422E9, 0.0, 2022-09-18 15:15:04.229
24.0, 12677.082440505319, 25962.378199384, -37687.20927085987, -37420.84353218598, -17128.633514479818, -187500.02235174447, 15018.382968709824, -5115.710808719494, 0.554, -0.774, 0.34, 192.0, 0.0, 0.0, 0.0, 0.0, 0.0, 0.0, 0.0, 0.0, 0.0, 1.6634961042296565E9, 0.0, 2022-09-18 15:15:04.229
25.0, 12065.270491274654, 24948.88305054701, -37672.81474743065, -37412.26046231514, -17010.102213633327, -187500.02235174447, 15370.333536903088, -4803.926325312415, 0.554, -0.774, 0.34, 192.0, 0.0, 0.0, 0.0, 0.0, 0.0, 0.0, 0.0, 0.0, 0.0, 1.6634961042296705E9, 0.0, 2022-09-18 15:15:04.229
26.0, 12338.833491663157, 25060.328848401172, -37750.12943150156, -37454.41585235785, -17205.054128772514, -187500.02235174447, 15549.236899523366, -4760.161609668924, 0.554, -0.774, 0.34, 192.0, 0.0, 0.0, 0.0, 0.0, 0.0, 0.0, 0.0, 0.0, 0.0, 1.6634961042296846E9, 0.0, 2022-09-18 15:15:04.229
27.0, 13066.11455274994, 25953.459853346332, -37833.32262436421, -37497.5994226455, -17476.627823904495, -187500.02235174447, 15269.54952115411, -5003.9073829540475, 0.554, -0.774, 0.34, 192.0, 0.0, 0.0, 0.0, 0.0, 0.0, 0.0, 0.0, 0.0, 0.0, 1.663496104229699E9, 0.0, 2022-09-18 15:15:04.229
28.0, 13659.79923722735, 26997.465133364814, -37847.09129894868, -37525.98613810374, -17498.55488521515, -187500.02235174447, 15084.901760208817, -5142.868178232691, 0.556, -0.776, 0.33, 192.0, 17.0, 96.0, 231.0, 192.0, 10.0, 80.0, 0.0, 0.0, 0.0, 1.6634961042297153E9, 0.0, 2022-09-18 15:15:04.229
29.0, 12679.563484139859, 25966.870900019516, -37687.924526682444, -37432.44408755828, -17145.933764688227, -187500.02235174447, 15014.06908202995, -5129.5241867928735, 0.556, -0.776, 0.33, 192.0, 0.0, 0.0, 0.0, 0.0, 0.0, 0.0, 0.0, 0.0, 0.0, 1.6634961042297304E9, 0.0, 2022-09-18 15:15:04.229
30.0, 12069.986709354724, 24955.588573883604, -37670.6913317074, -37413.28864256008, -17026.240173130056, -187500.02235174447, 15364.32091764461, -4810.073055037625, 0.556, -0.776, 0.33, 192.0, 0.0, 0.0, 0.0, 0.0, 0.0, 0.0, 0.0, 0.0, 0.0, 1.6634961042297444E9, 0.0, 2022-09-18 15:15:04.229
31.0, 12342.610936476105, 25067.28024092677, -37746.150820988514, -37446.57039005404, -17215.581800410964, -187500.02235174447, 15541.436140708465, -4761.569769569608, 0.556, -0.776, 0.33, 192.0, 0.0, 0.0, 0.0, 0.0, 0.0, 0.0, 0.0, 0.0, 0.0, 1.6634961042297585E9, 0.0, 2022-09-18 15:15:04.229
32.0, 13067.455657417257, 25958.55605108214, -37837.39064185508, -37491.25152722019, -17489.70359441085, -187500.02235174447, 15257.25606170369, -5009.003580689858, 0.556, -0.776, 0.33, 192.0, 0.0, 0.0, 0.0, 0.0, 0.0, 0.0, 0.0, 0.0, 0.0, 1.6634961042297852E9, 0.0, 2022-09-18 15:15:04.229
33.0, 13659.553368038341, 27001.019060733208, -37849.39352862758, -37523.348632258014, -17501.885295138993, -187500.02235174447, 15085.281739864558, -5131.379381582664, 0.556, -0.776, 0.33, 192.0, 0.0, 0.0, 0.0, 0.0, 0.0, 0.0, 0.0, 0.0, 0.0, 1.6634961042297995E9, 0.0, 2022-09-18 15:15:04.229
34.0, 12677.596530627792, 25966.356809897043, -37687.49984353779, -37415.50146526116, -17139.183537862722, -187500.02235174447, 15020.662846644265, -5105.406654525596, 0.556, -0.776, 0.33, 192.0, 0.0, 0.0, 0.0, 0.0, 0.0, 0.0, 0.0, 0.0, 0.0, 1.6634961042298136E9, 0.0, 2022-09-18 15:15:04.229
35.0, 12073.473581489752, 24966.093893777597, -37678.357980055574, -37407.79011342408, -17022.328617850377, -187500.02235174447, 15374.558016605142, -4800.7523775997615, 0.556, -0.776, 0.33, 192.0, 0.0, 0.0, 0.0, 0.0, 0.0, 0.0, 0.0, 0.0, 0.0, 1.6634961042298276E9, 0.0, 2022-09-18 15:15:04.229
36.0, 12338.341753285142, 25074.812778808213, -37764.255733997314, -37456.47221284774, -17220.74505338014, -187500.02235174447, 15541.145568030546, -4774.712595309329, 0.556, -0.776, 0.33, 192.0, 0.0, 0.0, 0.0, 0.0, 0.0, 0.0, 0.0, 0.0, 0.0, 1.6634961042298417E9, 0.0, 2022-09-18 15:15:04.229
37.0, 13064.616985871433, 25969.03901923168, -37846.46545010393, -37497.08533252303, -17484.36152748603, -187500.02235174447, 15256.786675070129, -5016.670229038028, 0.556, -0.776, 0.33, 192.0, 0.0, 0.0, 0.0, 0.0, 0.0, 0.0, 0.0, 0.0, 0.0, 1.6634961042298558E9, 0.0, 2022-09-18 15:15:04.229
38.0, 13650.612670256218, 27008.596302103557, -37857.86483977614, -37527.01431834869, -17495.380937502498, -187500.02235174447, 15084.27591136407, -5140.007154942412, 0.556, -0.78, 0.33, 192.0, 17.0, 96.0, 231.0, 160.0, 10.0, 80.0, 0.0, 0.0, 0.0, 1.66349610422987E9, 0.0, 2022-09-18 15:15:04.229
39.0, 12658.865768774245, 25963.831062773595, -37701.67084952246, -37423.391631053884, -17140.748159974595, -187500.02235174447, 15013.912619818762, -5113.9673726519795, 0.556, -0.78, 0.33, 192.0, 0.0, 0.0, 0.0, 0.0, 0.0, 0.0, 0.0, 0.0, 0.0, 1.6634961042298849E9, 0.0, 2022-09-18 15:15:04.229
40.0, 12058.229691771234, 24965.468044932848, -37688.30450633818, -37406.24784305666, -17024.809661484916, -187500.02235174447, 15368.120714202014, -4803.14401425648, 0.556, -0.78, 0.33, 192.0, 0.0, 0.0, 0.0, 0.0, 0.0, 0.0, 0.0, 0.0, 0.0, 1.6634961042299027E9, 0.0, 2022-09-18 15:15:04.229
41.0, 12332.798520660224, 25083.999345779343, -37764.18867876395, -37447.93384646581, -17217.25818124511, -187500.02235174447, 15537.435178450964, -4771.471592363309, 0.556, -0.78, 0.33, 192.0, 0.0, 0.0, 0.0, 0.0, 0.0, 0.0, 0.0, 0.0, 0.0, 1.6634961042299168E9, 0.0, 2022-09-18 15:15:04.229
42.0, 13061.331279436503, 25981.645403104474, -37848.097127449175, -37496.32537321155, -17486.261425764733, -187500.02235174447, 15251.243442445213, -5023.599269819173, 0.556, -0.78, 0.33, 192.0, 0.0, 0.0, 0.0, 0.0, 0.0, 0.0, 0.0, 0.0, 0.0, 1.6634961042299316E9, 0.0, 2022-09-18 15:15:04.229
43.0, 13639.012114883913, 27009.49037188177, -37856.903714764565, -37517.827751377554, -17493.12341131251, -187500.02235174447, 15076.922187438273, -5128.5854135257505, 0.556, -0.78, 0.33, 192.0, 0.0, 0.0, 0.0, 0.0, 0.0, 0.0, 0.0, 0.0, 0.0, 1.663496104229946E9, 0.0, 2022-09-18 15:15:04.229
44.0, 12653.367239638239, 25960.590059827577, -37695.79234073071, -37423.63750024289, -17133.26032558207, -187500.02235174447, 15014.270247730048, -5107.3959597821195, 0.556, -0.78, 0.33, 192.0, 0.0, 0.0, 0.0, 0.0, 0.0, 0.0, 0.0, 0.0, 0.0, 1.66349610422996E9, 0.0, 2022-09-18 15:15:04.229
45.0, 12062.498874962197, 24968.329068223127, -37679.83319518962, -37406.22549131221, -17018.864097459806, -187500.02235174447, 15373.172208448912, -4801.75820610025, 0.556, -0.78, 0.33, 192.0, 0.0, 0.0, 0.0, 0.0, 0.0, 0.0, 0.0, 0.0, 0.0, 1.663496104229974E9, 0.0, 2022-09-18 15:15:04.229
46.0, 12337.760607929304, 25086.68155511398, -37760.6123996511, -37443.91053246386, -17216.632332400364, -187500.02235174447, 15538.55276567373, -4766.934188238882, 0.556, -0.78, 0.33, 192.0, 0.0, 0.0, 0.0, 0.0, 0.0, 0.0, 0.0, 0.0, 0.0, 1.6634961042299883E9, 0.0, 2022-09-18 15:15:04.229
47.0, 13068.103858006461, 25988.686202607896, -37846.15252568156, -37489.03870451912, -17484.965024586323, -187500.02235174447, 15249.500006377699, -5011.194051646477, 0.556, -0.78, 0.33, 192.0, 0.0, 0.0, 0.0, 0.0, 0.0, 0.0, 0.0, 0.0, 0.0, 1.6634961042300143E9, 0.0, 2022-09-18 15:15:04.230
48.0, 13643.3707050527, 27015.167714973417, -37855.96494149744, -37515.592576932024, -17493.056356079145, -187500.02235174447, 15070.060201890494, -5133.033410672357, 0.556, -0.786, 0.322, 192.0, 17.0, 96.0, 231.0, 112.0, 10.0, 16.0, 0.0, 0.0, 0.0, 1.6634961042300289E9, 0.0, 2022-09-18 15:15:04.230
49.0, 12653.769571038434, 25962.914641250925, -37700.709724510874, -37418.89893041836, -17135.003761649583, -187500.02235174447, 15005.486012159112, -5112.045122628823, 0.556, -0.786, 0.322, 192.0, 0.0, 0.0, 0.0, 0.0, 0.0, 0.0, 0.0, 0.0, 0.0, 1.6634961042300458E9, 0.0, 2022-09-18 15:15:04.230
50.0, 12069.517322721164, 24973.35821072557, -37683.72239872484, -37403.72209593321, -17018.193545126145, -187500.02235174447, 15367.561920590631, -4803.14401425648, 0.556, -0.786, 0.322, 192.0, 0.0, 0.0, 0.0, 0.0, 0.0, 0.0, 0.0, 0.0, 0.0, 1.66349610423006E9, 0.0, 2022-09-18 15:15:04.230
51.0, 12353.116256370098, 25096.941005818964, -37748.76597508979, -37428.30901483405, -17205.679977617263, -187500.02235174447, 15538.686876140462, -4762.352080625544, 0.556, -0.786, 0.322, 192.0, 0.0, 0.0, 0.0, 0.0, 0.0, 0.0, 0.0, 0.0, 0.0, 1.663496104230074E9, 0.0, 2022-09-18 15:15:04.230
52.0, 13078.005680800163, 25994.408249188455, -37836.11659242113, -37486.02121901765, -17482.41692571842, -187500.02235174447, 15246.527224365143, -5024.560394830751, 0.556, -0.786, 0.322, 192.0, 0.0, 0.0, 0.0, 0.0, 0.0, 0.0, 0.0, 0.0, 0.0, 1.663496104230088E9, 0.0, 2022-09-18 15:15:04.230
53.0, 13647.125798121191, 27013.96072077283, -37848.74532803838, -37519.34767000052, -17494.50921946874, -187500.02235174447, 15070.060201890494, -5142.309384621309, 0.556, -0.786, 0.322, 192.0, 0.0, 0.0, 0.0, 0.0, 0.0, 0.0, 0.0, 0.0, 0.0, 1.663496104230102E9, 0.0, 2022-09-18 15:15:04.230
54.0, 12654.350716394272, 25956.969077225815, -37684.37059931405, -37418.36248855144, -17132.76858720405, -187500.02235174447, 15010.850430828385, -5111.083997617245, 0.556, -0.786, 0.322, 192.0, 0.0, 0.0, 0.0, 0.0, 0.0, 0.0, 0.0, 0.0, 0.0, 1.6634961042301166E9, 0.0, 2022-09-18 15:15:04.230
55.0, 12064.398773240897, 24971.45831244687, -37672.188898585904, -37408.840645413475, -17024.407330084723, -187500.02235174447, 15372.971042748815, -4809.670723637429, 0.556, -0.786, 0.322, 192.0, 0.0, 0.0, 0.0, 0.0, 0.0, 0.0, 0.0, 0.0, 0.0, 1.663496104230131E9, 0.0, 2022-09-18 15:15:04.230
56.0, 12337.760607929304, 25090.615462138114, -37751.336425702146, -37453.387672112905, -17222.130861536367, -187500.02235174447, 15537.211661006411, -4776.61249358803, 0.556, -0.786, 0.322, 192.0, 0.0, 0.0, 0.0, 0.0, 0.0, 0.0, 0.0, 0.0, 0.0, 1.6634961042301447E9, 0.0, 2022-09-18 15:15:04.230
57.0, 13060.459561402746, 25990.25082471977, -37841.12338317912, -37505.467236693774, -17496.36441425853, -187500.02235174447, 15241.162805695869, -5027.42141812103, 0.556, -0.786, 0.322, 192.0, 0.0, 0.0, 0.0, 0.0, 0.0, 0.0, 0.0, 0.0, 0.0, 1.663496104230159E9, 0.0, 2022-09-18 15:15:04.230
58.0, 13627.344504278244, 27010.16092421543, -37851.092261206184, -37532.82577190707, -17503.516972484227, -187500.02235174447, 15061.11950410837, -5142.8458264882365, 0.562, -0.786, 0.32, 192.0, 17.0, 144.0, 231.0, 112.0, 10.0, 0.0, 0.0, 0.0, 0.0, 1.6634961042301874E9, 0.0, 2022-09-18 15:15:04.230
59.0, 12639.442102842582, 25954.488033591275, -37681.151948112485, -37425.96208166624, -17140.703456485684, -187500.02235174447, 15007.20709648217, -5107.015980126379, 0.562, -0.786, 0.32, 192.0, 0.0, 0.0, 0.0, 0.0, 0.0, 0.0, 0.0, 0.0, 0.0, 1.6634961042302034E9, 0.0, 2022-09-18 15:15:04.230
60.0, 12060.95660459478, 24972.79941711419, -37666.824479916635, -37406.51606399013, -17024.183812640167, -187500.02235174447, 15372.702821815352, -4793.085729251591, 0.562, -0.786, 0.32, 192.0, 0.0, 0.0, 0.0, 0.0, 0.0, 0.0, 0.0, 0.0, 0.0, 1.6634961042302184E9, 0.0, 2022-09-18 15:15:04.230
61.0, 12343.035619620756, 25096.49397092986, -37744.89912329902, -37441.7871167406, -17217.034663800558, -187500.02235174447, 15535.624687150084, -4766.151877182946, 0.562, -0.786, 0.32, 192.0, 0.0, 0.0, 0.0, 0.0, 0.0, 0.0, 0.0, 0.0, 0.0, 1.6634961042302337E9, 0.0, 2022-09-18 15:15:04.230
62.0, 13076.865741832942, 26005.472362693832, -37831.646243530064, -37480.5450416261, -17482.21576001832, -187500.02235174447, 15241.83335802953, -5004.980266687902, 0.562, -0.786, 0.32, 192.0, 0.0, 0.0, 0.0, 0.0, 0.0, 0.0, 0.0, 0.0, 0.0, 1.6634961042302487E9, 0.0, 2022-09-18 15:15:04.230
63.0, 13642.901318419137, 27023.48256391079, -37837.256531388346, -37500.88512908043, -17483.243940263266, -187500.02235174447, 15065.768666955075, -5108.58060223825, 0.562, -0.786, 0.32, 192.0, 0.0, 0.0, 0.0, 0.0, 0.0, 0.0, 0.0, 0.0, 0.0, 1.6634961042302768E9, 0.0, 2022-09-18 15:15:04.230
64.0, 12647.712248291045, 25959.60658307154, -37678.93912541141, -37404.75027617816, -17125.973656889637, -187500.02235174447, 15010.850430828385, -5080.618569924662, 0.562, -0.786, 0.32, 192.0, 0.0, 0.0, 0.0, 0.0, 0.0, 0.0, 0.0, 0.0, 0.0, 1.663496104230292E9, 0.0, 2022-09-18 15:15:04.230
65.0, 12070.232578543733, 24985.249338775797, -37668.433805517416, -37398.290622030574, -17017.187716625656, -187500.02235174447, 15377.977833506804, -4773.505601108743, 0.562, -0.786, 0.32, 192.0, 0.0, 0.0, 0.0, 0.0, 0.0, 0.0, 0.0, 0.0, 0.0, 1.663496104230309E9, 0.0, 2022-09-18 15:15:04.230
66.0, 12345.516663255295, 25108.92154084701, -37745.36850993258, -37423.72690722071, -17212.45255618722, -187500.02235174447, 15535.959963316915, -4741.632013515475, 0.562, -0.786, 0.32, 192.0, 0.0, 0.0, 0.0, 0.0, 0.0, 0.0, 0.0, 0.0, 0.0, 1.6634961042303245E9, 0.0, 2022-09-18 15:15:04.230
67.0, 13074.071773776028, 26017.05056632168, -37831.601540041156, -37477.54990786909, -17482.729850140793, -187500.02235174447, 15239.821701028552, -5001.783967230794, 0.562, -0.786, 0.32, 192.0, 0.0, 0.0, 0.0, 0.0, 0.0, 0.0, 0.0, 0.0, 0.0, 1.6634961042303395E9, 0.0, 2022-09-18 15:15:04.230
68.0, 13631.323114791288, 27023.88489531099, -37841.86099074614, -37506.98715531673, -17489.480076966294, -187500.02235174447, 15056.760913939586, -5126.01496291339, 0.5660000000000001, -0.782, 0.324, 192.0, 17.0, 176.0, 231.0, 144.0, 10.0, 32.0, 0.0, 0.0, 0.0, 1.6634961042303548E9, 0.0, 2022-09-18 15:15:04.230
69.0, 12639.866785987233, 25957.03613245918, -37677.46391027736, -37399.2293952977, -17126.06306386746, -187500.02235174447, 15003.742576091598, -5081.713805402971, 0.5660000000000001, -0.782, 0.324, 192.0, 0.0, 0.0, 0.0, 0.0, 0.0, 0.0, 0.0, 0.0, 0.0, 1.663496104230371E9, 0.0, 2022-09-18 15:15:04.230
70.0, 12070.299633777098, 24987.171588798952, -37665.908058393965, -37392.50152021665, -17019.311132348914, -187500.02235174447, 15371.94286250387, -4771.739813296773, 0.5660000000000001, -0.782, 0.324, 192.0, 0.0, 0.0, 0.0, 0.0, 0.0, 0.0, 0.0, 0.0, 0.0, 1.6634961042303884E9, 0.0, 2022-09-18 15:15:04.230
71.0, 12354.569119759693, 25117.68342467349, -37741.076974997166, -37425.44799154377, -17216.94525682274, -187500.02235174447, 15529.187384746956, -4742.973118182793, 0.5660000000000001, -0.782, 0.324, 192.0, 0.0, 0.0, 0.0, 0.0, 0.0, 0.0, 0.0, 0.0, 0.0, 1.6634961042304037E9, 0.0, 2022-09-18 15:15:04.230
72.0, 13087.30400649357, 26025.655987936974, -37826.68415626099, -37466.41873913035, -17481.992242573768, -187500.02235174447, 15229.003456712182, -4991.5245165258075, 0.5660000000000001, -0.782, 0.324, 192.0, 0.0, 0.0, 0.0, 0.0, 0.0, 0.0, 0.0, 0.0, 0.0, 1.6634961042304187E9, 0.0, 2022-09-18 15:15:04.230
73.0, 13635.122911348692, 27023.773136588712, -37835.87072323212, -37498.895823823914, -17483.668623407917, -187500.02235174447, 15046.345001023414, -5117.051913386812, 0.5660000000000001, -0.782, 0.324, 192.0, 0.0, 0.0, 0.0, 0.0, 0.0, 0.0, 0.0, 0.0, 0.0, 1.663496104230434E9, 0.0, 2022-09-18 15:15:04.230
74.0, 12635.105864418252, 25952.632838801484, -37671.63010497452, -37397.173034807805, -17121.14568008729, -187500.02235174447, 14997.238218455102, -5081.222067024954, 0.5660000000000001, -0.782, 0.324, 192.0, 0.0, 0.0, 0.0, 0.0, 0.0, 0.0, 0.0, 0.0, 0.0, 1.6634961042304492E9, 0.0, 2022-09-18 15:15:04.230
75.0, 12074.099430334501, 24989.00443184429, -37660.47658449133, -37386.86888061391, -17012.337388078857, -187500.02235174447, 15372.769877048717, -4768.051775461648, 0.5660000000000001, -0.782, 0.324, 192.0, 0.0, 0.0, 0.0, 0.0, 0.0, 0.0, 0.0, 0.0, 0.0, 1.6634961042304645E9, 0.0, 2022-09-18 15:15:04.230
76.0, 12359.26298609531, 25118.845715385167, -37736.69603308392, -37427.05731714455, -17209.591532896942, -187500.02235174447, 15531.444910936942, -4745.007126928226, 0.5660000000000001, -0.782, 0.324, 192.0, 0.0, 0.0, 0.0, 0.0, 0.0, 0.0, 0.0, 0.0, 0.0, 1.6634961042304797E9, 0.0, 2022-09-18 15:15:04.230
77.0, 13088.511000694156, 26027.891162382504, -37827.958205694944, -37474.778291556635, -17483.445105963365, -187500.02235174447, 15230.277506146134, -4995.32431308321, 0.5660000000000001, -0.782, 0.324, 192.0, 0.0, 0.0, 0.0, 0.0, 0.0, 0.0, 0.0, 0.0, 0.0, 1.6634961042304957E9, 0.0, 2022-09-18 15:15:04.230
78.0, 13633.066550858803, 27024.220171477817, -37838.865856989134, -37505.48958843823, -17487.35666124304, -187500.02235174447, 15045.31682077847, -5121.946945422524, 0.5660000000000001, -0.782, 0.32, 192.0, 17.0, 176.0, 231.0, 144.0, 10.0, 0.0, 0.0, 0.0, 0.0, 1.6634961042305243E9, 0.0, 2022-09-18 15:15:04.230
79.0, 12633.161262650641, 25949.548298066653, -37675.45225327638, -37405.68904944528, -17123.358502788367, -187500.02235174447, 15001.10507024587, -5082.987854836923, 0.5660000000000001, -0.782, 0.32, 192.0, 0.0, 0.0, 0.0, 0.0, 0.0, 0.0, 0.0, 0.0, 0.0, 1.6634961042305448E9, 0.0, 2022-09-18 15:15:04.230
80.0, 12075.284072790631, 24990.725516167346, -37669.28317180672, -37396.50248247415, -17023.13328065077, -187500.02235174447, 15376.94965326186, -4771.784516785684, 0.5660000000000001, -0.782, 0.32, 192.0, 0.0, 0.0, 0.0, 0.0, 0.0, 0.0, 0.0, 0.0, 0.0, 1.66349610423056E9, 0.0, 2022-09-18 15:15:04.230
81.0, 12364.381535575574, 25125.417128255027, -37746.41904192198, -37427.25848284465, -17224.902477848827, -187500.02235174447, 15532.316628970699, -4745.096533906047, 0.5660000000000001, -0.782, 0.32, 192.0, 0.0, 0.0, 0.0, 0.0, 0.0, 0.0, 0.0, 0.0, 0.0, 1.6634961042305748E9, 0.0, 2022-09-18 15:15:04.230
82.0, 13101.296198522592, 26041.302209055688, -37831.71329876343, -37473.95127701179, -17493.97277760181, -187500.02235174447, 15230.970410224249, -4993.245600848866, 0.5660000000000001, -0.782, 0.32, 192.0, 0.0, 0.0, 0.0, 0.0, 0.0, 0.0, 0.0, 0.0, 0.0, 1.66349610423059E9, 0.0, 2022-09-18 15:15:04.230
83.0, 13644.801216697839, 27034.680787882902, -37836.80949649924, -37506.11543728298, -17493.74926015726, -187500.02235174447, 15046.993201612617, -5118.996515154424, 0.5660000000000001, -0.782, 0.32, 192.0, 0.0, 0.0, 0.0, 0.0, 0.0, 0.0, 0.0, 0.0, 0.0, 1.663496104230605E9, 0.0, 2022-09-18 15:15:04.230
84.0, 12641.230242399008, 25954.555088824643, -37668.41145377296, -37401.64338369887, -17129.661694724764, -187500.02235174447, 15007.251799971082, -5081.736157147427, 0.5660000000000001, -0.782, 0.32, 192.0, 0.0, 0.0, 0.0, 0.0, 0.0, 0.0, 0.0, 0.0, 0.0, 1.66349610423062E9, 0.0, 2022-09-18 15:15:04.230
85.0, 12085.007081628692, 24998.436868004428, -37659.44840424638, -37396.14485456287, -17027.961257453117, -187500.02235174447, 15386.471496399821, -4771.963330741326, 0.5660000000000001, -0.782, 0.32, 192.0, 0.0, 0.0, 0.0, 0.0, 0.0, 0.0, 0.0, 0.0, 0.0, 1.6634961042306352E9, 0.0, 2022-09-18 15:15:04.230
86.0, 12365.186198375965, 25126.758232922344, -37743.446259909426, -37439.10490740596, -17232.636181430364, -187500.02235174447, 15535.289410983254, -4764.296682393156, 0.5660000000000001, -0.782, 0.32, 192.0, 0.0, 0.0, 0.0, 0.0, 0.0, 0.0, 0.0, 0.0, 0.0, 1.6634961042306504E9, 0.0, 2022-09-18 15:15:04.230
87.0, 13097.697567665287, 26040.76576718876, -37829.142848151074, -37484.3001346946, -17498.3313677706, -187500.02235174447, 15231.216279413258, -5018.234851149899, 0.5660000000000001, -0.782, 0.32, 192.0, 0.0, 0.0, 0.0, 0.0, 0.0, 0.0, 0.0, 0.0, 0.0, 1.6634961042306654E9, 0.0, 2022-09-18 15:15:04.230
88.0, 13635.212318326512, 27027.63998837948, -37832.920292964016, -37505.78016111615, -17492.050527578656, -187500.02235174447, 15045.31682077847, -5128.92068969258, 0.5660000000000001, -0.782, 0.32, 192.0, 0.0, 0.0, 0.0, 0.0, 0.0, 0.0, 0.0, 0.0, 0.0, 1.6634961042306805E9, 0.0, 2022-09-18 15:15:04.230
89.0, 12628.601506781759, 25943.915658463917, -37677.642724233, -37409.51119774714, -17130.935744158716, -187500.02235174447, 14999.115764989348, -5093.7166921754715, 0.556, -0.78, 0.316, 192.0, 17.0, 96.0, 231.0, 160.0, 9.0, 224.0, 0.0, 0.0, 0.0, 1.6634961042306957E9, 0.0, 2022-09-18 15:15:04.230
90.0, 12075.217017557266, 24994.346498769108, -37674.17820384243, -37399.765837164625, -17025.61432428531, -187500.02235174447, 15375.787362550183, -4783.765051813728, 0.556, -0.78, 0.316, 192.0, 0.0, 0.0, 0.0, 0.0, 0.0, 0.0, 0.0, 0.0, 0.0, 1.6634961042307117E9, 0.0, 2022-09-18 15:15:04.230
91.0, 12354.233843592865, 25129.55220097926, -37749.95061754592, -37430.27596834612, -17218.867506845894, -187500.02235174447, 15524.784091089261, -4752.003222942737, 0.556, -0.78, 0.316, 192.0, 0.0, 0.0, 0.0, 0.0, 0.0, 0.0, 0.0, 0.0, 0.0, 1.6634961042307267E9, 0.0, 2022-09-18 15:15:04.230
92.0, 13087.751041382677, 26045.794909691205, -37839.089374433686, -37481.72968408224, -17491.290568267177, -187500.02235174447, 15219.839241485506, -5005.874336466114, 0.556, -0.78, 0.316, 192.0, 0.0, 0.0, 0.0, 0.0, 0.0, 0.0, 0.0, 0.0, 0.0, 1.6634961042307448E9, 0.0, 2022-09-18 15:15:04.230
93.0, 13628.931478134571, 27027.841154079575, -37839.96109246744, -37504.57316691556, -17486.686108909384, -187500.02235174447, 15036.577288696444, -5121.946945422524, 0.556, -0.78, 0.316, 192.0, 0.0, 0.0, 0.0, 0.0, 0.0, 0.0, 0.0, 0.0, 0.0, 1.6634961042307734E9, 0.0, 2022-09-18 15:15:04.230
94.0, 12628.467396315027, 25944.586210797574, -37674.088796864606, -37397.21773829672, -17116.161241073758, -187500.02235174447, 14999.719262089642, -5082.987854836923, 0.556, -0.78, 0.316, 192.0, 0.0, 0.0, 0.0, 0.0, 0.0, 0.0, 0.0, 0.0, 0.0, 1.6634961042307887E9, 0.0, 2022-09-18 15:15:04.230
95.0, 12078.703889692295, 24997.699260437403, -37671.361884041056, -37397.19538655227, -17017.008902670015, -187500.02235174447, 15381.218836452823, -4781.395766901465, 0.556, -0.78, 0.316, 192.0, 0.0, 0.0, 0.0, 0.0, 0.0, 0.0, 0.0, 0.0, 0.0, 1.6634961042308037E9, 0.0, 2022-09-18 15:15:04.230
96.0, 12366.460247809917, 25136.503593504858, -37747.491925655835, -37425.35858456595, -17214.03953004355, -187500.02235174447, 15529.656771380518, -4747.6893362628625, 0.556, -0.78, 0.316, 192.0, 0.0, 0.0, 0.0, 0.0, 0.0, 0.0, 0.0, 0.0, 0.0, 1.6634961042308192E9, 0.0, 2022-09-18 15:15:04.230
97.0, 13107.755852670176, 26059.63063950904, -37822.213807369924, -37464.58589608502, -17475.01849830371, -187500.02235174447, 15228.511718334166, -4991.569220014718, 0.556, -0.78, 0.316, 192.0, 0.0, 0.0, 0.0, 0.0, 0.0, 0.0, 0.0, 0.0, 0.0, 1.6634961042308345E9, 0.0, 2022-09-18 15:15:04.230
98.0, 13642.342524807755, 27035.19487800537, -37820.73859223587, -37483.38371317193, -17467.01657378871, -187500.02235174447, 15043.573384710955, -5109.988762138934, 0.556, -0.78, 0.316, 192.0, 0.0, 0.0, 0.0, 0.0, 0.0, 0.0, 0.0, 0.0, 0.0, 1.6634961042308495E9, 0.0, 2022-09-18 15:15:04.230
99.0, 12640.31382087634, 25946.46375733182, -37654.64277918849, -37379.850432854946, -17099.375080987822, -187500.02235174447, 15010.06811977245, -5058.400935936086, 0.56, -0.778, 0.328, 192.0, 17.0, 128.0, 231.0, 176.0, 10.0, 64.0, 0.0, 0.0, 0.0, 1.6634961042308648E9, 0.0, 2022-09-18 15:15:04.230
100.0, 12096.853506190004, 25006.52819949725, -37652.139383809495, -37376.341208975464, -16997.205257082613, -187500.02235174447, 15396.172153493424, -4737.541644280153, 0.56, -0.778, 0.328, 192.0, 0.0, 0.0, 0.0, 0.0, 0.0, 0.0, 0.0, 0.0, 0.0, 1.6634961042308807E9, 0.0, 2022-09-18 15:15:04.230
101.0, 12379.603073549639, 25144.77373895332, -37732.02451849276, -37420.99999439716, -17199.577951380965, -187500.02235174447, 15543.02311456479, -4727.393952297443, 0.56, -0.778, 0.328, 192.0, 0.0, 0.0, 0.0, 0.0, 0.0, 0.0, 0.0, 0.0, 0.0, 1.663496104230896E9, 0.0, 2022-09-18 15:15:04.230
102.0, 13115.6460184629, 26069.577165791652, -37820.53742653578, -37476.76759681316, -17472.045716291155, -187500.02235174447, 15237.273602160645, -4988.79760370226, 0.56, -0.778, 0.328, 192.0, 0.0, 0.0, 0.0, 0.0, 0.0, 0.0, 0.0, 0.0, 0.0, 1.6634961042309136E9, 0.0, 2022-09-18 15:15:04.230
103.0, 13641.56021375182, 27042.503898442257, -37822.75024923685, -37487.87641380745, -17464.088495265067, -187500.02235174447, 15050.033038858539, -5097.62824745515, 0.56, -0.778, 0.328, 192.0, 0.0, 0.0, 0.0, 0.0, 0.0, 0.0, 0.0, 0.0, 0.0, 1.6634961042309287E9, 0.0, 2022-09-18 15:15:04.230
104.0, 12632.244841127973, 25949.123614922002, -37662.130613581015, -37387.248860269654, -17098.212790276146, -187500.02235174447, 15014.4937651746, -5053.148275989089, 0.56, -0.778, 0.328, 192.0, 0.0, 0.0, 0.0, 0.0, 0.0, 0.0, 0.0, 0.0, 0.0, 1.663496104230944E9, 0.0, 2022-09-18 15:15:04.230
105.0, 12089.522134008663, 25010.775030943758, -37656.72149142283, -37382.3761799784, -17001.385033295755, -187500.02235174447, 15398.563790150141, -4741.833179215572, 0.56, -0.778, 0.328, 192.0, 0.0, 0.0, 0.0, 0.0, 0.0, 0.0, 0.0, 0.0, 0.0, 1.663496104230959E9, 0.0, 2022-09-18 15:15:04.230
106.0, 12373.679861268982, 25149.378198311115, -37736.517219128276, -37417.73663970669, -17204.517686905587, -187500.02235174447, 15540.296201741243, -4728.2656703312, 0.56, -0.778, 0.328, 192.0, 0.0, 0.0, 0.0, 0.0, 0.0, 0.0, 0.0, 0.0, 0.0, 1.663496104230974E9, 0.0, 2022-09-18 15:15:04.230
107.0, 13109.745157926698, 26072.728761759852, -37826.75121149435, -37465.30115190758, -17477.208969260333, -187500.02235174447, 15229.092863690003, -4988.8199554467155, 0.56, -0.778, 0.328, 192.0, 0.0, 0.0, 0.0, 0.0, 0.0, 0.0, 0.0, 0.0, 0.0, 1.663496104230989E9, 0.0, 2022-09-18 15:15:04.230
108.0, 13627.948001378538, 27040.894572841476, -37832.02622318581, -37496.12420751145, -17474.571463414606, -187500.02235174447, 15042.45579748819, -5113.229765084954, 0.56, -0.778, 0.328, 192.0, 0.0, 0.0, 0.0, 0.0, 0.0, 0.0, 0.0, 0.0, 0.0, 1.6634961042310042E9, 0.0, 2022-09-18 15:15:04.231
109.0, 12613.156451363142, 25941.792242740663, -37669.97607588483, -37392.278002772095, -17109.545124714987, -187500.02235174447, 15010.671616872743, -5066.268749984354, 0.562, -0.78, 0.326, 192.0, 17.0, 144.0, 231.0, 160.0, 10.0, 48.0, 0.0, 0.0, 0.0, 1.663496104231032E9, 0.0, 2022-09-18 15:15:04.231
110.0, 12084.560046739585, 25017.36879555807, -37662.73411068131, -37383.53847069007, -17010.616303755796, -187500.02235174447, 15402.654159385464, -4749.097496163547, 0.562, -0.78, 0.326, 192.0, 0.0, 0.0, 0.0, 0.0, 0.0, 0.0, 0.0, 0.0, 0.0, 1.6634961042310479E9, 0.0, 2022-09-18 15:15:04.231
111.0, 12378.753707260335, 25167.03607643081, -37744.00505352081, -37422.05052638656, -17217.50405043412, -187500.02235174447, 15545.995896577348, -4731.350211066033, 0.562, -0.78, 0.326, 192.0, 0.0, 0.0, 0.0, 0.0, 0.0, 0.0, 0.0, 0.0, 0.0, 1.6634961042310653E9, 0.0, 2022-09-18 15:15:04.231
112.0, 13121.435120276825, 26098.209750438902, -37831.042746429775, -37468.050416475584, -17488.78717288818, -187500.02235174447, 15239.173500439347, -4980.035719875779, 0.562, -0.78, 0.326, 192.0, 0.0, 0.0, 0.0, 0.0, 0.0, 0.0, 0.0, 0.0, 0.0, 1.6634961042310808E9, 0.0, 2022-09-18 15:15:04.231
113.0, 13642.02960038538, 27065.056808597663, -37829.34401385117, -37487.67524810735, -17476.247844248755, -187500.02235174447, 15055.308050549991, -5091.5485729633065, 0.562, -0.78, 0.326, 192.0, 0.0, 0.0, 0.0, 0.0, 0.0, 0.0, 0.0, 0.0, 0.0, 1.6634961042310982E9, 0.0, 2022-09-18 15:15:04.231
114.0, 12627.036884669888, 25964.054580218148, -37674.64759047599, -37389.95342134874, -17112.42849974972, -187500.02235174447, 15020.104053032883, -5048.297947442287, 0.562, -0.78, 0.326, 192.0, 0.0, 0.0, 0.0, 0.0, 0.0, 0.0, 0.0, 0.0, 0.0, 1.6634961042311137E9, 0.0, 2022-09-18 15:15:04.231
115.0, 12087.979863641247, 25032.612685276592, -37675.51930850975, -37386.1759765358, -17017.634751514765, -187500.02235174447, 15402.341234963089, -4740.290908848156, 0.562, -0.78, 0.326, 192.0, 0.0, 0.0, 0.0, 0.0, 0.0, 0.0, 0.0, 0.0, 0.0, 1.6634961042311285E9, 0.0, 2022-09-18 15:15:04.231
116.0, 12376.630291537082, 25179.30718413677, -37760.344178717634, -37431.32650033552, -17224.79071912655, -187500.02235174447, 15541.458492452919, -4741.2967373486445, 0.562, -0.78, 0.326, 192.0, 0.0, 0.0, 0.0, 0.0, 0.0, 0.0, 0.0, 0.0, 0.0, 1.6634961042311437E9, 0.0, 2022-09-18 15:15:04.231
117.0, 13119.557573742579, 26116.761698336806, -37847.605389071156, -37470.21853568775, -17489.815353133126, -187500.02235174447, 15237.474767860744, -4985.131917611589, 0.562, -0.78, 0.326, 192.0, 0.0, 0.0, 0.0, 0.0, 0.0, 0.0, 0.0, 0.0, 0.0, 1.6634961042311623E9, 0.0, 2022-09-18 15:15:04.231
118.0, 13628.372684523189, 27073.304602301672, -37846.286636148296, -37489.21751847476, -17475.331422726085, -187500.02235174447, 15048.736637680131, -5102.72444519096, 0.562, -0.78, 0.326, 192.0, 0.0, 0.0, 0.0, 0.0, 0.0, 0.0, 0.0, 0.0, 0.0, 1.6634961042311776E9, 0.0, 2022-09-18 15:15:04.231
119.0, 12611.949457162555, 25960.746522038764, -37686.09168363711, -37395.65311618485, -17113.47903173912, -187500.02235174447, 15014.806689596975, -5059.540874903307, 0.558, -0.772, 0.326, 192.0, 17.0, 112.0, 231.0, 224.0, 10.0, 48.0, 0.0, 0.0, 0.0, 1.6634961042311928E9, 0.0, 2022-09-18 15:15:04.231
120.0, 12086.750517696204, 25036.81481323419, -37680.48139577883, -37396.614241196425, -17021.27808586098, -187500.02235174447, 15403.727043119317, -4746.549397295642, 0.558, -0.772, 0.326, 192.0, 0.0, 0.0, 0.0, 0.0, 0.0, 0.0, 0.0, 0.0, 0.0, 1.6634961042312088E9, 0.0, 2022-09-18 15:15:04.231
121.0, 12375.535056058772, 25184.828065017235, -37759.40540545052, -37434.52279979263, -17225.237754015656, -187500.02235174447, 15539.692704640951, -4741.967289682304, 0.558, -0.772, 0.326, 192.0, 0.0, 0.0, 0.0, 0.0, 0.0, 0.0, 0.0, 0.0, 0.0, 1.6634961047099967E9, 0.0, 2022-09-18 15:15:04.709
122.0, 13121.055140621083, 26123.288407717755, -37847.40422337106, -37485.41772191736, -17496.31971076962, -187500.02235174447, 15232.177404424836, -5002.0298364198015, 0.558, -0.772, 0.326, 192.0, 0.0, 0.0, 0.0, 0.0, 0.0, 0.0, 0.0, 0.0, 0.0, 1.66349610471014E9, 0.0, 2022-09-18 15:15:04.710
123.0, 13638.3192108058, 27080.993602394297, -37845.839601259184, -37507.68005939484, -17484.450934463854, -187500.02235174447, 15053.966945882672, -5112.603916240206, 0.558, -0.772, 0.326, 192.0, 0.0, 0.0, 0.0, 0.0, 0.0, 0.0, 0.0, 0.0, 0.0, 1.6634961047102237E9, 0.0, 2022-09-18 15:15:04.710
124.0, 12625.561669535837, 25975.319859423624, -37676.525137010234, -37395.74252316267, -17113.657845694765, -187500.02235174447, 15043.64043994432, -5037.725572314927, 0.558, -0.772, 0.326, 192.0, 0.0, 0.0, 0.0, 0.0, 0.0, 0.0, 0.0, 0.0, 0.0, 1.663496104710353E9, 0.0, 2022-09-18 15:15:04.710
125.0, 12100.541544025129, 25051.164633174496, -37665.03634036021, -37392.21094753873, -17024.98847544056, -187500.02235174447, 15424.2906480182, -4744.090705405558, 0.558, -0.772, 0.326, 192.0, 0.0, 0.0, 0.0, 0.0, 0.0, 0.0, 0.0, 0.0, 0.0, 1.6634961047103746E9, 0.0, 2022-09-18 15:15:04.710
126.0, 12394.712852801425, 25196.830951789732, -37741.546361630724, -37433.00288116967, -17227.31646625, -187500.02235174447, 15547.828739622682, -4754.528970066187, 0.558, -0.772, 0.326, 192.0, 0.0, 0.0, 0.0, 0.0, 0.0, 0.0, 0.0, 0.0, 0.0, 1.663496104710394E9, 0.0, 2022-09-18 15:15:04.710
127.0, 13141.909318197886, 26138.375835225088, -37825.54421729377, -37481.7967393156, -17493.74926015726, -187500.02235174447, 15240.224032428747, -5004.376769587609, 0.558, -0.772, 0.326, 192.0, 0.0, 0.0, 0.0, 0.0, 0.0, 0.0, 0.0, 0.0, 0.0, 1.6634961047104125E9, 0.0, 2022-09-18 15:15:04.710
128.0, 13644.197719597545, 27085.843930941097, -37818.90574919054, -37504.66257389338, -17474.236187247778, -187500.02235174447, 15048.982506869139, -5126.193776869032, 0.558, -0.772, 0.326, 192.0, 0.0, 0.0, 0.0, 0.0, 0.0, 0.0, 0.0, 0.0, 0.0, 1.6634961047104309E9, 0.0, 2022-09-18 15:15:04.710
129.0, 12623.460605557038, 25974.246975689766, -37659.02372110173, -37400.97283136521, -17102.39256648929, -187500.02235174447, 15030.967000838162, -5060.077316770234, 0.558, -0.774, 0.328, 192.0, 17.0, 112.0, 231.0, 208.0, 10.0, 64.0, 0.0, 0.0, 0.0, 1.6634961047104492E9, 0.0, 2022-09-18 15:15:04.710
130.0, 12100.362730069486, 25058.741874544845, -37662.04120660319, -37401.59868020996, -17015.578391024876, -187500.02235174447, 15415.57346768063, -4759.178132912891, 0.558, -0.774, 0.328, 192.0, 0.0, 0.0, 0.0, 0.0, 0.0, 0.0, 0.0, 0.0, 0.0, 1.663496104710469E9, 0.0, 2022-09-18 15:15:04.710
131.0, 12389.21432366542, 25208.09623099521, -37740.495829641324, -37428.420773556325, -17220.141556279847, -187500.02235174447, 15536.630515650573, -4757.4346968453765, 0.558, -0.774, 0.328, 192.0, 0.0, 0.0, 0.0, 0.0, 0.0, 0.0, 0.0, 0.0, 0.0, 1.6634961047104871E9, 0.0, 2022-09-18 15:15:04.710
132.0, 13142.959850187284, 26154.625553444097, -37827.62292952811, -37471.55964035507, -17483.802733874647, -187500.02235174447, 15230.277506146134, -4995.033740405291, 0.558, -0.774, 0.328, 192.0, 0.0, 0.0, 0.0, 0.0, 0.0, 0.0, 0.0, 0.0, 0.0, 1.6634961047105048E9, 0.0, 2022-09-18 15:15:04.710
133.0, 13640.88966141816, 27094.22583511184, -37828.74051675088, -37499.253451735196, -17468.89412032296, -187500.02235174447, 15046.792035912518, -5108.960581893991, 0.558, -0.774, 0.328, 192.0, 0.0, 0.0, 0.0, 0.0, 0.0, 0.0, 0.0, 0.0, 0.0, 1.6634961047105227E9, 0.0, 2022-09-18 15:15:04.710
134.0, 12617.40328280965, 25969.508405865243, -37669.59609622909, -37396.50248247415, -17102.079642066914, -187500.02235174447, 15018.382968709824, -5061.396069693097, 0.558, -0.774, 0.328, 192.0, 0.0, 0.0, 0.0, 0.0, 0.0, 0.0, 0.0, 0.0, 0.0, 1.6634961047105467E9, 0.0, 2022-09-18 15:15:04.710
135.0, 12101.927352181357, 25058.026618722277, -37664.94693338239, -37388.45585447024, -17006.548286264933, -187500.02235174447, 15411.259581000755, -4746.683507762374, 0.558, -0.774, 0.328, 192.0, 0.0, 0.0, 0.0, 0.0, 0.0, 0.0, 0.0, 0.0, 0.0, 1.6634961047105627E9, 0.0, 2022-09-18 15:15:04.710
136.0, 12394.39992837905, 25208.09623099521, -37745.0108820213, -37430.20891311275, -17214.82184109948, -187500.02235174447, 15540.206794763422, -4748.538702552164, 0.558, -0.774, 0.328, 192.0, 0.0, 0.0, 0.0, 0.0, 0.0, 0.0, 0.0, 0.0, 0.0, 1.6634961047105784E9, 0.0, 2022-09-18 15:15:04.710
137.0, 13147.206681633794, 26154.759663910827, -37831.378022596604, -37478.46632939176, -17483.89214085247, -187500.02235174447, 15232.49032884721, -4997.201859617456, 0.558, -0.774, 0.328, 192.0, 0.0, 0.0, 0.0, 0.0, 0.0, 0.0, 0.0, 0.0, 0.0, 1.6634961047105937E9, 0.0, 2022-09-18 15:15:04.710
138.0, 13642.70015271904, 27091.230701354827, -37831.26626387433, -37497.19709124531, -17466.770704599705, -187500.02235174447, 15048.289602791025, -5115.800215697314, 0.558, -0.774, 0.328, 192.0, 0.0, 0.0, 0.0, 0.0, 0.0, 0.0, 0.0, 0.0, 0.0, 1.66349610471061E9, 0.0, 2022-09-18 15:15:04.710
139.0, 12611.345960062261, 25962.333495895087, -37671.80891893017, -37396.0777993295, -17102.459621722654, -187500.02235174447, 15020.104053032883, -5065.397031950597, 0.5640000000000001, -0.78, 0.324, 192.0, 17.0, 160.0, 231.0, 160.0, 10.0, 32.0, 0.0, 0.0, 0.0, 1.663496104710644E9, 0.0, 2022-09-18 15:15:04.710
140.0, 12098.753404468705, 25061.267621668296, -37672.12184335254, -37393.44029348377, -17012.18092586767, -187500.02235174447, 15411.684264145408, -4748.203426385335, 0.5640000000000001, -0.78, 0.324, 192.0, 0.0, 0.0, 0.0, 0.0, 0.0, 0.0, 0.0, 0.0, 0.0, 1.6634961047106607E9, 0.0, 2022-09-18 15:15:04.710
141.0, 12405.754614562347, 25222.736623613433, -37746.173172732975, -37423.21281709824, -17213.50308817662, -187500.02235174447, 15541.860823853116, -4746.683507762374, 0.5640000000000001, -0.78, 0.324, 192.0, 0.0, 0.0, 0.0, 0.0, 0.0, 0.0, 0.0, 0.0, 0.0, 1.6634961047106762E9, 0.0, 2022-09-18 15:15:04.710
142.0, 13160.058934695595, 26172.663411219528, -37835.28957787628, -37475.404140401384, -17481.724021640304, -187500.02235174447, 15230.791596268607, -5002.476871308908, 0.5640000000000001, -0.78, 0.324, 192.0, 0.0, 0.0, 0.0, 0.0, 0.0, 0.0, 0.0, 0.0, 0.0, 1.6634961047106915E9, 0.0, 2022-09-18 15:15:04.710
143.0, 13650.36680106721, 27107.391012596014, -37828.74051675088, -37486.736474840225, -17460.31105045212, -187500.02235174447, 15049.563652224977, -5110.838128428237, 0.5640000000000001, -0.78, 0.324, 192.0, 0.0, 0.0, 0.0, 0.0, 0.0, 0.0, 0.0, 0.0, 0.0, 1.6634961047107067E9, 0.0, 2022-09-18 15:15:04.710
144.0, 12620.979561922499, 25973.3305541671, -37665.773947927235, -37382.75615963413, -17093.474220451622, -187500.02235174447, 15023.367407723357, -5056.322223701743, 0.5640000000000001, -0.78, 0.324, 192.0, 0.0, 0.0, 0.0, 0.0, 0.0, 0.0, 0.0, 0.0, 0.0, 1.6634961047107222E9, 0.0, 2022-09-18 15:15:04.710
145.0, 12117.171241899878, 25077.271470698295, -37662.73411068131, -37374.39660720785, -17001.183867595657, -187500.02235174447, 15418.970932837838, -4726.231661585768, 0.5640000000000001, -0.78, 0.324, 192.0, 0.0, 0.0, 0.0, 0.0, 0.0, 0.0, 0.0, 0.0, 0.0, 1.6634961047107377E9, 0.0, 2022-09-18 15:15:04.710
146.0, 12413.354207677152, 25235.27595225286, -37742.3063209422, -37416.41788678383, -17212.050224787024, -187500.02235174447, 15542.59843142014, -4726.321068563589, 0.5640000000000001, -0.78, 0.324, 192.0, 0.0, 0.0, 0.0, 0.0, 0.0, 0.0, 0.0, 0.0, 0.0, 1.663496104710753E9, 0.0, 2022-09-18 15:15:04.710
147.0, 13165.691574298333, 26188.063763149235, -37829.65693827355, -37467.6927885643, -17482.104001296044, -187500.02235174447, 15232.512680591666, -4983.455536777441, 0.5640000000000001, -0.78, 0.324, 192.0, 0.0, 0.0, 0.0, 0.0, 0.0, 0.0, 0.0, 0.0, 0.0, 1.663496104710768E9, 0.0, 2022-09-18 15:15:04.710
148.0, 13652.13258887918, 27117.04696620071, -37822.81730447022, -37486.580012629034, -17458.58996612906, -187500.02235174447, 15051.26238480358, -5098.5893724667285, 0.5640000000000001, -0.78, 0.324, 192.0, 0.0, 0.0, 0.0, 0.0, 0.0, 0.0, 0.0, 0.0, 0.0, 1.6634961047107832E9, 0.0, 2022-09-18 15:15:04.710
149.0, 12618.006779909943, 25979.544339125674, -37661.34830252508, -37387.78530213658, -17091.686080895197, -187500.02235174447, 15027.614239169865, -5045.325165429731, 0.5660000000000001, -0.774, 0.326, 192.0, 17.0, 176.0, 231.0, 208.0, 10.0, 48.0, 0.0, 0.0, 0.0, 1.6634961047108011E9, 0.0, 2022-09-18 15:15:04.710
150.0, 12114.53373605415, 25087.285052214273, -37658.017892601245, -37388.791130637066, -17004.514277519498, -187500.02235174447, 15423.821261384639, -4733.987716911759, 0.5660000000000001, -0.774, 0.326, 192.0, 0.0, 0.0, 0.0, 0.0, 0.0, 0.0, 0.0, 0.0, 0.0, 1.6634961047108176E9, 0.0, 2022-09-18 15:15:04.710
151.0, 12413.734187332891, 25244.976609346464, -37734.19263770493, -37425.26917758813, -17209.032739285558, -187500.02235174447, 15545.727675643884, -4736.736981479762, 0.5660000000000001, -0.774, 0.326, 192.0, 0.0, 0.0, 0.0, 0.0, 0.0, 0.0, 0.0, 0.0, 0.0, 1.6634961047108371E9, 0.0, 2022-09-18 15:15:04.710
152.0, 13169.133742944448, 26197.719716753927, -37825.00777542684, -37477.304038680086, -17473.58798665857, -187500.02235174447, 15234.30082014809, -4991.278647336799, 0.5660000000000001, -0.774, 0.326, 192.0, 0.0, 0.0, 0.0, 0.0, 0.0, 0.0, 0.0, 0.0, 0.0, 1.6634961047108524E9, 0.0, 2022-09-18 15:15:04.710
153.0, 13648.2210335995, 27120.980873224842, -37822.34791783666, -37500.147521513405, -17450.498634636242, -187500.02235174447, 15051.709419692686, -5114.101483118711, 0.5660000000000001, -0.774, 0.326, 192.0, 0.0, 0.0, 0.0, 0.0, 0.0, 0.0, 0.0, 0.0, 0.0, 1.6634961047108676E9, 0.0, 2022-09-18 15:15:04.710
154.0, 12610.183669350585, 25976.772722813217, -37664.92458163793, -37389.68520041528, -17082.85714183535, -187500.02235174447, 15025.69198914671, -5055.450505667985, 0.5660000000000001, -0.774, 0.326, 192.0, 0.0, 0.0, 0.0, 0.0, 0.0, 0.0, 0.0, 0.0, 0.0, 1.6634961047108831E9, 0.0, 2022-09-18 15:15:04.710
155.0, 12108.007026673202, 25083.73112484588, -37672.904154408476, -37395.63076444039, -17001.765012951495, -187500.02235174447, 15417.093386303592, -4745.163589139413, 0.5660000000000001, -0.774, 0.326, 192.0, 0.0, 0.0, 0.0, 0.0, 0.0, 0.0, 0.0, 0.0, 0.0, 1.6634961047109115E9, 0.0, 2022-09-18 15:15:04.710
156.0, 12407.721568074414, 25247.23413553645, -37749.50358265681, -37426.476171788716, -17208.49629741863, -187500.02235174447, 15540.944402330448, -4742.235510615767, 0.5660000000000001, -0.774, 0.326, 192.0, 0.0, 0.0, 0.0, 0.0, 0.0, 0.0, 0.0, 0.0, 0.0, 1.6634961047109313E9, 0.0, 2022-09-18 15:15:04.710
157.0, 13159.164864917382, 26206.079269180213, -37840.542237823276, -37474.84534679, -17475.93491982638, -187500.02235174447, 15228.4446631008, -4991.502164781352, 0.5660000000000001, -0.774, 0.326, 192.0, 0.0, 0.0, 0.0, 0.0, 0.0, 0.0, 0.0, 0.0, 0.0, 1.6634961047109463E9, 0.0, 2022-09-18 15:15:04.710
158.0, 13640.621440484696, 27126.010015727286, -37839.96109246744, -37498.538195912624, -17452.51029163722, -187500.02235174447, 15044.489806233623, -5105.317247547776, 0.5660000000000001, -0.774, 0.326, 192.0, 0.0, 0.0, 0.0, 0.0, 0.0, 0.0, 0.0, 0.0, 0.0, 1.6634961047109613E9, 0.0, 2022-09-18 15:15:04.710
159.0, 12606.853259426745, 25979.05260074766, -37680.70491322338, -37397.08362782999, -17088.24391224908, -187500.02235174447, 15022.58509666742, -5052.790648077804, 0.5640000000000001, -0.77, 0.332, 192.0, 17.0, 160.0, 231.0, 240.0, 10.0, 96.0, 0.0, 0.0, 0.0, 1.6634961047109764E9, 0.0, 2022-09-18 15:15:04.710
160.0, 12109.63870401844, 25093.096505772653, -37682.761273713266, -37394.26730802862, -17004.849553686327, -187500.02235174447, 15418.635656671007, -4733.183054111369, 0.5640000000000001, -0.77, 0.332, 192.0, 0.0, 0.0, 0.0, 0.0, 0.0, 0.0, 0.0, 0.0, 0.0, 1.6634961047109928E9, 0.0, 2022-09-18 15:15:04.710
161.0, 12412.951876276957, 25259.639353709146, -37760.366530462095, -37432.15351488037, -17212.698425376228, -187500.02235174447, 15539.290373240754, -4743.442504816354, 0.5640000000000001, -0.77, 0.332, 192.0, 0.0, 0.0, 0.0, 0.0, 0.0, 0.0, 0.0, 0.0, 0.0, 1.6634961047110076E9, 0.0, 2022-09-18 15:15:04.711
162.0, 13177.537998859645, 26225.70410081197, -37848.521810593826, -37476.253506690686, -17476.13608552648, -187500.02235174447, 15232.467977102755, -4992.217420603922, 0.5640000000000001, -0.77, 0.332, 192.0, 0.0, 0.0, 0.0, 0.0, 0.0, 0.0, 0.0, 0.0, 0.0, 1.6634961047110229E9, 0.0, 2022-09-18 15:15:04.711
163.0, 13650.880891189683, 27138.99637925582, -37841.592769812676, -37496.41478018937, -17451.817387559102, -187500.02235174447, 15053.74342843812, -5100.355160278697, 0.5640000000000001, -0.77, 0.332, 192.0, 0.0, 0.0, 0.0, 0.0, 0.0, 0.0, 0.0, 0.0, 0.0, 1.663496104711038E9, 0.0, 2022-09-18 15:15:04.711
164.0, 12609.267247827918, 25988.730906096807, -37679.27440157824, -37393.99908709515, -17089.00387156056, -187500.02235174447, 15033.582154939433, -5042.039458994801, 0.5640000000000001, -0.77, 0.332, 192.0, 0.0, 0.0, 0.0, 0.0, 0.0, 0.0, 0.0, 0.0, 0.0, 1.6634961047110531E9, 0.0, 2022-09-18 15:15:04.711
165.0, 12112.2091546308, 25103.87004660011, -37681.10724462357, -37395.65311618485, -17009.65517874422, -187500.02235174447, 15428.805700398172, -4729.65147848743, 0.5640000000000001, -0.77, 0.332, 192.0, 0.0, 0.0, 0.0, 0.0, 0.0, 0.0, 0.0, 0.0, 0.0, 1.6634961047110682E9, 0.0, 2022-09-18 15:15:04.711
166.0, 12410.828460553701, 25270.323487558784, -37756.924361815974, -37436.534456793604, -17219.940390579748, -187500.02235174447, 15545.951193088436, -4743.84483621655, 0.5640000000000001, -0.77, 0.332, 192.0, 0.0, 0.0, 0.0, 0.0, 0.0, 0.0, 0.0, 0.0, 0.0, 1.6634961047110834E9, 0.0, 2022-09-18 15:15:04.711
167.0, 13170.564254589588, 26240.38919691911, -37840.20696165645, -37475.046512490095, -17483.825085619104, -187500.02235174447, 15240.715770806763, -4984.260199577832, 0.5640000000000001, -0.77, 0.332, 192.0, 0.0, 0.0, 0.0, 0.0, 0.0, 0.0, 0.0, 0.0, 0.0, 1.663496104711099E9, 0.0, 2022-09-18 15:15:04.711
168.0, 13638.565079994809, 27147.020655515273, -37830.14867665156, -37494.02314353266, -17454.097265493547, -187500.02235174447, 15059.21960582967, -5095.035445098334, 0.5640000000000001, -0.77, 0.332, 192.0, 0.0, 0.0, 0.0, 0.0, 0.0, 0.0, 0.0, 0.0, 0.0, 1.663496104711114E9, 0.0, 2022-09-18 15:15:04.711
169.0, 12595.11859358771, 25987.546263640674, -37667.83030841712, -37396.94951736325, -17087.327490726413, -187500.02235174447, 15036.64434392981, -5044.699316584983, 0.5640000000000001, -0.772, 0.328, 192.0, 17.0, 160.0, 231.0, 224.0, 10.0, 64.0, 0.0, 0.0, 0.0, 1.6634961047111292E9, 0.0, 2022-09-18 15:15:04.711
170.0, 12110.286904607643, 25111.53669494828, -37668.97024738434, -37397.84358714147, -17004.17900135267, -187500.02235174447, 15435.377113268032, -4731.909004677415, 0.5640000000000001, -0.772, 0.328, 192.0, 0.0, 0.0, 0.0, 0.0, 0.0, 0.0, 0.0, 0.0, 0.0, 1.6634961047111583E9, 0.0, 2022-09-18 15:15:04.711
171.0, 12415.298809444763, 25279.91238593011, -37750.88939081304, -37439.77545973962, -17219.873335346383, -187500.02235174447, 15549.616879179106, -4746.012955428714, 0.5640000000000001, -0.772, 0.328, 192.0, 0.0, 0.0, 0.0, 0.0, 0.0, 0.0, 0.0, 0.0, 0.0, 1.6634961047111733E9, 0.0, 2022-09-18 15:15:04.711
172.0, 13176.733336059253, 26247.921734800548, -37841.101031434664, -37486.15532948438, -17490.485905466783, -187500.02235174447, 15240.11227370647, -4996.754824728349, 0.5640000000000001, -0.772, 0.328, 192.0, 0.0, 0.0, 0.0, 0.0, 0.0, 0.0, 0.0, 0.0, 0.0, 1.6634961047111886E9, 0.0, 2022-09-18 15:15:04.711
173.0, 13634.854690415228, 27150.775748583765, -37832.76383075283, -37502.2038820033, -17462.054486519635, -187500.02235174447, 15056.31387905048, -5102.72444519096, 0.5640000000000001, -0.772, 0.328, 192.0, 0.0, 0.0, 0.0, 0.0, 0.0, 0.0, 0.0, 0.0, 0.0, 1.663496104711204E9, 0.0, 2022-09-18 15:15:04.711
174.0, 12594.49274474296, 25994.028269532715, -37663.22584905933, -37394.4237702398, -17087.841580848883, -187500.02235174447, 15043.752198666598, -5033.746961801882, 0.5640000000000001, -0.772, 0.328, 192.0, 0.0, 0.0, 0.0, 0.0, 0.0, 0.0, 0.0, 0.0, 0.0, 1.6634961047112193E9, 0.0, 2022-09-18 15:15:04.711
175.0, 12114.556087798606, 25119.851543885656, -37668.299695050686, -37394.40141849535, -17009.968103166593, -187500.02235174447, 15443.669610460951, -4724.93526040736, 0.5640000000000001, -0.772, 0.328, 192.0, 0.0, 0.0, 0.0, 0.0, 0.0, 0.0, 0.0, 0.0, 0.0, 1.6634961047112343E9, 0.0, 2022-09-18 15:15:04.711
176.0, 12420.216193224931, 25290.171836635094, -37747.31311170019, -37432.64525325838, -17220.58859116895, -187500.02235174447, 15556.3224025157, -4740.156798381424, 0.5640000000000001, -0.772, 0.328, 192.0, 0.0, 0.0, 0.0, 0.0, 0.0, 0.0, 0.0, 0.0, 0.0, 1.6634961047112498E9, 0.0, 2022-09-18 15:15:04.711
177.0, 13189.160905976405, 26265.110226286677, -37831.71329876343, -37477.81812880256, -17481.70166989585, -187500.02235174447, 15248.672991832853, -4989.669321736017, 0.5640000000000001, -0.772, 0.328, 192.0, 0.0, 0.0, 0.0, 0.0, 0.0, 0.0, 0.0, 0.0, 0.0, 1.6634961047112672E9, 0.0, 2022-09-18 15:15:04.711
178.0, 13647.952812666037, 27164.70088537942, -37824.69485100447, -37495.408951688885, -17449.470454391296, -187500.02235174447, 15069.74727746812, -5095.683645687538, 0.5640000000000001, -0.772, 0.328, 192.0, 0.0, 0.0, 0.0, 0.0, 0.0, 0.0, 0.0, 0.0, 0.0, 1.6634961047112825E9, 0.0, 2022-09-18 15:15:04.711
179.0, 12599.857163412235, 25998.498618423775, -37670.244296818295, -37396.10015107395, -17083.550045913464, -187500.02235174447, 15050.189501069726, -5036.8985577700805, 0.558, -0.776, 0.326, 192.0, 17.0, 112.0, 231.0, 192.0, 10.0, 48.0, 0.0, 0.0, 0.0, 1.663496104711298E9, 0.0, 2022-09-18 15:15:04.711
180.0, 12118.244125633732, 25130.178049824008, -37677.62037248855, -37394.6249359399, -17001.720309462584, -187500.02235174447, 15450.129264608535, -4726.544586008142, 0.558, -0.776, 0.326, 192.0, 0.0, 0.0, 0.0, 0.0, 0.0, 0.0, 0.0, 0.0, 0.0, 1.663496104711314E9, 0.0, 2022-09-18 15:15:04.711
181.0, 12424.954763049456, 25307.740307776967, -37753.48219316986, -37420.55295950806, -17204.78590783905, -187500.02235174447, 15563.31849853021, -4728.511539520209, 0.558, -0.776, 0.326, 192.0, 0.0, 0.0, 0.0, 0.0, 0.0, 0.0, 0.0, 0.0, 0.0, 1.6634961047113295E9, 0.0, 2022-09-18 15:15:04.711
182.0, 13194.681786856865, 26286.299680030308, -37835.89307497658, -37468.36334089796, -17465.340192954565, -187500.02235174447, 15252.182215712335, -4978.448746019452, 0.558, -0.776, 0.326, 192.0, 0.0, 0.0, 0.0, 0.0, 0.0, 0.0, 0.0, 0.0, 0.0, 1.663496104711345E9, 0.0, 2022-09-18 15:15:04.711
183.0, 13649.56213826682, 27182.470522221392, -37827.265301616826, -37484.7471695837, -17434.07010246159, -187500.02235174447, 15071.93774842474, -5083.837221126226, 0.558, -0.776, 0.326, 192.0, 0.0, 0.0, 0.0, 0.0, 0.0, 0.0, 0.0, 0.0, 0.0, 1.6634961047113602E9, 0.0, 2022-09-18 15:15:04.711
184.0, 12594.001006364942, 26014.167191286946, -37671.160718340965, -37391.942726605266, -17069.691964351176, -187500.02235174447, 15053.586966226932, -5023.062827952245, 0.558, -0.776, 0.326, 192.0, 0.0, 0.0, 0.0, 0.0, 0.0, 0.0, 0.0, 0.0, 0.0, 1.6634961047113757E9, 0.0, 2022-09-18 15:15:04.711
185.0, 12112.052692419613, 25144.729035464414, -37677.21804108835, -37393.84262488397, -16994.523047747978, -187500.02235174447, 15449.928098908436, -4714.161719579902, 0.558, -0.776, 0.326, 192.0, 0.0, 0.0, 0.0, 0.0, 0.0, 0.0, 0.0, 0.0, 0.0, 1.6634961047114031E9, 0.0, 2022-09-18 15:15:04.711
186.0, 12415.11999548912, 25316.21161892553, -37747.782498333756, -37423.8833694319, -17205.434108428253, -187500.02235174447, 15557.775265905293, -4733.808902956117, 0.558, -0.776, 0.326, 192.0, 0.0, 0.0, 0.0, 0.0, 0.0, 0.0, 0.0, 0.0, 0.0, 1.6634961047114189E9, 0.0, 2022-09-18 15:15:04.711
187.0, 13185.070536741083, 26295.26272955689, -37825.790086482775, -37465.614076329955, -17466.860111577524, -187500.02235174447, 15250.595241856008, -4976.548847740752, 0.558, -0.776, 0.326, 192.0, 0.0, 0.0, 0.0, 0.0, 0.0, 0.0, 0.0, 0.0, 0.0, 1.663496104711434E9, 0.0, 2022-09-18 15:15:04.711
188.0, 13637.60395498323, 27183.923385610986, -37818.101086390154, -37489.21751847476, -17437.64638157444, -187500.02235174447, 15069.4567047902, -5096.622418954661, 0.558, -0.776, 0.326, 192.0, 0.0, 0.0, 0.0, 0.0, 0.0, 0.0, 0.0, 0.0, 0.0, 1.6634961047114491E9, 0.0, 2022-09-18 15:15:04.711
189.0, 12582.735727159468, 26007.774592372727, -37663.047035103686, -37401.084590087485, -17080.130229011804, -187500.02235174447, 15051.620012714866, -5053.751773089382, 0.558, -0.776, 0.326, 192.0, 0.0, 0.0, 0.0, 0.0, 0.0, 0.0, 0.0, 0.0, 0.0, 1.6634961047114713E9, 0.0, 2022-09-18 15:15:04.711
190.0, 12106.621218516973, 25144.39375929758, -37674.222907331336, -37409.488846002685, -17010.683358989165, -187500.02235174447, 15453.973764654847, -4749.030440930181, 0.56, -0.78, 0.322, 192.0, 17.0, 128.0, 231.0, 160.0, 10.0, 16.0, 0.0, 0.0, 0.0, 1.6634961047114863E9, 0.0, 2022-09-18 15:15:04.711
191.0, 12415.812899567236, 25320.927837005598, -37752.67753036947, -37445.765727253645, -17223.27080050359, -187500.02235174447, 15562.580890963185, -4764.140220181968, 0.56, -0.78, 0.322, 192.0, 0.0, 0.0, 0.0, 0.0, 0.0, 0.0, 0.0, 0.0, 0.0, 1.6634961047115026E9, 0.0, 2022-09-18 15:15:04.711
192.0, 13186.970435019784, 26302.728212204962, -37840.430479101, -37496.861815078475, -17493.816315390624, -187500.02235174447, 15250.505834878188, -5011.417569091031, 0.56, -0.78, 0.322, 192.0, 0.0, 0.0, 0.0, 0.0, 0.0, 0.0, 0.0, 0.0, 0.0, 1.663496104711518E9, 0.0, 2022-09-18 15:15:04.711
193.0, 13630.674914202085, 27182.671687921487, -37825.2759963603, -37514.58674843154, -17459.774608585194, -187500.02235174447, 15067.489751278134, -5124.8303204572585, 0.56, -0.78, 0.322, 192.0, 0.0, 0.0, 0.0, 0.0, 0.0, 0.0, 0.0, 0.0, 0.0, 1.6634961047115333E9, 0.0, 2022-09-18 15:15:04.711
194.0, 12579.695889913546, 26002.365470214543, -37660.34247402459, -37411.58990998148, -17090.076755294413, -187500.02235174447, 15056.492693006123, -5063.184209249522, 0.56, -0.78, 0.322, 192.0, 0.0, 0.0, 0.0, 0.0, 0.0, 0.0, 0.0, 0.0, 0.0, 1.6634961047115483E9, 0.0, 2022-09-18 15:15:04.711
195.0, 12118.758215756205, 25148.30531457726, -37664.61165721556, -37402.71626743273, -17008.69405373264, -187500.02235174447, 15463.406200814987, -4734.03242040067, 0.56, -0.78, 0.322, 192.0, 0.0, 0.0, 0.0, 0.0, 0.0, 0.0, 0.0, 0.0, 0.0, 1.6634961047115636E9, 0.0, 2022-09-18 15:15:04.711
196.0, 12432.777873608813, 25331.29904643286, -37738.953559273905, -37432.95817768075, -17216.811146356005, -187500.02235174447, 15571.789809678772, -4746.437638573366, 0.56, -0.78, 0.322, 192.0, 0.0, 0.0, 0.0, 0.0, 0.0, 0.0, 0.0, 0.0, 0.0, 1.6634961047115788E9, 0.0, 2022-09-18 15:15:04.711
197.0, 13200.962627048806, 26313.54645652133, -37828.11466790613, -37491.51974815366, -17485.70263215335, -187500.02235174447, 15256.674916347853, -5002.9686096869245, 0.56, -0.78, 0.322, 192.0, 0.0, 0.0, 0.0, 0.0, 0.0, 0.0, 0.0, 0.0, 0.0, 1.663496104711594E9, 0.0, 2022-09-18 15:15:04.711
198.0, 13643.236594585967, 27191.165350814506, -37810.16621710852, -37501.1533500139, -17445.000105500236, -187500.02235174447, 15077.41392581629, -5108.401788282608, 0.56, -0.78, 0.322, 192.0, 0.0, 0.0, 0.0, 0.0, 0.0, 0.0, 0.0, 0.0, 0.0, 1.6634961047116115E9, 0.0, 2022-09-18 15:15:04.711
199.0, 12588.435421995571, 26008.53455168421, -37647.42316572943, -37395.563709207025, -17076.777467343505, -187500.02235174447, 15067.623861744865, -5048.230892208921, 0.56, -0.78, 0.322, 192.0, 0.0, 0.0, 0.0, 0.0, 0.0, 0.0, 0.0, 0.0, 0.0, 1.6634961047116268E9, 0.0, 2022-09-18 15:15:04.711
200.0, 12124.055579192112, 25156.06136990325, -37658.576686212626, -37399.139988319876, -17004.447222286133, -187500.02235174447, 15471.452828818898, -4735.641746001452, 0.562, -0.78, 0.33, 192.0, 17.0, 144.0, 231.0, 160.0, 10.0, 80.0, 0.0, 0.0, 0.0, 1.663496104711642E9, 0.0, 2022-09-18 15:15:04.711
201.0, 12432.88963233109, 25335.72469183501, -37747.15664948901, -37439.618997528436, -17223.382559225865, -187500.02235174447, 15573.84617016866, -4757.166475911913, 0.562, -0.78, 0.33, 192.0, 0.0, 0.0, 0.0, 0.0, 0.0, 0.0, 0.0, 0.0, 0.0, 1.6634961047116716E9, 0.0, 2022-09-18 15:15:04.711
202.0, 13211.400891709434, 26328.902104962126, -37835.60250229866, -37479.874489292444, -17487.758992643237, -187500.02235174447, 15261.413486172378, -4994.497298538363, 0.562, -0.78, 0.33, 192.0, 0.0, 0.0, 0.0, 0.0, 0.0, 0.0, 0.0, 0.0, 0.0, 1.6634961047116868E9, 0.0, 2022-09-18 15:15:04.711
203.0, 13646.388190554166, 27201.022470119296, -37827.15354289455, -37494.87250982196, -17451.057428247623, -187500.02235174447, 15078.84443746143, -5099.617552711672, 0.562, -0.78, 0.33, 192.0, 0.0, 0.0, 0.0, 0.0, 0.0, 0.0, 0.0, 0.0, 0.0, 1.663496104711702E9, 0.0, 2022-09-18 15:15:04.711
204.0, 12587.764869661913, 26011.462630207854, -37668.97024738434, -37399.96700286472, -17088.66859539373, -187500.02235174447, 15066.148646610814, -5047.560339875262, 0.562, -0.78, 0.33, 192.0, 0.0, 0.0, 0.0, 0.0, 0.0, 0.0, 0.0, 0.0, 0.0, 1.6634961047117171E9, 0.0, 2022-09-18 15:15:04.711
205.0, 12126.626029804473, 25159.88351820511, -37680.74961671229, -37411.16522683683, -17020.94280969415, -187500.02235174447, 15464.993174671314, -4743.733077494273, 0.562, -0.78, 0.33, 192.0, 0.0, 0.0, 0.0, 0.0, 0.0, 0.0, 0.0, 0.0, 0.0, 1.6634961047117326E9, 0.0, 2022-09-18 15:15:04.711
206.0, 12435.817710854735, 25340.30679944835, -37761.99820780733, -37440.42366032883, -17233.73141690867, -187500.02235174447, 15560.926861873491, -4757.211179400823, 0.562, -0.78, 0.33, 192.0, 0.0, 0.0, 0.0, 0.0, 0.0, 0.0, 0.0, 0.0, 0.0, 1.6634961047117481E9, 0.0, 2022-09-18 15:15:04.711
207.0, 13210.462118442312, 26330.556134051818, -37850.98050248391, -37496.07950402254, -17499.247789293266, -187500.02235174447, 15245.163767953369, -5002.901554453559, 0.562, -0.78, 0.33, 192.0, 0.0, 0.0, 0.0, 0.0, 0.0, 0.0, 0.0, 0.0, 0.0, 1.663496104711764E9, 0.0, 2022-09-18 15:15:04.711
208.0, 13637.64865847214, 27195.233368305373, -37835.26722613183, -37514.966728087275, -17459.528739396184, -187500.02235174447, 15064.002879143105, -5113.743855207426, 0.562, -0.78, 0.33, 192.0, 0.0, 0.0, 0.0, 0.0, 0.0, 0.0, 0.0, 0.0, 0.0, 1.663496104711779E9, 0.0, 2022-09-18 15:15:04.711
209.0, 12580.63466318067, 26001.829028347616, -37672.9935613863, -37417.20019783976, -17093.921255340727, -187500.02235174447, 15055.576271483455, -5054.042345767301, 0.562, -0.78, 0.33, 192.0, 0.0, 0.0, 0.0, 0.0, 0.0, 0.0, 0.0, 0.0, 0.0, 1.6634961047117963E9, 0.0, 2022-09-18 15:15:04.711
210.0, 12132.92922174087, 25160.084683905206, -37689.26563134976, -37427.81727645604, -17025.524917307488, -187500.02235174447, 15459.628756002041, -4746.795266484651, 0.5640000000000001, -0.784, 0.324, 192.0, 17.0, 160.0, 231.0, 128.0, 10.0, 32.0, 0.0, 0.0, 0.0, 1.6634961047118118E9, 0.0, 2022-09-18 15:15:04.711
211.0, 12447.217100526941, 25349.985104797495, -37763.83105085266, -37463.82593677354, -17232.189146541255, -187500.02235174447, 15560.368068262109, -4761.390955613966, 0.5640000000000001, -0.784, 0.324, 192.0, 0.0, 0.0, 0.0, 0.0, 0.0, 0.0, 0.0, 0.0, 0.0, 1.663496104711828E9, 0.0, 2022-09-18 15:15:04.711
212.0, 13226.734188405775, 26348.996323227446, -37846.10782219265, -37503.09795178151, -17493.50339096825, -187500.02235174447, 15251.623422100953, -5002.633333520095, 0.5640000000000001, -0.784, 0.324, 192.0, 0.0, 0.0, 0.0, 0.0, 0.0, 0.0, 0.0, 0.0, 0.0, 1.6634961047118433E9, 0.0, 2022-09-18 15:15:04.711
213.0, 13649.115103377713, 27206.00690913283, -37833.52379006431, -37519.794704889624, -17451.97384977029, -187500.02235174447, 15064.986355899138, -5119.15297736561, 0.5640000000000001, -0.784, 0.324, 192.0, 0.0, 0.0, 0.0, 0.0, 0.0, 0.0, 0.0, 0.0, 0.0, 1.6634961047118585E9, 0.0, 2022-09-18 15:15:04.711
214.0, 12585.149715560641, 26011.172057529933, -37674.98286664282, -37426.02913689961, -17087.305138981956, -187500.02235174447, 15064.785190199042, -5054.109401000667, 0.5640000000000001, -0.784, 0.324, 192.0, 0.0, 0.0, 0.0, 0.0, 0.0, 0.0, 0.0, 0.0, 0.0, 1.663496104711874E9, 0.0, 2022-09-18 15:15:04.711
215.0, 12128.369465871987, 25165.762026996857, -37679.63202948953, -37432.77936372511, -17024.586144040364, -187500.02235174447, 15461.662764747474, -4757.70291777884, 0.5640000000000001, -0.784, 0.324, 192.0, 0.0, 0.0, 0.0, 0.0, 0.0, 0.0, 0.0, 0.0, 0.0, 1.6634961047118893E9, 0.0, 2022-09-18 15:15:04.711
216.0, 12446.434789471006, 25347.101729762762, -37754.08569027015, -37461.434300116816, -17233.37378899739, -187500.02235174447, 15548.946326845447, -4775.5172581097195, 0.5640000000000001, -0.784, 0.324, 192.0, 0.0, 0.0, 0.0, 0.0, 0.0, 0.0, 0.0, 0.0, 0.0, 1.6634961047119172E9, 0.0, 2022-09-18 15:15:04.711
217.0, 13229.61756344051, 26347.58816332676, -37845.95135998146, -37510.89871059641, -17498.08549858159, -187500.02235174447, 15239.3970178839, -5009.674133023516, 0.5640000000000001, -0.784, 0.324, 192.0, 0.0, 0.0, 0.0, 0.0, 0.0, 0.0, 0.0, 0.0, 0.0, 1.6634961047119324E9, 0.0, 2022-09-18 15:15:04.711
218.0, 13644.287126575367, 27200.776600930287, -37835.26722613183, -37528.42247824937, -17460.199291729845, -187500.02235174447, 15058.5043500071, -5126.305535591309, 0.5640000000000001, -0.784, 0.324, 192.0, 0.0, 0.0, 0.0, 0.0, 0.0, 0.0, 0.0, 0.0, 0.0, 1.663496104711948E9, 0.0, 2022-09-18 15:15:04.711
219.0, 12582.109878314719, 25999.2362259908, -37671.02660787423, -37421.55878800855, -17092.937778584692, -187500.02235174447, 15051.083570847937, -5059.563226647762, 0.5640000000000001, -0.784, 0.324, 192.0, 0.0, 0.0, 0.0, 0.0, 0.0, 0.0, 0.0, 0.0, 0.0, 1.6634961047119632E9, 0.0, 2022-09-18 15:15:04.711
220.0, 12133.97975373027, 25164.577384540724, -37682.87303243554, -37420.955290908256, -17020.898106205237, -187500.02235174447, 15457.170064111957, -4740.402667570433, 0.5660000000000001, -0.784, 0.318, 192.0, 17.0, 176.0, 231.0, 128.0, 9.0, 240.0, 0.0, 0.0, 0.0, 1.6634961047119894E9, 0.0, 2022-09-18 15:15:04.711
221.0, 12450.636917428603, 25352.086168776295, -37756.05264378222, -37457.76861402614, -17229.529288951075, -187500.02235174447, 15551.226204779889, -4763.760240526229, 0.5660000000000001, -0.784, 0.318, 192.0, 0.0, 0.0, 0.0, 0.0, 0.0, 0.0, 0.0, 0.0, 0.0, 1.6634961047120056E9, 0.0, 2022-09-18 15:15:04.712
222.0, 13234.66905768741, 26354.65131457464, -37840.92221747902, -37512.06100130809, -17494.732736913295, -187500.02235174447, 15240.469901617755, -5012.401045847064, 0.5660000000000001, -0.784, 0.318, 192.0, 0.0, 0.0, 0.0, 0.0, 0.0, 0.0, 0.0, 0.0, 0.0, 1.6634961047120209E9, 0.0, 2022-09-18 15:15:04.712
223.0, 13654.591280769264, 27205.269301565804, -37824.49368530437, -37527.483704982245, -17454.857224805026, -187500.02235174447, 15063.086457620439, -5127.847805958725, 0.5660000000000001, -0.784, 0.318, 192.0, 0.0, 0.0, 0.0, 0.0, 0.0, 0.0, 0.0, 0.0, 0.0, 1.6634961047120361E9, 0.0, 2022-09-18 15:15:04.712
224.0, 12588.994215606954, 25994.497656166277, -37662.8905728925, -37431.97470092472, -17095.776450130517, -187500.02235174447, 15052.64819295981, -5075.9917588224125, 0.5660000000000001, -0.784, 0.318, 192.0, 0.0, 0.0, 0.0, 0.0, 0.0, 0.0, 0.0, 0.0, 0.0, 1.6634961047120514E9, 0.0, 2022-09-18 15:15:04.712
225.0, 12139.746503799737, 25161.537547294804, -37672.971209641844, -37433.00288116967, -17030.2187836431, -187500.02235174447, 15459.449942046398, -4762.106211436536, 0.5660000000000001, -0.784, 0.318, 192.0, 0.0, 0.0, 0.0, 0.0, 0.0, 0.0, 0.0, 0.0, 0.0, 1.6634961047120664E9, 0.0, 2022-09-18 15:15:04.712
226.0, 12452.916795363046, 25349.985104797495, -37755.672664126476, -37468.65391357588, -17243.20855655772, -187500.02235174447, 15546.84526286665, -4777.551266855153, 0.5660000000000001, -0.784, 0.318, 192.0, 0.0, 0.0, 0.0, 0.0, 0.0, 0.0, 0.0, 0.0, 0.0, 1.663496104712082E9, 0.0, 2022-09-18 15:15:04.712
227.0, 13234.602002454043, 26355.388922141665, -37842.5315430798, -37518.43124847785, -17498.599588704063, -187500.02235174447, 15232.713846291763, -5021.855833751659, 0.5660000000000001, -0.784, 0.318, 192.0, 0.0, 0.0, 0.0, 0.0, 0.0, 0.0, 0.0, 0.0, 0.0, 1.6634961047120972E9, 0.0, 2022-09-18 15:15:04.712
228.0, 13642.253117829934, 27199.23433056287, -37824.65014751555, -37519.034745578145, -17448.039942746156, -187500.02235174447, 15054.861015660885, -5129.948869937524, 0.5660000000000001, -0.784, 0.318, 192.0, 0.0, 0.0, 0.0, 0.0, 0.0, 0.0, 0.0, 0.0, 0.0, 1.6634961047121167E9, 0.0, 2022-09-18 15:15:04.712
229.0, 12575.024375322388, 25989.80378983066, -37665.08104384912, -37416.50729376165, -17082.52186566852, -187500.02235174447, 15049.518948736066, -5064.167686005555, 0.5660000000000001, -0.784, 0.318, 192.0, 0.0, 0.0, 0.0, 0.0, 0.0, 0.0, 0.0, 0.0, 0.0, 1.663496104712132E9, 0.0, 2022-09-18 15:15:04.712
230.0, 12131.11873043999, 25162.83394847321, -37681.17429985694, -37430.20891311275, -17020.22755387158, -187500.02235174447, 15454.309040821678, -4757.278234634189, 0.562, -0.784, 0.32, 192.0, 17.0, 144.0, 231.0, 128.0, 10.0, 0.0, 0.0, 0.0, 0.0, 1.66349610471215E9, 0.0, 2022-09-18 15:15:04.712
231.0, 12445.004277825867, 25358.277601990416, -37759.584219406155, -37457.858021003965, -17232.54677445254, -187500.02235174447, 15542.889004098059, -4775.405499387443, 0.562, -0.784, 0.32, 192.0, 0.0, 0.0, 0.0, 0.0, 0.0, 0.0, 0.0, 0.0, 0.0, 1.6634961047121792E9, 0.0, 2022-09-18 15:15:04.712
232.0, 13232.18801405287, 26369.44816940405, -37845.59373207018, -37504.640222148926, -17493.458687479342, -187500.02235174447, 15231.238631157714, -5014.144481914578, 0.562, -0.784, 0.32, 192.0, 0.0, 0.0, 0.0, 0.0, 0.0, 0.0, 0.0, 0.0, 0.0, 1.6634961047121944E9, 0.0, 2022-09-18 15:15:04.712
233.0, 13642.476635274486, 27211.796010946753, -37822.61613877012, -37513.87149260897, -17438.115768208, -187500.02235174447, 15058.437294773734, -5116.716637219982, 0.562, -0.784, 0.32, 192.0, 0.0, 0.0, 0.0, 0.0, 0.0, 0.0, 0.0, 0.0, 0.0, 1.6634961047122097E9, 0.0, 2022-09-18 15:15:04.712
234.0, 12571.269282253896, 25995.034098033204, -37661.8400409031, -37409.44414251377, -17071.100124251858, -187500.02235174447, 15054.346925538413, -5052.298909699787, 0.562, -0.784, 0.32, 192.0, 0.0, 0.0, 0.0, 0.0, 0.0, 0.0, 0.0, 0.0, 0.0, 1.6634961047122247E9, 0.0, 2022-09-18 15:15:04.712
235.0, 12136.773721787182, 25169.919451465543, -37671.20542182987, -37411.0311163701, -17005.3636438088, -187500.02235174447, 15460.187549613423, -4736.289946590656, 0.562, -0.784, 0.32, 192.0, 0.0, 0.0, 0.0, 0.0, 0.0, 0.0, 0.0, 0.0, 0.0, 1.66349610471224E9, 0.0, 2022-09-18 15:15:04.712
236.0, 12453.430885485517, 25366.480692205514, -37746.39669017753, -37443.50820106366, -17217.839326600948, -187500.02235174447, 15549.616879179106, -4762.061507947625, 0.562, -0.784, 0.32, 192.0, 0.0, 0.0, 0.0, 0.0, 0.0, 0.0, 0.0, 0.0, 0.0, 1.6634961047122552E9, 0.0, 2022-09-18 15:15:04.712
237.0, 13238.357095522535, 26382.009849787933, -37833.702604019956, -37494.73839935522, -17480.673489650904, -187500.02235174447, 15240.335791151023, -5010.858775479648, 0.562, -0.784, 0.32, 192.0, 0.0, 0.0, 0.0, 0.0, 0.0, 0.0, 0.0, 0.0, 0.0, 1.6634961047122705E9, 0.0, 2022-09-18 15:15:04.712
238.0, 13632.239536313957, 27210.320795812702, -37816.424705556004, -37508.17179777286, -17430.605582071017, -187500.02235174447, 15063.533492509545, -5123.779788467859, 0.562, -0.784, 0.32, 192.0, 0.0, 0.0, 0.0, 0.0, 0.0, 0.0, 0.0, 0.0, 0.0, 1.6634961047122855E9, 0.0, 2022-09-18 15:15:04.712
239.0, 12558.707601870014, 25986.42867641791, -37651.78175589821, -37397.30714527454, -17062.695868336665, -187500.02235174447, 15065.656908232799, -5052.7459445888935, 0.562, -0.784, 0.32, 192.0, 0.0, 0.0, 0.0, 0.0, 0.0, 0.0, 0.0, 0.0, 0.0, 1.6634961047123032E9, 0.0, 2022-09-18 15:15:04.712
240.0, 12128.525928083174, 25168.667753776044, -37661.12478508053, -37406.29254654557, -17001.94382690714, -187500.02235174447, 15476.549026554709, -4739.7097634923175, 0.56, -0.784, 0.322, 192.0, 17.0, 128.0, 231.0, 128.0, 10.0, 16.0, 0.0, 0.0, 0.0, 1.6634961047123187E9, 0.0, 2022-09-18 15:15:04.712
241.0, 12442.813806869246, 25364.089055548797, -37742.95452153141, -37444.11169816395, -17222.063806303002, -187500.02235174447, 15557.708210671928, -4769.862266762527, 0.56, -0.784, 0.322, 192.0, 0.0, 0.0, 0.0, 0.0, 0.0, 0.0, 0.0, 0.0, 0.0, 1.6634961051903749E9, 0.0, 2022-09-18 15:15:05.190
242.0, 13223.694351159855, 26378.970012542013, -37831.243912129874, -37494.44782667731, -17484.965024586323, -187500.02235174447, 15243.375628396945, -5008.601249289662, 0.56, -0.784, 0.322, 192.0, 0.0, 0.0, 0.0, 0.0, 0.0, 0.0, 0.0, 0.0, 0.0, 1.663496105190533E9, 0.0, 2022-09-18 15:15:05.190
243.0, 13618.828489640771, 27204.352880043138, -37815.06124914423, -37509.53525418464, -17436.059407718112, -187500.02235174447, 15065.276928577057, -5119.510605276895, 0.56, -0.784, 0.322, 192.0, 0.0, 0.0, 0.0, 0.0, 0.0, 0.0, 0.0, 0.0, 0.0, 1.6634961051906035E9, 0.0, 2022-09-18 15:15:05.190
244.0, 12549.364572687695, 25981.019554259725, -37654.46396523285, -37407.387782023885, -17071.81538007443, -187500.02235174447, 15065.098114621416, -5053.640014367105, 0.56, -0.784, 0.322, 192.0, 0.0, 0.0, 0.0, 0.0, 0.0, 0.0, 0.0, 0.0, 0.0, 1.6634961051906395E9, 0.0, 2022-09-18 15:15:05.190
245.0, 12122.915640224892, 25166.387875841603, -37669.50668925127, -37416.17201759482, -17015.399577069235, -187500.02235174447, 15469.552930540196, -4741.944937937848, 0.56, -0.784, 0.322, 192.0, 0.0, 0.0, 0.0, 0.0, 0.0, 0.0, 0.0, 0.0, 0.0, 1.663496105190676E9, 0.0, 2022-09-18 15:15:05.190
246.0, 12444.356077236662, 25364.223166015527, -37748.36364368959, -37454.32644538003, -17237.374751254887, -187500.02235174447, 15550.376838490587, -4777.014824988226, 0.56, -0.784, 0.322, 192.0, 0.0, 0.0, 0.0, 0.0, 0.0, 0.0, 0.0, 0.0, 0.0, 1.6634961051908007E9, 0.0, 2022-09-18 15:15:05.190
247.0, 13242.827444413597, 26384.334431211286, -37834.82019124272, -37505.534291927135, -17502.17586781691, -187500.02235174447, 15238.435892872321, -5022.302868640765, 0.56, -0.784, 0.322, 192.0, 0.0, 0.0, 0.0, 0.0, 0.0, 0.0, 0.0, 0.0, 0.0, 1.663496105190837E9, 0.0, 2022-09-18 15:15:05.190
248.0, 13635.41348402661, 27203.81643817621, -37813.34016482117, -37513.089181553034, -17447.145872967943, -187500.02235174447, 15060.761876197086, -5128.674820503571, 0.56, -0.784, 0.322, 192.0, 0.0, 0.0, 0.0, 0.0, 0.0, 0.0, 0.0, 0.0, 0.0, 1.663496105190894E9, 0.0, 2022-09-18 15:15:05.190
249.0, 12557.075924524775, 25974.1799204564, -37659.80603215766, -37416.01555538363, -17087.43924944869, -187500.02235174447, 15059.68899246323, -5060.971386548446, 0.56, -0.784, 0.322, 192.0, 0.0, 0.0, 0.0, 0.0, 0.0, 0.0, 0.0, 0.0, 0.0, 1.6634961051909287E9, 0.0, 2022-09-18 15:15:05.190
250.0, 12133.286849652153, 25166.45493107497, -37674.62523873153, -37418.47424727371, -17026.262524874513, -187500.02235174447, 15469.888206707026, -4747.465818818309, 0.5660000000000001, -0.782, 0.326, 192.0, 17.0, 176.0, 231.0, 144.0, 10.0, 48.0, 0.0, 0.0, 0.0, 1.6634961051909509E9, 0.0, 2022-09-18 15:15:05.190
251.0, 12456.604833198171, 25373.454436475567, -37752.00697803581, -37447.33034936552, -17237.240640788157, -187500.02235174447, 15553.595489692152, -4770.577522585097, 0.5660000000000001, -0.782, 0.326, 192.0, 0.0, 0.0, 0.0, 0.0, 0.0, 0.0, 0.0, 0.0, 0.0, 1.66349610519097E9, 0.0, 2022-09-18 15:15:05.190
252.0, 13247.968345638317, 26398.326623240308, -37842.084508190695, -37492.23500397623, -17493.41398399043, -187500.02235174447, 15239.3970178839, -5005.427301577009, 0.5660000000000001, -0.782, 0.326, 192.0, 0.0, 0.0, 0.0, 0.0, 0.0, 0.0, 0.0, 0.0, 0.0, 1.6634961051909869E9, 0.0, 2022-09-18 15:15:05.190
253.0, 13622.561230964808, 27206.833923677677, -37826.66180451653, -37506.98715531673, -17438.786320541658, -187500.02235174447, 15058.12437035136, -5114.548518007818, 0.5660000000000001, -0.782, 0.326, 192.0, 0.0, 0.0, 0.0, 0.0, 0.0, 0.0, 0.0, 0.0, 0.0, 1.6634961051910124E9, 0.0, 2022-09-18 15:15:05.191
254.0, 12536.400560903618, 25970.782455299195, -37673.17237534194, -37413.84743617147, -17077.51507491053, -187500.02235174447, 15055.710381950186, -5048.677927098028, 0.5660000000000001, -0.782, 0.326, 192.0, 0.0, 0.0, 0.0, 0.0, 0.0, 0.0, 0.0, 0.0, 0.0, 1.6634961051910453E9, 0.0, 2022-09-18 15:15:05.191
255.0, 12110.510422052195, 25165.292640363296, -37699.07804716564, -37433.09228814748, -17022.574487039386, -187500.02235174447, 15462.445075803409, -4742.861359460516, 0.5660000000000001, -0.782, 0.326, 192.0, 0.0, 0.0, 0.0, 0.0, 0.0, 0.0, 0.0, 0.0, 0.0, 1.6634961051910758E9, 0.0, 2022-09-18 15:15:05.191
0.0, 12433.671943387026, 25370.4369509741, -37769.68720789996, -37454.281741891115, -17232.92675410828, -187500.02235174447, 15544.095998298646, -4772.008034230236, 0.5660000000000001, -0.782, 0.326, 192.0, 0.0, 0.0, 0.0, 0.0, 0.0, 0.0, 0.0, 0.0, 0.0, 1.6634961051911013E9, 0.0, 2022-09-18 15:15:05.191
1.0, 13235.42901699889, 26400.293576752374, -37845.16904892553, -37492.63733537642, -17487.311957754133, -187500.02235174447, 15238.949982994794, -5006.768406244327, 0.5660000000000001, -0.782, 0.326, 192.0, 0.0, 0.0, 0.0, 0.0, 0.0, 0.0, 0.0, 0.0, 0.0, 1.6634961051911547E9, 0.0, 2022-09-18 15:15:05.191
2.0, 13620.102539074725, 27209.404374290036, -37820.04568815776, -37492.682038865336, -17426.805785513614, -187500.02235174447, 15065.478094277156, -5101.495099245918, 0.5660000000000001, -0.782, 0.326, 192.0, 0.0, 0.0, 0.0, 0.0, 0.0, 0.0, 0.0, 0.0, 0.0, 1.6634961051911752E9, 0.0, 2022-09-18 15:15:05.191
3.0, 12539.57450861627, 25973.308202422646, -37655.40273849997, -37389.484034715184, -17059.410161901735, -187500.02235174447, 15070.484885035145, -5026.974383231925, 0.5660000000000001, -0.782, 0.326, 192.0, 0.0, 0.0, 0.0, 0.0, 0.0, 0.0, 0.0, 0.0, 0.0, 1.6634961051911993E9, 0.0, 2022-09-18 15:15:05.191
4.0, 12128.682390294362, 25174.300393378784, -37669.618447973546, -37397.240090041174, -17005.341292064346, -187500.02235174447, 15483.120439424569, -4717.782702181662, 0.5660000000000001, -0.78, 0.322, 192.0, 17.0, 176.0, 231.0, 160.0, 10.0, 16.0, 0.0, 0.0, 0.0, 1.6634961051912327E9, 0.0, 2022-09-18 15:15:05.191
5.0, 12454.03438258581, 25381.36695401275, -37746.866076811086, -37431.77353522462, -17221.147384780335, -187500.02235174447, 15561.575062462696, -4749.723345008296, 0.5660000000000001, -0.78, 0.322, 192.0, 0.0, 0.0, 0.0, 0.0, 0.0, 0.0, 0.0, 0.0, 0.0, 1.6634961051912696E9, 0.0, 2022-09-18 15:15:05.191
6.0, 13248.795360183163, 26415.537466470894, -37837.30123487726, -37478.10870148047, -17480.047640806155, -187500.02235174447, 15252.58454711253, -4988.439975790975, 0.5660000000000001, -0.78, 0.322, 192.0, 0.0, 0.0, 0.0, 0.0, 0.0, 0.0, 0.0, 0.0, 0.0, 1.6634961051913917E9, 0.0, 2022-09-18 15:15:05.191
7.0, 13620.79544315284, 27217.786278460775, -37818.68223174599, -37487.80935857408, -17423.900058734424, -187500.02235174447, 15075.871655448873, -5095.1025003317, 0.5660000000000001, -0.78, 0.322, 192.0, 0.0, 0.0, 0.0, 0.0, 0.0, 0.0, 0.0, 0.0, 0.0, 1.663496105191421E9, 0.0, 2022-09-18 15:15:05.191
8.0, 12543.486063895949, 25981.220719959823, -37660.36482576905, -37384.387836979375, -17058.024353745503, -187500.02235174447, 15079.850265961919, -5023.599269819173, 0.5660000000000001, -0.78, 0.322, 192.0, 0.0, 0.0, 0.0, 0.0, 0.0, 0.0, 0.0, 0.0, 0.0, 1.6634961051914468E9, 0.0, 2022-09-18 15:15:05.191
9.0, 12140.97584974478, 25195.869826778155, -37675.273439320736, -37388.47820621469, -16998.2110855831, -187500.02235174447, 15493.938683740937, -4704.639876441941, 0.5660000000000001, -0.78, 0.322, 192.0, 0.0, 0.0, 0.0, 0.0, 0.0, 0.0, 0.0, 0.0, 0.0, 1.6634961051914752E9, 0.0, 2022-09-18 15:15:05.191
10.0, 12467.333670536718, 25405.328024068836, -37749.92826580146, -37413.64627047137, -17213.03370154306, -187500.02235174447, 15568.83937941067, -4736.5358157796645, 0.5660000000000001, -0.78, 0.322, 192.0, 0.0, 0.0, 0.0, 0.0, 0.0, 0.0, 0.0, 0.0, 0.0, 1.663496105191507E9, 0.0, 2022-09-18 15:15:05.191
11.0, 13265.335651080091, 26437.173955103633, -37838.01649069983, -37465.41291062986, -17475.800809359647, -187500.02235174447, 15257.323116937056, -4980.3709960426095, 0.5660000000000001, -0.78, 0.322, 192.0, 0.0, 0.0, 0.0, 0.0, 0.0, 0.0, 0.0, 0.0, 0.0, 1.663496105191533E9, 0.0, 2022-09-18 15:15:05.191
12.0, 13634.407655526122, 27231.890229212077, -37811.462618286925, -37475.471195634746, -17415.898134219424, -187500.02235174447, 15084.27591136407, -5088.396976995108, 0.5660000000000001, -0.78, 0.322, 192.0, 0.0, 0.0, 0.0, 0.0, 0.0, 0.0, 0.0, 0.0, 0.0, 1.6634961051915572E9, 0.0, 2022-09-18 15:15:05.191
13.0, 12548.828130820768, 25984.931109539404, -37644.852715117064, -37373.03315079607, -17052.503472865043, -187500.02235174447, 15084.611187530898, -5018.100740683168, 0.5660000000000001, -0.78, 0.322, 192.0, 0.0, 0.0, 0.0, 0.0, 0.0, 0.0, 0.0, 0.0, 0.0, 1.663496105191581E9, 0.0, 2022-09-18 15:15:05.191
14.0, 12145.200329446832, 25198.440277390513, -37654.19574429938, -37383.09143580096, -16997.004091382514, -187500.02235174447, 15498.140811698535, -4706.226850298268, 0.562, -0.782, 0.318, 192.0, 17.0, 144.0, 231.0, 144.0, 9.0, 240.0, 0.0, 0.0, 0.0, 1.663496105191616E9, 0.0, 2022-09-18 15:15:05.191
15.0, 12472.049888616788, 25406.669128736154, -37727.82239053516, -37424.06218338754, -17217.638160900853, -187500.02235174447, 15569.733449188883, -4744.247167616745, 0.562, -0.782, 0.318, 192.0, 0.0, 0.0, 0.0, 0.0, 0.0, 0.0, 0.0, 0.0, 0.0, 1.6634961051916423E9, 0.0, 2022-09-18 15:15:05.191
16.0, 13271.86236046104, 26442.47131853954, -37814.63656599958, -37467.51397460866, -17477.521893682708, -187500.02235174447, 15261.122913494459, -4985.310731567232, 0.562, -0.782, 0.318, 192.0, 0.0, 0.0, 0.0, 0.0, 0.0, 0.0, 0.0, 0.0, 0.0, 1.6634961051916676E9, 0.0, 2022-09-18 15:15:05.191
17.0, 13633.066550858803, 27231.644360023067, -37793.357705278126, -37474.152442711886, -17417.77568075367, -187500.02235174447, 15087.31574860999, -5086.251209527399, 0.562, -0.782, 0.318, 192.0, 0.0, 0.0, 0.0, 0.0, 0.0, 0.0, 0.0, 0.0, 0.0, 1.6634961051916933E9, 0.0, 2022-09-18 15:15:05.191
18.0, 12543.441360407038, 25984.86405430604, -37635.30852023465, -37369.30040947204, -17054.76099905503, -187500.02235174447, 15091.786097501052, -5011.059941179746, 0.562, -0.782, 0.318, 192.0, 0.0, 0.0, 0.0, 0.0, 0.0, 0.0, 0.0, 0.0, 0.0, 1.6634961051917195E9, 0.0, 2022-09-18 15:15:05.191
19.0, 12138.539509599152, 25201.12248672515, -37657.14617456748, -37383.65022941235, -17006.548286264933, -187500.02235174447, 15500.957131499903, -4706.606829954008, 0.562, -0.782, 0.318, 192.0, 0.0, 0.0, 0.0, 0.0, 0.0, 0.0, 0.0, 0.0, 0.0, 1.6634961051917458E9, 0.0, 2022-09-18 15:15:05.191
20.0, 12470.954653138479, 25416.70506199659, -37731.555131859204, -37409.08651460249, -17219.850983601926, -187500.02235174447, 15570.538111989274, -4747.488170562765, 0.562, -0.782, 0.318, 192.0, 0.0, 0.0, 0.0, 0.0, 0.0, 0.0, 0.0, 0.0, 0.0, 1.6634961051917732E9, 0.0, 2022-09-18 15:15:05.191
21.0, 13271.214159871837, 26456.642324524204, -37819.12926663509, -37457.20982041476, -17474.951443070346, -187500.02235174447, 15260.228843716246, -4990.496336280863, 0.562, -0.782, 0.318, 192.0, 0.0, 0.0, 0.0, 0.0, 0.0, 0.0, 0.0, 0.0, 0.0, 1.663496105191838E9, 0.0, 2022-09-18 15:15:05.191
22.0, 13631.837204913762, 27239.042787437775, -37791.457806999424, -37458.483869848715, -17403.29175034663, -187500.02235174447, 15088.254521877114, -5085.111270560178, 0.562, -0.782, 0.318, 192.0, 0.0, 0.0, 0.0, 0.0, 0.0, 0.0, 0.0, 0.0, 0.0, 1.6634961051918688E9, 0.0, 2022-09-18 15:15:05.191
