%OpenBCI Raw EEG Data
%Number of channels = 8
%Sample Rate = 250 Hz
%Board = OpenBCI_GUI$BoardCytonSerial
Sample Index, EXG Channel 0, EXG Channel 1, EXG Channel 2, EXG Channel 3, EXG Channel 4, EXG Channel 5, EXG Channel 6, EXG Channel 7, Accel Channel 0, Accel Channel 1, Accel Channel 2, Other, Other, Other, Other, Other, Other, Other, Analog Channel 0, Analog Channel 1, Analog Channel 2, Timestamp, Other, Timestamp (Formatted)
243.0, 10883.846686344945, 11212.283219371226, 7967.525180283211, 5978.175220271972, 32181.505224884182, 187500.0, 18095.81584880541, 20090.664337952654, 0.0, 0.0, 0.0, 192.0, 0.0, 0.0, 0.0, 0.0, 0.0, 0.0, 0.0, 0.0, 0.0, 1.6635806771282563E9, 0.0, 2022-09-19 14:44:37.128
244.0, 11094.824802258589, 11332.356790585136, 7975.169476886926, 6082.49081164489, 32336.559276170647, 187500.0, 18303.932941428775, 20153.6068503388, 0.0, 0.0, 0.0, 192.0, 0.0, 0.0, 0.0, 0.0, 0.0, 0.0, 0.0, 0.0, 0.0, 1.6635806771282814E9, 0.0, 2022-09-19 14:44:37.128
245.0, 11142.076390037108, 11356.451971107957, 7941.820674159608, 6091.297398960281, 32370.10924459806, 187500.0, 18301.09426988295, 20174.796304082432, 0.76, -0.616, 0.318, 192.0, 23.0, 192.0, 236.0, 192.0, 9.0, 240.0, 0.0, 0.0, 0.0, 1.663580677128296E9, 0.0, 2022-09-19 14:44:37.128
246.0, 10910.020579102109, 11224.017885210264, 7922.128787294482, 5973.347243469625, 32203.40993445038, 187500.0, 18058.711953009602, 20111.294998084904, 0.76, -0.616, 0.318, 192.0, 0.0, 0.0, 0.0, 0.0, 0.0, 0.0, 0.0, 0.0, 0.0, 1.6635806771283133E9, 0.0, 2022-09-19 14:44:37.128
0.0, 0.0, 0.0, 0.0, 0.0, 0.0, 0.0, 0.0, 0.0, 0.756, -0.624, 0.322, 192.0, 23.0, 160.0, 236.0, 128.0, 10.0, 16.0, 0.0, 0.0, 0.0, 1.663580677202639E9, 0.0, 2022-09-19 14:44:37.202
1.0, 12946.08568502494, 10569.938787214613, 7286.065195329809, 10630.780235621958, 35582.43490248143, 187500.0, 18097.69339533966, 21190.884255276236, 0.756, -0.624, 0.322, 192.0, 0.0, 0.0, 0.0, 0.0, 0.0, 0.0, 0.0, 0.0, 0.0, 1.6635806772196362E9, 0.0, 2022-09-19 14:44:37.219
2.0, 13137.818948962564, 10681.362233324318, 7288.099204075242, 10700.49532657806, 35685.99053454286, 187500.0, 18285.58215923097, 21222.176697513663, 0.756, -0.624, 0.322, 192.0, 0.0, 0.0, 0.0, 0.0, 0.0, 0.0, 0.0, 0.0, 0.0, 1.6635806772226326E9, 0.0, 2022-09-19 14:44:37.222
3.0, 13095.864724619953, 10652.707296932615, 7262.707622374013, 10663.257320315519, 35647.92551373548, 187500.0, 18212.111975206375, 21218.019273044978, 0.756, -0.624, 0.322, 192.0, 0.0, 0.0, 0.0, 0.0, 0.0, 0.0, 0.0, 0.0, 0.0, 1.6635806772256384E9, 0.0, 2022-09-19 14:44:37.225
4.0, 12879.209265614661, 10523.469510492028, 7256.136209504153, 10564.172037145143, 35544.03460550721, 187500.0, 18015.818955399867, 21173.114618434265, 0.756, -0.624, 0.322, 192.0, 0.0, 0.0, 0.0, 0.0, 0.0, 0.0, 0.0, 0.0, 0.0, 1.6635806772307036E9, 0.0, 2022-09-19 14:44:37.230
5.0, 12830.214241768628, 10495.440422945074, 7271.335395733762, 10541.462664778552, 35551.72360559984, 187500.0, 18020.445766502115, 21153.065103657857, 0.756, -0.624, 0.322, 192.0, 0.0, 0.0, 0.0, 0.0, 0.0, 0.0, 0.0, 0.0, 0.0, 1.663580677234706E9, 0.0, 2022-09-19 14:44:37.234
6.0, 12874.470695790136, 10522.061350591344, 7290.267323287407, 10556.61714751925, 35612.29683307372, 187500.0, 18098.34159592886, 21153.176862380133, 0.756, -0.624, 0.322, 192.0, 0.0, 0.0, 0.0, 0.0, 0.0, 0.0, 0.0, 0.0, 0.0, 1.663580677238612E9, 0.0, 2022-09-19 14:44:37.238
7.0, 13067.120381250428, 10632.747189134025, 7305.77943393939, 10623.471215185073, 35762.07587266873, 187500.0, 18287.794981932042, 21183.888159261725, 0.756, -0.624, 0.322, 192.0, 0.0, 0.0, 0.0, 0.0, 0.0, 0.0, 0.0, 0.0, 0.0, 1.6635806772417085E9, 0.0, 2022-09-19 14:44:37.241
8.0, 13037.481968102691, 10604.271066697964, 7271.044823055843, 10585.741470544514, 35754.61039002066, 187500.0, 18221.522059622057, 21178.61314757027, 0.762, -0.622, 0.324, 192.0, 23.0, 208.0, 236.0, 144.0, 10.0, 32.0, 0.0, 0.0, 0.0, 1.663580677246667E9, 0.0, 2022-09-19 14:44:37.246
9.0, 12809.985913036575, 10459.16354169411, 7266.462715442505, 10481.939969294068, 35616.70012673141, 187500.0, 18019.32817927935, 21130.71335920255, 0.762, -0.622, 0.324, 192.0, 0.0, 0.0, 0.0, 0.0, 0.0, 0.0, 0.0, 0.0, 0.0, 1.6635806772517426E9, 0.0, 2022-09-19 14:44:37.251
10.0, 12758.62160427828, 10419.712712730494, 7289.417956998105, 10460.63875682816, 35594.348382276105, 187500.0, 18017.316522278372, 21107.1322688022, 0.762, -0.622, 0.324, 192.0, 0.0, 0.0, 0.0, 0.0, 0.0, 0.0, 0.0, 0.0, 0.0, 1.6635806772557068E9, 0.0, 2022-09-19 14:44:37.255
11.0, 12802.073395499398, 10434.151939648622, 7303.007817626932, 10471.099373233244, 35633.84391472863, 187500.0, 18086.785744045468, 21102.147829788664, 0.762, -0.622, 0.324, 192.0, 0.0, 0.0, 0.0, 0.0, 0.0, 0.0, 0.0, 0.0, 0.0, 1.6635806772588615E9, 0.0, 2022-09-19 14:44:37.258
12.0, 12986.698804700232, 10531.538490240395, 7309.8250996858005, 10524.855318648259, 35766.52386981533, 187500.0, 18275.814446903998, 21125.728920189016, 0.762, -0.622, 0.324, 192.0, 0.0, 0.0, 0.0, 0.0, 0.0, 0.0, 0.0, 0.0, 0.0, 1.6635806772617319E9, 0.0, 2022-09-19 14:44:37.261
13.0, 12972.37133650438, 10507.040978317378, 7271.000119566932, 10482.40935592763, 35764.579268047724, 187500.0, 18231.08860624893, 21119.22456255252, 0.762, -0.622, 0.324, 192.0, 0.0, 0.0, 0.0, 0.0, 0.0, 0.0, 0.0, 0.0, 0.0, 1.663580677265705E9, 0.0, 2022-09-19 14:44:37.265
14.0, 12743.020086648476, 10358.066601522756, 7260.047764783832, 10367.968424316457, 35620.11994363307, 187500.0, 18017.249467045007, 21066.563852615818, 0.762, -0.622, 0.324, 192.0, 0.0, 0.0, 0.0, 0.0, 0.0, 0.0, 0.0, 0.0, 0.0, 1.6635806772698011E9, 0.0, 2022-09-19 14:44:37.269
15.0, 12680.144629495697, 10314.838327746193, 7282.265398772407, 10337.52534836833, 35584.82653913814, 187500.0, 18001.04445231491, 21039.093558680244, 0.762, -0.622, 0.324, 192.0, 0.0, 0.0, 0.0, 0.0, 0.0, 0.0, 0.0, 0.0, 0.0, 1.663580677275761E9, 0.0, 2022-09-19 14:44:37.275
16.0, 12711.124147310753, 10326.416531374041, 7294.15652682263, 10336.363057656654, 35604.40666728099, 187500.0, 18060.991830944044, 21032.00805568791, 0.762, -0.622, 0.324, 192.0, 0.0, 0.0, 0.0, 0.0, 0.0, 0.0, 0.0, 0.0, 0.0, 1.6635806772787588E9, 0.0, 2022-09-19 14:44:37.278
17.0, 12896.55421931198, 10428.116968645689, 7304.795957183356, 10393.62822695115, 35711.91855811102, 187500.0, 18262.179882786262, 21059.277183923386, 0.762, -0.622, 0.324, 192.0, 0.0, 0.0, 0.0, 0.0, 0.0, 0.0, 0.0, 0.0, 0.0, 1.6635806772827148E9, 0.0, 2022-09-19 14:44:37.282
18.0, 12911.351074141392, 10423.713674987994, 7269.256683499419, 10365.599139404196, 35696.272336992304, 187500.0, 18234.463719661682, 21060.46182637952, 0.76, -0.62, 0.33, 192.0, 23.0, 192.0, 236.0, 160.0, 10.0, 80.0, 0.0, 0.0, 0.0, 1.663580677286859E9, 0.0, 2022-09-19 14:44:37.286
19.0, 12675.048431759888, 10270.69363244696, 7254.616290881192, 10249.347716492142, 35521.97343372982, 187500.0, 18017.47298448956, 21005.92356990857, 0.76, -0.62, 0.33, 192.0, 0.0, 0.0, 0.0, 0.0, 0.0, 0.0, 0.0, 0.0, 0.0, 1.663580677289785E9, 0.0, 2022-09-19 14:44:37.289
20.0, 12603.433442525084, 10221.095111500636, 7279.9184656046, 10211.081529984658, 35476.152357596446, 187500.0, 17994.249522000497, 20972.23949101442, 0.76, -0.62, 0.33, 192.0, 0.0, 0.0, 0.0, 0.0, 0.0, 0.0, 0.0, 0.0, 0.0, 1.6635806772927506E9, 0.0, 2022-09-19 14:44:37.292
21.0, 12636.558727807847, 10235.154358763022, 7290.222619798496, 10211.081529984658, 35517.34662262757, 187500.0, 18055.13567389675, 20966.025706055847, 0.76, -0.62, 0.33, 192.0, 0.0, 0.0, 0.0, 0.0, 0.0, 0.0, 0.0, 0.0, 0.0, 1.6635806772976851E9, 0.0, 2022-09-19 14:44:37.297
22.0, 12820.088901530375, 10334.530214611319, 7304.930067650088, 10269.08430684618, 35653.066414960194, 187500.0, 18242.689161621234, 20989.696203434018, 0.76, -0.62, 0.33, 192.0, 0.0, 0.0, 0.0, 0.0, 0.0, 0.0, 0.0, 0.0, 0.0, 1.6635806773018353E9, 0.0, 2022-09-19 14:44:37.301
23.0, 12849.392038511281, 10340.319316425243, 7283.405337739628, 10252.253443271333, 35675.28404894877, 187500.0, 18237.302391207504, 20993.428944758052, 0.76, -0.62, 0.33, 192.0, 0.0, 0.0, 0.0, 0.0, 0.0, 0.0, 0.0, 0.0, 0.0, 1.6635806773058138E9, 0.0, 2022-09-19 14:44:37.305
24.0, 12622.521832289915, 10196.73171004435, 7269.144924777142, 10141.120569839546, 35527.740183799295, 187500.0, 18022.43507175864, 20943.942182534003, 0.76, -0.62, 0.33, 192.0, 0.0, 0.0, 0.0, 0.0, 0.0, 0.0, 0.0, 0.0, 0.0, 1.6635806773098097E9, 0.0, 2022-09-19 14:44:37.309
25.0, 12546.257680208408, 10143.467503007354, 7292.100166332742, 10104.866040333038, 35477.35935179703, 187500.0, 17995.9482545791, 20912.18035366301, 0.76, -0.62, 0.33, 192.0, 0.0, 0.0, 0.0, 0.0, 0.0, 0.0, 0.0, 0.0, 0.0, 1.6635806773148396E9, 0.0, 2022-09-19 14:44:37.314
26.0, 12571.045764809343, 10150.351840299589, 7306.137061850675, 10108.978761312814, 35493.25144210475, 187500.0, 18050.66532500569, 20903.70904251445, 0.76, -0.62, 0.33, 192.0, 0.0, 0.0, 0.0, 0.0, 0.0, 0.0, 0.0, 0.0, 0.0, 1.6635806773177793E9, 0.0, 2022-09-19 14:44:37.317
27.0, 12748.205691362107, 10246.777265879782, 7315.301277077351, 10170.893093454015, 35607.155931848996, 187500.0, 18231.17801322675, 20924.540868346798, 0.76, -0.62, 0.33, 192.0, 0.0, 0.0, 0.0, 0.0, 0.0, 0.0, 0.0, 0.0, 0.0, 1.6635806773208003E9, 0.0, 2022-09-19 14:44:37.320
28.0, 12797.625398352791, 10265.284510288777, 7288.099204075242, 10170.960148687382, 35633.776859495265, 187500.0, 18248.254745990605, 20931.067577727747, 0.75, -0.622, 0.33, 192.0, 23.0, 112.0, 236.0, 144.0, 10.0, 80.0, 0.0, 0.0, 0.0, 1.6635806773258357E9, 0.0, 2022-09-19 14:44:37.325
29.0, 12568.810590363812, 10122.233345774812, 7272.050651556332, 10064.901121246949, 35481.49442452126, 187500.0, 18029.60998172879, 20882.65369923755, 0.75, -0.622, 0.33, 192.0, 0.0, 0.0, 0.0, 0.0, 0.0, 0.0, 0.0, 0.0, 0.0, 1.6635806773299286E9, 0.0, 2022-09-19 14:44:37.329
30.0, 12482.689318977515, 10064.163513679923, 7292.100166332742, 10026.50082427273, 35423.9610342933, 187500.0, 17992.21551325506, 20850.2213180329, 0.75, -0.622, 0.33, 192.0, 0.0, 0.0, 0.0, 0.0, 0.0, 0.0, 0.0, 0.0, 0.0, 1.6635806773338597E9, 0.0, 2022-09-19 14:44:37.333
31.0, 12500.347197097206, 10069.773801538206, 7306.964076395521, 10029.920641174394, 35436.03097629917, 187500.0, 18044.406836558206, 20841.101806295133, 0.75, -0.622, 0.33, 192.0, 0.0, 0.0, 0.0, 0.0, 0.0, 0.0, 0.0, 0.0, 0.0, 1.6635806773378603E9, 0.0, 2022-09-19 14:44:37.337
32.0, 12664.230187443518, 10163.874645695048, 7315.480091032993, 10088.57161862512, 35545.2415997078, 187500.0, 18219.93508576573, 20857.776207658793, 0.75, -0.622, 0.33, 192.0, 0.0, 0.0, 0.0, 0.0, 0.0, 0.0, 0.0, 0.0, 0.0, 1.663580677341915E9, 0.0, 2022-09-19 14:44:37.341
33.0, 12729.050246363908, 10195.189439676935, 7290.155564565131, 10095.701825106362, 35590.28036478524, 187500.0, 18253.75327512661, 20870.337888042675, 0.75, -0.622, 0.33, 192.0, 0.0, 0.0, 0.0, 0.0, 0.0, 0.0, 0.0, 0.0, 0.0, 1.6635806773459432E9, 0.0, 2022-09-19 14:44:37.345
34.0, 12507.186830900531, 10056.362754865022, 7272.877666101178, 9992.436765722843, 35445.530467692675, 187500.0, 18036.293153320927, 20825.187364242956, 0.75, -0.622, 0.33, 192.0, 0.0, 0.0, 0.0, 0.0, 0.0, 0.0, 0.0, 0.0, 0.0, 1.6635806773489015E9, 0.0, 2022-09-19 14:44:37.348
35.0, 12412.013103009833, 9992.21324827829, 7295.743500678957, 9954.30468968209, 35382.49854832871, 187500.0, 17989.287434731417, 20793.1573144385, 0.75, -0.622, 0.33, 192.0, 0.0, 0.0, 0.0, 0.0, 0.0, 0.0, 0.0, 0.0, 0.0, 1.6635806773538804E9, 0.0, 2022-09-19 14:44:37.353
36.0, 12432.956687564456, 9999.656379181908, 7308.618105485214, 9966.106410754492, 35394.903766501404, 187500.0, 18039.53415626695, 20790.832733015148, 0.75, -0.622, 0.33, 192.0, 0.0, 0.0, 0.0, 0.0, 0.0, 0.0, 0.0, 0.0, 0.0, 1.6635806773579302E9, 0.0, 2022-09-19 14:44:37.357
37.0, 12597.68904420007, 10091.097365748568, 7315.413035799627, 10030.993524908248, 35498.54880554066, 187500.0, 18208.625103071347, 20815.35259668262, 0.75, -0.622, 0.33, 192.0, 0.0, 0.0, 0.0, 0.0, 0.0, 0.0, 0.0, 0.0, 0.0, 1.6635806773618975E9, 0.0, 2022-09-19 14:44:37.361
38.0, 12686.358414454273, 10136.024372103737, 7291.831945399278, 10053.389972852467, 35549.399024176484, 187500.0, 18262.04577231953, 20834.530393425273, 0.75, -0.62, 0.336, 192.0, 23.0, 112.0, 236.0, 160.0, 10.0, 128.0, 0.0, 0.0, 0.0, 1.6635806773659346E9, 0.0, 2022-09-19 14:44:37.365
39.0, 12474.083897362221, 10005.601943207019, 7269.39079396615, 9962.351317686, 35404.04562998362, 187500.0, 18046.887880192742, 20798.611140085595, 0.75, -0.62, 0.336, 192.0, 0.0, 0.0, 0.0, 0.0, 0.0, 0.0, 0.0, 0.0, 0.0, 1.6635806773699007E9, 0.0, 2022-09-19 14:44:37.369
40.0, 12370.751782745336, 9941.363029642467, 7296.257590801429, 9930.72359928174, 35334.710518683256, 187500.0, 17987.141667263706, 20767.095180403612, 0.75, -0.62, 0.336, 192.0, 0.0, 0.0, 0.0, 0.0, 0.0, 0.0, 0.0, 0.0, 0.0, 1.6635806773729184E9, 0.0, 2022-09-19 14:44:37.372
41.0, 12390.30955914373, 9951.68953558082, 7316.441216044572, 9952.941233270316, 35346.57929498903, 187500.0, 18037.120167865774, 20763.54125303522, 0.75, -0.62, 0.336, 192.0, 0.0, 0.0, 0.0, 0.0, 0.0, 0.0, 0.0, 0.0, 0.0, 1.663580677376923E9, 0.0, 2022-09-19 14:44:37.376
42.0, 12546.10121799722, 10041.834120969072, 7320.643344002169, 10028.065446384602, 35447.69858690484, 187500.0, 18202.12074543485, 20784.842465501126, 0.75, -0.62, 0.336, 192.0, 0.0, 0.0, 0.0, 0.0, 0.0, 0.0, 0.0, 0.0, 0.0, 1.6635806773819456E9, 0.0, 2022-09-19 14:44:37.381
43.0, 12648.65102155817, 10098.160516996446, 7292.949532622044, 10069.147952693458, 35512.22807314731, 187500.0, 18268.03603983355, 20804.623759344075, 0.75, -0.62, 0.336, 192.0, 0.0, 0.0, 0.0, 0.0, 0.0, 0.0, 0.0, 0.0, 0.0, 1.663580677385907E9, 0.0, 2022-09-19 14:44:37.385
44.0, 12445.36190573715, 9971.694346868318, 7266.954453820522, 9986.31238774209, 35373.26727786866, 187500.0, 18057.348496597828, 20769.039782171225, 0.75, -0.62, 0.336, 192.0, 0.0, 0.0, 0.0, 0.0, 0.0, 0.0, 0.0, 0.0, 0.0, 1.6635806773898897E9, 0.0, 2022-09-19 14:44:37.389
45.0, 12332.642058449037, 9901.286351834102, 7283.740613906457, 9952.650660592397, 35295.19263448627, 187500.0, 17995.03183305643, 20739.870755657048, 0.75, -0.62, 0.336, 192.0, 0.0, 0.0, 0.0, 0.0, 0.0, 0.0, 0.0, 0.0, 0.0, 1.663580677393973E9, 0.0, 2022-09-19 14:44:37.393
46.0, 12347.193044089443, 9910.383511827411, 7298.269247802406, 9970.867332323473, 35303.082800279, 187500.0, 18035.980228898552, 20736.897973644493, 0.75, -0.62, 0.336, 192.0, 0.0, 0.0, 0.0, 0.0, 0.0, 0.0, 0.0, 0.0, 0.0, 1.663580677397902E9, 0.0, 2022-09-19 14:44:37.397
47.0, 12496.256827861886, 9995.4095477354, 7307.6569804736355, 10038.168434878402, 35398.94943224781, 187500.0, 18194.07411743094, 20755.896956431505, 0.75, -0.62, 0.336, 192.0, 0.0, 0.0, 0.0, 0.0, 0.0, 0.0, 0.0, 0.0, 0.0, 1.6635806774009185E9, 0.0, 2022-09-19 14:44:37.400
48.0, 12616.866840942723, 10060.207254911335, 7295.698797190046, 10078.490981875775, 35473.0231133727, 187500.0, 18279.43542950576, 20780.595634054618, 0.75, -0.616, 0.342, 192.0, 23.0, 112.0, 236.0, 192.0, 10.0, 176.0, 0.0, 0.0, 0.0, 1.6635806774048967E9, 0.0, 2022-09-19 14:44:37.404
49.0, 12421.378483936607, 9938.278488907634, 7264.272244485885, 9993.263780267689, 35338.73383268521, 187500.0, 18072.39122061625, 20745.39163653751, 0.75, -0.616, 0.342, 192.0, 0.0, 0.0, 0.0, 0.0, 0.0, 0.0, 0.0, 0.0, 0.0, 1.6635806774099934E9, 0.0, 2022-09-19 14:44:37.409
50.0, 12295.493459164318, 9859.734458891686, 7274.710509146513, 9947.3980006454, 35249.1703926528, 187500.0, 17989.600359153792, 20706.05256629617, 0.75, -0.616, 0.342, 192.0, 0.0, 0.0, 0.0, 0.0, 0.0, 0.0, 0.0, 0.0, 0.0, 1.66358067741394E9, 0.0, 2022-09-19 14:44:37.413
51.0, 12308.368063970574, 9866.931720606295, 7294.894134389656, 9961.479599652243, 35252.38904385436, 187500.0, 18034.929696909156, 20699.771726104227, 0.75, -0.616, 0.342, 192.0, 0.0, 0.0, 0.0, 0.0, 0.0, 0.0, 0.0, 0.0, 0.0, 1.66358067741891E9, 0.0, 2022-09-19 14:44:37.418
52.0, 12445.920699348533, 9945.743971555707, 7303.521907749404, 10021.337571303555, 35339.739661185704, 187500.0, 18188.26266387256, 20720.156517047468, 0.75, -0.616, 0.342, 192.0, 0.0, 0.0, 0.0, 0.0, 0.0, 0.0, 0.0, 0.0, 0.0, 1.6635806774240117E9, 0.0, 2022-09-19 14:44:37.424
53.0, 12580.791125391857, 10018.901231157926, 7281.170163294097, 10065.459914858331, 35423.558702893104, 187500.0, 18288.37612728788, 20744.385808037023, 0.75, -0.616, 0.342, 192.0, 0.0, 0.0, 0.0, 0.0, 0.0, 0.0, 0.0, 0.0, 0.0, 1.663580677426941E9, 0.0, 2022-09-19 14:44:37.426
54.0, 12397.93150400299, 9902.895677434883, 7248.536616389349, 9979.584512661042, 35294.34326819697, 187500.0, 18082.360098643316, 20710.746432631782, 0.75, -0.616, 0.342, 192.0, 0.0, 0.0, 0.0, 0.0, 0.0, 0.0, 0.0, 0.0, 0.0, 1.6635806774299726E9, 0.0, 2022-09-19 14:44:37.429
55.0, 12265.542121594206, 9821.244754939647, 7268.027337554377, 9933.182291171825, 35199.996554851125, 187500.0, 17989.42154519815, 20676.816484548628, 0.75, -0.616, 0.342, 192.0, 0.0, 0.0, 0.0, 0.0, 0.0, 0.0, 0.0, 0.0, 0.0, 1.6635806774349897E9, 0.0, 2022-09-19 14:44:37.434
56.0, 12267.844351273103, 9820.46244388371, 7284.031186584376, 9946.168654700357, 35199.12483681737, 187500.0, 18031.84515617432, 20671.27325192371, 0.75, -0.616, 0.342, 192.0, 0.0, 0.0, 0.0, 0.0, 0.0, 0.0, 0.0, 0.0, 0.0, 1.6635806774380276E9, 0.0, 2022-09-19 14:44:37.438
57.0, 12400.099623215154, 9895.05021513107, 7296.414053012616, 10004.998446106727, 35281.55807036854, 187500.0, 18177.243253856093, 20689.691089354885, 0.75, -0.616, 0.342, 192.0, 0.0, 0.0, 0.0, 0.0, 0.0, 0.0, 0.0, 0.0, 0.0, 1.6635806774420009E9, 0.0, 2022-09-19 14:44:37.442
58.0, 12552.538520400349, 9979.249236494212, 7289.999102353943, 10061.011917711725, 35373.11081565748, 187500.0, 18294.09817386844, 20719.284799013712, 0.75, -0.618, 0.342, 192.0, 23.0, 112.0, 236.0, 176.0, 10.0, 176.0, 0.0, 0.0, 0.0, 1.663580677445998E9, 0.0, 2022-09-19 14:44:37.445
59.0, 12374.193951391453, 9868.272825273612, 7252.604633880214, 9978.623387649464, 35247.471660074196, 187500.0, 18094.497095882547, 20685.176036974914, 0.75, -0.618, 0.342, 192.0, 0.0, 0.0, 0.0, 0.0, 0.0, 0.0, 0.0, 0.0, 0.0, 1.663580677450025E9, 0.0, 2022-09-19 14:44:37.450
60.0, 12229.555813021161, 9780.542228286533, 7269.346090477239, 9921.112349165958, 35148.16285945927, 187500.0, 17986.314652718862, 20649.167376657413, 0.75, -0.618, 0.342, 192.0, 0.0, 0.0, 0.0, 0.0, 0.0, 0.0, 0.0, 0.0, 0.0, 1.66358067745301E9, 0.0, 2022-09-19 14:44:37.453
61.0, 12236.082522402112, 9786.577199289466, 7290.602599454236, 9930.187157414814, 35151.49326938311, 187500.0, 18024.51378399298, 20648.183899901378, 0.75, -0.618, 0.342, 192.0, 0.0, 0.0, 0.0, 0.0, 0.0, 0.0, 0.0, 0.0, 0.0, 1.6635806774570065E9, 0.0, 2022-09-19 14:44:37.457
62.0, 12360.917015185001, 9861.23202577019, 7300.325608292295, 9982.69140514033, 35231.959549422216, 187500.0, 18165.843864183887, 20670.28977516768, 0.75, -0.618, 0.342, 192.0, 0.0, 0.0, 0.0, 0.0, 0.0, 0.0, 0.0, 0.0, 0.0, 1.6635806774610474E9, 0.0, 2022-09-19 14:44:37.461
63.0, 12520.061435706788, 9948.560291357076, 7287.4062999971275, 10036.492054044254, 35331.11188782596, 187500.0, 18295.6180924914, 20701.828086594116, 0.75, -0.618, 0.342, 192.0, 0.0, 0.0, 0.0, 0.0, 0.0, 0.0, 0.0, 0.0, 0.0, 1.6635806774650984E9, 0.0, 2022-09-19 14:44:37.465
64.0, 12359.128875628576, 9849.4750081867, 7254.728049603468, 9958.707983339786, 35220.53780800555, 187500.0, 18110.903276312743, 20676.458856637342, 0.75, -0.618, 0.342, 192.0, 0.0, 0.0, 0.0, 0.0, 0.0, 0.0, 0.0, 0.0, 0.0, 1.663580677470132E9, 0.0, 2022-09-19 14:44:37.470
65.0, 12208.858097655548, 9761.655004221799, 7266.552122420326, 9901.331055323011, 35120.647862034784, 187500.0, 17996.395289468204, 20646.3734086005, 0.75, -0.618, 0.342, 192.0, 0.0, 0.0, 0.0, 0.0, 0.0, 0.0, 0.0, 0.0, 0.0, 1.6635806774741542E9, 0.0, 2022-09-19 14:44:37.474
66.0, 12213.104929102055, 9766.907664168795, 7288.054500586331, 9911.29993335008, 35122.257187635565, 187500.0, 18033.163909097184, 20646.395760344956, 0.75, -0.618, 0.342, 192.0, 0.0, 0.0, 0.0, 0.0, 0.0, 0.0, 0.0, 0.0, 0.0, 1.6635806774780984E9, 0.0, 2022-09-19 14:44:37.478
67.0, 12328.976372358367, 9838.65676387033, 7302.225506570996, 9965.54761714311, 35197.403752494305, 187500.0, 18164.01102113855, 20668.009897233238, 0.75, -0.618, 0.342, 192.0, 0.0, 0.0, 0.0, 0.0, 0.0, 0.0, 0.0, 0.0, 0.0, 1.663580677481221E9, 0.0, 2022-09-19 14:44:37.481
68.0, 12500.123679652654, 9939.887814508416, 7289.8649918872115, 10025.18207134987, 35300.7805706001, 187500.0, 18307.129240885883, 20701.38105170501, 0.756, -0.614, 0.338, 192.0, 23.0, 160.0, 236.0, 208.0, 10.0, 144.0, 0.0, 0.0, 0.0, 1.6635806774851215E9, 0.0, 2022-09-19 14:44:37.485
69.0, 12353.563291259205, 9851.151389020848, 7253.7669245918905, 9950.169616957857, 35195.2579850266, 187500.0, 18130.796328877965, 20678.917548527428, 0.756, -0.614, 0.338, 192.0, 0.0, 0.0, 0.0, 0.0, 0.0, 0.0, 0.0, 0.0, 0.0, 1.663580677489126E9, 0.0, 2022-09-19 14:44:37.489
70.0, 12193.055414325645, 9755.59768147441, 7261.76884910689, 9885.349558037467, 35083.119283094326, 187500.0, 18000.03862381442, 20646.574574300597, 0.756, -0.614, 0.338, 192.0, 0.0, 0.0, 0.0, 0.0, 0.0, 0.0, 0.0, 0.0, 0.0, 1.6635806774930906E9, 0.0, 2022-09-19 14:44:37.493
71.0, 12194.195353292866, 9755.329460540946, 7279.24791327094, 9888.09882260547, 35074.53621322349, 187500.0, 18032.023970129965, 20645.546394055655, 0.756, -0.614, 0.338, 192.0, 0.0, 0.0, 0.0, 0.0, 0.0, 0.0, 0.0, 0.0, 0.0, 1.663580677498129E9, 0.0, 2022-09-19 14:44:37.498
72.0, 12301.57313365616, 9818.406083393822, 7291.9213523770995, 9931.528262082133, 35138.685719810215, 187500.0, 18153.483349500104, 20663.316030897622, 0.756, -0.614, 0.338, 192.0, 0.0, 0.0, 0.0, 0.0, 0.0, 0.0, 0.0, 0.0, 0.0, 1.6635806775021183E9, 0.0, 2022-09-19 14:44:37.502
73.0, 12482.175228855041, 9923.615744544953, 7287.071023830298, 9994.31431225709, 35251.450270587244, 187500.0, 18306.30222634104, 20700.755202860262, 0.756, -0.614, 0.338, 192.0, 0.0, 0.0, 0.0, 0.0, 0.0, 0.0, 0.0, 0.0, 0.0, 1.6635806775060756E9, 0.0, 2022-09-19 14:44:37.506
74.0, 12357.743067472347, 9849.206787253235, 7255.5327124038595, 9928.555480069575, 35162.467975910666, 187500.0, 18159.764189692043, 20686.226568964314, 0.756, -0.614, 0.338, 192.0, 0.0, 0.0, 0.0, 0.0, 0.0, 0.0, 0.0, 0.0, 0.0, 1.663580677509175E9, 0.0, 2022-09-19 14:44:37.509
75.0, 12188.36154799003, 9749.518006982566, 7266.395660209139, 9855.62173791191, 35042.99790179705, 187500.0, 18012.57795245385, 20647.312181867623, 0.756, -0.614, 0.338, 192.0, 0.0, 0.0, 0.0, 0.0, 0.0, 0.0, 0.0, 0.0, 0.0, 1.663580677513124E9, 0.0, 2022-09-19 14:44:37.513
76.0, 12181.007824064234, 9745.718210425164, 7289.417956998105, 9854.079467544492, 35035.19714298214, 187500.0, 18039.489452778038, 20638.885574207972, 0.756, -0.614, 0.338, 192.0, 0.0, 0.0, 0.0, 0.0, 0.0, 0.0, 0.0, 0.0, 0.0, 1.6635806775171473E9, 0.0, 2022-09-19 14:44:37.517
77.0, 12272.471162375352, 9799.541211073543, 7300.839698414768, 9894.469069775232, 35096.955012912156, 187500.0, 18152.432817510704, 20651.80488250314, 0.756, -0.614, 0.338, 192.0, 0.0, 0.0, 0.0, 0.0, 0.0, 0.0, 0.0, 0.0, 0.0, 1.6635806775211468E9, 0.0, 2022-09-19 14:44:37.521
78.0, 12457.051868087277, 9905.86845944744, 7291.563724465815, 9960.83139906304, 35219.844903927435, 187500.0, 18311.86781071041, 20682.247958451266, 0.756, -0.614, 0.338, 192.0, 0.0, 0.0, 0.0, 0.0, 0.0, 0.0, 0.0, 0.0, 0.0, 1.6635806775262313E9, 0.0, 2022-09-19 14:44:37.526
79.0, 12340.241651563842, 9832.75590333413, 7251.040011768343, 9894.446718030777, 35146.642940836304, 187500.0, 18158.13251234681, 20663.204272175346, 0.754, -0.622, 0.336, 192.0, 23.0, 144.0, 236.0, 144.0, 10.0, 128.0, 0.0, 0.0, 0.0, 1.663580677530156E9, 0.0, 2022-09-19 14:44:37.530
80.0, 12160.086591254067, 9724.752274126085, 7257.924349060578, 9824.217536952203, 35034.77245983749, 187500.0, 18008.599341940804, 20629.162565369912, 0.754, -0.622, 0.336, 192.0, 0.0, 0.0, 0.0, 0.0, 0.0, 0.0, 0.0, 0.0, 0.0, 1.6635806775332475E9, 0.0, 2022-09-19 14:44:37.533
81.0, 12155.593890618551, 9722.874727591841, 7284.67938717358, 9832.845310311952, 35038.21462848361, 187500.0, 18040.607040000803, 20629.274324092188, 0.754, -0.622, 0.336, 192.0, 0.0, 0.0, 0.0, 0.0, 0.0, 0.0, 0.0, 0.0, 0.0, 1.6635806775371437E9, 0.0, 2022-09-19 14:44:37.537
82.0, 12246.140807406999, 9779.134068385849, 7305.041826372365, 9876.453563744255, 35105.269861849534, 187500.0, 18149.728256431612, 20647.60275454554, 0.754, -0.622, 0.336, 192.0, 0.0, 0.0, 0.0, 0.0, 0.0, 0.0, 0.0, 0.0, 0.0, 1.663580677541266E9, 0.0, 2022-09-19 14:44:37.541
83.0, 12435.616545154637, 9889.954017395261, 7296.30229429034, 9949.454361135287, 35235.04409015705, 187500.0, 18319.467403825212, 20684.52783638571, 0.754, -0.622, 0.336, 192.0, 0.0, 0.0, 0.0, 0.0, 0.0, 0.0, 0.0, 0.0, 0.0, 1.6635806775451336E9, 0.0, 2022-09-19 14:44:37.545
84.0, 12338.63232596306, 9830.14074923286, 7258.416087438594, 9897.598313998975, 35169.933458558735, 187500.0, 18184.35110859288, 20673.597833347063, 0.754, -0.622, 0.336, 192.0, 0.0, 0.0, 0.0, 0.0, 0.0, 0.0, 0.0, 0.0, 0.0, 1.6635806775492835E9, 0.0, 2022-09-19 14:44:37.549
85.0, 12143.680410823872, 9714.15754725427, 7268.429668954572, 9817.489661871155, 35041.63444538527, 187500.0, 18014.388443754728, 20630.03428340367, 0.754, -0.622, 0.336, 192.0, 0.0, 0.0, 0.0, 0.0, 0.0, 0.0, 0.0, 0.0, 0.0, 1.6635806775541942E9, 0.0, 2022-09-19 14:44:37.554
86.0, 12128.011837960701, 9706.043864016994, 7296.481108245982, 9818.60724909392, 35034.63834937076, 187500.0, 18038.61773474428, 20623.619332745, 0.754, -0.622, 0.336, 192.0, 0.0, 0.0, 0.0, 0.0, 0.0, 0.0, 0.0, 0.0, 0.0, 1.663580677558252E9, 0.0, 2022-09-19 14:44:37.558
87.0, 12207.852269155059, 9753.988355873627, 7311.434425286583, 9856.471104201211, 35091.99292564308, 187500.0, 18139.915840615733, 20636.38217882898, 0.754, -0.622, 0.336, 192.0, 0.0, 0.0, 0.0, 0.0, 0.0, 0.0, 0.0, 0.0, 0.0, 1.66358067756123E9, 0.0, 2022-09-19 14:44:37.561
88.0, 12407.006312251844, 9871.893807875373, 7311.233259586485, 9932.288221393612, 35225.41048829681, 187500.0, 18319.020368936108, 20676.928243270904, 0.754, -0.622, 0.336, 192.0, 0.0, 0.0, 0.0, 0.0, 0.0, 0.0, 0.0, 0.0, 0.0, 1.6635806775652335E9, 0.0, 2022-09-19 14:44:37.565
89.0, 12334.497253238827, 9825.89391778635, 7276.073965558287, 9887.920008649828, 35176.25900223959, 187500.0, 18207.574571081946, 20674.268385680723, 0.754, -0.62, 0.336, 192.0, 23.0, 144.0, 236.0, 160.0, 10.0, 128.0, 0.0, 0.0, 0.0, 1.6635806775691621E9, 0.0, 2022-09-19 14:44:37.569
90.0, 12138.226585176777, 9710.737730352608, 7269.435497455061, 9808.258391411113, 35050.70925363413, 187500.0, 18031.264010818482, 20636.426882317886, 0.754, -0.62, 0.336, 192.0, 0.0, 0.0, 0.0, 0.0, 0.0, 0.0, 0.0, 0.0, 0.0, 1.663580677573362E9, 0.0, 2022-09-19 14:44:37.573
91.0, 12118.802919245116, 9700.187706969704, 7297.710454191024, 9808.258391411113, 35040.56156165142, 187500.0, 18047.71489473759, 20628.827289203084, 0.754, -0.62, 0.336, 192.0, 0.0, 0.0, 0.0, 0.0, 0.0, 0.0, 0.0, 0.0, 0.0, 1.6635806775772502E9, 0.0, 2022-09-19 14:44:37.577
92.0, 12188.160382289932, 9740.979640600639, 7308.282829318385, 9841.383676693878, 35091.6800012207, 187500.0, 18134.48436671309, 20639.556126541633, 0.754, -0.62, 0.336, 192.0, 0.0, 0.0, 0.0, 0.0, 0.0, 0.0, 0.0, 0.0, 0.0, 1.6635806775812225E9, 0.0, 2022-09-19 14:44:37.581
93.0, 12386.06272769722, 9855.219406511713, 7303.7230734495015, 9918.29602936459, 35223.488238273654, 187500.0, 18311.6219415214, 20679.297528183168, 0.754, -0.62, 0.336, 192.0, 0.0, 0.0, 0.0, 0.0, 0.0, 0.0, 0.0, 0.0, 0.0, 1.663580677587322E9, 0.0, 2022-09-19 14:44:37.587
94.0, 12330.29512528123, 9819.523670616589, 7269.144924777142, 9883.851991158961, 35185.64673491081, 187500.0, 18211.262608917074, 20681.599757862063, 0.754, -0.62, 0.336, 192.0, 0.0, 0.0, 0.0, 0.0, 0.0, 0.0, 0.0, 0.0, 0.0, 1.6635806775902767E9, 0.0, 2022-09-19 14:44:37.590
95.0, 12128.369465871987, 9699.539506380499, 7263.892264830144, 9800.927019229774, 35053.92790483569, 187500.0, 18025.34079853783, 20644.22764113279, 0.754, -0.62, 0.336, 192.0, 0.0, 0.0, 0.0, 0.0, 0.0, 0.0, 0.0, 0.0, 0.0, 1.6635806775932674E9, 0.0, 2022-09-19 14:44:37.593
96.0, 12104.609561515996, 9688.698910319676, 7283.58415169527, 9799.094176184437, 35041.79090759646, 187500.0, 18034.32619980886, 20633.342341583055, 0.754, -0.62, 0.336, 192.0, 0.0, 0.0, 0.0, 0.0, 0.0, 0.0, 0.0, 0.0, 0.0, 1.6635806775972648E9, 0.0, 2022-09-19 14:44:37.597
97.0, 12170.681318125882, 9733.983544586128, 7302.180803082086, 9836.242775469158, 35094.27280357752, 187500.0, 18123.040273551975, 20648.65328653494, 0.754, -0.62, 0.336, 192.0, 0.0, 0.0, 0.0, 0.0, 0.0, 0.0, 0.0, 0.0, 0.0, 1.6635806776012628E9, 0.0, 2022-09-19 14:44:37.601
98.0, 12372.428163579485, 9852.358383221434, 7307.321704306806, 9912.395168828389, 35233.63593025636, 187500.0, 18311.24196186566, 20686.85241780906, 0.754, -0.62, 0.336, 192.0, 0.0, 0.0, 0.0, 0.0, 0.0, 0.0, 0.0, 0.0, 0.0, 1.6635806776052756E9, 0.0, 2022-09-19 14:44:37.605
99.0, 12333.916107882991, 9826.810339309019, 7271.961244578511, 9876.587674210987, 35209.093714844435, 187500.0, 18227.17705096925, 20686.651252108964, 0.752, -0.62, 0.342, 192.0, 23.0, 128.0, 236.0, 160.0, 10.0, 176.0, 0.0, 0.0, 0.0, 1.6635806776092908E9, 0.0, 2022-09-19 14:44:37.609
100.0, 12127.20717516031, 9705.35095993888, 7270.396622466639, 9787.672434767775, 35075.51968997952, 187500.0, 18030.392292784727, 20646.08283592258, 0.752, -0.62, 0.342, 192.0, 0.0, 0.0, 0.0, 0.0, 0.0, 0.0, 0.0, 0.0, 0.0, 1.663580677614241E9, 0.0, 2022-09-19 14:44:37.614
101.0, 12096.406471300897, 9688.318930663936, 7291.384910510173, 9779.759917230596, 35060.70048340565, 187500.0, 18035.309676564895, 20633.297638094144, 0.752, -0.62, 0.342, 192.0, 0.0, 0.0, 0.0, 0.0, 0.0, 0.0, 0.0, 0.0, 0.0, 1.6635806776173303E9, 0.0, 2022-09-19 14:44:37.617
102.0, 12157.091457497056, 9725.042846804005, 7304.170108338608, 9809.711254800708, 35104.84517870488, 187500.0, 18119.843974094867, 20643.199460887845, 0.752, -0.62, 0.342, 192.0, 0.0, 0.0, 0.0, 0.0, 0.0, 0.0, 0.0, 0.0, 0.0, 1.663580677620407E9, 0.0, 2022-09-19 14:44:37.620
103.0, 12359.128875628576, 9842.523615661099, 7306.226468828496, 9888.76937493913, 35239.134459392364, 187500.0, 18308.62680776439, 20679.744563072272, 0.752, -0.62, 0.342, 192.0, 0.0, 0.0, 0.0, 0.0, 0.0, 0.0, 0.0, 0.0, 0.0, 1.6635806776252782E9, 0.0, 2022-09-19 14:44:37.625
104.0, 12343.057971365211, 9832.264164956114, 7279.896113860144, 9869.658633429843, 35226.79629645304, 187500.0, 18244.03026628855, 20685.377202675012, 0.752, -0.62, 0.342, 192.0, 0.0, 0.0, 0.0, 0.0, 0.0, 0.0, 0.0, 0.0, 0.0, 1.6635806776292572E9, 0.0, 2022-09-19 14:44:37.629
105.0, 12134.44914036383, 9710.514212908056, 7272.520038189893, 9781.88333295385, 35090.69652446467, 187500.0, 18038.95301091111, 20647.915678967915, 0.752, -0.62, 0.342, 192.0, 0.0, 0.0, 0.0, 0.0, 0.0, 0.0, 0.0, 0.0, 0.0, 1.663580677633406E9, 0.0, 2022-09-19 14:44:37.633
106.0, 12094.886552677937, 9688.609503341855, 7291.20609655453, 9770.953329915206, 35066.28841951948, 187500.0, 18029.162946839686, 20630.973056670795, 0.752, -0.62, 0.342, 192.0, 0.0, 0.0, 0.0, 0.0, 0.0, 0.0, 0.0, 0.0, 0.0, 1.663580677637355E9, 0.0, 2022-09-19 14:44:37.637
107.0, 12148.284870181666, 9724.931088081728, 7309.847451430256, 9799.474155840178, 35104.30873683796, 187500.0, 18116.602971148848, 20642.014818431715, 0.752, -0.62, 0.342, 192.0, 0.0, 0.0, 0.0, 0.0, 0.0, 0.0, 0.0, 0.0, 0.0, 1.6635806776423469E9, 0.0, 2022-09-19 14:44:37.642
108.0, 12343.594413232138, 9838.299135959047, 7314.16133811013, 9875.179514310303, 35229.90318893232, 187500.0, 18300.043737893553, 20674.447199636365, 0.752, -0.62, 0.342, 192.0, 0.0, 0.0, 0.0, 0.0, 0.0, 0.0, 0.0, 0.0, 0.0, 1.6635806776453235E9, 0.0, 2022-09-19 14:44:37.645
109.0, 12340.599279475127, 9831.95124053374, 7279.9184656046, 9859.041554813572, 35218.593206237936, 187500.0, 18248.925298324266, 20676.458856637342, 0.75, -0.616, 0.334, 192.0, 23.0, 112.0, 236.0, 192.0, 10.0, 112.0, 0.0, 0.0, 0.0, 1.6635806776503873E9, 0.0, 2022-09-19 14:44:37.650
110.0, 12127.140119926944, 9708.144927995792, 7277.906808603622, 9769.858094436895, 35068.47889047609, 187500.0, 18040.94231616763, 20639.46671956381, 0.75, -0.616, 0.334, 192.0, 0.0, 0.0, 0.0, 0.0, 0.0, 0.0, 0.0, 0.0, 0.0, 1.663580677653382E9, 0.0, 2022-09-19 14:44:37.653
111.0, 12081.855485660493, 9684.407375384257, 7300.5491257368485, 9757.497579753111, 35030.056241757426, 187500.0, 18035.66730447618, 20627.150908368934, 0.75, -0.616, 0.334, 192.0, 0.0, 0.0, 0.0, 0.0, 0.0, 0.0, 0.0, 0.0, 0.0, 1.663580677657334E9, 0.0, 2022-09-19 14:44:37.657
112.0, 12127.1624716714, 9713.285829220513, 7323.034980658887, 9781.88333295385, 35055.11254729182, 187500.0, 18105.91883729921, 20634.66109450592, 0.75, -0.616, 0.334, 192.0, 0.0, 0.0, 0.0, 0.0, 0.0, 0.0, 0.0, 0.0, 0.0, 1.663580677662495E9, 0.0, 2022-09-19 14:44:37.662
113.0, 12318.269886764276, 9824.128129974382, 7331.9533266965545, 9860.203845525248, 35176.929554573246, 187500.0, 18293.852304679433, 20668.702801311352, 0.75, -0.616, 0.334, 192.0, 0.0, 0.0, 0.0, 0.0, 0.0, 0.0, 0.0, 0.0, 0.0, 1.6635806776663463E9, 0.0, 2022-09-19 14:44:37.666
114.0, 12338.520567240783, 9833.605269623431, 7300.504422247937, 9855.688793145275, 35180.39407496382, 187500.0, 18268.728943911665, 20679.453990394355, 0.75, -0.616, 0.334, 192.0, 0.0, 0.0, 0.0, 0.0, 0.0, 0.0, 0.0, 0.0, 0.0, 1.6635806776693444E9, 0.0, 2022-09-19 14:44:37.669
115.0, 12123.340323369543, 9708.614314629354, 7284.008834839921, 9764.69484146772, 35029.60920686832, 187500.0, 18054.62158377428, 20638.907925952426, 0.75, -0.616, 0.334, 192.0, 0.0, 0.0, 0.0, 0.0, 0.0, 0.0, 0.0, 0.0, 0.0, 1.663580677672393E9, 0.0, 2022-09-19 14:44:37.672
116.0, 12066.05280233059, 9678.707680548154, 7308.148718851652, 9754.54714948501, 34986.93972670314, 187500.0, 18036.784891698946, 20623.574629256087, 0.75, -0.616, 0.334, 192.0, 0.0, 0.0, 0.0, 0.0, 0.0, 0.0, 0.0, 0.0, 0.0, 1.6635806776764328E9, 0.0, 2022-09-19 14:44:37.676
117.0, 12106.688273750338, 9705.328608194424, 7323.303201592351, 9781.749222487118, 35010.29729965893, 187500.0, 18098.386299417773, 20631.934181682373, 0.75, -0.616, 0.334, 192.0, 0.0, 0.0, 0.0, 0.0, 0.0, 0.0, 0.0, 0.0, 0.0, 1.6635806776813755E9, 0.0, 2022-09-19 14:44:37.681
118.0, 12295.784031842237, 9818.048455482538, 7328.5558615393475, 9860.76263913663, 35132.114306940355, 187500.0, 18286.051545864528, 20670.401533889955, 0.75, -0.616, 0.334, 192.0, 0.0, 0.0, 0.0, 0.0, 0.0, 0.0, 0.0, 0.0, 0.0, 1.6635806776853895E9, 0.0, 2022-09-19 14:44:37.685
119.0, 12332.843224149135, 9836.555699891533, 7296.436404757072, 9860.784990881086, 35146.57588560294, 187500.0, 18275.52387422608, 20684.438429407888, 0.748, -0.618, 0.334, 192.0, 23.0, 96.0, 236.0, 176.0, 10.0, 112.0, 0.0, 0.0, 0.0, 1.6635806776894293E9, 0.0, 2022-09-19 14:44:37.689
120.0, 12121.485128579752, 9711.251820475081, 7282.958302850521, 9768.919321169773, 34998.49557858653, 187500.0, 18057.32614485337, 20648.340362112565, 0.748, -0.618, 0.334, 192.0, 0.0, 0.0, 0.0, 0.0, 0.0, 0.0, 0.0, 0.0, 0.0, 1.6635806776934893E9, 0.0, 2022-09-19 14:44:37.693
121.0, 12058.117933048956, 9675.91371249124, 7309.333361307784, 9749.607413960388, 34953.25564780899, 187500.0, 18032.493356763527, 20629.274324092188, 0.748, -0.618, 0.334, 192.0, 0.0, 0.0, 0.0, 0.0, 0.0, 0.0, 0.0, 0.0, 0.0, 1.6635806776973968E9, 0.0, 2022-09-19 14:44:37.697
122.0, 12093.34428231052, 9698.377215668825, 7323.526719036904, 9768.785210703041, 34974.8027294639, 187500.0, 18090.25026443604, 20633.07412064959, 0.748, -0.618, 0.334, 192.0, 0.0, 0.0, 0.0, 0.0, 0.0, 0.0, 0.0, 0.0, 0.0, 1.6635806777004805E9, 0.0, 2022-09-19 14:44:37.700
123.0, 12278.014395000268, 9806.626714065877, 7335.8872337206885, 9841.741304605164, 35093.51284426604, 187500.0, 18273.579272458468, 20666.51233035473, 0.748, -0.618, 0.334, 192.0, 0.0, 0.0, 0.0, 0.0, 0.0, 0.0, 0.0, 0.0, 0.0, 1.6635806777044191E9, 0.0, 2022-09-19 14:44:37.704
124.0, 12333.759645671804, 9836.913327802817, 7303.901887405144, 9851.844293098962, 35125.274673137035, 187500.0, 18289.493714510645, 20685.444257908377, 0.748, -0.618, 0.334, 192.0, 0.0, 0.0, 0.0, 0.0, 0.0, 0.0, 0.0, 0.0, 0.0, 1.6635806777094693E9, 0.0, 2022-09-19 14:44:37.709
125.0, 12116.701855266316, 9710.58126814142, 7285.215829040508, 9757.40817277529, 34977.14966263171, 187500.0, 18067.943223469643, 20644.13823415497, 0.748, -0.618, 0.334, 192.0, 0.0, 0.0, 0.0, 0.0, 0.0, 0.0, 0.0, 0.0, 0.0, 1.6635806777135053E9, 0.0, 2022-09-19 14:44:37.713
126.0, 12041.2423659852, 9672.24802640057, 7306.517041506415, 9733.82708237494, 34926.18768527361, 187500.0, 18034.14738585322, 20623.97696065628, 0.748, -0.618, 0.334, 192.0, 0.0, 0.0, 0.0, 0.0, 0.0, 0.0, 0.0, 0.0, 0.0, 1.6635806777174883E9, 0.0, 2022-09-19 14:44:37.717
127.0, 12072.043069844613, 9694.085680733406, 7321.157434124641, 9751.037925605528, 34946.214848305564, 187500.0, 18088.23860743506, 20628.492013036255, 0.748, -0.618, 0.334, 192.0, 0.0, 0.0, 0.0, 0.0, 0.0, 0.0, 0.0, 0.0, 0.0, 1.663580677721458E9, 0.0, 2022-09-19 14:44:37.721
128.0, 12252.019316198744, 9802.111661685904, 7333.003858685954, 9825.51393813061, 35063.8744311183, 187500.0, 18269.28773752305, 20662.533719841686, 0.748, -0.618, 0.334, 192.0, 0.0, 0.0, 0.0, 0.0, 0.0, 0.0, 0.0, 0.0, 0.0, 1.6635806777255032E9, 0.0, 2022-09-19 14:44:37.725
129.0, 12327.277639779764, 9842.769484850107, 7307.388759540172, 9841.048400527048, 35108.64497526229, 187500.0, 18301.898932683343, 20681.040964250682, 0.744, -0.618, 0.338, 192.0, 23.0, 64.0, 236.0, 176.0, 10.0, 144.0, 0.0, 0.0, 0.0, 1.6635806777285264E9, 0.0, 2022-09-19 14:44:37.728
130.0, 12115.628971532462, 9717.085625777916, 7288.076852330787, 9743.192463301715, 34964.38681654773, 187500.0, 18083.500037610538, 20640.584306786575, 0.744, -0.618, 0.338, 192.0, 0.0, 0.0, 0.0, 0.0, 0.0, 0.0, 0.0, 0.0, 0.0, 1.6635806777325923E9, 0.0, 2022-09-19 14:44:37.732
131.0, 12026.780787322616, 9667.5318083205, 7314.49661427696, 9710.58126814142, 34903.21009197355, 187500.0, 18036.159042854197, 20613.762213440208, 0.744, -0.618, 0.338, 192.0, 0.0, 0.0, 0.0, 0.0, 0.0, 0.0, 0.0, 0.0, 0.0, 1.663580677737581E9, 0.0, 2022-09-19 14:44:37.737
132.0, 12053.602880668985, 9685.592017840389, 7336.222509887518, 9728.753236383585, 34922.47729569403, 187500.0, 18089.982043502576, 20617.562009997608, 0.744, -0.618, 0.338, 192.0, 0.0, 0.0, 0.0, 0.0, 0.0, 0.0, 0.0, 0.0, 0.0, 1.6635806777415607E9, 0.0, 2022-09-19 14:44:37.741
133.0, 12214.803661680658, 9778.351757329912, 7338.792960499878, 9792.79098424804, 35028.20104696763, 187500.0, 18258.022458317573, 20638.79616723015, 0.744, -0.618, 0.338, 192.0, 0.0, 0.0, 0.0, 0.0, 0.0, 0.0, 0.0, 0.0, 0.0, 1.663580677745496E9, 0.0, 2022-09-19 14:44:37.745
134.0, 12297.594523143116, 9824.731627074674, 7308.662808974124, 9812.706388557719, 35078.000733614055, 187500.0, 18302.793002461553, 20654.129463926492, 0.744, -0.618, 0.338, 192.0, 0.0, 0.0, 0.0, 0.0, 0.0, 0.0, 0.0, 0.0, 0.0, 1.6635806777515588E9, 0.0, 2022-09-19 14:44:37.751
135.0, 12087.44342177432, 9699.226581958126, 7285.327587762784, 9718.91846882325, 34930.05453706438, 187500.0, 18083.120057954795, 20612.957550639814, 0.744, -0.618, 0.338, 192.0, 0.0, 0.0, 0.0, 0.0, 0.0, 0.0, 0.0, 0.0, 0.0, 1.6635806777545156E9, 0.0, 2022-09-19 14:44:37.754
136.0, 11991.80030725006, 9642.833130697385, 7312.373198553705, 9681.524000349522, 34859.22185888551, 187500.0, 18026.212516571584, 20584.034393314647, 0.744, -0.618, 0.338, 192.0, 0.0, 0.0, 0.0, 0.0, 0.0, 0.0, 0.0, 0.0, 0.0, 1.6635806777576156E9, 0.0, 2022-09-19 14:44:37.757
137.0, 12017.102481973468, 9658.836979727386, 7330.388704584683, 9689.34711090888, 34871.31415263583, 187500.0, 18076.503941596027, 20584.324965992568, 0.744, -0.618, 0.338, 192.0, 0.0, 0.0, 0.0, 0.0, 0.0, 0.0, 0.0, 0.0, 0.0, 1.663580677761547E9, 0.0, 2022-09-19 14:44:37.761
138.0, 12170.636614636973, 9748.512178482079, 7333.115617408231, 9736.151663798293, 34969.05833113889, 187500.0, 18240.051655775507, 20608.688367448853, 0.744, -0.618, 0.338, 192.0, 0.0, 0.0, 0.0, 0.0, 0.0, 0.0, 0.0, 0.0, 0.0, 1.663580677765632E9, 0.0, 2022-09-19 14:44:37.765
139.0, 12278.461429889374, 9811.365283890402, 7301.934933893077, 9748.467474993167, 35034.79481158195, 187500.0, 18304.80465946253, 20632.94001018286, 0.75, -0.62, 0.34, 192.0, 23.0, 112.0, 236.0, 160.0, 10.0, 160.0, 0.0, 0.0, 0.0, 1.6635806777695732E9, 0.0, 2022-09-19 14:44:37.769
140.0, 12083.263645561177, 9699.49480289159, 7282.913599361611, 9645.29182258747, 34900.304365194366, 187500.0, 18093.491267382058, 20602.519285979186, 0.75, -0.62, 0.34, 192.0, 0.0, 0.0, 0.0, 0.0, 0.0, 0.0, 0.0, 0.0, 0.0, 1.6635806777736006E9, 0.0, 2022-09-19 14:44:37.773
141.0, 11979.350385588454, 9639.234499840082, 7297.01755011291, 9591.781746361465, 34826.09657360275, 187500.0, 18023.396196770216, 20574.378439709955, 0.75, -0.62, 0.34, 192.0, 0.0, 0.0, 0.0, 0.0, 0.0, 0.0, 0.0, 0.0, 0.0, 1.6635806777776287E9, 0.0, 2022-09-19 14:44:37.777
142.0, 12000.56219107654, 9653.584319780388, 7310.696817719558, 9592.742871373042, 34838.36768130871, 187500.0, 18065.39512460174, 20575.138399021434, 0.75, -0.62, 0.34, 192.0, 0.0, 0.0, 0.0, 0.0, 0.0, 0.0, 0.0, 0.0, 0.0, 1.663580677780632E9, 0.0, 2022-09-19 14:44:37.780
143.0, 12153.604585362029, 9742.387800501323, 7318.966963168021, 9641.6261364968, 34936.98357784552, 187500.0, 18223.913696278774, 20601.82638190107, 0.75, -0.62, 0.34, 192.0, 0.0, 0.0, 0.0, 0.0, 0.0, 0.0, 0.0, 0.0, 0.0, 1.6635806777846625E9, 0.0, 2022-09-19 14:44:37.784
144.0, 12278.126153722544, 9812.84049902445, 7296.414053012616, 9669.968148466129, 35016.66754682869, 187500.0, 18306.10106064094, 20629.967228170306, 0.75, -0.62, 0.34, 192.0, 0.0, 0.0, 0.0, 0.0, 0.0, 0.0, 0.0, 0.0, 0.0, 1.663580677788632E9, 0.0, 2022-09-19 14:44:37.788
145.0, 12093.0537096326, 9701.797032570486, 7268.943759077044, 9577.633092121256, 34889.15084471117, 187500.0, 18098.453354651137, 20604.039204602148, 0.75, -0.62, 0.34, 192.0, 0.0, 0.0, 0.0, 0.0, 0.0, 0.0, 0.0, 0.0, 0.0, 1.6635806777926722E9, 0.0, 2022-09-19 14:44:37.792
146.0, 11983.70897575724, 9640.374438807303, 7299.722111192002, 9531.78966424342, 34815.12186707519, 187500.0, 18023.41854851467, 20581.732163635752, 0.75, -0.62, 0.34, 192.0, 0.0, 0.0, 0.0, 0.0, 0.0, 0.0, 0.0, 0.0, 0.0, 1.6635806777976248E9, 0.0, 2022-09-19 14:44:37.797
147.0, 12000.584542820996, 9653.316098846924, 7318.54228002337, 9536.908213723686, 34825.001338124435, 187500.0, 18063.919909467688, 20581.46394270229, 0.75, -0.62, 0.34, 192.0, 0.0, 0.0, 0.0, 0.0, 0.0, 0.0, 0.0, 0.0, 0.0, 1.663580677801651E9, 0.0, 2022-09-19 14:44:37.801
148.0, 12143.769817801693, 9738.45389347719, 7328.287640605884, 9589.546571915935, 34919.728031126026, 187500.0, 18215.285922919025, 20605.13444008046, 0.75, -0.62, 0.34, 192.0, 0.0, 0.0, 0.0, 0.0, 0.0, 0.0, 0.0, 0.0, 0.0, 1.6635806778056564E9, 0.0, 2022-09-19 14:44:37.805
149.0, 12281.657729346482, 9818.495490371644, 7307.299352562351, 9630.696133458154, 35008.240939169045, 187500.0, 18314.7735374896, 20636.471585806798, 0.748, -0.62, 0.336, 192.0, 23.0, 96.0, 236.0, 160.0, 10.0, 128.0, 0.0, 0.0, 0.0, 1.6635806778087423E9, 0.0, 2022-09-19 14:44:37.808
150.0, 12102.039110903635, 9711.92237280874, 7280.432555727071, 9544.373696371758, 34886.870966776725, 187500.0, 18110.478593168093, 20611.236466316757, 0.748, -0.62, 0.336, 192.0, 0.0, 0.0, 0.0, 0.0, 0.0, 0.0, 0.0, 0.0, 0.0, 1.663580677812652E9, 0.0, 2022-09-19 14:44:37.812
151.0, 11974.187132619278, 9636.842863183363, 7290.669654687603, 9491.578875968324, 34802.06844831329, 187500.0, 18015.86365888878, 20580.324003735066, 0.748, -0.62, 0.336, 192.0, 0.0, 0.0, 0.0, 0.0, 0.0, 0.0, 0.0, 0.0, 0.0, 1.663580677816661E9, 0.0, 2022-09-19 14:44:37.816
152.0, 11990.883885727393, 9645.783560965487, 7307.634628729181, 9498.306751049371, 34810.98679435096, 187500.0, 18058.063752420396, 20578.379401967457, 0.748, -0.62, 0.336, 192.0, 0.0, 0.0, 0.0, 0.0, 0.0, 0.0, 0.0, 0.0, 0.0, 1.6635806778206484E9, 0.0, 2022-09-19 14:44:37.820
153.0, 12130.49288159524, 9729.557899183977, 7324.979582426498, 9555.281347665948, 34903.61242337375, 187500.0, 18205.31704489196, 20602.362823768, 0.748, -0.62, 0.336, 192.0, 0.0, 0.0, 0.0, 0.0, 0.0, 0.0, 0.0, 0.0, 0.0, 1.6635806778256712E9, 0.0, 2022-09-19 14:44:37.825
154.0, 12282.171819468955, 9816.193260692748, 7308.483995018482, 9602.890563355752, 34999.32259313138, 187500.0, 18321.814336993022, 20633.856431705528, 0.748, -0.62, 0.336, 192.0, 0.0, 0.0, 0.0, 0.0, 0.0, 0.0, 0.0, 0.0, 0.0, 1.6635806778296258E9, 0.0, 2022-09-19 14:44:37.829
155.0, 12114.399625587419, 9715.029265288027, 7277.370366736694, 9516.657533247177, 34882.557080096856, 187500.0, 18125.744834631067, 20606.900227892427, 0.748, -0.62, 0.336, 192.0, 0.0, 0.0, 0.0, 0.0, 0.0, 0.0, 0.0, 0.0, 0.0, 1.6635806778327055E9, 0.0, 2022-09-19 14:44:37.832
156.0, 11976.869341953916, 9636.485235272079, 7288.881515131178, 9458.319480218826, 34788.165663262094, 187500.0, 18019.395234512715, 20571.807989097597, 0.748, -0.62, 0.336, 192.0, 0.0, 0.0, 0.0, 0.0, 0.0, 0.0, 0.0, 0.0, 0.0, 1.6635806778367136E9, 0.0, 2022-09-19 14:44:37.836
157.0, 11987.888751970382, 9644.95654642064, 7299.54329723636, 9462.409849454147, 34789.618526651684, 187500.0, 18055.605060530313, 20565.3036314611, 0.748, -0.62, 0.336, 192.0, 0.0, 0.0, 0.0, 0.0, 0.0, 0.0, 0.0, 0.0, 0.0, 1.6635806778407018E9, 0.0, 2022-09-19 14:44:37.840
158.0, 12113.974942442768, 9719.767835112552, 7316.30710557784, 9511.114300622261, 34869.52601307941, 187500.0, 18196.063422687464, 20586.515436949187, 0.748, -0.62, 0.336, 192.0, 0.0, 0.0, 0.0, 0.0, 0.0, 0.0, 0.0, 0.0, 0.0, 1.663580677844692E9, 0.0, 2022-09-19 14:44:37.844
159.0, 12273.834618787125, 9810.650028067832, 7312.01557064242, 9560.623414590766, 34971.740540473525, 187500.0, 18326.39644460636, 20620.221867587792, 0.748, -0.624, 0.334, 192.0, 23.0, 96.0, 236.0, 128.0, 10.0, 112.0, 0.0, 0.0, 0.0, 1.6635806778487525E9, 0.0, 2022-09-19 14:44:37.848
160.0, 12118.35588435601, 9715.319837965946, 7283.718262162002, 9480.715928163043, 34863.15576590964, 187500.0, 18142.35218076136, 20598.965358610792, 0.748, -0.624, 0.334, 192.0, 0.0, 0.0, 0.0, 0.0, 0.0, 0.0, 0.0, 0.0, 0.0, 1.6635806778527355E9, 0.0, 2022-09-19 14:44:37.852
161.0, 11970.65555699534, 9629.757360191032, 7295.609390212226, 9422.132005945685, 34761.947067016015, 187500.0, 18029.073539861864, 20567.24823322871, 0.748, -0.624, 0.334, 192.0, 0.0, 0.0, 0.0, 0.0, 0.0, 0.0, 0.0, 0.0, 0.0, 1.6635806778577192E9, 0.0, 2022-09-19 14:44:37.857
162.0, 11978.165743132324, 9634.205357337638, 7311.546184008859, 9429.709247316034, 34765.59040136223, 187500.0, 18065.8645112353, 20564.83424482754, 0.748, -0.624, 0.334, 192.0, 0.0, 0.0, 0.0, 0.0, 0.0, 0.0, 0.0, 0.0, 0.0, 1.663580677860744E9, 0.0, 2022-09-19 14:44:37.860
163.0, 12095.177125355856, 9702.735805837608, 7329.002896428454, 9479.307768262359, 34843.08389938878, 187500.0, 18194.476448831138, 20586.22486427127, 0.748, -0.624, 0.334, 192.0, 0.0, 0.0, 0.0, 0.0, 0.0, 0.0, 0.0, 0.0, 0.0, 1.6635806778647327E9, 0.0, 2022-09-19 14:44:37.864
164.0, 12268.29138616221, 9800.502336085121, 7313.311971820828, 9536.438827090124, 34953.412110020174, 187500.0, 18333.750168532155, 20622.524097266687, 0.748, -0.624, 0.334, 192.0, 0.0, 0.0, 0.0, 0.0, 0.0, 0.0, 0.0, 0.0, 0.0, 1.6635806778687656E9, 0.0, 2022-09-19 14:44:37.868
165.0, 12124.614372803495, 9712.54822165349, 7271.53656143386, 9459.794695352877, 34849.90118144765, 187500.0, 18155.22678556762, 20599.725317922275, 0.748, -0.624, 0.334, 192.0, 0.0, 0.0, 0.0, 0.0, 0.0, 0.0, 0.0, 0.0, 0.0, 1.6635806778727558E9, 0.0, 2022-09-19 14:44:37.872
166.0, 11966.56518776002, 9620.324924030892, 7279.739651648957, 9393.834697465265, 34740.44468885001, 187500.0, 18022.524478736457, 20562.286145959635, 0.748, -0.624, 0.334, 192.0, 0.0, 0.0, 0.0, 0.0, 0.0, 0.0, 0.0, 0.0, 0.0, 1.663580677876792E9, 0.0, 2022-09-19 14:44:37.876
167.0, 11969.895597683859, 9624.124720588294, 7306.517041506415, 9399.646151023646, 34739.997653960905, 187500.0, 18057.32614485337, 20557.704038346295, 0.748, -0.624, 0.334, 192.0, 0.0, 0.0, 0.0, 0.0, 0.0, 0.0, 0.0, 0.0, 0.0, 1.663580677881712E9, 0.0, 2022-09-19 14:44:37.881
168.0, 12079.419145514865, 9691.448174887679, 7323.280849847895, 9447.635346369188, 34814.36190776371, 187500.0, 18184.507570804068, 20578.938195578838, 0.748, -0.624, 0.334, 192.0, 0.0, 0.0, 0.0, 0.0, 0.0, 0.0, 0.0, 0.0, 0.0, 1.6635806778858302E9, 0.0, 2022-09-19 14:44:37.885
169.0, 12265.47506636084, 9800.859963996407, 7318.832852701289, 9518.199803614594, 34937.87764762374, 187500.0, 18344.702523315256, 20621.630027488474, 0.752, -0.62, 0.332, 192.0, 23.0, 128.0, 236.0, 160.0, 10.0, 96.0, 0.0, 0.0, 0.0, 1.6635806778887804E9, 0.0, 2022-09-19 14:44:37.888
170.0, 12142.987506745758, 9728.68618115022, 7288.456831986527, 9457.44776218507, 34855.7796902394, 187500.0, 18186.474524316138, 20610.007120371716, 0.752, -0.62, 0.332, 192.0, 0.0, 0.0, 0.0, 0.0, 0.0, 0.0, 0.0, 0.0, 0.0, 1.6635806778927884E9, 0.0, 2022-09-19 14:44:37.892
171.0, 11976.690527998273, 9633.110121859327, 7294.067119844809, 9380.557761258813, 34740.422337105556, 187500.0, 18043.57982201336, 20577.239463000235, 0.752, -0.62, 0.332, 192.0, 0.0, 0.0, 0.0, 0.0, 0.0, 0.0, 0.0, 0.0, 0.0, 1.663580677896746E9, 0.0, 2022-09-19 14:44:37.896
172.0, 11974.298891341556, 9635.747627705054, 7310.428596786094, 9374.679252467067, 34737.136630670626, 187500.0, 18065.596290301837, 20575.630137399454, 0.752, -0.62, 0.332, 192.0, 0.0, 0.0, 0.0, 0.0, 0.0, 0.0, 0.0, 0.0, 0.0, 1.6635806779008076E9, 0.0, 2022-09-19 14:44:37.900
173.0, 12070.478447732741, 9692.901038277274, 7312.976695653999, 9409.547973817345, 34802.02374482438, 187500.0, 18174.762210221554, 20592.192780040834, 0.752, -0.62, 0.332, 192.0, 0.0, 0.0, 0.0, 0.0, 0.0, 0.0, 0.0, 0.0, 0.0, 1.6635806779048688E9, 0.0, 2022-09-19 14:44:37.904
174.0, 12262.882264004025, 9805.285609398557, 7308.551050251848, 9475.6867856606, 34928.37815623023, 187500.0, 18352.59268910798, 20633.3199898386, 0.752, -0.62, 0.332, 192.0, 0.0, 0.0, 0.0, 0.0, 0.0, 0.0, 0.0, 0.0, 0.0, 1.6635806779088676E9, 0.0, 2022-09-19 14:44:37.908
175.0, 12154.1186754845, 9739.370314999856, 7263.9146165746, 9413.839508752764, 34850.9740651815, 187500.0, 18197.94096922171, 20620.624198987985, 0.752, -0.62, 0.332, 192.0, 0.0, 0.0, 0.0, 0.0, 0.0, 0.0, 0.0, 0.0, 0.0, 1.6635806779137712E9, 0.0, 2022-09-19 14:44:37.913
176.0, 11981.2279321227, 9638.474540528601, 7271.089526544753, 9340.436379961537, 34730.60992128967, 187500.0, 18049.90536569421, 20586.046050315625, 0.752, -0.62, 0.332, 192.0, 0.0, 0.0, 0.0, 0.0, 0.0, 0.0, 0.0, 0.0, 0.0, 1.6635806779169023E9, 0.0, 2022-09-19 14:44:37.916
177.0, 11980.490324555674, 9640.62030799631, 7294.670616945103, 9340.637545661635, 34725.89370320961, 187500.0, 18080.95193874263, 20584.034393314647, 0.752, -0.62, 0.332, 192.0, 0.0, 0.0, 0.0, 0.0, 0.0, 0.0, 0.0, 0.0, 0.0, 1.663580677920894E9, 0.0, 2022-09-19 14:44:37.920
178.0, 12066.946872108803, 9691.135250465304, 7298.045730357854, 9369.09131635324, 34784.14234926014, 187500.0, 18186.7427452496, 20596.998405098726, 0.752, -0.62, 0.332, 192.0, 0.0, 0.0, 0.0, 0.0, 0.0, 0.0, 0.0, 0.0, 0.0, 1.6635806779248743E9, 0.0, 2022-09-19 14:44:37.924
179.0, 12256.959051723368, 9799.585914562454, 7288.412128497616, 9429.843357782765, 34913.04485953389, 187500.0, 18353.710276330745, 20634.50463229473, 0.752, -0.62, 0.332, 192.0, 0.0, 0.0, 0.0, 0.0, 0.0, 0.0, 0.0, 0.0, 0.0, 1.66358067792879E9, 0.0, 2022-09-19 14:44:37.928
180.0, 12166.814466335114, 9743.97477435765, 7261.701793873524, 9372.399374532626, 34854.03625417188, 187500.0, 18219.331588665438, 20627.732053724772, 0.762, -0.622, 0.34400000000000003, 192.0, 23.0, 208.0, 236.0, 144.0, 10.0, 192.0, 0.0, 0.0, 0.0, 1.663580677932943E9, 0.0, 2022-09-19 14:44:37.932
181.0, 11979.998586177659, 9636.172310849704, 7268.004985809921, 9291.307245648772, 34735.7508225144, 187500.0, 18052.162891884196, 20589.376460239466, 0.762, -0.622, 0.34400000000000003, 192.0, 0.0, 0.0, 0.0, 0.0, 0.0, 0.0, 0.0, 0.0, 0.0, 1.6635806779368558E9, 0.0, 2022-09-19 14:44:37.936
182.0, 11970.74496397316, 9634.451226526646, 7292.033111099376, 9289.675568303534, 34734.744994013905, 187500.0, 18079.834351519865, 20585.80018112662, 0.762, -0.622, 0.34400000000000003, 192.0, 0.0, 0.0, 0.0, 0.0, 0.0, 0.0, 0.0, 0.0, 0.0, 1.6635806779418883E9, 0.0, 2022-09-19 14:44:37.941
183.0, 12054.206377769278, 9686.195514940682, 7301.733768192979, 9323.404350686593, 34794.670020898586, 187500.0, 18180.037221913008, 20600.88760863395, 0.762, -0.622, 0.34400000000000003, 192.0, 0.0, 0.0, 0.0, 0.0, 0.0, 0.0, 0.0, 0.0, 0.0, 1.663580677944836E9, 0.0, 2022-09-19 14:44:37.944
184.0, 12252.28753713221, 9803.3633593754, 7294.245933800452, 9395.555781788324, 34926.522961440445, 187500.0, 18353.330296675005, 20637.99150442976, 0.762, -0.622, 0.34400000000000003, 192.0, 0.0, 0.0, 0.0, 0.0, 0.0, 0.0, 0.0, 0.0, 0.0, 1.663580677948995E9, 0.0, 2022-09-19 14:44:37.948
185.0, 12177.386841462476, 9759.30807105399, 7264.272244485885, 9348.594766687724, 34875.695094549075, 187500.0, 18234.620181872866, 20633.208231116325, 0.762, -0.622, 0.34400000000000003, 192.0, 0.0, 0.0, 0.0, 0.0, 0.0, 0.0, 0.0, 0.0, 0.0, 1.6635806779539535E9, 0.0, 2022-09-19 14:44:37.953
186.0, 11981.339690844976, 9644.487159787079, 7255.130381003664, 9267.748506992879, 34746.12203194166, 187500.0, 18056.72264775308, 20593.84680913053, 0.762, -0.622, 0.34400000000000003, 192.0, 0.0, 0.0, 0.0, 0.0, 0.0, 0.0, 0.0, 0.0, 0.0, 1.6635806779569323E9, 0.0, 2022-09-19 14:44:37.956
187.0, 11964.307661570032, 9637.044028883462, 7268.988462565954, 9267.569693037236, 34736.01904344786, 187500.0, 18069.887825237256, 20583.69911714782, 0.762, -0.622, 0.34400000000000003, 192.0, 0.0, 0.0, 0.0, 0.0, 0.0, 0.0, 0.0, 0.0, 0.0, 1.6635806779599173E9, 0.0, 2022-09-19 14:44:37.959
188.0, 12039.275412473133, 9681.166372438238, 7281.036052827365, 9303.51129812137, 34789.30560222931, 187500.0, 18159.048933869475, 20596.30550102061, 0.762, -0.622, 0.34400000000000003, 192.0, 0.0, 0.0, 0.0, 0.0, 0.0, 0.0, 0.0, 0.0, 0.0, 1.6635806779648724E9, 0.0, 2022-09-19 14:44:37.964
189.0, 12239.658801514961, 9798.736548273153, 7279.024395826387, 9385.43044155007, 34925.56183642886, 187500.0, 18341.77444479161, 20637.119786396004, 0.762, -0.622, 0.34400000000000003, 192.0, 0.0, 0.0, 0.0, 0.0, 0.0, 0.0, 0.0, 0.0, 0.0, 1.6635806779689856E9, 0.0, 2022-09-19 14:44:37.968
190.0, 12186.148725288955, 9766.17005660177, 7238.3889244066395, 9350.427609733058, 34886.446283632074, 187500.0, 18240.69985636471, 20637.723283496296, 0.752, -0.614, 0.34, 192.0, 23.0, 128.0, 236.0, 208.0, 10.0, 160.0, 0.0, 0.0, 0.0, 1.6635806779729817E9, 0.0, 2022-09-19 14:44:37.972
191.0, 11989.073394426512, 9650.924462190207, 7230.185834191541, 9266.7873819813, 34752.35816864469, 187500.0, 18052.922851195675, 20599.12182082198, 0.752, -0.614, 0.34, 192.0, 0.0, 0.0, 0.0, 0.0, 0.0, 0.0, 0.0, 0.0, 0.0, 1.6635806779769592E9, 0.0, 2022-09-19 14:44:37.976
192.0, 11968.308623827532, 9641.492026030068, 7248.022526266876, 9260.618300511635, 34735.661415536575, 187500.0, 18065.506883324015, 20588.370631738977, 0.752, -0.614, 0.34, 192.0, 0.0, 0.0, 0.0, 0.0, 0.0, 0.0, 0.0, 0.0, 0.0, 1.6635806779809315E9, 0.0, 2022-09-19 14:44:37.980
193.0, 12041.28706947411, 9686.06140447395, 7263.847561341234, 9290.346120637194, 34785.03641903835, 187500.0, 18150.35410527636, 20603.480410990767, 0.752, -0.614, 0.34, 192.0, 0.0, 0.0, 0.0, 0.0, 0.0, 0.0, 0.0, 0.0, 0.0, 1.6635806779849231E9, 0.0, 2022-09-19 14:44:37.984
194.0, 12245.649069028983, 9804.905629742818, 7271.760078878413, 9364.41980176208, 34922.00790906047, 187500.0, 18335.091273199472, 20642.819481232105, 0.752, -0.614, 0.34, 192.0, 0.0, 0.0, 0.0, 0.0, 0.0, 0.0, 0.0, 0.0, 0.0, 1.663580677988034E9, 0.0, 2022-09-19 14:44:37.988
195.0, 12209.282780800198, 9779.692861997231, 7229.895261513622, 9329.595783900713, 34895.118760480735, 187500.0, 18249.685257635745, 20642.70772250983, 0.752, -0.614, 0.34, 192.0, 0.0, 0.0, 0.0, 0.0, 0.0, 0.0, 0.0, 0.0, 0.0, 1.663580677992973E9, 0.0, 2022-09-19 14:44:37.992
196.0, 12005.412519623342, 9660.736878006086, 7220.686342798036, 9241.887538658088, 34760.80712804879, 187500.0, 18055.58270878586, 20606.386137769954, 0.752, -0.614, 0.34, 192.0, 0.0, 0.0, 0.0, 0.0, 0.0, 0.0, 0.0, 0.0, 0.0, 1.663580677996987E9, 0.0, 2022-09-19 14:44:37.996
197.0, 11977.048155909557, 9648.152845877748, 7242.43459015305, 9234.01972460982, 34746.23379066394, 187500.0, 18060.164816399196, 20599.635910944453, 0.752, -0.614, 0.34, 192.0, 0.0, 0.0, 0.0, 0.0, 0.0, 0.0, 0.0, 0.0, 0.0, 1.6635806780010092E9, 0.0, 2022-09-19 14:44:38.001
198.0, 12039.945964806791, 9687.469564374635, 7254.660994370102, 9261.601777267668, 34792.81482610879, 187500.0, 18140.049951082463, 20612.599922728532, 0.752, -0.614, 0.34, 192.0, 0.0, 0.0, 0.0, 0.0, 0.0, 0.0, 0.0, 0.0, 0.0, 1.6635806780050154E9, 0.0, 2022-09-19 14:44:38.005
199.0, 12240.575223037627, 9803.788042520053, 7260.360689206206, 9337.821225860265, 34931.753269642984, 187500.0, 18328.318694629514, 20651.08962668057, 0.752, -0.614, 0.34, 192.0, 0.0, 0.0, 0.0, 0.0, 0.0, 0.0, 0.0, 0.0, 0.0, 1.6635806780090005E9, 0.0, 2022-09-19 14:44:38.009
200.0, 12220.995094894779, 9791.60634179191, 7232.868043526179, 9313.547231381803, 34922.611406160766, 187500.0, 18263.632746175856, 20656.834025005584, 0.748, -0.62, 0.34400000000000003, 192.0, 23.0, 96.0, 236.0, 160.0, 10.0, 192.0, 0.0, 0.0, 0.0, 1.6635806780130002E9, 0.0, 2022-09-19 14:44:38.013
201.0, 12016.946019762281, 9675.824305513419, 7228.8223777797675, 9226.10720707264, 34793.08304704226, 187500.0, 18065.663345535202, 20621.518268766198, 0.748, -0.62, 0.34400000000000003, 192.0, 0.0, 0.0, 0.0, 0.0, 0.0, 0.0, 0.0, 0.0, 0.0, 1.6635806780160117E9, 0.0, 2022-09-19 14:44:38.016
202.0, 11986.301778114055, 9661.429782084202, 7249.564796634293, 9217.144157546063, 34774.97813403346, 187500.0, 18064.18813040115, 20611.102355850024, 0.748, -0.62, 0.34400000000000003, 192.0, 0.0, 0.0, 0.0, 0.0, 0.0, 0.0, 0.0, 0.0, 0.0, 1.6635806780210135E9, 0.0, 2022-09-19 14:44:38.021
203.0, 12043.186967752812, 9699.606561613866, 7258.125514760675, 9243.519216003326, 34817.04411709835, 187500.0, 18131.10925330034, 20622.702911222328, 0.748, -0.62, 0.34400000000000003, 192.0, 0.0, 0.0, 0.0, 0.0, 0.0, 0.0, 0.0, 0.0, 0.0, 1.663580678025025E9, 0.0, 2022-09-19 14:44:38.025
204.0, 12245.358496351064, 9822.161176462314, 7268.29555848784, 9321.37034194116, 34953.233296064536, 187500.0, 18319.377996847394, 20665.484150109787, 0.748, -0.62, 0.34400000000000003, 192.0, 0.0, 0.0, 0.0, 0.0, 0.0, 0.0, 0.0, 0.0, 0.0, 1.6635806780290225E9, 0.0, 2022-09-19 14:44:38.029
205.0, 12251.885205732013, 9825.625696852887, 7241.741686074935, 9309.121585979652, 34956.40724377719, 187500.0, 18278.653118449824, 20680.23630145029, 0.748, -0.62, 0.34400000000000003, 192.0, 0.0, 0.0, 0.0, 0.0, 0.0, 0.0, 0.0, 0.0, 0.0, 1.663580678032972E9, 0.0, 2022-09-19 14:44:38.032
206.0, 12048.998421311191, 9709.910715807762, 7231.303421414307, 9222.374465748604, 34822.207370067525, 187500.0, 18074.536988083957, 20647.558051056632, 0.748, -0.62, 0.34400000000000003, 192.0, 0.0, 0.0, 0.0, 0.0, 0.0, 0.0, 0.0, 0.0, 0.0, 1.6635806780371308E9, 0.0, 2022-09-19 14:44:38.037
207.0, 12006.865383012937, 9689.01183474205, 7252.8281513247675, 9212.070311554708, 34791.451369697024, 187500.0, 18066.892691480243, 20634.594039272553, 0.748, -0.62, 0.34400000000000003, 192.0, 0.0, 0.0, 0.0, 0.0, 0.0, 0.0, 0.0, 0.0, 0.0, 1.6635806780411603E9, 0.0, 2022-09-19 14:44:38.041
208.0, 12056.48625570372, 9721.131291524327, 7262.349994462728, 9236.92545138901, 34818.89931188814, 187500.0, 18129.030541065997, 20643.80295798814, 0.748, -0.62, 0.34400000000000003, 192.0, 0.0, 0.0, 0.0, 0.0, 0.0, 0.0, 0.0, 0.0, 0.0, 1.663580678044166E9, 0.0, 2022-09-19 14:44:38.044
209.0, 12256.981403467824, 9841.540138905066, 7269.636663155158, 9318.621077373156, 34948.76294717347, 187500.0, 18313.074804910997, 20685.265443952732, 0.748, -0.62, 0.34400000000000003, 192.0, 0.0, 0.0, 0.0, 0.0, 0.0, 0.0, 0.0, 0.0, 0.0, 1.663580678048076E9, 0.0, 2022-09-19 14:44:38.048
210.0, 12276.941511266412, 9854.437095455778, 7231.370476647673, 9313.480176148436, 34954.3508832873, 187500.0, 18282.967005129696, 20700.24111273779, 0.744, -0.618, 0.34800000000000003, 192.0, 23.0, 64.0, 236.0, 176.0, 10.0, 224.0, 0.0, 0.0, 0.0, 1.6635806780531828E9, 0.0, 2022-09-19 14:44:38.053
211.0, 12069.919654121359, 9736.06225682047, 7210.650409537603, 9224.006143093842, 34808.12577106068, 187500.0, 18069.507845581513, 20667.294641410666, 0.744, -0.618, 0.34800000000000003, 192.0, 0.0, 0.0, 0.0, 0.0, 0.0, 0.0, 0.0, 0.0, 0.0, 1.6635806780571287E9, 0.0, 2022-09-19 14:44:38.057
212.0, 12021.014037253146, 9710.737730352608, 7224.7096567999915, 9208.270514997306, 34768.384369419146, 187500.0, 18050.62062151678, 20651.223737147302, 0.744, -0.618, 0.34800000000000003, 192.0, 0.0, 0.0, 0.0, 0.0, 0.0, 0.0, 0.0, 0.0, 0.0, 1.6635806780611238E9, 0.0, 2022-09-19 14:44:38.061
213.0, 12066.72335466425, 9739.21385278867, 7247.016697766388, 9228.096512329163, 34792.4124947086, 187500.0, 18111.573828646404, 20658.04101920617, 0.744, -0.618, 0.34800000000000003, 192.0, 0.0, 0.0, 0.0, 0.0, 0.0, 0.0, 0.0, 0.0, 0.0, 1.6635806780640588E9, 0.0, 2022-09-19 14:44:38.064
214.0, 12261.18353142542, 9853.85595009994, 7252.582282135759, 9306.417024900558, 34918.92336832564, 187500.0, 18295.215761091204, 20697.134220258504, 0.744, -0.618, 0.34800000000000003, 192.0, 0.0, 0.0, 0.0, 0.0, 0.0, 0.0, 0.0, 0.0, 0.0, 1.6635806780681384E9, 0.0, 2022-09-19 14:44:38.068
215.0, 12302.042520289722, 9874.173685809814, 7224.7096567999915, 9308.696902835001, 34939.799897646895, 187500.0, 18287.6161679764, 20713.093365799592, 0.744, -0.618, 0.34800000000000003, 192.0, 0.0, 0.0, 0.0, 0.0, 0.0, 0.0, 0.0, 0.0, 0.0, 1.6635806780721335E9, 0.0, 2022-09-19 14:44:38.072
216.0, 12093.992482899725, 9751.440257005723, 7205.5765635462485, 9216.8759366126, 34795.60879416571, 187500.0, 18071.474799093583, 20678.023478749215, 0.744, -0.618, 0.34800000000000003, 192.0, 0.0, 0.0, 0.0, 0.0, 0.0, 0.0, 0.0, 0.0, 0.0, 1.663580678076141E9, 0.0, 2022-09-19 14:44:38.076
217.0, 12037.66608687235, 9720.68425663522, 7225.179043433553, 9199.8215555932, 34757.610828591685, 187500.0, 18046.932583681653, 20664.612432076032, 0.744, -0.618, 0.34800000000000003, 192.0, 0.0, 0.0, 0.0, 0.0, 0.0, 0.0, 0.0, 0.0, 0.0, 1.6635806780811038E9, 0.0, 2022-09-19 14:44:38.081
218.0, 12079.687366448328, 9744.913547624774, 7239.57356686277, 9221.726265159401, 34784.63408763815, 187500.0, 18105.8741338103, 20669.90979551194, 0.744, -0.618, 0.34800000000000003, 192.0, 0.0, 0.0, 0.0, 0.0, 0.0, 0.0, 0.0, 0.0, 0.0, 1.6635806780851233E9, 0.0, 2022-09-19 14:44:38.085
219.0, 12267.643185573004, 9854.638261155875, 7249.765962334391, 9296.045815473297, 34907.05459201987, 187500.0, 18289.516066255102, 20701.76103136075, 0.744, -0.618, 0.34800000000000003, 192.0, 0.0, 0.0, 0.0, 0.0, 0.0, 0.0, 0.0, 0.0, 0.0, 1.6635806780891263E9, 0.0, 2022-09-19 14:44:38.089
220.0, 12326.87530837957, 9888.903485405861, 7224.8884707556335, 9307.020522000852, 34941.31981626985, 187500.0, 18303.48590653967, 20720.022406580738, 0.744, -0.612, 0.352, 192.0, 23.0, 64.0, 236.0, 224.0, 11.0, 0.0, 0.0, 0.0, 0.0, 1.6635806780921192E9, 0.0, 2022-09-19 14:44:38.092
221.0, 12115.87484072147, 9764.717193212175, 7201.3520838441955, 9211.91384934352, 34797.240471510944, 187500.0, 18085.399935889236, 20681.37624041751, 0.744, -0.612, 0.352, 192.0, 0.0, 0.0, 0.0, 0.0, 0.0, 0.0, 0.0, 0.0, 0.0, 1.6635806780961423E9, 0.0, 2022-09-19 14:44:38.096
222.0, 12050.741857378705, 9729.088512550416, 7234.879700527156, 9189.226828721385, 34751.01706397737, 187500.0, 18055.202729130116, 20664.18774893138, 0.744, -0.612, 0.352, 192.0, 0.0, 0.0, 0.0, 0.0, 0.0, 0.0, 0.0, 0.0, 0.0, 1.6635806781001348E9, 0.0, 2022-09-19 14:44:38.100
223.0, 12086.616407229472, 9751.127332583348, 7256.62794788217, 9205.655360896035, 34771.49126189843, 187500.0, 18114.077224025397, 20669.306298411644, 0.744, -0.612, 0.352, 192.0, 0.0, 0.0, 0.0, 0.0, 0.0, 0.0, 0.0, 0.0, 0.0, 1.6635806781041603E9, 0.0, 2022-09-19 14:44:38.104
224.0, 12263.75398203778, 9855.018240811616, 7262.260587484907, 9271.16832389454, 34886.40158014317, 187500.0, 18289.560769744014, 20698.877656326014, 0.744, -0.612, 0.352, 192.0, 0.0, 0.0, 0.0, 0.0, 0.0, 0.0, 0.0, 0.0, 0.0, 1.6635806781091688E9, 0.0, 2022-09-19 14:44:38.109
225.0, 12340.085189352654, 9896.458375031754, 7239.57356686277, 9282.858286244666, 34932.11089755427, 187500.0, 18319.91443871432, 20718.56954319114, 0.744, -0.612, 0.352, 192.0, 0.0, 0.0, 0.0, 0.0, 0.0, 0.0, 0.0, 0.0, 0.0, 1.6635806781131706E9, 0.0, 2022-09-19 14:44:38.113
226.0, 12134.002105474723, 9773.836704949941, 7218.518223585871, 9185.158811230518, 34789.12678827367, 187500.0, 18102.543723886458, 20682.873807296015, 0.744, -0.612, 0.352, 192.0, 0.0, 0.0, 0.0, 0.0, 0.0, 0.0, 0.0, 0.0, 0.0, 1.663580678117135E9, 0.0, 2022-09-19 14:44:38.117
227.0, 12052.597052168496, 9727.054503804982, 7238.008944750899, 9151.675898036468, 34729.984072444924, 187500.0, 18056.47677856407, 20655.872899994007, 0.744, -0.612, 0.352, 192.0, 0.0, 0.0, 0.0, 0.0, 0.0, 0.0, 0.0, 0.0, 0.0, 1.66358067812025E9, 0.0, 2022-09-19 14:44:38.120
228.0, 12085.76704094017, 9748.467474993167, 7263.5122851744045, 9167.277415666273, 34750.1006424547, 187500.0, 18111.126793757296, 20658.890385495473, 0.744, -0.612, 0.352, 192.0, 0.0, 0.0, 0.0, 0.0, 0.0, 0.0, 0.0, 0.0, 0.0, 1.6635806781242318E9, 0.0, 2022-09-19 14:44:38.124
229.0, 12257.540197079206, 9852.201921010246, 7273.347052734739, 9233.796207165267, 34863.35693160974, 187500.0, 18282.318804540493, 20690.071069010624, 0.744, -0.612, 0.352, 192.0, 0.0, 0.0, 0.0, 0.0, 0.0, 0.0, 0.0, 0.0, 0.0, 1.6635806781282375E9, 0.0, 2022-09-19 14:44:38.128
230.0, 12348.10946561211, 9906.539011781098, 7246.949642533022, 9256.505579531859, 34921.113839282254, 187500.0, 18328.452805096247, 20716.33436874561, 0.744, -0.618, 0.34800000000000003, 192.0, 23.0, 64.0, 236.0, 176.0, 10.0, 224.0, 0.0, 0.0, 0.0, 1.6635806781322033E9, 0.0, 2022-09-19 14:44:38.132
231.0, 12144.954460257824, 9789.12529815737, 7224.933174244545, 9163.8128952757, 34782.06363702579, 187500.0, 18107.43875592217, 20682.42677240691, 0.744, -0.618, 0.34800000000000003, 192.0, 0.0, 0.0, 0.0, 0.0, 0.0, 0.0, 0.0, 0.0, 0.0, 1.6635806781362295E9, 0.0, 2022-09-19 14:44:38.136
232.0, 12053.424066713342, 9738.11861731036, 7245.742648332435, 9129.502967536804, 34720.149304884595, 187500.0, 18048.56426102689, 20660.387952373978, 0.744, -0.618, 0.34800000000000003, 192.0, 0.0, 0.0, 0.0, 0.0, 0.0, 0.0, 0.0, 0.0, 0.0, 1.663580678141201E9, 0.0, 2022-09-19 14:44:38.141
233.0, 12080.715546693273, 9755.620033218866, 7260.315985717295, 9147.786694501245, 34738.99182546041, 187500.0, 18098.87803779579, 20666.489978610276, 0.744, -0.618, 0.34800000000000003, 192.0, 0.0, 0.0, 0.0, 0.0, 0.0, 0.0, 0.0, 0.0, 0.0, 1.6635806781451828E9, 0.0, 2022-09-19 14:44:38.145
234.0, 12243.771522494737, 9847.753923863642, 7272.117706789698, 9214.260782511328, 34846.257847101435, 187500.0, 18263.38687698685, 20694.273196968225, 0.744, -0.618, 0.34800000000000003, 192.0, 0.0, 0.0, 0.0, 0.0, 0.0, 0.0, 0.0, 0.0, 0.0, 1.6635806781482158E9, 0.0, 2022-09-19 14:44:38.148
235.0, 12351.126951113576, 9905.130851880414, 7250.436514668049, 9246.804922438256, 34914.52007466794, 187500.0, 18329.458633596736, 20719.932999602916, 0.744, -0.618, 0.34800000000000003, 192.0, 0.0, 0.0, 0.0, 0.0, 0.0, 0.0, 0.0, 0.0, 0.0, 1.663580678152233E9, 0.0, 2022-09-19 14:44:38.152
236.0, 12158.387858675464, 9791.941617958739, 7225.782540533846, 9158.604938817614, 34785.84108183874, 187500.0, 18115.9771223041, 20689.065240510135, 0.744, -0.618, 0.34800000000000003, 192.0, 0.0, 0.0, 0.0, 0.0, 0.0, 0.0, 0.0, 0.0, 0.0, 1.663580678156211E9, 0.0, 2022-09-19 14:44:38.156
237.0, 12055.77099988115, 9733.000067830095, 7241.875796541667, 9116.56130749718, 34717.4447438055, 187500.0, 18047.71489473759, 20662.354905886044, 0.744, -0.618, 0.34800000000000003, 192.0, 0.0, 0.0, 0.0, 0.0, 0.0, 0.0, 0.0, 0.0, 0.0, 1.663580678160211E9, 0.0, 2022-09-19 14:44:38.160
238.0, 12075.664052446373, 9746.142893569815, 7253.185779236052, 9127.983048913842, 34729.13470615562, 187500.0, 18090.742002814055, 20662.66783030842, 0.744, -0.618, 0.34800000000000003, 192.0, 0.0, 0.0, 0.0, 0.0, 0.0, 0.0, 0.0, 0.0, 0.0, 1.6635806781642196E9, 0.0, 2022-09-19 14:44:38.164
239.0, 12226.337161819598, 9835.683981857776, 7261.947663062533, 9190.277360710783, 34827.79530618135, 187500.0, 18245.438426189237, 20690.09342075508, 0.744, -0.618, 0.34800000000000003, 192.0, 0.0, 0.0, 0.0, 0.0, 0.0, 0.0, 0.0, 0.0, 0.0, 1.6635806781692908E9, 0.0, 2022-09-19 14:44:38.169
240.0, 12350.054067379722, 9903.834450702007, 7245.563834376792, 9226.621297195114, 34903.88064430722, 187500.0, 18326.843479495463, 20718.614246680052, 0.746, -0.614, 0.34400000000000003, 192.0, 23.0, 80.0, 236.0, 208.0, 10.0, 192.0, 0.0, 0.0, 0.0, 1.6635806781732347E9, 0.0, 2022-09-19 14:44:38.173
241.0, 12162.992318033257, 9794.735586015653, 7219.121720686165, 9138.868348463577, 34773.36880843268, 187500.0, 18121.945038073663, 20686.606548620053, 0.746, -0.614, 0.34400000000000003, 192.0, 0.0, 0.0, 0.0, 0.0, 0.0, 0.0, 0.0, 0.0, 0.0, 1.6635806781762483E9, 0.0, 2022-09-19 14:44:38.176
242.0, 12053.222901013245, 9736.665753920764, 7243.663936098092, 9098.121118321553, 34696.925842395525, 187500.0, 18047.781949970955, 20659.784455273682, 0.746, -0.614, 0.34400000000000003, 192.0, 0.0, 0.0, 0.0, 0.0, 0.0, 0.0, 0.0, 0.0, 0.0, 1.663580678180212E9, 0.0, 2022-09-19 14:44:38.180
243.0, 12071.640738444417, 9749.294489538013, 7258.371383949684, 9108.537031237725, 34706.44768553349, 187500.0, 18089.06562197991, 20659.292716895667, 0.746, -0.614, 0.34400000000000003, 192.0, 0.0, 0.0, 0.0, 0.0, 0.0, 0.0, 0.0, 0.0, 0.0, 1.6635806781842818E9, 0.0, 2022-09-19 14:44:38.184
244.0, 12212.300266301665, 9831.75007483364, 7266.596825909237, 9165.355165643115, 34798.67098315609, 187500.0, 18241.236298231637, 20679.230472949803, 0.746, -0.614, 0.34400000000000003, 192.0, 0.0, 0.0, 0.0, 0.0, 0.0, 0.0, 0.0, 0.0, 0.0, 1.663580678188295E9, 0.0, 2022-09-19 14:44:38.188
245.0, 12344.35437254362, 9905.711997236253, 7242.702811086513, 9204.984808562376, 34882.06534171884, 187500.0, 18335.87358425541, 20705.091441284592, 0.746, -0.614, 0.34400000000000003, 192.0, 0.0, 0.0, 0.0, 0.0, 0.0, 0.0, 0.0, 0.0, 0.0, 1.6635806781922886E9, 0.0, 2022-09-19 14:44:38.192
246.0, 12167.820294835603, 9799.965894218194, 7223.279145154852, 9121.389284299526, 34759.711892570485, 187500.0, 18135.221974280117, 20677.017650248727, 0.746, -0.614, 0.34400000000000003, 192.0, 0.0, 0.0, 0.0, 0.0, 0.0, 0.0, 0.0, 0.0, 0.0, 1.6635806781972697E9, 0.0, 2022-09-19 14:44:38.197
247.0, 12044.371610208942, 9729.535547439522, 7239.998250007421, 9074.22710349883, 34676.42929273001, 187500.0, 18048.89953719372, 20648.250955134747, 0.746, -0.614, 0.34400000000000003, 192.0, 0.0, 0.0, 0.0, 0.0, 0.0, 0.0, 0.0, 0.0, 0.0, 1.6635806782003245E9, 0.0, 2022-09-19 14:44:38.200
248.0, 12056.48625570372, 9739.571480699955, 7258.974881049977, 9085.268865259752, 34685.68291493451, 187500.0, 18091.881941781277, 20647.71451326782, 0.746, -0.614, 0.34400000000000003, 192.0, 0.0, 0.0, 0.0, 0.0, 0.0, 0.0, 0.0, 0.0, 0.0, 1.6635806782043912E9, 0.0, 2022-09-19 14:44:38.204
249.0, 12189.277969512697, 9818.473138627189, 7277.057442314321, 9140.43297057545, 34772.564145632285, 187500.0, 18231.982676027143, 20666.914661754927, 0.746, -0.614, 0.34400000000000003, 192.0, 0.0, 0.0, 0.0, 0.0, 0.0, 0.0, 0.0, 0.0, 0.0, 1.663580678208392E9, 0.0, 2022-09-19 14:44:38.208
250.0, 12335.30191603922, 9900.705206478264, 7265.948625320033, 9186.634026364569, 34867.20143165606, 187500.0, 18344.76957854862, 20697.17892374741, 0.748, -0.616, 0.34, 192.0, 23.0, 96.0, 236.0, 192.0, 10.0, 160.0, 0.0, 0.0, 0.0, 1.6635806782123208E9, 0.0, 2022-09-19 14:44:38.212
251.0, 12166.590948890562, 9800.74820527413, 7235.460845882994, 9103.440833501916, 34752.26876166687, 187500.0, 18150.287050042993, 20671.72028681282, 0.748, -0.616, 0.34, 192.0, 0.0, 0.0, 0.0, 0.0, 0.0, 0.0, 0.0, 0.0, 0.0, 1.6635806782164483E9, 0.0, 2022-09-19 14:44:38.216
252.0, 12029.217127468244, 9722.874727591841, 7247.128456488665, 9049.059039242155, 34657.94440006547, 187500.0, 18046.977287170565, 20636.404530573433, 0.748, -0.616, 0.34, 192.0, 0.0, 0.0, 0.0, 0.0, 0.0, 0.0, 0.0, 0.0, 0.0, 1.6635806782203245E9, 0.0, 2022-09-19 14:44:38.220
253.0, 12037.464921172254, 9732.620088174353, 7268.139096276653, 9056.323356190129, 34661.16305126704, 187500.0, 18086.115191711808, 20631.353036326534, 0.748, -0.616, 0.34, 192.0, 0.0, 0.0, 0.0, 0.0, 0.0, 0.0, 0.0, 0.0, 0.0, 1.6635806782263632E9, 0.0, 2022-09-19 14:44:38.226
254.0, 12159.63955636496, 9805.442071609745, 7279.404375482128, 9106.234801558829, 34739.7517847719, 187500.0, 18223.578420111946, 20652.14015866997, 0.748, -0.616, 0.34, 192.0, 0.0, 0.0, 0.0, 0.0, 0.0, 0.0, 0.0, 0.0, 0.0, 1.663580678229339E9, 0.0, 2022-09-19 14:44:38.229
255.0, 12320.43800597644, 9897.486555276699, 7257.544369404837, 9160.504837096314, 34837.60772199723, 187500.0, 18349.23992743968, 20685.75718233075, 0.748, -0.616, 0.34, 192.0, 0.0, 0.0, 0.0, 0.0, 0.0, 0.0, 0.0, 0.0, 0.0, 1.663580678233594E9, 0.0, 2022-09-19 14:44:38.233
0.0, 12165.227492478787, 9805.84440300994, 7227.727142301458, 9084.665368159458, 34719.098772895195, 187500.0, 18162.871082171332, 20662.04198146367, 0.748, -0.616, 0.34, 192.0, 0.0, 0.0, 0.0, 0.0, 0.0, 0.0, 0.0, 0.0, 0.0, 1.6635806782363656E9, 0.0, 2022-09-19 14:44:38.236
1.0, 12014.107348216457, 9719.343151967902, 7241.160540719097, 9022.236945895786, 34605.14957966204, 187500.0, 18045.502072036514, 20627.68735023586, 0.748, -0.616, 0.34, 192.0, 0.0, 0.0, 0.0, 0.0, 0.0, 0.0, 0.0, 0.0, 0.0, 1.663580678240373E9, 0.0, 2022-09-19 14:44:38.240
2.0, 12021.215202953244, 9725.31106773747, 7259.310157216806, 9030.350629133061, 34598.2652423698, 187500.0, 18081.510732354014, 20627.575591513585, 0.748, -0.616, 0.34, 192.0, 0.0, 0.0, 0.0, 0.0, 0.0, 0.0, 0.0, 0.0, 0.0, 1.6635806782443793E9, 0.0, 2022-09-19 14:44:38.244
3.0, 12137.310163654109, 9794.020330193083, 7273.570570179292, 9079.412708212461, 34663.62174315712, 187500.0, 18209.07213796045, 20650.352019113543, 0.748, -0.616, 0.34, 192.0, 0.0, 0.0, 0.0, 0.0, 0.0, 0.0, 0.0, 0.0, 0.0, 1.663580678248482E9, 0.0, 2022-09-19 14:44:38.248
4.0, 12303.24951449031, 9886.869476660428, 7259.9136543171, 9134.889737950532, 34758.63900883663, 187500.0, 18345.59659309347, 20685.176036974914, 0.75, -0.618, 0.338, 192.0, 23.0, 112.0, 236.0, 176.0, 10.0, 144.0, 0.0, 0.0, 0.0, 1.6635806782533743E9, 0.0, 2022-09-19 14:44:38.253
5.0, 12161.181826732378, 9803.788042520053, 7224.8884707556335, 9066.716917361846, 34647.48378366039, 187500.0, 18172.12470437583, 20665.66296406543, 0.75, -0.618, 0.338, 192.0, 0.0, 0.0, 0.0, 0.0, 0.0, 0.0, 0.0, 0.0, 0.0, 1.66358067825638E9, 0.0, 2022-09-19 14:44:38.256
6.0, 12005.926609745815, 9715.83392808842, 7230.923441758567, 9006.546021288159, 34531.27706423725, 187500.0, 18044.47389179157, 20630.906001437426, 0.75, -0.618, 0.338, 192.0, 0.0, 0.0, 0.0, 0.0, 0.0, 0.0, 0.0, 0.0, 0.0, 1.663580678259398E9, 0.0, 2022-09-19 14:44:38.259
7.0, 12008.452356869264, 9718.739654867608, 7255.488008914949, 9014.816166736624, 34522.78340134423, 187500.0, 18079.052040463932, 20627.821460702595, 0.75, -0.618, 0.338, 192.0, 0.0, 0.0, 0.0, 0.0, 0.0, 0.0, 0.0, 0.0, 0.0, 1.6635806782643695E9, 0.0, 2022-09-19 14:44:38.264
8.0, 12112.767948242183, 9780.430469564257, 7270.530732933371, 9064.817019083146, 34585.703561985916, 187500.0, 18197.963320966162, 20648.183899901378, 0.75, -0.618, 0.338, 192.0, 0.0, 0.0, 0.0, 0.0, 0.0, 0.0, 0.0, 0.0, 0.0, 1.663580678268561E9, 0.0, 2022-09-19 14:44:38.268
9.0, 12287.916217793969, 9880.275712046112, 7258.214921738497, 9127.245441346819, 34693.17074932704, 187500.0, 18347.295325672072, 20684.393725918977, 0.75, -0.618, 0.338, 192.0, 0.0, 0.0, 0.0, 0.0, 0.0, 0.0, 0.0, 0.0, 0.0, 1.6635806782724245E9, 0.0, 2022-09-19 14:44:38.272
10.0, 12160.824198821092, 9804.682112298264, 7225.603726578203, 9060.41372542545, 34595.38186733507, 187500.0, 18183.61350102586, 20665.171225687413, 0.75, -0.618, 0.338, 192.0, 0.0, 0.0, 0.0, 0.0, 0.0, 0.0, 0.0, 0.0, 0.0, 1.663580678276394E9, 0.0, 2022-09-19 14:44:38.276
11.0, 11992.85083923946, 9707.228506473126, 7233.426837137561, 8993.693768226358, 34474.86126123205, 187500.0, 18043.289249335437, 20625.3180653236, 0.75, -0.618, 0.338, 192.0, 0.0, 0.0, 0.0, 0.0, 0.0, 0.0, 0.0, 0.0, 0.0, 1.6635806782804143E9, 0.0, 2022-09-19 14:44:38.280
12.0, 11990.302740371555, 9707.988465784605, 7252.001136779922, 9000.689864240869, 34467.79810998418, 187500.0, 18075.92279624019, 20621.205344343824, 0.75, -0.618, 0.338, 192.0, 0.0, 0.0, 0.0, 0.0, 0.0, 0.0, 0.0, 0.0, 0.0, 1.6635806782845025E9, 0.0, 2022-09-19 14:44:38.284
13.0, 12085.67763396235, 9764.180751345248, 7260.494799672938, 9043.560510106148, 34524.92916881194, 187500.0, 18187.972091194642, 20639.17614688589, 0.75, -0.618, 0.338, 192.0, 0.0, 0.0, 0.0, 0.0, 0.0, 0.0, 0.0, 0.0, 0.0, 1.6635806782874706E9, 0.0, 2022-09-19 14:44:38.287
14.0, 12275.265130432264, 9876.76648816663, 7264.138134019153, 9120.919897665966, 34642.2758272023, 187500.0, 18351.028066996107, 20679.14106597198, 0.75, -0.618, 0.332, 192.0, 23.0, 112.0, 236.0, 176.0, 10.0, 96.0, 0.0, 0.0, 0.0, 1.6635806782934709E9, 0.0, 2022-09-19 14:44:38.293
15.0, 12169.11669601401, 9813.779272291575, 7236.377267405662, 9070.60612089707, 34562.99418961933, 187500.0, 18205.898190247797, 20668.635746077987, 0.75, -0.618, 0.332, 192.0, 0.0, 0.0, 0.0, 0.0, 0.0, 0.0, 0.0, 0.0, 0.0, 1.6635806782964733E9, 0.0, 2022-09-19 14:44:38.296
16.0, 11991.487382827687, 9709.620143129843, 7239.484159884949, 9003.59559102006, 34437.064461358124, 187500.0, 18053.571051784882, 20629.74371072575, 0.75, -0.618, 0.332, 192.0, 0.0, 0.0, 0.0, 0.0, 0.0, 0.0, 0.0, 0.0, 0.0, 1.6635806783004413E9, 0.0, 2022-09-19 14:44:38.300
17.0, 11986.65940602534, 9710.134233252315, 7258.125514760675, 9009.943486445367, 34425.53096121919, 187500.0, 18080.415496875703, 20621.093585621547, 0.75, -0.618, 0.332, 192.0, 0.0, 0.0, 0.0, 0.0, 0.0, 0.0, 0.0, 0.0, 0.0, 1.663580678304507E9, 0.0, 2022-09-19 14:44:38.304
18.0, 12075.954625124292, 9763.26432982258, 7270.061346299809, 9052.143579976986, 34478.79516825618, 187500.0, 18183.769963237046, 20636.538641040166, 0.75, -0.618, 0.332, 192.0, 0.0, 0.0, 0.0, 0.0, 0.0, 0.0, 0.0, 0.0, 0.0, 1.6635806783084998E9, 0.0, 2022-09-19 14:44:38.308
19.0, 12262.591691326106, 9871.737345664185, 7268.876703843678, 9126.306668079695, 34595.94066094645, 187500.0, 18349.39638965087, 20673.106094969047, 0.75, -0.618, 0.332, 192.0, 0.0, 0.0, 0.0, 0.0, 0.0, 0.0, 0.0, 0.0, 0.0, 1.6635806783124793E9, 0.0, 2022-09-19 14:44:38.312
20.0, 12169.474323925297, 9816.170908948292, 7233.985630748944, 9074.338862221106, 34524.41507868947, 187500.0, 18214.011873485073, 20660.320897140613, 0.75, -0.618, 0.332, 192.0, 0.0, 0.0, 0.0, 0.0, 0.0, 0.0, 0.0, 0.0, 0.0, 1.663580678315519E9, 0.0, 2022-09-19 14:44:38.315
21.0, 11984.334824601989, 9708.167279740248, 7230.029371980354, 8996.286570583174, 34391.93628930286, 187500.0, 18049.055999404907, 20617.89728616444, 0.75, -0.618, 0.332, 192.0, 0.0, 0.0, 0.0, 0.0, 0.0, 0.0, 0.0, 0.0, 0.0, 1.6635806783205771E9, 0.0, 2022-09-19 14:44:38.320
22.0, 11974.254187852644, 9705.328608194424, 7252.8281513247675, 8995.034872893677, 34375.619515850485, 187500.0, 18073.79938051693, 20610.923541894383, 0.75, -0.618, 0.332, 192.0, 0.0, 0.0, 0.0, 0.0, 0.0, 0.0, 0.0, 0.0, 0.0, 1.6635806783245468E9, 0.0, 2022-09-19 14:44:38.324
23.0, 12055.212206269767, 9754.323632040458, 7265.792163108846, 9031.468216355826, 34423.69811817385, 187500.0, 18170.962413664154, 20624.736919967763, 0.75, -0.618, 0.332, 192.0, 0.0, 0.0, 0.0, 0.0, 0.0, 0.0, 0.0, 0.0, 0.0, 1.6635806783285232E9, 0.0, 2022-09-19 14:44:38.328
24.0, 12248.107760919067, 9866.372926994913, 7260.204226995019, 9101.406824756483, 34545.023387077264, 187500.0, 18343.696694814767, 20663.405437875444, 0.75, -0.618, 0.332, 192.0, 0.0, 0.0, 0.0, 0.0, 0.0, 0.0, 0.0, 0.0, 0.0, 1.6635806783325975E9, 0.0, 2022-09-19 14:44:38.332
25.0, 12174.682280383382, 9823.502281129633, 7231.325773158762, 9055.876321301022, 34486.573575326634, 187500.0, 18229.27811494805, 20659.4268273624, 0.75, -0.618, 0.336, 192.0, 23.0, 112.0, 236.0, 176.0, 10.0, 128.0, 0.0, 0.0, 0.0, 1.663580678336584E9, 0.0, 2022-09-19 14:44:38.336
26.0, 11983.060775168035, 9714.314009465457, 7232.085732470243, 8974.9183028839, 34349.60208530451, 187500.0, 18051.67115350618, 20617.383196041967, 0.75, -0.618, 0.336, 192.0, 0.0, 0.0, 0.0, 0.0, 0.0, 0.0, 0.0, 0.0, 0.0, 1.6635806783405154E9, 0.0, 2022-09-19 14:44:38.340
27.0, 11967.123981371402, 9709.73190185212, 7249.520093145382, 8971.073802837587, 34330.75956472869, 187500.0, 18066.691525780145, 20608.777774426675, 0.75, -0.618, 0.336, 192.0, 0.0, 0.0, 0.0, 0.0, 0.0, 0.0, 0.0, 0.0, 0.0, 1.6635806783436446E9, 0.0, 2022-09-19 14:44:38.343
28.0, 12039.633040384417, 9754.569501229465, 7266.708584631513, 9002.410948563927, 34372.08794022655, 187500.0, 18154.7350471896, 20621.428861788376, 0.75, -0.618, 0.336, 192.0, 0.0, 0.0, 0.0, 0.0, 0.0, 0.0, 0.0, 0.0, 0.0, 1.663580678347548E9, 0.0, 2022-09-19 14:44:38.347
29.0, 12232.66270550045, 9864.473028716211, 7264.4510584415275, 9073.93653082091, 34492.29562190719, 187500.0, 18331.805566764542, 20656.834025005584, 0.75, -0.618, 0.336, 192.0, 0.0, 0.0, 0.0, 0.0, 0.0, 0.0, 0.0, 0.0, 0.0, 1.6635806783525991E9, 0.0, 2022-09-19 14:44:38.352
30.0, 12178.50442868524, 9828.196147465247, 7232.421008637072, 9036.676172813914, 34446.496897518264, 187500.0, 18232.452062660705, 20652.22956564779, 0.75, -0.618, 0.336, 192.0, 0.0, 0.0, 0.0, 0.0, 0.0, 0.0, 0.0, 0.0, 0.0, 1.663580678356576E9, 0.0, 2022-09-19 14:44:38.356
31.0, 11984.066603668523, 9715.945686810695, 7234.030334237855, 8956.63457591946, 34308.83250341803, 187500.0, 18051.38058082826, 20613.65045471793, 0.75, -0.618, 0.336, 192.0, 0.0, 0.0, 0.0, 0.0, 0.0, 0.0, 0.0, 0.0, 0.0, 1.6635806783607285E9, 0.0, 2022-09-19 14:44:38.360
32.0, 11961.290176068565, 9707.139099495304, 7260.137171761653, 8955.494636952239, 34290.16879679785, 187500.0, 18066.535063568957, 20603.45805924631, 0.75, -0.618, 0.336, 192.0, 0.0, 0.0, 0.0, 0.0, 0.0, 0.0, 0.0, 0.0, 0.0, 1.6635806783635905E9, 0.0, 2022-09-19 14:44:38.363
33.0, 12027.294877445089, 9748.4004197598, 7277.593884181248, 8987.837611179068, 34330.69250949532, 187500.0, 18155.673820456723, 20613.5163442512, 0.75, -0.618, 0.336, 192.0, 0.0, 0.0, 0.0, 0.0, 0.0, 0.0, 0.0, 0.0, 0.0, 1.6635806783676348E9, 0.0, 2022-09-19 14:44:38.367
34.0, 12225.666609485937, 9862.550778693054, 7280.320797004795, 9063.31945220464, 34454.49882203327, 187500.0, 18336.812357522533, 20649.770873757705, 0.75, -0.618, 0.336, 192.0, 0.0, 0.0, 0.0, 0.0, 0.0, 0.0, 0.0, 0.0, 0.0, 1.663580678371598E9, 0.0, 2022-09-19 14:44:38.371
35.0, 12186.484001455785, 9837.628583625386, 7241.361706419195, 9031.244698911274, 34420.635929183474, 187500.0, 18251.920432081275, 20646.3734086005, 0.752, -0.62, 0.334, 192.0, 23.0, 128.0, 236.0, 160.0, 10.0, 112.0, 0.0, 0.0, 0.0, 1.6635806783755705E9, 0.0, 2022-09-19 14:44:38.375
36.0, 11982.524333301108, 9717.644419389298, 7228.911784757589, 8943.424694946372, 34277.92004083634, 187500.0, 18056.14150239724, 20602.519285979186, 0.752, -0.62, 0.334, 192.0, 0.0, 0.0, 0.0, 0.0, 0.0, 0.0, 0.0, 0.0, 0.0, 1.663580678380688E9, 0.0, 2022-09-19 14:44:38.380
37.0, 11950.65074570784, 9699.986541269605, 7246.122627988176, 8934.0593140196, 34251.053244001065, 187500.0, 18057.929641953666, 20589.152942794914, 0.752, -0.62, 0.334, 192.0, 0.0, 0.0, 0.0, 0.0, 0.0, 0.0, 0.0, 0.0, 0.0, 1.6635806783846483E9, 0.0, 2022-09-19 14:44:38.384
38.0, 12014.263810427645, 9740.756123156087, 7267.669709643092, 8966.022308590687, 34291.26403227616, 187500.0, 18142.374532505815, 20603.860390646507, 0.752, -0.62, 0.334, 192.0, 0.0, 0.0, 0.0, 0.0, 0.0, 0.0, 0.0, 0.0, 0.0, 1.6635806783886533E9, 0.0, 2022-09-19 14:44:38.388
39.0, 12215.809490181147, 9858.23689201318, 7272.29652074534, 9046.756809563258, 34422.4240687399, 187500.0, 18328.206935907237, 20644.80878648863, 0.752, -0.62, 0.334, 192.0, 0.0, 0.0, 0.0, 0.0, 0.0, 0.0, 0.0, 0.0, 0.0, 1.6635806783916562E9, 0.0, 2022-09-19 14:44:38.391
40.0, 12198.285722528188, 9845.474045929199, 7236.779598805857, 9026.014390708731, 34403.91682433091, 187500.0, 18260.05646706301, 20648.72034176831, 0.752, -0.62, 0.334, 192.0, 0.0, 0.0, 0.0, 0.0, 0.0, 0.0, 0.0, 0.0, 0.0, 1.6635806783957193E9, 0.0, 2022-09-19 14:44:38.395
41.0, 11996.89650498587, 9729.848471861897, 7233.113912715186, 8940.921299567379, 34265.49247091919, 187500.0, 18062.556453055913, 20612.13053609497, 0.752, -0.62, 0.334, 192.0, 0.0, 0.0, 0.0, 0.0, 0.0, 0.0, 0.0, 0.0, 0.0, 1.6635806783997138E9, 0.0, 2022-09-19 14:44:38.399
42.0, 11964.642937736862, 9716.370369955346, 7256.717354859991, 8936.070971020576, 34241.21847644073, 187500.0, 18066.937394969154, 20603.391004012945, 0.752, -0.62, 0.334, 192.0, 0.0, 0.0, 0.0, 0.0, 0.0, 0.0, 0.0, 0.0, 0.0, 1.6635806784036777E9, 0.0, 2022-09-19 14:44:38.403
43.0, 12023.070397743035, 9753.966004129172, 7270.530732933371, 8966.49169522425, 34276.847157102486, 187500.0, 18140.899317371764, 20613.426937273376, 0.752, -0.62, 0.334, 192.0, 0.0, 0.0, 0.0, 0.0, 0.0, 0.0, 0.0, 0.0, 0.0, 1.6635806784076684E9, 0.0, 2022-09-19 14:44:38.407
44.0, 12219.385769293996, 9865.814133383528, 7279.359671993217, 9044.49928337327, 34402.4192574524, 187500.0, 18326.172927161806, 20648.56387955712, 0.752, -0.62, 0.334, 192.0, 0.0, 0.0, 0.0, 0.0, 0.0, 0.0, 0.0, 0.0, 0.0, 1.6635806784127584E9, 0.0, 2022-09-19 14:44:38.412
45.0, 12221.106853617055, 9864.897711860862, 7251.57645363527, 9032.652858811958, 34395.959603304815, 187500.0, 18281.7153074402, 20657.37046687251, 0.744, -0.618, 0.34400000000000003, 192.0, 23.0, 64.0, 236.0, 176.0, 10.0, 192.0, 0.0, 0.0, 0.0, 1.6635806784167285E9, 0.0, 2022-09-19 14:44:38.416
46.0, 12015.04612148358, 9747.282832537036, 7240.199415707519, 8944.318764724585, 34253.10960449095, 187500.0, 18076.928624740678, 20619.104280365023, 0.744, -0.618, 0.34400000000000003, 192.0, 0.0, 0.0, 0.0, 0.0, 0.0, 0.0, 0.0, 0.0, 0.0, 1.6635806784197307E9, 0.0, 2022-09-19 14:44:38.419
47.0, 11971.41551630682, 9724.327590981435, 7262.886436329656, 8932.494691907727, 34221.34777561996, 187500.0, 18066.937394969154, 20604.866219146996, 0.744, -0.618, 0.34400000000000003, 192.0, 0.0, 0.0, 0.0, 0.0, 0.0, 0.0, 0.0, 0.0, 0.0, 1.6635806784237478E9, 0.0, 2022-09-19 14:44:38.423
48.0, 12018.220069196233, 9750.926166883251, 7279.985520837966, 8957.640404419948, 34248.08046198851, 187500.0, 18129.410520721736, 20610.83413491656, 0.744, -0.618, 0.34400000000000003, 192.0, 0.0, 0.0, 0.0, 0.0, 0.0, 0.0, 0.0, 0.0, 0.0, 1.6635806784277203E9, 0.0, 2022-09-19 14:44:38.427
49.0, 12204.343045275575, 9855.71114488973, 7279.940817349055, 9031.602326822558, 34365.89650701243, 187500.0, 18309.00678742013, 20639.779643986185, 0.744, -0.618, 0.34400000000000003, 192.0, 0.0, 0.0, 0.0, 0.0, 0.0, 0.0, 0.0, 0.0, 0.0, 1.6635806784317424E9, 0.0, 2022-09-19 14:44:38.431
50.0, 12224.660780985449, 9861.679060659297, 7245.519130887882, 9030.350629133061, 34373.49610012723, 187500.0, 18283.14581908534, 20650.08379818008, 0.744, -0.618, 0.34400000000000003, 192.0, 0.0, 0.0, 0.0, 0.0, 0.0, 0.0, 0.0, 0.0, 0.0, 1.6635806784357295E9, 0.0, 2022-09-19 14:44:38.435
51.0, 12019.114138974446, 9740.957288856183, 7229.090598713232, 8943.24588099073, 34229.237941412684, 187500.0, 18074.224063661582, 20612.912847150907, 0.744, -0.618, 0.34400000000000003, 192.0, 0.0, 0.0, 0.0, 0.0, 0.0, 0.0, 0.0, 0.0, 0.0, 1.6635806784407241E9, 0.0, 2022-09-19 14:44:38.440
52.0, 11966.207559848734, 9710.849489074884, 7244.5580058763035, 8928.918412794877, 34189.54124326006, 187500.0, 18056.543833797437, 20594.874989375472, 0.744, -0.618, 0.34400000000000003, 192.0, 0.0, 0.0, 0.0, 0.0, 0.0, 0.0, 0.0, 0.0, 0.0, 1.6635806784447176E9, 0.0, 2022-09-19 14:44:38.444
53.0, 12013.079167971513, 9740.756123156087, 7267.356785220717, 8956.321651497085, 34217.81619999602, 187500.0, 18119.19577350566, 20606.252027303224, 0.744, -0.618, 0.34400000000000003, 192.0, 0.0, 0.0, 0.0, 0.0, 0.0, 0.0, 0.0, 0.0, 0.0, 1.663580678448794E9, 0.0, 2022-09-19 14:44:38.448
54.0, 12201.571428963118, 9851.888996587873, 7278.7114714040135, 9033.234004167796, 34339.94613169982, 187500.0, 18304.648197251343, 20644.451158577343, 0.744, -0.618, 0.34400000000000003, 192.0, 0.0, 0.0, 0.0, 0.0, 0.0, 0.0, 0.0, 0.0, 0.0, 1.66358067845179E9, 0.0, 2022-09-19 14:44:38.451
55.0, 12242.363362594053, 9874.419554998822, 7246.703773344014, 9035.536233846693, 34357.64871330842, 187500.0, 18298.456764037226, 20661.66200180793, 0.75, -0.62, 0.338, 192.0, 23.0, 112.0, 236.0, 160.0, 10.0, 144.0, 0.0, 0.0, 0.0, 1.6635806784557395E9, 0.0, 2022-09-19 14:44:38.455
56.0, 12039.409522939864, 9755.59768147441, 7235.550252860815, 8948.140913026442, 34215.178694150294, 187500.0, 18086.33870915636, 20624.759271712217, 0.75, -0.62, 0.338, 192.0, 0.0, 0.0, 0.0, 0.0, 0.0, 0.0, 0.0, 0.0, 0.0, 1.6635806784597404E9, 0.0, 2022-09-19 14:44:38.459
57.0, 11980.691490255773, 9721.734788624619, 7254.325718203273, 8930.036000017644, 34172.06217909601, 187500.0, 18061.10358966632, 20607.257855803713, 0.75, -0.62, 0.338, 192.0, 0.0, 0.0, 0.0, 0.0, 0.0, 0.0, 0.0, 0.0, 0.0, 1.6635806784638696E9, 0.0, 2022-09-19 14:44:38.463
58.0, 12013.369740649432, 9741.091399322915, 7268.452020699027, 8946.330421725563, 34191.977583405685, 187500.0, 18121.140375273273, 20610.342396538545, 0.75, -0.62, 0.338, 192.0, 0.0, 0.0, 0.0, 0.0, 0.0, 0.0, 0.0, 0.0, 0.0, 1.6635806784688258E9, 0.0, 2022-09-19 14:44:38.468
59.0, 12192.295455014164, 9843.730609861686, 7279.650244671136, 9017.677190026903, 34308.0501923621, 187500.0, 18304.06705189551, 20640.69606550885, 0.75, -0.62, 0.338, 192.0, 0.0, 0.0, 0.0, 0.0, 0.0, 0.0, 0.0, 0.0, 0.0, 1.66358067847275E9, 0.0, 2022-09-19 14:44:38.472
60.0, 12247.370153352042, 9873.614892198431, 7253.431648425061, 9031.289402400185, 34338.96265494378, 187500.0, 18318.886258469374, 20657.616336061517, 0.75, -0.62, 0.338, 192.0, 0.0, 0.0, 0.0, 0.0, 0.0, 0.0, 0.0, 0.0, 0.0, 1.6635806784757636E9, 0.0, 2022-09-19 14:44:38.475
61.0, 12038.80602583957, 9754.055411106994, 7235.371438905173, 8941.658907134402, 34196.11265612992, 187500.0, 18103.102517497842, 20620.33362631007, 0.75, -0.62, 0.338, 192.0, 0.0, 0.0, 0.0, 0.0, 0.0, 0.0, 0.0, 0.0, 0.0, 1.6635806784797652E9, 0.0, 2022-09-19 14:44:38.479
62.0, 11970.677908739795, 9717.68912287821, 7256.67265137108, 8924.33630518154, 34146.7600043726, 187500.0, 18065.99862170203, 20600.574684211577, 0.75, -0.62, 0.338, 192.0, 0.0, 0.0, 0.0, 0.0, 0.0, 0.0, 0.0, 0.0, 0.0, 1.6635806784838102E9, 0.0, 2022-09-19 14:44:38.483
63.0, 12006.95478999076, 9741.40432374529, 7265.188666008552, 8947.984450815255, 34169.08939708345, 187500.0, 18115.15010775925, 20605.5144197362, 0.75, -0.62, 0.338, 192.0, 0.0, 0.0, 0.0, 0.0, 0.0, 0.0, 0.0, 0.0, 0.0, 1.6635806784878197E9, 0.0, 2022-09-19 14:44:38.487
64.0, 12182.684204898384, 9843.216519739213, 7270.8660091002, 9019.26416388323, 34284.8937851064, 187500.0, 18289.60547323292, 20636.046902662147, 0.75, -0.62, 0.338, 192.0, 0.0, 0.0, 0.0, 0.0, 0.0, 0.0, 0.0, 0.0, 0.0, 1.6635806784918501E9, 0.0, 2022-09-19 14:44:38.491
65.0, 12258.031935457222, 9884.120212092426, 7241.831093052757, 9036.877338514012, 34331.228951362245, 187500.0, 18320.607342792435, 20656.789321516673, 0.756, -0.618, 0.338, 192.0, 23.0, 160.0, 236.0, 176.0, 10.0, 144.0, 0.0, 0.0, 0.0, 1.6635806784968045E9, 0.0, 2022-09-19 14:44:38.496
66.0, 12059.347278993999, 9767.354699057902, 7222.295668398818, 8949.102038038021, 34194.838606695965, 187500.0, 18109.182191989683, 20625.362768812513, 0.756, -0.618, 0.338, 192.0, 0.0, 0.0, 0.0, 0.0, 0.0, 0.0, 0.0, 0.0, 0.0, 1.6635806784998076E9, 0.0, 2022-09-19 14:44:38.499
67.0, 11977.495190798663, 9720.728960124132, 7247.396677422128, 8919.508328379194, 34138.37810020186, 187500.0, 18062.020011188986, 20602.78750691265, 0.756, -0.618, 0.338, 192.0, 0.0, 0.0, 0.0, 0.0, 0.0, 0.0, 0.0, 0.0, 0.0, 1.663580678503962E9, 0.0, 2022-09-19 14:44:38.503
68.0, 12005.501926601164, 9738.073913821449, 7262.148828762631, 8936.20508148731, 34155.49953645463, 187500.0, 18110.076261767896, 20604.530942980164, 0.756, -0.618, 0.338, 192.0, 0.0, 0.0, 0.0, 0.0, 0.0, 0.0, 0.0, 0.0, 0.0, 1.6635806785078769E9, 0.0, 2022-09-19 14:44:38.507
69.0, 12170.658966381427, 9832.845310311952, 7271.3800992226725, 9000.44399505186, 34265.55952615256, 187500.0, 18279.100153338928, 20636.650399762442, 0.756, -0.618, 0.338, 192.0, 0.0, 0.0, 0.0, 0.0, 0.0, 0.0, 0.0, 0.0, 0.0, 1.6635806785119152E9, 0.0, 2022-09-19 14:44:38.511
70.0, 12257.71901103485, 9882.19796206927, 7244.110970987198, 9010.301114356651, 34324.814000703576, 187500.0, 18325.21180215023, 20658.42099886191, 0.756, -0.618, 0.338, 192.0, 0.0, 0.0, 0.0, 0.0, 0.0, 0.0, 0.0, 0.0, 0.0, 1.6635806785158894E9, 0.0, 2022-09-19 14:44:38.515
71.0, 12059.190816782811, 9766.79590544652, 7224.530842844349, 8910.81349978608, 34192.42461829479, 187500.0, 18112.6243606358, 20624.60280950103, 0.756, -0.618, 0.338, 192.0, 0.0, 0.0, 0.0, 0.0, 0.0, 0.0, 0.0, 0.0, 0.0, 1.6635806785200276E9, 0.0, 2022-09-19 14:44:38.520
72.0, 11970.409687806332, 9717.01857054455, 7254.8845118146555, 8871.496781289194, 34134.98063504465, 187500.0, 18057.504958809015, 20601.82638190107, 0.756, -0.618, 0.338, 192.0, 0.0, 0.0, 0.0, 0.0, 0.0, 0.0, 0.0, 0.0, 0.0, 1.6635806785239408E9, 0.0, 2022-09-19 14:44:38.523
73.0, 11995.063661940536, 9734.02824807504, 7271.693023645047, 8876.682386002825, 34154.60546667641, 187500.0, 18105.762375088023, 20604.597998213532, 0.756, -0.618, 0.338, 192.0, 0.0, 0.0, 0.0, 0.0, 0.0, 0.0, 0.0, 0.0, 0.0, 1.663580678528958E9, 0.0, 2022-09-19 14:44:38.528
74.0, 12154.521006884695, 9826.251545697636, 7283.830020884278, 8932.584098885549, 34263.50316566267, 187500.0, 18271.500560224125, 20633.588210772064, 0.756, -0.618, 0.338, 192.0, 0.0, 0.0, 0.0, 0.0, 0.0, 0.0, 0.0, 0.0, 0.0, 1.6635806785329473E9, 0.0, 2022-09-19 14:44:38.532
75.0, 12260.356516880574, 9885.394261526379, 7257.253796726918, 8954.131180540464, 34333.821753719065, 187500.0, 18335.381845877393, 20657.683391294886, 0.748, -0.624, 0.34, 192.0, 23.0, 96.0, 236.0, 128.0, 10.0, 160.0, 0.0, 0.0, 0.0, 1.663580678535988E9, 0.0, 2022-09-19 14:44:38.535
76.0, 12071.86425588897, 9775.669547995276, 7239.484159884949, 8857.526941004628, 34209.68016501429, 187500.0, 18129.74579688857, 20629.631952003474, 0.748, -0.624, 0.34, 192.0, 0.0, 0.0, 0.0, 0.0, 0.0, 0.0, 0.0, 0.0, 0.0, 1.663580678539961E9, 0.0, 2022-09-19 14:44:38.539
77.0, 11968.778010461094, 9717.599715900387, 7262.729974118469, 8812.756396860648, 34144.45777469371, 187500.0, 18066.37860135777, 20603.83803890205, 0.748, -0.624, 0.34, 192.0, 0.0, 0.0, 0.0, 0.0, 0.0, 0.0, 0.0, 0.0, 0.0, 1.6635806785439577E9, 0.0, 2022-09-19 14:44:38.543
78.0, 11985.765336247128, 9730.362561984368, 7280.879590616178, 8823.753455132659, 34161.69096966874, 187500.0, 18110.523296657004, 20605.64853020293, 0.748, -0.624, 0.34, 192.0, 0.0, 0.0, 0.0, 0.0, 0.0, 0.0, 0.0, 0.0, 0.0, 1.6635806785499053E9, 0.0, 2022-09-19 14:44:38.549
79.0, 12136.058465964612, 9817.17673744878, 7288.032148841876, 8881.33154884953, 34263.05613077356, 187500.0, 18265.42088573228, 20629.006103158725, 0.748, -0.624, 0.34, 192.0, 0.0, 0.0, 0.0, 0.0, 0.0, 0.0, 0.0, 0.0, 0.0, 1.6635806785539577E9, 0.0, 2022-09-19 14:44:38.553
80.0, 12259.976537224835, 9884.679005703809, 7266.909750331611, 8915.082682977043, 34344.26001837969, 187500.0, 18345.59659309347, 20657.1245976835, 0.748, -0.624, 0.34, 192.0, 0.0, 0.0, 0.0, 0.0, 0.0, 0.0, 0.0, 0.0, 0.0, 1.66358067855696E9, 0.0, 2022-09-19 14:44:38.556
81.0, 12078.636834458928, 9779.31288234149, 7237.964241261989, 8825.943926089278, 34222.174790164805, 187500.0, 18137.524203959012, 20627.26266709121, 0.748, -0.624, 0.34, 192.0, 0.0, 0.0, 0.0, 0.0, 0.0, 0.0, 0.0, 0.0, 0.0, 1.663580678561025E9, 0.0, 2022-09-19 14:44:38.561
82.0, 11963.592405747462, 9715.20807924367, 7249.5424448898375, 8780.480477867184, 34146.22356250567, 187500.0, 18058.063752420396, 20596.12668706497, 0.748, -0.624, 0.34, 192.0, 0.0, 0.0, 0.0, 0.0, 0.0, 0.0, 0.0, 0.0, 0.0, 1.6635806785639193E9, 0.0, 2022-09-19 14:44:38.563
83.0, 11976.578769275997, 9723.142948525305, 7265.05455554182, 8787.610684348427, 34157.69000741124, 187500.0, 18101.20261921914, 20593.153905052415, 0.748, -0.624, 0.34, 192.0, 0.0, 0.0, 0.0, 0.0, 0.0, 0.0, 0.0, 0.0, 0.0, 1.6635806785680337E9, 0.0, 2022-09-19 14:44:38.568
84.0, 12117.931201211359, 9806.134975687859, 7282.48891621696, 8843.981783864712, 34253.04254925758, 187500.0, 18253.350943726415, 20616.712643708306, 0.748, -0.624, 0.34, 192.0, 0.0, 0.0, 0.0, 0.0, 0.0, 0.0, 0.0, 0.0, 0.0, 1.663580678572006E9, 0.0, 2022-09-19 14:44:38.572
85.0, 12250.834673742615, 9881.415651013333, 7263.467581685493, 8886.673615774347, 34342.136602656436, 187500.0, 18350.849253040466, 20644.406455088432, 0.752, -0.624, 0.34, 192.0, 23.0, 128.0, 236.0, 128.0, 10.0, 160.0, 0.0, 0.0, 0.0, 1.6635806785760012E9, 0.0, 2022-09-19 14:44:38.576
86.0, 12074.971148368259, 9779.022309663571, 7232.912747015089, 8807.011998535634, 34227.58391232299, 187500.0, 18152.254003555063, 20618.389024542455, 0.752, -0.624, 0.34, 192.0, 0.0, 0.0, 0.0, 0.0, 0.0, 0.0, 0.0, 0.0, 0.0, 1.6635806785799997E9, 0.0, 2022-09-19 14:44:38.579
87.0, 11950.002545118636, 9706.87087856184, 7249.475389656472, 8762.263806136109, 34146.29061773904, 187500.0, 18056.990868686542, 20585.97899508226, 0.752, -0.624, 0.34, 192.0, 0.0, 0.0, 0.0, 0.0, 0.0, 0.0, 0.0, 0.0, 0.0, 1.6635806785840704E9, 0.0, 2022-09-19 14:44:38.584
88.0, 11963.391240047365, 9716.146852510792, 7263.825209596778, 8771.852704507435, 34157.019455077585, 187500.0, 18091.68077608118, 20582.849750858517, 0.752, -0.624, 0.34, 192.0, 0.0, 0.0, 0.0, 0.0, 0.0, 0.0, 0.0, 0.0, 0.0, 1.6635806785871592E9, 0.0, 2022-09-19 14:44:38.587
89.0, 12097.457003290298, 9794.55677206001, 7272.3188724897955, 8826.167443533832, 34248.37103466642, 187500.0, 18234.150795239308, 20606.877876147973, 0.752, -0.624, 0.34, 192.0, 0.0, 0.0, 0.0, 0.0, 0.0, 0.0, 0.0, 0.0, 0.0, 1.6635806785920272E9, 0.0, 2022-09-19 14:44:38.592
90.0, 12240.731685248815, 9875.827714899508, 7246.301441943818, 8874.156638879376, 34342.96361720128, 187500.0, 18346.937697760786, 20639.153795141436, 0.752, -0.624, 0.34, 192.0, 0.0, 0.0, 0.0, 0.0, 0.0, 0.0, 0.0, 0.0, 0.0, 1.6635806785960639E9, 0.0, 2022-09-19 14:44:38.596
91.0, 12076.848694902505, 9780.02813816406, 7218.629982308148, 8797.333693186485, 34230.44493561327, 187500.0, 18154.757398934056, 20612.734033195262, 0.752, -0.624, 0.34, 192.0, 0.0, 0.0, 0.0, 0.0, 0.0, 0.0, 0.0, 0.0, 0.0, 1.6635806786000514E9, 0.0, 2022-09-19 14:44:38.600
92.0, 11943.162911315312, 9705.4403669167, 7230.275241169363, 8748.472779807184, 34141.932027570256, 187500.0, 18052.85579596231, 20580.83809385754, 0.752, -0.624, 0.34, 192.0, 0.0, 0.0, 0.0, 0.0, 0.0, 0.0, 0.0, 0.0, 0.0, 1.6635806786041963E9, 0.0, 2022-09-19 14:44:38.604
93.0, 11951.567167230507, 9712.369407697846, 7244.28978494284, 8758.195788645244, 34149.01753056259, 187500.0, 18088.6185870908, 20577.530035678155, 0.752, -0.624, 0.34, 192.0, 0.0, 0.0, 0.0, 0.0, 0.0, 0.0, 0.0, 0.0, 0.0, 1.6635806786081357E9, 0.0, 2022-09-19 14:44:38.608
94.0, 12075.440535001819, 9784.096155654926, 7253.498703658427, 8811.527050915605, 34232.43424086979, 187500.0, 18224.628952101346, 20598.227751043767, 0.752, -0.624, 0.34, 192.0, 0.0, 0.0, 0.0, 0.0, 0.0, 0.0, 0.0, 0.0, 0.0, 1.6635806786131485E9, 0.0, 2022-09-19 14:44:38.613
95.0, 12231.031028155212, 9870.463296230233, 7235.550252860815, 8861.192627095297, 34332.68181475184, 187500.0, 18346.982401249697, 20631.08481539307, 0.76, -0.626, 0.34400000000000003, 192.0, 23.0, 192.0, 236.0, 112.0, 10.0, 192.0, 0.0, 0.0, 0.0, 1.6635806786161504E9, 0.0, 2022-09-19 14:44:38.616
96.0, 12080.134401337435, 9781.101021897915, 7203.833127478734, 8783.810887791025, 34228.72385129021, 187500.0, 18160.92648040372, 20609.89536164944, 0.76, -0.626, 0.34400000000000003, 192.0, 0.0, 0.0, 0.0, 0.0, 0.0, 0.0, 0.0, 0.0, 0.0, 1.6635806786201537E9, 0.0, 2022-09-19 14:44:38.620
97.0, 11936.479739723176, 9701.975846526127, 7218.294706141318, 8727.797416186026, 34135.53942865603, 187500.0, 18046.396141814726, 20577.574739167063, 0.76, -0.626, 0.34400000000000003, 192.0, 0.0, 0.0, 0.0, 0.0, 0.0, 0.0, 0.0, 0.0, 0.0, 1.6635806786252139E9, 0.0, 2022-09-19 14:44:38.625
98.0, 11940.413646747309, 9709.77660534103, 7238.075999984265, 8735.240547089643, 34141.97673105916, 187500.0, 18081.130752698275, 20575.093695532527, 0.76, -0.626, 0.34400000000000003, 192.0, 0.0, 0.0, 0.0, 0.0, 0.0, 0.0, 0.0, 0.0, 0.0, 1.6635806786291716E9, 0.0, 2022-09-19 14:44:38.629
99.0, 12053.692287646805, 9780.139896886338, 7254.728049603468, 8780.636940078371, 34219.805505252545, 187500.0, 18209.720338549654, 20595.45613473131, 0.76, -0.626, 0.34400000000000003, 192.0, 0.0, 0.0, 0.0, 0.0, 0.0, 0.0, 0.0, 0.0, 0.0, 1.66358067863317E9, 0.0, 2022-09-19 14:44:38.633
100.0, 12217.84349892658, 9872.296139275568, 7241.607575608204, 8831.643620925382, 34327.27269259366, 187500.0, 18345.082502970996, 20625.340417068055, 0.76, -0.626, 0.34400000000000003, 192.0, 0.0, 0.0, 0.0, 0.0, 0.0, 0.0, 0.0, 0.0, 0.0, 1.6635806786360738E9, 0.0, 2022-09-19 14:44:38.636
101.0, 12076.356956524487, 9789.393519090834, 7209.398711848106, 8755.82650373298, 34231.71898504722, 187500.0, 18170.805951452967, 20604.75446042472, 0.76, -0.626, 0.34400000000000003, 192.0, 0.0, 0.0, 0.0, 0.0, 0.0, 0.0, 0.0, 0.0, 0.0, 1.6635806786401548E9, 0.0, 2022-09-19 14:44:38.640
102.0, 11913.792719101039, 9696.767890068042, 7215.076054939754, 8690.715872134671, 34123.58124537244, 187500.0, 18041.94814466812, 20567.94113730683, 0.76, -0.626, 0.34400000000000003, 192.0, 0.0, 0.0, 0.0, 0.0, 0.0, 0.0, 0.0, 0.0, 0.0, 1.6635806786431348E9, 0.0, 2022-09-19 14:44:38.643
103.0, 11912.630428389362, 9700.344169180891, 7238.411276151094, 8698.538982694028, 34124.38590817284, 187500.0, 18073.419400861192, 20563.426084926854, 0.76, -0.626, 0.34400000000000003, 192.0, 0.0, 0.0, 0.0, 0.0, 0.0, 0.0, 0.0, 0.0, 0.0, 1.6635806786480987E9, 0.0, 2022-09-19 14:44:38.648
104.0, 12011.000455737169, 9760.045678621016, 7246.748476832924, 8740.224986103176, 34190.636478738365, 187500.0, 18185.625158026836, 20578.1558845229, 0.76, -0.626, 0.34400000000000003, 192.0, 0.0, 0.0, 0.0, 0.0, 0.0, 0.0, 0.0, 0.0, 0.0, 1.6635806786521297E9, 0.0, 2022-09-19 14:44:38.652
105.0, 12185.0758415551, 9858.885092602384, 7240.758209318902, 8802.943981044767, 34303.825712660044, 187500.0, 18334.733645288186, 20616.623236730487, 0.75, -0.62, 0.342, 192.0, 23.0, 112.0, 236.0, 160.0, 10.0, 176.0, 0.0, 0.0, 0.0, 1.6635806786560917E9, 0.0, 2022-09-19 14:44:38.656
106.0, 12060.643680172407, 9785.303149855514, 7215.433682851039, 8741.566090770495, 34217.86090348493, 187500.0, 18177.712640489655, 20604.955626124814, 0.75, -0.62, 0.342, 192.0, 0.0, 0.0, 0.0, 0.0, 0.0, 0.0, 0.0, 0.0, 0.0, 1.663580678660202E9, 0.0, 2022-09-19 14:44:38.660
107.0, 11891.798602557017, 9686.933122507706, 7221.736874787435, 8672.253331214588, 34102.19062592872, 187500.0, 18037.589554499336, 20567.11412276198, 0.75, -0.62, 0.342, 192.0, 0.0, 0.0, 0.0, 0.0, 0.0, 0.0, 0.0, 0.0, 0.0, 1.6635806786631677E9, 0.0, 2022-09-19 14:44:38.663
108.0, 11885.718928065173, 9686.82136378543, 7247.351973933217, 8674.510857404573, 34097.16148342627, 187500.0, 18066.602118802326, 20562.17438723736, 0.75, -0.62, 0.342, 192.0, 0.0, 0.0, 0.0, 0.0, 0.0, 0.0, 0.0, 0.0, 0.0, 1.6635806786671593E9, 0.0, 2022-09-19 14:44:38.667
109.0, 11977.048155909557, 9741.918413867763, 7257.477314171471, 8714.520479979574, 34158.964056845194, 187500.0, 18175.321003832938, 20574.89252983243, 0.75, -0.62, 0.342, 192.0, 0.0, 0.0, 0.0, 0.0, 0.0, 0.0, 0.0, 0.0, 0.0, 1.6635806786711876E9, 0.0, 2022-09-19 14:44:38.671
110.0, 12155.370373173997, 9842.970650550205, 7256.538540904348, 8780.055794722533, 34278.32237223654, 187500.0, 18331.269124897615, 20606.766117425697, 0.75, -0.62, 0.342, 192.0, 0.0, 0.0, 0.0, 0.0, 0.0, 0.0, 0.0, 0.0, 0.0, 1.663580678675128E9, 0.0, 2022-09-19 14:44:38.675
111.0, 12041.354124707475, 9775.31192008399, 7226.408389378595, 8721.494224249629, 34202.81817946651, 187500.0, 18184.082887659417, 20592.237483529745, 0.75, -0.62, 0.342, 192.0, 0.0, 0.0, 0.0, 0.0, 0.0, 0.0, 0.0, 0.0, 0.0, 1.6635806786802874E9, 0.0, 2022-09-19 14:44:38.680
112.0, 11857.779247496039, 9668.224712398614, 7233.2256714374635, 8651.42150538224, 34083.07988441943, 187500.0, 18028.090063105832, 20551.378494665445, 0.75, -0.62, 0.342, 192.0, 0.0, 0.0, 0.0, 0.0, 0.0, 0.0, 0.0, 0.0, 0.0, 1.663580678684204E9, 0.0, 2022-09-19 14:44:38.684
113.0, 11843.429427555731, 9662.681479773699, 7256.203264737519, 8655.578929850928, 34076.93315469422, 187500.0, 18050.82178721688, 20543.577735850544, 0.75, -0.62, 0.342, 192.0, 0.0, 0.0, 0.0, 0.0, 0.0, 0.0, 0.0, 0.0, 0.0, 1.6635806786882467E9, 0.0, 2022-09-19 14:44:38.688
114.0, 11924.387445972854, 9710.961247797162, 7264.831038097267, 8690.76057562358, 34132.4548879212, 187500.0, 18150.398808765272, 20554.30657318909, 0.75, -0.62, 0.342, 192.0, 0.0, 0.0, 0.0, 0.0, 0.0, 0.0, 0.0, 0.0, 0.0, 1.6635806786922357E9, 0.0, 2022-09-19 14:44:38.692
115.0, 12106.06242490559, 9814.673342069787, 7256.695003115536, 8755.580634543972, 34252.77432832412, 187500.0, 18315.868772967908, 20586.940120093837, 0.748, -0.62, 0.34600000000000003, 192.0, 23.0, 96.0, 236.0, 160.0, 10.0, 208.0, 0.0, 0.0, 0.0, 1.663580678696179E9, 0.0, 2022-09-19 14:44:38.696
116.0, 12011.80511853756, 9757.631690219843, 7225.514319600382, 8701.511764706584, 34186.166129847305, 187500.0, 18184.17229463724, 20574.89252983243, 0.748, -0.62, 0.34600000000000003, 192.0, 0.0, 0.0, 0.0, 0.0, 0.0, 0.0, 0.0, 0.0, 0.0, 1.6635806787012484E9, 0.0, 2022-09-19 14:44:38.701
117.0, 11825.14570059129, 9650.008040667539, 7230.677572569558, 8624.554708546963, 34058.69413121869, 187500.0, 18022.524478736457, 20533.78767177912, 0.748, -0.62, 0.34600000000000003, 192.0, 0.0, 0.0, 0.0, 0.0, 0.0, 0.0, 0.0, 0.0, 0.0, 1.6635806787042153E9, 0.0, 2022-09-19 14:44:38.704
118.0, 11804.649150925774, 9638.206319595138, 7246.882587299656, 8622.207775379155, 34045.32778803442, 187500.0, 18041.34464756783, 20520.82365999504, 0.748, -0.62, 0.34600000000000003, 192.0, 0.0, 0.0, 0.0, 0.0, 0.0, 0.0, 0.0, 0.0, 0.0, 1.663580678709241E9, 0.0, 2022-09-19 14:44:38.709
119.0, 11877.605244827897, 9683.692119561687, 7258.304328716318, 8657.881159529825, 34096.13330318133, 187500.0, 18137.568907447923, 20531.48544210022, 0.748, -0.62, 0.34600000000000003, 192.0, 0.0, 0.0, 0.0, 0.0, 0.0, 0.0, 0.0, 0.0, 0.0, 1.6635806787122595E9, 0.0, 2022-09-19 14:44:38.712
120.0, 12064.465828474264, 9790.421699335779, 7261.657090384614, 8730.68079122076, 34219.447877341256, 187500.0, 18311.174906632295, 20568.768151851673, 0.748, -0.62, 0.34600000000000003, 192.0, 0.0, 0.0, 0.0, 0.0, 0.0, 0.0, 0.0, 0.0, 0.0, 1.6635806787162786E9, 0.0, 2022-09-19 14:44:38.716
121.0, 11984.625397279906, 9741.31491676747, 7232.7562848039015, 8686.357281965886, 34164.61904819239, 187500.0, 18195.07994593143, 20563.22491922676, 0.748, -0.62, 0.34600000000000003, 192.0, 0.0, 0.0, 0.0, 0.0, 0.0, 0.0, 0.0, 0.0, 0.0, 1.6635806787194307E9, 0.0, 2022-09-19 14:44:38.719
122.0, 11787.95239781766, 9629.869118913308, 7234.902052271611, 8611.858917696347, 34035.85064838536, 187500.0, 18023.642065959226, 20524.668160041354, 0.748, -0.62, 0.34600000000000003, 192.0, 0.0, 0.0, 0.0, 0.0, 0.0, 0.0, 0.0, 0.0, 0.0, 1.6635806787232819E9, 0.0, 2022-09-19 14:44:38.723
123.0, 11764.818342306417, 9620.123758330794, 7256.918520560089, 8612.954153174658, 34022.730174390104, 187500.0, 18039.46710103358, 20515.86157272596, 0.748, -0.62, 0.34600000000000003, 192.0, 0.0, 0.0, 0.0, 0.0, 0.0, 0.0, 0.0, 0.0, 0.0, 1.6635806787272708E9, 0.0, 2022-09-19 14:44:38.727
124.0, 11826.777377936529, 9656.579453537399, 7264.562817163804, 8644.492464601095, 34067.09838713388, 187500.0, 18123.219087507616, 20525.852802497484, 0.748, -0.62, 0.34600000000000003, 192.0, 0.0, 0.0, 0.0, 0.0, 0.0, 0.0, 0.0, 0.0, 0.0, 1.663580678731215E9, 0.0, 2022-09-19 14:44:38.731
125.0, 12012.073339471024, 9764.448972278711, 7260.718317117491, 8717.314448036486, 34191.30703107203, 187500.0, 18297.026252392086, 20560.92268954786, 0.748, -0.62, 0.34600000000000003, 192.0, 0.0, 0.0, 0.0, 0.0, 0.0, 0.0, 0.0, 0.0, 0.0, 1.6635806787352638E9, 0.0, 2022-09-19 14:44:38.735
126.0, 11951.231891063679, 9730.094341050904, 7231.035200480843, 8682.95981680868, 34150.20217301872, 187500.0, 18200.55612332298, 20557.435817412832, 0.752, -0.618, 0.342, 192.0, 23.0, 128.0, 236.0, 176.0, 10.0, 176.0, 0.0, 0.0, 0.0, 1.663580678740308E9, 0.0, 2022-09-19 14:44:38.740
127.0, 11753.62011833431, 9619.252040297037, 7229.180005691052, 8607.075644382912, 34019.62328191081, 187500.0, 18021.496298491515, 20520.600142550487, 0.752, -0.618, 0.342, 192.0, 0.0, 0.0, 0.0, 0.0, 0.0, 0.0, 0.0, 0.0, 0.0, 1.6635806787442803E9, 0.0, 2022-09-19 14:44:38.744
128.0, 11727.692094766153, 9604.164612789704, 7246.457904155005, 8604.527545515008, 33999.998450279054, 187500.0, 18029.744092195524, 20508.77606973363, 0.752, -0.618, 0.342, 192.0, 0.0, 0.0, 0.0, 0.0, 0.0, 0.0, 0.0, 0.0, 0.0, 1.6635806787472768E9, 0.0, 2022-09-19 14:44:38.747
129.0, 11792.601560664363, 9644.844787698363, 7260.874779328678, 8639.820950009936, 34044.679587445215, 187500.0, 18117.608799649333, 20523.327055374033, 0.752, -0.618, 0.342, 192.0, 0.0, 0.0, 0.0, 0.0, 0.0, 0.0, 0.0, 0.0, 0.0, 1.6635806787513275E9, 0.0, 2022-09-19 14:44:38.751
130.0, 11989.60983629344, 9762.638480977832, 7264.763982863901, 8719.862546904391, 34178.87946115487, 187500.0, 18302.725947228188, 20566.30945996159, 0.752, -0.618, 0.342, 192.0, 0.0, 0.0, 0.0, 0.0, 0.0, 0.0, 0.0, 0.0, 0.0, 1.663580678755323E9, 0.0, 2022-09-19 14:44:38.755
131.0, 11945.062809594014, 9734.967021342161, 7231.661049325592, 8686.781965110536, 34148.056405551004, 187500.0, 18218.32576016495, 20565.236576227737, 0.752, -0.618, 0.342, 192.0, 0.0, 0.0, 0.0, 0.0, 0.0, 0.0, 0.0, 0.0, 0.0, 1.6635806787592788E9, 0.0, 2022-09-19 14:44:38.759
132.0, 11739.493815838554, 9615.921630373196, 7223.793235277323, 8601.912391413736, 34009.11796201682, 187500.0, 18027.106586349797, 20523.12588967394, 0.752, -0.618, 0.342, 192.0, 0.0, 0.0, 0.0, 0.0, 0.0, 0.0, 0.0, 0.0, 0.0, 1.663580678763326E9, 0.0, 2022-09-19 14:44:38.763
133.0, 11708.648408490231, 9600.275409254482, 7242.3228314307735, 8598.157298345244, 33989.58253736288, 187500.0, 18032.33689455234, 20509.4913255562, 0.752, -0.618, 0.342, 192.0, 0.0, 0.0, 0.0, 0.0, 0.0, 0.0, 0.0, 0.0, 0.0, 1.6635806787683897E9, 0.0, 2022-09-19 14:44:38.768
134.0, 11767.500551641055, 9637.33460156138, 7254.839808325745, 8626.387551592297, 34030.285064015996, 187500.0, 18110.43388967918, 20519.21433439426, 0.752, -0.618, 0.342, 192.0, 0.0, 0.0, 0.0, 0.0, 0.0, 0.0, 0.0, 0.0, 0.0, 1.6635806787723982E9, 0.0, 2022-09-19 14:44:38.772
135.0, 11964.709992970229, 9754.994184374116, 7266.060384042309, 8703.277552518553, 34162.20505979122, 187500.0, 18298.05443263703, 20559.335715691534, 0.752, -0.618, 0.342, 192.0, 0.0, 0.0, 0.0, 0.0, 0.0, 0.0, 0.0, 0.0, 0.0, 1.6635806787753844E9, 0.0, 2022-09-19 14:44:38.775
136.0, 11949.689620696261, 9744.6006232024, 7233.136264459642, 8680.411717940775, 34150.51509744109, 187500.0, 18238.911716808285, 20564.58837563853, 0.75, -0.618, 0.34, 192.0, 23.0, 112.0, 236.0, 176.0, 10.0, 160.0, 0.0, 0.0, 0.0, 1.6635806787803576E9, 0.0, 2022-09-19 14:44:38.780
137.0, 11747.674554309197, 9627.410427023224, 7225.6484300671145, 8592.971693631613, 34014.79530510847, 187500.0, 18044.652705747212, 20526.925686231338, 0.75, -0.618, 0.34, 192.0, 0.0, 0.0, 0.0, 0.0, 0.0, 0.0, 0.0, 0.0, 0.0, 1.66358067878434E9, 0.0, 2022-09-19 14:44:38.784
138.0, 11710.79417595794, 9609.149051803239, 7247.396677422128, 8584.500382483051, 33992.35415367534, 187500.0, 18045.926755181164, 20514.565171547554, 0.75, -0.618, 0.34, 192.0, 0.0, 0.0, 0.0, 0.0, 0.0, 0.0, 0.0, 0.0, 0.0, 1.6635806787894416E9, 0.0, 2022-09-19 14:44:38.789
139.0, 11767.813476063428, 9646.699982488153, 7258.371383949684, 8613.021208408023, 34031.62616868331, 187500.0, 18119.575753161404, 20523.371758862944, 0.75, -0.618, 0.34, 192.0, 0.0, 0.0, 0.0, 0.0, 0.0, 0.0, 0.0, 0.0, 0.0, 1.663580678792356E9, 0.0, 2022-09-19 14:44:38.792
140.0, 11965.492304026164, 9762.616129233376, 7264.428706697072, 8694.515668692073, 34164.507289470115, 187500.0, 18307.375110074892, 20561.5038349037, 0.75, -0.618, 0.34, 192.0, 0.0, 0.0, 0.0, 0.0, 0.0, 0.0, 0.0, 0.0, 0.0, 1.663580678795358E9, 0.0, 2022-09-19 14:44:38.795
141.0, 11967.660423238329, 9762.012632133083, 7239.037124995843, 8684.926770320746, 34163.76968190309, 187500.0, 18263.677449664767, 20571.673878630863, 0.75, -0.618, 0.34, 192.0, 0.0, 0.0, 0.0, 0.0, 0.0, 0.0, 0.0, 0.0, 0.0, 1.6635806788003457E9, 0.0, 2022-09-19 14:44:38.800
142.0, 11756.145865457758, 9639.413313795723, 7228.129473701653, 8592.301141297954, 34021.56788367843, 187500.0, 18058.95782219861, 20531.73131128923, 0.75, -0.618, 0.34, 192.0, 0.0, 0.0, 0.0, 0.0, 0.0, 0.0, 0.0, 0.0, 0.0, 1.6635806788034656E9, 0.0, 2022-09-19 14:44:38.803
143.0, 11712.381149814266, 9616.368665262302, 7250.324755945773, 8579.27007428051, 33991.92947053069, 187500.0, 18052.520519795482, 20516.35331110398, 0.75, -0.618, 0.34, 192.0, 0.0, 0.0, 0.0, 0.0, 0.0, 0.0, 0.0, 0.0, 0.0, 1.663580678807358E9, 0.0, 2022-09-19 14:44:38.807
144.0, 11761.622042849309, 9649.561005778432, 7270.374270722184, 8606.740368216082, 34028.20635178165, 187500.0, 18121.4756514401, 20526.076319942036, 0.75, -0.618, 0.34, 192.0, 0.0, 0.0, 0.0, 0.0, 0.0, 0.0, 0.0, 0.0, 0.0, 1.6635806788113768E9, 0.0, 2022-09-19 14:44:38.811
145.0, 11951.768332930606, 9760.4033065323, 7276.252779513929, 8681.484601674629, 34156.57242018848, 187500.0, 18302.033043150073, 20559.44747441381, 0.75, -0.618, 0.34, 192.0, 0.0, 0.0, 0.0, 0.0, 0.0, 0.0, 0.0, 0.0, 0.0, 1.663580678815454E9, 0.0, 2022-09-19 14:44:38.815
146.0, 11971.817847707016, 9771.690937482232, 7249.408334423106, 8676.410755683275, 34167.12244357138, 187500.0, 18275.546225970535, 20574.534901921143, 0.746, -0.624, 0.336, 192.0, 23.0, 80.0, 236.0, 128.0, 10.0, 128.0, 0.0, 0.0, 0.0, 1.6635806788195388E9, 0.0, 2022-09-19 14:44:38.819
147.0, 11763.097257983358, 9649.985688923083, 7232.666877826081, 8586.087356339378, 34025.233569769094, 187500.0, 18064.18813040115, 20536.06754971356, 0.746, -0.624, 0.336, 192.0, 0.0, 0.0, 0.0, 0.0, 0.0, 0.0, 0.0, 0.0, 0.0, 1.6635806788244488E9, 0.0, 2022-09-19 14:44:38.824
148.0, 11714.303399837423, 9625.19760432215, 7253.275186213874, 8576.721975412605, 33992.667078097715, 187500.0, 18051.04530466143, 20522.075357684538, 0.746, -0.624, 0.336, 192.0, 0.0, 0.0, 0.0, 0.0, 0.0, 0.0, 0.0, 0.0, 0.0, 1.6635806788284662E9, 0.0, 2022-09-19 14:44:38.828
149.0, 11762.449057394155, 9656.378287837302, 7266.529770675871, 8605.399263548763, 34025.63590116929, 187500.0, 18115.775956604, 20532.647732811896, 0.746, -0.624, 0.336, 192.0, 0.0, 0.0, 0.0, 0.0, 0.0, 0.0, 0.0, 0.0, 0.0, 1.6635806788314474E9, 0.0, 2022-09-19 14:44:38.831
150.0, 11952.640050964363, 9767.444106035722, 7269.882532344167, 8683.518610420062, 34152.6608649088, 187500.0, 18297.89797042584, 20568.209358240292, 0.746, -0.624, 0.336, 192.0, 0.0, 0.0, 0.0, 0.0, 0.0, 0.0, 0.0, 0.0, 0.0, 1.663580678835536E9, 0.0, 2022-09-19 14:44:38.835
151.0, 11994.035481695591, 9790.712272013698, 7234.745590060425, 8688.637159900327, 34177.31483904301, 187500.0, 18288.845513921442, 20586.247216015723, 0.746, -0.624, 0.336, 192.0, 0.0, 0.0, 0.0, 0.0, 0.0, 0.0, 0.0, 0.0, 0.0, 1.6635806788394983E9, 0.0, 2022-09-19 14:44:38.839
152.0, 11789.964054818638, 9673.00798571205, 7214.76313051738, 8599.453699523652, 34040.56686646544, 187500.0, 18076.459238107116, 20551.713770832273, 0.746, -0.624, 0.336, 192.0, 0.0, 0.0, 0.0, 0.0, 0.0, 0.0, 0.0, 0.0, 0.0, 1.6635806788434963E9, 0.0, 2022-09-19 14:44:38.843
153.0, 11735.51520532551, 9643.48133128659, 7235.505549371905, 8587.495516240062, 34006.81573233792, 187500.0, 18057.661421020202, 20536.335770647023, 0.746, -0.624, 0.336, 192.0, 0.0, 0.0, 0.0, 0.0, 0.0, 0.0, 0.0, 0.0, 0.0, 1.6635806788474777E9, 0.0, 2022-09-19 14:44:38.847
154.0, 11777.312967456934, 9671.219846155625, 7253.230482724963, 8615.457548553652, 34036.36473850784, 187500.0, 18117.988779305077, 20543.89066027292, 0.746, -0.624, 0.336, 192.0, 0.0, 0.0, 0.0, 0.0, 0.0, 0.0, 0.0, 0.0, 0.0, 1.6635806788514707E9, 0.0, 2022-09-19 14:44:38.851
155.0, 11963.972385403204, 9783.045623665526, 7261.210055495508, 8696.48262220414, 34162.80855689151, 187500.0, 18301.250732094137, 20583.028564814158, 0.746, -0.624, 0.336, 192.0, 0.0, 0.0, 0.0, 0.0, 0.0, 0.0, 0.0, 0.0, 0.0, 1.6635806788554935E9, 0.0, 2022-09-19 14:44:38.855
156.0, 12020.1870227083, 9816.12620545938, 7228.956488246499, 8708.48550897664, 34200.73946723217, 187500.0, 18311.979569432686, 20605.35795752501, 0.76, -0.62, 0.338, 192.0, 23.0, 192.0, 236.0, 160.0, 10.0, 144.0, 0.0, 0.0, 0.0, 1.6635806788585324E9, 0.0, 2022-09-19 14:44:38.858
157.0, 11816.00383710907, 9700.165355225248, 7206.4035780910945, 8618.51973754403, 34063.23153534312, 187500.0, 18095.748793572046, 20566.376515194956, 0.76, -0.62, 0.338, 192.0, 0.0, 0.0, 0.0, 0.0, 0.0, 0.0, 0.0, 0.0, 0.0, 1.6635806788645852E9, 0.0, 2022-09-19 14:44:38.864
158.0, 11751.451999122144, 9666.324814119913, 7225.894299256122, 8596.83854542238, 34021.52318018951, 187500.0, 18062.869377478288, 20547.466939385766, 0.76, -0.62, 0.338, 192.0, 0.0, 0.0, 0.0, 0.0, 0.0, 0.0, 0.0, 0.0, 0.0, 1.6635806788675537E9, 0.0, 2022-09-19 14:44:38.867
159.0, 11790.500496685565, 9693.01279699955, 7242.747514575424, 8617.625667765817, 34051.1392415928, 187500.0, 18118.68168338319, 20557.368762179467, 0.76, -0.62, 0.338, 192.0, 0.0, 0.0, 0.0, 0.0, 0.0, 0.0, 0.0, 0.0, 0.0, 1.663580678871554E9, 0.0, 2022-09-19 14:44:38.871
160.0, 11970.32028082851, 9795.27202788258, 7252.090543757742, 8692.772232624558, 34173.04565585204, 187500.0, 18295.95336865823, 20589.89055036194, 0.76, -0.62, 0.338, 192.0, 0.0, 0.0, 0.0, 0.0, 0.0, 0.0, 0.0, 0.0, 0.0, 1.66358067887556E9, 0.0, 2022-09-19 14:44:38.875
161.0, 12046.00328755418, 9834.253470212636, 7223.212089921486, 8711.882974133847, 34222.84534249846, 187500.0, 18326.955238217743, 20610.565913983097, 0.76, -0.62, 0.338, 192.0, 0.0, 0.0, 0.0, 0.0, 0.0, 0.0, 0.0, 0.0, 0.0, 1.6635806788795793E9, 0.0, 2022-09-19 14:44:38.879
162.0, 11851.587814281918, 9723.791149114508, 7206.448281580006, 8629.293278371488, 34094.7474950251, 187500.0, 18117.921724071708, 20581.46394270229, 0.76, -0.62, 0.338, 192.0, 0.0, 0.0, 0.0, 0.0, 0.0, 0.0, 0.0, 0.0, 0.0, 1.6635806788825755E9, 0.0, 2022-09-19 14:44:38.882
163.0, 11779.503438413554, 9686.35197715187, 7233.71740981548, 8611.009551407045, 34049.32875029192, 187500.0, 18075.587520073357, 20561.146206992413, 0.76, -0.62, 0.338, 192.0, 0.0, 0.0, 0.0, 0.0, 0.0, 0.0, 0.0, 0.0, 0.0, 1.66358067888657E9, 0.0, 2022-09-19 14:44:38.886
164.0, 11811.399377751277, 9709.955419296673, 7250.7717908348795, 8633.450702840175, 34073.759206981566, 187500.0, 18131.44452946717, 20566.3541634505, 0.76, -0.62, 0.338, 192.0, 0.0, 0.0, 0.0, 0.0, 0.0, 0.0, 0.0, 0.0, 0.0, 1.6635806788915536E9, 0.0, 2022-09-19 14:44:38.891
165.0, 11983.50781005714, 9811.387635634856, 7259.176046750074, 8703.72458740766, 34189.65300198233, 187500.0, 18302.86005769492, 20596.730184165262, 0.76, -0.62, 0.338, 192.0, 0.0, 0.0, 0.0, 0.0, 0.0, 0.0, 0.0, 0.0, 0.0, 1.6635806788955908E9, 0.0, 2022-09-19 14:44:38.895
166.0, 12081.721375193762, 9865.992947339171, 7233.315078415285, 8727.931526652757, 34252.6849213463, 187500.0, 18352.4809303857, 20624.6698647344, 0.754, -0.618, 0.338, 192.0, 23.0, 144.0, 236.0, 176.0, 10.0, 144.0, 0.0, 0.0, 0.0, 1.6635806788996353E9, 0.0, 2022-09-19 14:44:38.899
167.0, 11886.836515287938, 9752.759009928586, 7217.266525896374, 8639.820950009936, 34124.31885293947, 187500.0, 18139.289991770984, 20592.237483529745, 0.754, -0.618, 0.338, 192.0, 0.0, 0.0, 0.0, 0.0, 0.0, 0.0, 0.0, 0.0, 0.0, 1.6635806789036047E9, 0.0, 2022-09-19 14:44:38.903
168.0, 11799.441194467689, 9705.909753550262, 7234.007982493399, 8610.22724035111, 34070.406445313274, 187500.0, 18080.661366064713, 20567.337640206533, 0.754, -0.618, 0.338, 192.0, 0.0, 0.0, 0.0, 0.0, 0.0, 0.0, 0.0, 0.0, 0.0, 1.6635806789076102E9, 0.0, 2022-09-19 14:44:38.907
