%OpenBCI Raw EEG Data
%Number of channels = 8
%Sample Rate = 250 Hz
%Board = OpenBCI_GUI$BoardCytonSerial
Sample Index, EXG Channel 0, EXG Channel 1, EXG Channel 2, EXG Channel 3, EXG Channel 4, EXG Channel 5, EXG Channel 6, EXG Channel 7, Accel Channel 0, Accel Channel 1, Accel Channel 2, Other, Other, Other, Other, Other, Other, Other, Analog Channel 0, Analog Channel 1, Analog Channel 2, Timestamp, Other, Timestamp (Formatted)
33.0, -43628.906444180786, -23069.86130116717, -36107.544434969954, -54186.35060624488, -50456.13502933205, -187500.02235174447, -41475.51703161204, -34702.245557575894, 0.652, -0.666, 0.424, 192.0, 20.0, 96.0, 235.0, 48.0, 13.0, 64.0, 0.0, 0.0, 0.0, 1.6634988396137173E9, 0.0, 2022-09-18 16:00:39.613
34.0, -44831.16207494284, -25947.111957921024, -34951.28869429692, -53013.375760719275, -50256.69041355734, -187500.02235174447, -40661.935885183324, -33633.22867551192, 0.652, -0.666, 0.424, 192.0, 0.0, 0.0, 0.0, 0.0, 0.0, 0.0, 0.0, 0.0, 0.0, 1.6634988396137407E9, 0.0, 2022-09-18 16:00:39.613
35.0, -44230.74951538438, -29753.770500871004, -33725.22845568996, -51809.399045634156, -53632.8096548092, -187500.02235174447, -39634.4038408284, -32481.644449430045, 0.652, -0.666, 0.424, 192.0, 0.0, 0.0, 0.0, 0.0, 0.0, 0.0, 0.0, 0.0, 0.0, 1.6634988396137545E9, 0.0, 2022-09-18 16:00:39.613
0.0, 0.0, 0.0, 0.0, 0.0, 0.0, 0.0, 0.0, 0.0, 0.648, -0.672, 0.42, 192.0, 20.0, 64.0, 235.0, 0.0, 13.0, 32.0, 0.0, 0.0, 0.0, 1.6634988397191923E9, 0.0, 2022-09-18 16:00:39.719
1.0, -51585.345159214165, -20885.626481250107, -35781.9465734895, -51831.81784532283, -48888.42837672572, -187500.02235174447, -36742.401032734044, -30923.102012050393, 0.648, -0.672, 0.42, 192.0, 0.0, 0.0, 0.0, 0.0, 0.0, 0.0, 0.0, 0.0, 0.0, 1.6634988397361207E9, 0.0, 2022-09-18 16:00:39.736
2.0, -51725.82587311577, -22383.752153367062, -35152.163821716764, -51221.525814715125, -49360.51957136626, -187500.02235174447, -36223.01354682607, -30366.00713324632, 0.648, -0.672, 0.42, 192.0, 0.0, 0.0, 0.0, 0.0, 0.0, 0.0, 0.0, 0.0, 0.0, 1.6634988397391555E9, 0.0, 2022-09-18 16:00:39.739
3.0, -51361.984176872276, -22357.55590886544, -35052.38563446828, -51129.48133104818, -49660.83760986777, -187500.02235174447, -36107.58913845887, -30253.2425824693, 0.648, -0.672, 0.42, 192.0, 0.0, 0.0, 0.0, 0.0, 0.0, 0.0, 0.0, 0.0, 0.0, 1.6634988397431784E9, 0.0, 2022-09-18 16:00:39.743
4.0, -51239.653079468386, -21700.168752690406, -35275.94778251026, -51345.44388597535, -49671.76761290641, -187500.02235174447, -36284.74906501163, -30447.88157318611, 0.648, -0.672, 0.42, 192.0, 0.0, 0.0, 0.0, 0.0, 0.0, 0.0, 0.0, 0.0, 0.0, 1.6634988397472143E9, 0.0, 2022-09-18 16:00:39.747
5.0, -51200.67163713833, -20775.767657252272, -35710.465694721424, -51771.69165273806, -49453.25695911133, -187500.02235174447, -36650.06597638917, -30840.020577910018, 0.648, -0.672, 0.42, 192.0, 0.0, 0.0, 0.0, 0.0, 0.0, 0.0, 0.0, 0.0, 0.0, 1.6634988397501857E9, 0.0, 2022-09-18 16:00:39.750
6.0, -51619.45392125296, -20954.000467538892, -35807.51696914637, -51866.48540097301, -48882.95219933417, -187500.02235174447, -36768.59727723566, -30942.816250659973, 0.648, -0.672, 0.42, 192.0, 0.0, 0.0, 0.0, 0.0, 0.0, 0.0, 0.0, 0.0, 0.0, 1.6634988397541528E9, 0.0, 2022-09-18 16:00:39.754
7.0, -51710.6043351417, -22431.786052201518, -35142.50786811207, -51218.55303270257, -49364.16290571248, -187500.02235174447, -36210.20599725318, -30348.170441170987, 0.648, -0.672, 0.42, 192.0, 0.0, 0.0, 0.0, 0.0, 0.0, 0.0, 0.0, 0.0, 0.0, 1.663498839758174E9, 0.0, 2022-09-18 16:00:39.758
8.0, -51322.53334790866, -22344.05545521444, -35039.131050006275, -51118.81954894299, -49635.33426944426, -187500.02235174447, -36088.1654725272, -30232.298997914673, 0.65, -0.678, 0.40800000000000003, 192.0, 20.0, 80.0, 234.0, 208.0, 12.0, 192.0, 0.0, 0.0, 0.0, 1.6634988397622533E9, 0.0, 2022-09-18 16:00:39.762
9.0, -51204.31497148454, -21672.810217477112, -35261.307389892034, -51331.92108057989, -49654.78028712038, -187500.02235174447, -36270.935686938254, -30423.49581998537, 0.65, -0.678, 0.40800000000000003, 192.0, 0.0, 0.0, 0.0, 0.0, 0.0, 0.0, 0.0, 0.0, 0.0, 1.663498839766206E9, 0.0, 2022-09-18 16:00:39.766
10.0, -51177.02349150461, -20724.828031638626, -35705.32479349671, -51765.38846080166, -49421.62924070707, -187500.02235174447, -36655.40804331399, -30823.659100968733, 0.65, -0.678, 0.40800000000000003, 192.0, 0.0, 0.0, 0.0, 0.0, 0.0, 0.0, 0.0, 0.0, 0.0, 1.663498839771228E9, 0.0, 2022-09-18 16:00:39.771
11.0, -51580.15955450053, -20932.94512426199, -35763.886363969614, -51824.709990586045, -48871.888085828796, -187500.02235174447, -36742.89277111206, -30895.542311137, 0.65, -0.678, 0.40800000000000003, 192.0, 0.0, 0.0, 0.0, 0.0, 0.0, 0.0, 0.0, 0.0, 0.0, 1.6634988397752106E9, 0.0, 2022-09-18 16:00:39.775
12.0, -51692.74529132191, -22429.95320915618, -35139.91506575526, -51216.56372744605, -49387.69929262392, -187500.02235174447, -36227.528599206045, -30340.727310267368, 0.65, -0.678, 0.40800000000000003, 192.0, 0.0, 0.0, 0.0, 0.0, 0.0, 0.0, 0.0, 0.0, 0.0, 1.663498839778198E9, 0.0, 2022-09-18 16:00:39.778
13.0, -51322.44394093084, -22324.184754393667, -35062.10864330633, -51138.57849104148, -49665.285607014375, -187500.02235174447, -36137.87575219581, -30247.364073677552, 0.65, -0.678, 0.40800000000000003, 192.0, 0.0, 0.0, 0.0, 0.0, 0.0, 0.0, 0.0, 0.0, 0.0, 1.6634988397821913E9, 0.0, 2022-09-18 16:00:39.782
14.0, -51203.68912263979, -21639.506118238703, -35284.70966633674, -51347.63435693197, -49687.01150262493, -187500.02235174447, -36319.79660031755, -30435.677520713514, 0.65, -0.678, 0.40800000000000003, 192.0, 0.0, 0.0, 0.0, 0.0, 0.0, 0.0, 0.0, 0.0, 0.0, 1.6634988397862093E9, 0.0, 2022-09-18 16:00:39.786
15.0, -51178.14107872738, -20706.566656418643, -35726.71541294044, -51775.91613244011, -49429.3182407997, -187500.02235174447, -36694.14361645503, -30829.78347894949, 0.65, -0.678, 0.40800000000000003, 192.0, 0.0, 0.0, 0.0, 0.0, 0.0, 0.0, 0.0, 0.0, 0.0, 1.6634988397903163E9, 0.0, 2022-09-18 16:00:39.790
16.0, -51606.5793164467, -20971.77010438086, -35788.40622763708, -51832.890729056686, -48890.57414419343, -187500.02235174447, -36779.14730061857, -30901.4431716732, 0.65, -0.678, 0.40800000000000003, 192.0, 0.0, 0.0, 0.0, 0.0, 0.0, 0.0, 0.0, 0.0, 0.0, 1.6634988397942147E9, 0.0, 2022-09-18 16:00:39.794
17.0, -51686.710320318976, -22441.643171506308, -35140.160934944266, -51203.46560519524, -49413.62731619207, -187500.02235174447, -36236.24577954361, -30323.985853670343, 0.65, -0.678, 0.40800000000000003, 192.0, 0.0, 0.0, 0.0, 0.0, 0.0, 0.0, 0.0, 0.0, 0.0, 1.663498839799219E9, 0.0, 2022-09-18 16:00:39.799
18.0, -51317.12422575048, -22305.141068117748, -35077.19607081367, -51140.81366548702, -49665.95615934803, -187500.02235174447, -36158.12643267232, -30244.279532942717, 0.65, -0.68, 0.40800000000000003, 192.0, 20.0, 80.0, 234.0, 192.0, 12.0, 192.0, 0.0, 0.0, 0.0, 1.663498839803288E9, 0.0, 2022-09-18 16:00:39.803
19.0, -51201.72216912773, -21636.13100482595, -35301.69699212277, -51347.097915065046, -49677.02027285341, -187500.02235174447, -36336.69451912576, -30426.69211944248, 0.65, -0.68, 0.40800000000000003, 192.0, 0.0, 0.0, 0.0, 0.0, 0.0, 0.0, 0.0, 0.0, 0.0, 1.663498839806237E9, 0.0, 2022-09-18 16:00:39.806
20.0, -51174.78831705908, -20700.509333671253, -35742.04870963677, -51772.65277774964, -49407.48058646686, -187500.02235174447, -36707.88993929505, -30815.679528198187, 0.65, -0.68, 0.40800000000000003, 192.0, 0.0, 0.0, 0.0, 0.0, 0.0, 0.0, 0.0, 0.0, 0.0, 1.6634988398102565E9, 0.0, 2022-09-18 16:00:39.810
21.0, -51588.31794122672, -20995.26178780339, -35763.77460524733, -51800.90538274114, -48887.601362180874, -187500.02235174447, -36766.809137679236, -30858.863098485843, 0.65, -0.68, 0.40800000000000003, 192.0, 0.0, 0.0, 0.0, 0.0, 0.0, 0.0, 0.0, 0.0, 0.0, 1.6634988398142855E9, 0.0, 2022-09-18 16:00:39.814
22.0, -51657.071907171245, -22447.320514597955, -35134.90827499727, -51194.01081729065, -49432.894519912545, -187500.02235174447, -36250.28267506155, -30304.204559827398, 0.65, -0.68, 0.40800000000000003, 192.0, 0.0, 0.0, 0.0, 0.0, 0.0, 0.0, 0.0, 0.0, 0.0, 1.6634988398183007E9, 0.0, 2022-09-18 16:00:39.818
23.0, -51283.86483000098, -22278.251919538012, -35070.98228585509, -51134.0187351726, -49668.30309251584, -187500.02235174447, -36172.83388052391, -30225.74993678927, 0.65, -0.68, 0.40800000000000003, 192.0, 0.0, 0.0, 0.0, 0.0, 0.0, 0.0, 0.0, 0.0, 0.0, 1.663498839822282E9, 0.0, 2022-09-18 16:00:39.822
24.0, -51171.65907283534, -21605.866742833467, -35289.44823616126, -51345.24272027525, -49692.9794183945, -187500.02235174447, -36334.973434802705, -30416.45502048195, 0.65, -0.68, 0.40800000000000003, 192.0, 0.0, 0.0, 0.0, 0.0, 0.0, 0.0, 0.0, 0.0, 0.0, 1.6634988398274372E9, 0.0, 2022-09-18 16:00:39.827
25.0, -51163.90301750935, -20672.837874035584, -35736.63958747859, -51780.878219709186, -49406.340647499645, -187500.02235174447, -36713.72374459788, -30818.607606721835, 0.65, -0.68, 0.40800000000000003, 192.0, 0.0, 0.0, 0.0, 0.0, 0.0, 0.0, 0.0, 0.0, 0.0, 1.663498839831358E9, 0.0, 2022-09-18 16:00:39.831
26.0, -51587.80385110425, -21022.083881149756, -35742.428689292516, -51790.69063552507, -48901.48179548762, -187500.02235174447, -36749.821811893205, -30847.933095447195, 0.65, -0.68, 0.40800000000000003, 192.0, 0.0, 0.0, 0.0, 0.0, 0.0, 0.0, 0.0, 0.0, 0.0, 1.6634988398343909E9, 0.0, 2022-09-18 16:00:39.834
27.0, -51633.289651070794, -22460.440988593222, -35109.9860799296, -51185.114822997435, -49462.264712126824, -187500.02235174447, -36219.772543880055, -30290.972327109856, 0.65, -0.68, 0.40800000000000003, 192.0, 0.0, 0.0, 0.0, 0.0, 0.0, 0.0, 0.0, 0.0, 0.0, 1.6634988398384888E9, 0.0, 2022-09-18 16:00:39.838
28.0, -51269.67147227186, -22249.462872679578, -35061.48279446158, -51139.42785733079, -49679.41190951013, -187500.02235174447, -36149.11867965683, -30217.993881463277, 0.644, -0.678, 0.41000000000000003, 192.0, 20.0, 32.0, 234.0, 208.0, 12.0, 208.0, 0.0, 0.0, 0.0, 1.663498839842435E9, 0.0, 2022-09-18 16:00:39.842
29.0, -51177.15760197135, -21593.17095198285, -35301.13819851139, -51368.04149961966, -49707.19512786807, -187500.02235174447, -36358.93450485879, -30424.144020574575, 0.644, -0.678, 0.41000000000000003, 192.0, 0.0, 0.0, 0.0, 0.0, 0.0, 0.0, 0.0, 0.0, 0.0, 1.663498839846394E9, 0.0, 2022-09-18 16:00:39.846
30.0, -51171.63672109089, -20677.107057226545, -35739.32179681323, -51796.5244408279, -49397.332894484156, -187500.02235174447, -36728.9676343164, -30818.42879276619, 0.644, -0.678, 0.41000000000000003, 192.0, 0.0, 0.0, 0.0, 0.0, 0.0, 0.0, 0.0, 0.0, 0.0, 1.6634988398504643E9, 0.0, 2022-09-18 16:00:39.850
31.0, -51592.78829011778, -21067.88260553868, -35715.226616290405, -51778.30776909683, -48902.06294084346, -187500.02235174447, -36735.18141927498, -30818.585254977377, 0.644, -0.678, 0.41000000000000003, 192.0, 0.0, 0.0, 0.0, 0.0, 0.0, 0.0, 0.0, 0.0, 0.0, 1.663498839855412E9, 0.0, 2022-09-18 16:00:39.855
32.0, -51622.00202012087, -22478.970584746672, -35096.865605934334, -51182.589075873984, -49471.4736308424, -187500.02235174447, -36221.13600029183, -30272.666248400958, 0.644, -0.678, 0.41000000000000003, 192.0, 0.0, 0.0, 0.0, 0.0, 0.0, 0.0, 0.0, 0.0, 0.0, 1.6634988398593726E9, 0.0, 2022-09-18 16:00:39.859
33.0, -51277.09225143102, -22256.01193380498, -35071.87635563331, -51160.48320060768, -49690.856002671244, -187500.02235174447, -36175.69490381419, -30231.31552115864, 0.644, -0.678, 0.41000000000000003, 192.0, 0.0, 0.0, 0.0, 0.0, 0.0, 0.0, 0.0, 0.0, 0.0, 1.663498839862393E9, 0.0, 2022-09-18 16:00:39.862
34.0, -51163.232465175686, -21573.859044773468, -35289.068256505525, -51365.29223505166, -49727.5352153224, -187500.02235174447, -36348.831516365, -30413.571645447213, 0.644, -0.678, 0.41000000000000003, 192.0, 0.0, 0.0, 0.0, 0.0, 0.0, 0.0, 0.0, 0.0, 0.0, 1.6634988398663993E9, 0.0, 2022-09-18 16:00:39.866
35.0, -51156.81751451702, -20634.996370672747, -35731.00694787585, -51795.25039139395, -49398.60694391811, -187500.02235174447, -36726.397183704044, -30805.867112382308, 0.644, -0.678, 0.41000000000000003, 192.0, 0.0, 0.0, 0.0, 0.0, 0.0, 0.0, 0.0, 0.0, 0.0, 1.663498839870402E9, 0.0, 2022-09-18 16:00:39.870
36.0, -51557.13725771156, -21041.35108487023, -35676.75926408282, -51750.36808852769, -48917.48564451762, -187500.02235174447, -36717.43413417746, -30782.867167337798, 0.644, -0.678, 0.41000000000000003, 192.0, 0.0, 0.0, 0.0, 0.0, 0.0, 0.0, 0.0, 0.0, 0.0, 1.6634988398744643E9, 0.0, 2022-09-18 16:00:39.874
37.0, -51585.81454584772, -22445.934706441727, -35074.33504752339, -51171.681424579794, -49502.56490737974, -187500.02235174447, -36213.826979854945, -30252.683788857914, 0.644, -0.678, 0.41000000000000003, 192.0, 0.0, 0.0, 0.0, 0.0, 0.0, 0.0, 0.0, 0.0, 0.0, 1.6634988398784375E9, 0.0, 2022-09-18 16:00:39.878
38.0, -51247.90087317239, -22215.35411064078, -35065.59551544136, -51162.0254709751, -49704.55762202235, -187500.02235174447, -36187.049589997485, -30222.285416398696, 0.644, -0.672, 0.41400000000000003, 192.0, 20.0, 32.0, 235.0, 0.0, 12.0, 240.0, 0.0, 0.0, 0.0, 1.66349883988346E9, 0.0, 2022-09-18 16:00:39.883
39.0, -51163.74655529816, -21567.30998364806, -35317.34321324149, -51395.35533134405, -49733.100799691776, -187500.02235174447, -36405.090857159004, -30437.577418992212, 0.644, -0.672, 0.41400000000000003, 192.0, 0.0, 0.0, 0.0, 0.0, 0.0, 0.0, 0.0, 0.0, 0.0, 1.66349883988648E9, 0.0, 2022-09-18 16:00:39.886
40.0, -51163.18776168678, -20646.909850467426, -35742.36163405915, -51809.84608052327, -49385.86644957858, -187500.02235174447, -36769.75956794734, -30819.68049045569, 0.644, -0.672, 0.41400000000000003, 192.0, 0.0, 0.0, 0.0, 0.0, 0.0, 0.0, 0.0, 0.0, 0.0, 1.6634988398904727E9, 0.0, 2022-09-18 16:00:39.890
41.0, -51577.11971725461, -21098.79506812037, -35680.268487962305, -51751.08334435026, -48913.23881307111, -187500.02235174447, -36754.40391950654, -30783.13538827126, 0.644, -0.672, 0.41400000000000003, 192.0, 0.0, 0.0, 0.0, 0.0, 0.0, 0.0, 0.0, 0.0, 0.0, 1.663498839894434E9, 0.0, 2022-09-18 16:00:39.894
42.0, -51576.78444108778, -22466.72182878516, -35079.811224914934, -51164.73003205419, -49507.54934639327, -187500.02235174447, -36250.97557913966, -30244.36893992054, 0.644, -0.672, 0.41400000000000003, 192.0, 0.0, 0.0, 0.0, 0.0, 0.0, 0.0, 0.0, 0.0, 0.0, 1.6634988398984523E9, 0.0, 2022-09-18 16:00:39.898
43.0, -51241.15064634689, -22202.524209323434, -35074.42445450121, -51160.5279040966, -49695.21459284003, -187500.02235174447, -36207.70260187419, -30219.245579152775, 0.644, -0.672, 0.41400000000000003, 192.0, 0.0, 0.0, 0.0, 0.0, 0.0, 0.0, 0.0, 0.0, 0.0, 1.6634988399025056E9, 0.0, 2022-09-18 16:00:39.902
44.0, -51159.83500001848, -21562.146730678884, -35318.97489058672, -51392.29314235367, -49734.71012529256, -187500.02235174447, -36417.83135149853, -30433.64351196808, 0.644, -0.672, 0.41400000000000003, 192.0, 0.0, 0.0, 0.0, 0.0, 0.0, 0.0, 0.0, 0.0, 0.0, 1.6634988399064612E9, 0.0, 2022-09-18 16:00:39.906
45.0, -51162.00311923065, -20660.633821562984, -35743.45686953746, -51806.180394432595, -49381.06082452069, -187500.02235174447, -36776.733312217395, -30815.545417731457, 0.644, -0.672, 0.41400000000000003, 192.0, 0.0, 0.0, 0.0, 0.0, 0.0, 0.0, 0.0, 0.0, 0.0, 1.663498839911452E9, 0.0, 2022-09-18 16:00:39.911
46.0, -51564.89331303756, -21137.195365094587, -35652.44056611545, -51719.41092245709, -48915.094007860906, -187500.02235174447, -36722.57503540219, -30756.402701902713, 0.644, -0.672, 0.41400000000000003, 192.0, 0.0, 0.0, 0.0, 0.0, 0.0, 0.0, 0.0, 0.0, 0.0, 1.6634988399144893E9, 0.0, 2022-09-18 16:00:39.914
47.0, -51552.622205331594, -22471.706267798694, -35062.51097470653, -51141.55127305404, -49514.970125552434, -187500.02235174447, -36213.98344206613, -30226.46519261184, 0.644, -0.672, 0.41400000000000003, 192.0, 0.0, 0.0, 0.0, 0.0, 0.0, 0.0, 0.0, 0.0, 0.0, 1.6634988399174895E9, 0.0, 2022-09-18 16:00:39.917
48.0, -51220.676448425824, -22190.610729528755, -35071.585782955386, -51148.41325860182, -49681.46827000002, -187500.02235174447, -36186.423741152736, -30205.633366779493, 0.64, -0.686, 0.40800000000000003, 192.0, 20.0, 0.0, 234.0, 144.0, 12.0, 192.0, 0.0, 0.0, 0.0, 1.6634988399224448E9, 0.0, 2022-09-18 16:00:39.922
49.0, -51136.812703229516, -21533.491794287183, -35313.27519575062, -51377.31747356862, -49698.92498241961, -187500.02235174447, -36378.22406032372, -30409.615386678626, 0.64, -0.686, 0.40800000000000003, 192.0, 0.0, 0.0, 0.0, 0.0, 0.0, 0.0, 0.0, 0.0, 0.0, 1.663498839926461E9, 0.0, 2022-09-18 16:00:39.926
50.0, -51149.77671501359, -20614.522172751687, -35741.31110206975, -51793.663417537624, -49284.94832336287, -187500.02235174447, -36738.2212565209, -30793.841873865353, 0.64, -0.686, 0.40800000000000003, 192.0, 0.0, 0.0, 0.0, 0.0, 0.0, 0.0, 0.0, 0.0, 0.0, 1.6634988399305673E9, 0.0, 2022-09-18 16:00:39.930
51.0, -51565.31799618221, -21151.65694375717, -35648.84193525815, -51700.836622814735, -48847.14470471677, -187500.02235174447, -36684.21944191688, -30731.36874811277, 0.64, -0.686, 0.40800000000000003, 192.0, 0.0, 0.0, 0.0, 0.0, 0.0, 0.0, 0.0, 0.0, 0.0, 1.6634988399345064E9, 0.0, 2022-09-18 16:00:39.934
52.0, -51555.05854547722, -22485.11731447188, -35080.392370270776, -51149.50849408013, -49476.41336636703, -187500.02235174447, -36193.77746507853, -30221.36899487603, 0.64, -0.686, 0.40800000000000003, 192.0, 0.0, 0.0, 0.0, 0.0, 0.0, 0.0, 0.0, 0.0, 0.0, 1.663498839939547E9, 0.0, 2022-09-18 16:00:39.939
53.0, -51241.038887624614, -22192.644738274186, -35099.32429782442, -51168.99921524516, -49648.298281228344, -187500.02235174447, -36178.33240965992, -30214.12702967251, 0.64, -0.686, 0.40800000000000003, 192.0, 0.0, 0.0, 0.0, 0.0, 0.0, 0.0, 0.0, 0.0, 0.0, 1.6634988399425678E9, 0.0, 2022-09-18 16:00:39.942
54.0, -51137.79617998555, -21511.430622509793, -35311.50940793865, -51368.53323799768, -49684.239886312476, -187500.02235174447, -36340.02492904961, -30393.656241137534, 0.64, -0.686, 0.40800000000000003, 192.0, 0.0, 0.0, 0.0, 0.0, 0.0, 0.0, 0.0, 0.0, 0.0, 1.6634988399455357E9, 0.0, 2022-09-18 16:00:39.945
55.0, -51157.75628778414, -20607.280207548167, -35748.19543936198, -51796.70325478355, -49274.57711393561, -187500.02235174447, -36703.59840435963, -30787.38221971777, 0.64, -0.686, 0.40800000000000003, 192.0, 0.0, 0.0, 0.0, 0.0, 0.0, 0.0, 0.0, 0.0, 0.0, 1.663498839950612E9, 0.0, 2022-09-18 16:00:39.950
56.0, -51562.479324636384, -21186.81623778537, -35616.67777498696, -51674.483916101926, -48863.95321654716, -187500.02235174447, -36613.31970850464, -30693.54959649439, 0.64, -0.686, 0.40800000000000003, 192.0, 0.0, 0.0, 0.0, 0.0, 0.0, 0.0, 0.0, 0.0, 0.0, 1.6634988399545543E9, 0.0, 2022-09-18 16:00:39.954
57.0, -51527.63295503056, -22484.02207899357, -35048.36232046632, -51127.35791532492, -49518.63581164311, -187500.02235174447, -36121.71544095462, -30191.440009050373, 0.64, -0.686, 0.40800000000000003, 192.0, 0.0, 0.0, 0.0, 0.0, 0.0, 0.0, 0.0, 0.0, 0.0, 1.663498839958576E9, 0.0, 2022-09-18 16:00:39.958
58.0, -51207.265401752644, -22155.29497328937, -35085.80149242896, -51163.83596227598, -49676.886162386676, -187500.02235174447, -36123.928263655696, -30205.78982899068, 0.642, -0.684, 0.41200000000000003, 192.0, 20.0, 16.0, 234.0, 160.0, 12.0, 224.0, 0.0, 0.0, 0.0, 1.6634988399625275E9, 0.0, 2022-09-18 16:00:39.962
59.0, -51129.324868836986, -21497.21491303622, -35319.10900105345, -51386.41463356193, -49704.44586330007, -187500.02235174447, -36309.112466467916, -30408.117819800118, 0.642, -0.684, 0.41200000000000003, 192.0, 0.0, 0.0, 0.0, 0.0, 0.0, 0.0, 0.0, 0.0, 0.0, 1.6634988399666176E9, 0.0, 2022-09-18 16:00:39.966
60.0, -51172.62019784692, -20598.384213254954, -35753.91748594254, -51811.2318886795, -49278.891000615484, -187500.02235174447, -36672.44007258893, -30802.067315824905, 0.642, -0.684, 0.41200000000000003, 192.0, 0.0, 0.0, 0.0, 0.0, 0.0, 0.0, 0.0, 0.0, 0.0, 1.663498839970584E9, 0.0, 2022-09-18 16:00:39.970
61.0, -51587.13329877058, -21221.215572502086, -35618.33180407665, -51683.782241795336, -48875.39730970828, -187500.02235174447, -36572.6842370849, -30706.8488844453, 0.642, -0.684, 0.41200000000000003, 192.0, 0.0, 0.0, 0.0, 0.0, 0.0, 0.0, 0.0, 0.0, 0.0, 1.6634988399735777E9, 0.0, 2022-09-18 16:00:39.973
62.0, -51557.04785073374, -22519.3154834885, -35082.672248205214, -51164.73003205419, -49529.69992514848, -187500.02235174447, -36101.889443622764, -30230.488506613794, 0.642, -0.684, 0.41200000000000003, 192.0, 0.0, 0.0, 0.0, 0.0, 0.0, 0.0, 0.0, 0.0, 0.0, 1.6634988399776323E9, 0.0, 2022-09-18 16:00:39.977
63.0, -51231.315878786554, -22163.833339671295, -35106.92389093922, -51187.41705267633, -49670.06888032781, -187500.02235174447, -36087.69608589364, -30230.868486269534, 0.642, -0.684, 0.41200000000000003, 192.0, 0.0, 0.0, 0.0, 0.0, 0.0, 0.0, 0.0, 0.0, 0.0, 1.6634988399825497E9, 0.0, 2022-09-18 16:00:39.982
64.0, -51127.20145311373, -21462.346191685938, -35324.54047495609, -51389.63328476349, -49711.21844187003, -187500.02235174447, -36251.66848321778, -30415.382136748092, 0.642, -0.684, 0.41200000000000003, 192.0, 0.0, 0.0, 0.0, 0.0, 0.0, 0.0, 0.0, 0.0, 0.0, 1.6634988399866805E9, 0.0, 2022-09-18 16:00:39.986
65.0, -51178.94574152777, -20567.203529739803, -35760.46654706795, -51817.848005038264, -49261.478991684795, -187500.02235174447, -36600.26628974274, -30808.929301372686, 0.642, -0.684, 0.41200000000000003, 192.0, 0.0, 0.0, 0.0, 0.0, 0.0, 0.0, 0.0, 0.0, 0.0, 1.6634988399906068E9, 0.0, 2022-09-18 16:00:39.990
66.0, -51602.9806855894, -21250.943392627643, -35612.63210924055, -51681.21179118297, -48893.07753957243, -187500.02235174447, -36499.057590849116, -30706.200683856096, 0.642, -0.684, 0.41200000000000003, 192.0, 0.0, 0.0, 0.0, 0.0, 0.0, 0.0, 0.0, 0.0, 0.0, 1.6634988399946182E9, 0.0, 2022-09-18 16:00:39.994
67.0, -51529.80107424272, -22492.64985235332, -35058.018274071015, -51144.81462774451, -49533.83499787271, -187500.02235174447, -36014.27060535796, -30217.144515173975, 0.642, -0.684, 0.41200000000000003, 192.0, 0.0, 0.0, 0.0, 0.0, 0.0, 0.0, 0.0, 0.0, 0.0, 1.6634988399986367E9, 0.0, 2022-09-18 16:00:39.998
68.0, -51207.60067791947, -22123.734310118474, -35093.93752741069, -51177.64934034936, -49655.31672898731, -187500.02235174447, -36013.86827395776, -30228.298035657175, 0.652, -0.674, 0.42, 192.0, 20.0, 96.0, 234.0, 240.0, 13.0, 32.0, 0.0, 0.0, 0.0, 1.6634988400017393E9, 0.0, 2022-09-18 16:00:40.001
69.0, -51116.249098330634, -21467.129464999376, -35328.89906512488, -51394.86359296604, -49682.49645024496, -187500.02235174447, -36206.473255929144, -30425.552180475257, 0.652, -0.674, 0.42, 192.0, 0.0, 0.0, 0.0, 0.0, 0.0, 0.0, 0.0, 0.0, 0.0, 1.6634988400056555E9, 0.0, 2022-09-18 16:00:40.005
70.0, -51154.11295343792, -20592.461000974297, -35751.81642196375, -51802.53706008638, -49234.34397391605, -187500.02235174447, -36569.3314754166, -30803.25195828104, 0.652, -0.674, 0.42, 192.0, 0.0, 0.0, 0.0, 0.0, 0.0, 0.0, 0.0, 0.0, 0.0, 1.663498840010605E9, 0.0, 2022-09-18 16:00:40.010
71.0, -51559.79711530174, -21283.152256387744, -35573.36009423257, -51638.475255784426, -48878.39244346529, -187500.02235174447, -36439.1996191978, -30674.34944800728, 0.652, -0.674, 0.42, 192.0, 0.0, 0.0, 0.0, 0.0, 0.0, 0.0, 0.0, 0.0, 0.0, 1.663498840015758E9, 0.0, 2022-09-18 16:00:40.015
72.0, -51496.273457559764, -22502.73048910266, -35040.0698232734, -51125.01098215711, -49526.8389018582, -187500.02235174447, -35982.352314275784, -30203.845227223068, 0.652, -0.674, 0.42, 192.0, 0.0, 0.0, 0.0, 0.0, 0.0, 0.0, 0.0, 0.0, 0.0, 1.663498840018638E9, 0.0, 2022-09-18 16:00:40.018
73.0, -51196.223639991724, -22118.52635366039, -35094.3845622998, -51176.04001474858, -49646.93482481657, -187500.02235174447, -36008.61561401077, -30229.192105435384, 0.652, -0.674, 0.42, 192.0, 0.0, 0.0, 0.0, 0.0, 0.0, 0.0, 0.0, 0.0, 0.0, 1.6634988400226097E9, 0.0, 2022-09-18 16:00:40.022
74.0, -51111.93521165076, -21453.472549137183, -35325.85922787896, -51398.66338952343, -49677.31084553133, -187500.02235174447, -36202.94168030521, -30428.390852021083, 0.652, -0.674, 0.42, 192.0, 0.0, 0.0, 0.0, 0.0, 0.0, 0.0, 0.0, 0.0, 0.0, 1.6634988400266647E9, 0.0, 2022-09-18 16:00:40.026
75.0, -51147.47448533469, -20581.843922358028, -35741.75813695886, -51803.945219987065, -49205.4655200798, -187500.02235174447, -36563.74353930277, -30795.04886806594, 0.652, -0.674, 0.42, 192.0, 0.0, 0.0, 0.0, 0.0, 0.0, 0.0, 0.0, 0.0, 0.0, 1.6634988400307424E9, 0.0, 2022-09-18 16:00:40.030
76.0, -51555.88556002207, -21325.955847019657, -35566.14048077351, -51632.46263652595, -48886.77434763603, -187500.02235174447, -36446.39688091241, -30650.187212251094, 0.652, -0.674, 0.42, 192.0, 0.0, 0.0, 0.0, 0.0, 0.0, 0.0, 0.0, 0.0, 0.0, 1.6634988400347297E9, 0.0, 2022-09-18 16:00:40.034
77.0, -51451.63702388251, -22503.3116344585, -35024.42360215469, -51111.44347327274, -49544.65324218908, -187500.02235174447, -35975.0432938389, -30160.214622046307, 0.652, -0.674, 0.42, 192.0, 0.0, 0.0, 0.0, 0.0, 0.0, 0.0, 0.0, 0.0, 0.0, 1.6634988400377455E9, 0.0, 2022-09-18 16:00:40.037
78.0, -51162.181933186286, -22096.912216772107, -35091.25531807605, -51182.49966889616, -49645.68312712707, -187500.02235174447, -36007.00628840998, -30204.716945256823, 0.652, -0.674, 0.42, 192.0, 0.0, 0.0, 0.0, 0.0, 0.0, 0.0, 0.0, 0.0, 0.0, 1.663498840041679E9, 0.0, 2022-09-18 16:00:40.041
79.0, -51094.61260969789, -21446.878784522865, -35339.13616408541, -51422.17742469042, -49710.994924425475, -187500.02235174447, -36217.246796756604, -30422.199418806962, 0.64, -0.67, 0.42, 192.0, 20.0, 0.0, 235.0, 16.0, 13.0, 32.0, 0.0, 0.0, 0.0, 1.6634988400458364E9, 0.0, 2022-09-18 16:00:40.045
80.0, -51150.089639435966, -20590.225826528767, -35761.51707905735, -51833.091894756784, -49219.45771210882, -187500.02235174447, -36585.93882154689, -30801.486170469067, 0.64, -0.67, 0.42, 192.0, 0.0, 0.0, 0.0, 0.0, 0.0, 0.0, 0.0, 0.0, 0.0, 1.6634988400507188E9, 0.0, 2022-09-18 16:00:40.050
81.0, -51566.01090026032, -21372.715696420157, -35571.147271531496, -51648.55589253377, -48938.429229072244, -187500.02235174447, -36454.510564149685, -30656.468052443037, 0.64, -0.67, 0.42, 192.0, 0.0, 0.0, 0.0, 0.0, 0.0, 0.0, 0.0, 0.0, 0.0, 1.663498840054685E9, 0.0, 2022-09-18 16:00:40.054
82.0, -51466.0986025451, -22527.250352770134, -35042.59557039685, -51140.38898234237, -49619.24101343644, -187500.02235174447, -35996.85859642728, -30187.528453770694, 0.64, -0.67, 0.42, 192.0, 0.0, 0.0, 0.0, 0.0, 0.0, 0.0, 0.0, 0.0, 0.0, 1.6634988400587811E9, 0.0, 2022-09-18 16:00:40.058
83.0, -51159.2762064071, -22095.168780704593, -35093.64695473277, -51188.9816747882, -49702.70242723256, -187500.02235174447, -36013.398887324205, -30211.26600638223, 0.64, -0.67, 0.42, 192.0, 0.0, 0.0, 0.0, 0.0, 0.0, 0.0, 0.0, 0.0, 0.0, 1.6634988400627096E9, 0.0, 2022-09-18 16:00:40.062
84.0, -51090.27637127357, -21438.98861873014, -35352.122527613945, -51434.694401585395, -49763.56622738436, -187500.02235174447, -36233.541218464525, -30434.202305579463, 0.64, -0.67, 0.42, 192.0, 0.0, 0.0, 0.0, 0.0, 0.0, 0.0, 0.0, 0.0, 0.0, 1.6634988400657055E9, 0.0, 2022-09-18 16:00:40.065
85.0, -51147.563892312515, -20587.722431149774, -35761.941762202, -51834.075371512816, -49262.03778529618, -187500.02235174447, -36596.153568762966, -30802.447295480648, 0.64, -0.67, 0.42, 192.0, 0.0, 0.0, 0.0, 0.0, 0.0, 0.0, 0.0, 0.0, 0.0, 1.6634988400697887E9, 0.0, 2022-09-18 16:00:40.069
86.0, -51546.72134479539, -21403.67286249076, -35534.289244924694, -51614.7824066618, -49019.96839284521, -187500.02235174447, -36433.03053772814, -30623.499229371457, 0.64, -0.67, 0.42, 192.0, 0.0, 0.0, 0.0, 0.0, 0.0, 0.0, 0.0, 0.0, 0.0, 1.663498840073852E9, 0.0, 2022-09-18 16:00:40.073
87.0, -51437.57777662013, -22540.75080642114, -35022.92603527618, -51122.44053154475, -49719.9356222076, -187500.02235174447, -35987.113235844765, -30166.271944793698, 0.64, -0.67, 0.42, 192.0, 0.0, 0.0, 0.0, 0.0, 0.0, 0.0, 0.0, 0.0, 0.0, 1.6634988400777433E9, 0.0, 2022-09-18 16:00:40.077
88.0, -51161.35491864144, -22091.078411469272, -35105.09104789389, -51200.492823182685, -49806.66039069419, -187500.02235174447, -36035.683576546144, -30220.31846288663, 0.64, -0.67, 0.42, 192.0, 0.0, 0.0, 0.0, 0.0, 0.0, 0.0, 0.0, 0.0, 0.0, 1.6634988400827167E9, 0.0, 2022-09-18 16:00:40.082
89.0, -51078.11702228988, -21391.46881001816, -35343.33829204301, -51428.547671860186, -49837.6622602537, -187500.02235174447, -36226.45571547219, -30430.9836543779, 0.638, -0.678, 0.422, 192.0, 19.0, 240.0, 234.0, 208.0, 13.0, 48.0, 0.0, 0.0, 0.0, 1.6634988400868242E9, 0.0, 2022-09-18 16:00:40.086
90.0, -51141.908900965325, -20546.081131229537, -35744.239180593395, -51817.244507937976, -49316.576041767126, -187500.02235174447, -36572.0807399846, -30790.265594752505, 0.638, -0.678, 0.422, 192.0, 0.0, 0.0, 0.0, 0.0, 0.0, 0.0, 0.0, 0.0, 0.0, 1.6634988400908084E9, 0.0, 2022-09-18 16:00:40.090
91.0, -51553.82919953218, -21403.0023101571, -35523.44864886387, -51603.517127456325, -49092.34334139149, -187500.02235174447, -36415.10443867498, -30620.414688636625, 0.638, -0.678, 0.422, 192.0, 0.0, 0.0, 0.0, 0.0, 0.0, 0.0, 0.0, 0.0, 0.0, 1.6634988400937355E9, 0.0, 2022-09-18 16:00:40.093
92.0, -51427.92182301544, -22504.697442614728, -35028.98335802357, -51124.36278156791, -49768.327148953336, -187500.02235174447, -35984.520433487945, -30171.54695648515, 0.638, -0.678, 0.422, 192.0, 0.0, 0.0, 0.0, 0.0, 0.0, 0.0, 0.0, 0.0, 0.0, 1.6634988400977707E9, 0.0, 2022-09-18 16:00:40.097
93.0, -51143.76409575511, -22052.834576706242, -35107.90736769526, -51200.44811969377, -49821.8595769238, -187500.02235174447, -36028.352204364804, -30218.955006474855, 0.638, -0.678, 0.422, 192.0, 0.0, 0.0, 0.0, 0.0, 0.0, 0.0, 0.0, 0.0, 0.0, 1.663498840101838E9, 0.0, 2022-09-18 16:00:40.101
94.0, -51070.249208241614, -21370.41346674126, -35353.28481832562, -51433.152131217976, -49841.037373666455, -187500.02235174447, -36232.66950043076, -30433.397642779073, 0.638, -0.678, 0.422, 192.0, 0.0, 0.0, 0.0, 0.0, 0.0, 0.0, 0.0, 0.0, 0.0, 1.6634988401057827E9, 0.0, 2022-09-18 16:00:40.105
95.0, -51144.769924255605, -20543.845956784007, -35758.7901662338, -51827.19103422058, -49296.97356187982, -187500.02235174447, -36582.69781860087, -30796.72524890009, 0.638, -0.678, 0.422, 192.0, 0.0, 0.0, 0.0, 0.0, 0.0, 0.0, 0.0, 0.0, 0.0, 1.6634988401108174E9, 0.0, 2022-09-18 16:00:40.110
96.0, -51553.78449604327, -21449.53864211305, -35506.64013703348, -51585.79219410327, -49098.15479494987, -187500.02235174447, -36395.70312448777, -30596.699487769543, 0.638, -0.678, 0.422, 192.0, 0.0, 0.0, 0.0, 0.0, 0.0, 0.0, 0.0, 0.0, 0.0, 1.663498840114854E9, 0.0, 2022-09-18 16:00:40.114
97.0, -51425.038447980696, -22516.521515431585, -35011.30312815942, -51108.73891219365, -49792.48938470953, -187500.02235174447, -35963.487441955505, -30154.53727895466, 0.638, -0.678, 0.422, 192.0, 0.0, 0.0, 0.0, 0.0, 0.0, 0.0, 0.0, 0.0, 0.0, 1.6634988401188555E9, 0.0, 2022-09-18 16:00:40.118
98.0, -51160.863180263426, -22045.92788766955, -35102.90057693727, -51195.30721846905, -49887.99838876705, -187500.02235174447, -36015.79052398092, -30216.295148884674, 0.638, -0.678, 0.422, 192.0, 0.0, 0.0, 0.0, 0.0, 0.0, 0.0, 0.0, 0.0, 0.0, 1.6634988401218505E9, 0.0, 2022-09-18 16:00:40.121
99.0, -51086.811850882994, -21355.16957702274, -35355.85526893798, -51438.44949465388, -49916.742732136576, -187500.02235174447, -36232.89301787532, -30435.811631180244, 0.646, -0.682, 0.422, 192.0, 20.0, 48.0, 234.0, 176.0, 13.0, 48.0, 0.0, 0.0, 0.0, 1.6634988401258268E9, 0.0, 2022-09-18 16:00:40.125
100.0, -51173.40250890285, -20554.798311567105, -35759.8406982232, -51832.30958370085, -49362.575931856154, -187500.02235174447, -36585.3353244466, -30797.820484378397, 0.646, -0.682, 0.422, 192.0, 0.0, 0.0, 0.0, 0.0, 0.0, 0.0, 0.0, 0.0, 0.0, 1.6634988401300097E9, 0.0, 2022-09-18 16:00:40.130
101.0, -51582.618246390615, -21500.701785171248, -35506.483674822295, -51587.89325808207, -49208.415950347895, -187500.02235174447, -36379.63222022441, -30594.888996468664, 0.646, -0.682, 0.422, 192.0, 0.0, 0.0, 0.0, 0.0, 0.0, 0.0, 0.0, 0.0, 0.0, 1.6634988401338432E9, 0.0, 2022-09-18 16:00:40.133
102.0, -51423.563232846645, -22524.612846924407, -35016.39932589523, -51117.47844427567, -49885.45028989915, -187500.02235174447, -35951.41749994964, -30149.8657643635, 0.646, -0.682, 0.422, 192.0, 0.0, 0.0, 0.0, 0.0, 0.0, 0.0, 0.0, 0.0, 0.0, 1.6634988401388702E9, 0.0, 2022-09-18 16:00:40.138
103.0, -51161.55608434154, -22059.875376209664, -35123.017146947044, -51219.84943388098, -49958.540494268, -187500.02235174447, -36025.02179444096, -30223.067727454632, 0.646, -0.682, 0.422, 192.0, 0.0, 0.0, 0.0, 0.0, 0.0, 0.0, 0.0, 0.0, 0.0, 1.6634988401428595E9, 0.0, 2022-09-18 16:00:40.142
104.0, -51070.13744951933, -21361.293955003497, -35373.66960926886, -51455.95091056239, -49965.02250016004, -187500.02235174447, -36233.40710799779, -30442.472451027927, 0.646, -0.682, 0.422, 192.0, 0.0, 0.0, 0.0, 0.0, 0.0, 0.0, 0.0, 0.0, 0.0, 1.6634988401459107E9, 0.0, 2022-09-18 16:00:40.145
105.0, -51158.06921220651, -20553.837186555527, -35771.39655010659, -51841.630261138715, -49381.86548732108, -187500.02235174447, -36578.540394132186, -30802.782571647476, 0.646, -0.682, 0.422, 192.0, 0.0, 0.0, 0.0, 0.0, 0.0, 0.0, 0.0, 0.0, 0.0, 1.6634988401498668E9, 0.0, 2022-09-18 16:00:40.149
106.0, -51551.03523147527, -21510.31303528703, -35485.38362805649, -51565.407403160025, -49202.42568283388, -187500.02235174447, -36366.06471134004, -30573.699542725033, 0.646, -0.682, 0.422, 192.0, 0.0, 0.0, 0.0, 0.0, 0.0, 0.0, 0.0, 0.0, 0.0, 1.6634988401539073E9, 0.0, 2022-09-18 16:00:40.153
107.0, -51391.26496210873, -22519.40489046632, -35017.36045090681, -51109.20829882721, -49881.024644496996, -187500.02235174447, -35954.72555812902, -30147.71999689579, 0.646, -0.682, 0.422, 192.0, 0.0, 0.0, 0.0, 0.0, 0.0, 0.0, 0.0, 0.0, 0.0, 1.6634988401579769E9, 0.0, 2022-09-18 16:00:40.157
108.0, -51130.710676993214, -22033.366207285668, -35117.25039687758, -51207.086587797, -49925.99635434108, -187500.02235174447, -36023.92655896265, -30217.345680874074, 0.646, -0.682, 0.422, 192.0, 0.0, 0.0, 0.0, 0.0, 0.0, 0.0, 0.0, 0.0, 0.0, 1.6634988401619065E9, 0.0, 2022-09-18 16:00:40.161
109.0, -51056.32407144595, -21336.483518658104, -35371.88146971243, -51450.072401770645, -49944.8388749169, -187500.02235174447, -36238.302140033506, -30440.103166115663, 0.646, -0.672, 0.42, 192.0, 20.0, 48.0, 235.0, 0.0, 13.0, 32.0, 0.0, 0.0, 0.0, 1.6634988401659293E9, 0.0, 2022-09-18 16:00:40.165
110.0, -51159.76794478511, -20555.82649181205, -35778.347942632194, -51839.37273494872, -49371.11429823808, -187500.02235174447, -36601.62974615452, -30800.14506580175, 0.646, -0.672, 0.42, 192.0, 0.0, 0.0, 0.0, 0.0, 0.0, 0.0, 0.0, 0.0, 0.0, 1.66349884017093E9, 0.0, 2022-09-18 16:00:40.170
111.0, -51557.517237367305, -21550.479120073214, -35474.76654944021, -51552.37633614258, -49252.49359041376, -187500.02235174447, -36362.019045593624, -30559.90851639611, 0.646, -0.672, 0.42, 192.0, 0.0, 0.0, 0.0, 0.0, 0.0, 0.0, 0.0, 0.0, 0.0, 1.6634988401739547E9, 0.0, 2022-09-18 16:00:40.173
112.0, -51389.47682255231, -22521.84123061195, -35018.992128252044, -51117.21022334221, -49936.59108121289, -187500.02235174447, -35956.40193896317, -30150.0669300636, 0.646, -0.672, 0.42, 192.0, 0.0, 0.0, 0.0, 0.0, 0.0, 0.0, 0.0, 0.0, 0.0, 1.6634988401779015E9, 0.0, 2022-09-18 16:00:40.177
113.0, -51132.92349969429, -22020.782175157332, -35131.17553367323, -51226.42084675084, -49979.171154400254, -187500.02235174447, -36031.213227655084, -30231.337872903096, 0.646, -0.672, 0.42, 192.0, 0.0, 0.0, 0.0, 0.0, 0.0, 0.0, 0.0, 0.0, 0.0, 1.6634988401819596E9, 0.0, 2022-09-18 16:00:40.181
114.0, -51054.312414444976, -21321.820774295426, -35389.13701643193, -51474.36874799356, -49984.24500039161, -187500.02235174447, -36249.2544948166, -30459.660942514056, 0.646, -0.672, 0.42, 192.0, 0.0, 0.0, 0.0, 0.0, 0.0, 0.0, 0.0, 0.0, 0.0, 1.6634988401860747E9, 0.0, 2022-09-18 16:00:40.186
115.0, -51178.8786862944, -20577.17240776687, -35790.84256778271, -51868.13943006271, -49399.702179396416, -187500.02235174447, -36602.300298488175, -30826.810696936933, 0.646, -0.672, 0.42, 192.0, 0.0, 0.0, 0.0, 0.0, 0.0, 0.0, 0.0, 0.0, 0.0, 1.6634988401899736E9, 0.0, 2022-09-18 16:00:40.189
116.0, -51570.28008345128, -21605.978501555743, -35472.10669185003, -51562.36756591411, -49303.23205032731, -187500.02235174447, -36358.82274613652, -30566.390522288148, 0.646, -0.672, 0.42, 192.0, 0.0, 0.0, 0.0, 0.0, 0.0, 0.0, 0.0, 0.0, 0.0, 1.6634988401939368E9, 0.0, 2022-09-18 16:00:40.193
117.0, -51383.240685849276, -22527.585628936962, -35001.937747232645, -51119.44539778774, -49970.65513976278, -187500.02235174447, -35945.11430801324, -30147.9658660848, 0.646, -0.672, 0.42, 192.0, 0.0, 0.0, 0.0, 0.0, 0.0, 0.0, 0.0, 0.0, 0.0, 1.6634988401990137E9, 0.0, 2022-09-18 16:00:40.199
118.0, -51128.92253743679, -22010.232151774428, -35102.65470774826, -51221.03407633711, -49994.86207900788, -187500.02235174447, -36013.77886697994, -30222.687747798893, 0.646, -0.672, 0.42, 192.0, 0.0, 0.0, 0.0, 0.0, 0.0, 0.0, 0.0, 0.0, 0.0, 1.6634988402019744E9, 0.0, 2022-09-18 16:00:40.201
119.0, -51062.068469770966, -21310.68960555668, -35374.74249300271, -51481.297788774704, -50011.692942582726, -187500.02235174447, -36240.26909354557, -30461.31497160375, 0.652, -0.68, 0.418, 192.0, 20.0, 96.0, 234.0, 192.0, 13.0, 16.0, 0.0, 0.0, 0.0, 1.6634988402059593E9, 0.0, 2022-09-18 16:00:40.205
120.0, -51195.106052768955, -20573.64083214293, -35777.67739029854, -51869.74875566349, -49396.93056308396, -187500.02235174447, -36589.40334193747, -30823.077955612895, 0.652, -0.68, 0.418, 192.0, 0.0, 0.0, 0.0, 0.0, 0.0, 0.0, 0.0, 0.0, 0.0, 1.6634988402100048E9, 0.0, 2022-09-18 16:00:40.210
121.0, -51574.19163873096, -21650.391417788436, -35444.30112174763, -51542.51921683779, -49324.93559419341, -187500.02235174447, -36333.297053968556, -30547.480946478958, 0.652, -0.68, 0.418, 192.0, 0.0, 0.0, 0.0, 0.0, 0.0, 0.0, 0.0, 0.0, 0.0, 1.6634988402140326E9, 0.0, 2022-09-18 16:00:40.214
122.0, -51369.76258394273, -22540.728454676682, -35005.648136812226, -51115.77971169707, -50000.82999477744, -187500.02235174447, -35942.297988211874, -30147.049444562133, 0.652, -0.68, 0.418, 192.0, 0.0, 0.0, 0.0, 0.0, 0.0, 0.0, 0.0, 0.0, 0.0, 1.6634988402180264E9, 0.0, 2022-09-18 16:00:40.218
123.0, -51130.04012465956, -21991.389631198603, -35132.114306940355, -51233.416942765354, -50010.53065187105, -187500.02235174447, -36025.84880898581, -30238.80335555117, 0.652, -0.68, 0.418, 192.0, 0.0, 0.0, 0.0, 0.0, 0.0, 0.0, 0.0, 0.0, 0.0, 1.6634988402220473E9, 0.0, 2022-09-18 16:00:40.222
124.0, -51052.300757444, -21286.862645967325, -35394.74730429021, -51486.1034138326, -50008.22842219215, -187500.02235174447, -36243.71126219169, -30465.49474781689, 0.652, -0.68, 0.418, 192.0, 0.0, 0.0, 0.0, 0.0, 0.0, 0.0, 0.0, 0.0, 0.0, 1.6634988402270613E9, 0.0, 2022-09-18 16:00:40.227
125.0, -51186.590038131486, -20574.333736221044, -35778.37029437665, -51861.210389281565, -49373.7071005949, -187500.02235174447, -36583.48012965681, -30810.113943828816, 0.652, -0.68, 0.418, 192.0, 0.0, 0.0, 0.0, 0.0, 0.0, 0.0, 0.0, 0.0, 0.0, 1.6634988402300477E9, 0.0, 2022-09-18 16:00:40.230
126.0, -51563.37339441459, -21660.829682449064, -35431.605330897015, -51521.4638735609, -49319.21354761285, -187500.02235174447, -36315.683879337776, -30522.8046206003, 0.652, -0.68, 0.418, 192.0, 0.0, 0.0, 0.0, 0.0, 0.0, 0.0, 0.0, 0.0, 0.0, 1.6634988402340572E9, 0.0, 2022-09-18 16:00:40.234
127.0, -51349.40014474394, -22518.73433813266, -35008.75502929152, -51112.896336662336, -49969.60460777338, -187500.02235174447, -35937.961749787544, -30136.72293862378, 0.652, -0.68, 0.418, 192.0, 0.0, 0.0, 0.0, 0.0, 0.0, 0.0, 0.0, 0.0, 0.0, 1.6634988402380488E9, 0.0, 2022-09-18 16:00:40.238
128.0, -51126.799121713535, -21995.68116613402, -35153.19200196171, -51251.81242845207, -49987.977741715644, -187500.02235174447, -36047.59705634083, -30247.140556232996, 0.652, -0.68, 0.418, 192.0, 0.0, 0.0, 0.0, 0.0, 0.0, 0.0, 0.0, 0.0, 0.0, 1.6634988402420793E9, 0.0, 2022-09-18 16:00:40.242
129.0, -51048.83623705342, -21270.92585217069, -35414.14861847742, -51507.605791998605, -49979.41702358926, -187500.02235174447, -36271.87446020538, -30476.715323533455, 0.646, -0.674, 0.418, 192.0, 20.0, 48.0, 234.0, 240.0, 13.0, 16.0, 0.0, 0.0, 0.0, 1.6634988402460787E9, 0.0, 2022-09-18 16:00:40.246
130.0, -51173.782488558594, -20559.73804709173, -35774.95047747499, -51862.529142204425, -49324.51091104876, -187500.02235174447, -36589.09041751509, -30806.00122284904, 0.646, -0.674, 0.418, 192.0, 0.0, 0.0, 0.0, 0.0, 0.0, 0.0, 0.0, 0.0, 0.0, 1.6634988402500463E9, 0.0, 2022-09-18 16:00:40.250
131.0, -51556.13142921108, -21693.776153776187, -35421.79291508113, -51517.35115258112, -49275.80645988065, -187500.02235174447, -36308.33015541198, -30510.399402427603, 0.646, -0.674, 0.418, 192.0, 0.0, 0.0, 0.0, 0.0, 0.0, 0.0, 0.0, 0.0, 0.0, 1.6634988402551398E9, 0.0, 2022-09-18 16:00:40.255
132.0, -51344.996851086245, -22524.50108820213, -35017.382802651264, -51125.30155483503, -49909.27724948851, -187500.02235174447, -35946.99185454749, -30137.661711890905, 0.646, -0.674, 0.418, 192.0, 0.0, 0.0, 0.0, 0.0, 0.0, 0.0, 0.0, 0.0, 0.0, 1.6634988402581313E9, 0.0, 2022-09-18 16:00:40.258
133.0, -51112.69517096224, -21980.25846245986, -35155.09190024041, -51253.48880928622, -49892.24522021356, -187500.02235174447, -36046.36771039578, -30238.04339623969, 0.646, -0.674, 0.418, 192.0, 0.0, 0.0, 0.0, 0.0, 0.0, 0.0, 0.0, 0.0, 0.0, 1.6634988402611368E9, 0.0, 2022-09-18 16:00:40.261
134.0, -51045.30466142949, -21264.645011978748, -35445.374005481484, -51529.15287365352, -49878.18597295117, -187500.02235174447, -36295.969640728195, -30494.529663864338, 0.646, -0.674, 0.418, 192.0, 0.0, 0.0, 0.0, 0.0, 0.0, 0.0, 0.0, 0.0, 0.0, 1.663498840266253E9, 0.0, 2022-09-18 16:00:40.266
135.0, -51193.3849684459, -20588.392983483434, -35819.251634985405, -51894.4474332866, -49230.92415701439, -187500.02235174447, -36632.028118613736, -30837.8301069534, 0.646, -0.674, 0.418, 192.0, 0.0, 0.0, 0.0, 0.0, 0.0, 0.0, 0.0, 0.0, 0.0, 1.6634988402701328E9, 0.0, 2022-09-18 16:00:40.270
136.0, -51565.34034792666, -21752.82946262711, -35431.65003438593, -51524.8613387181, -49225.85031102304, -187500.02235174447, -36316.108562482426, -30519.0048240429, 0.646, -0.674, 0.418, 192.0, 0.0, 0.0, 0.0, 0.0, 0.0, 0.0, 0.0, 0.0, 0.0, 1.6634988402740893E9, 0.0, 2022-09-18 16:00:40.274
137.0, -51333.50805443621, -22542.31542853301, -35027.038756255955, -51133.996383428144, -49867.05480421243, -187500.02235174447, -35955.64197965169, -30146.28948525065, 0.646, -0.674, 0.418, 192.0, 0.0, 0.0, 0.0, 0.0, 0.0, 0.0, 0.0, 0.0, 0.0, 1.6634988402781692E9, 0.0, 2022-09-18 16:00:40.278
138.0, -51112.49400526214, -21994.764744611355, -35175.454339439195, -51275.32646361905, -49874.40852813823, -187500.02235174447, -36070.28407696296, -30260.283381972717, 0.646, -0.674, 0.418, 192.0, 0.0, 0.0, 0.0, 0.0, 0.0, 0.0, 0.0, 0.0, 0.0, 1.6634988402822046E9, 0.0, 2022-09-18 16:00:40.282
139.0, -51027.13269318733, -21255.234927563066, -35444.52463919218, -51533.48911207785, -49862.80797276592, -187500.02235174447, -36295.61201281691, -30496.56367260977, 0.644, -0.668, 0.42, 192.0, 20.0, 32.0, 235.0, 32.0, 13.0, 32.0, 0.0, 0.0, 0.0, 1.663498840286224E9, 0.0, 2022-09-18 16:00:40.286
140.0, -51191.50742191165, -20605.223847058278, -35813.50723666039, -51894.693302475614, -49234.723953571796, -187500.02235174447, -36612.2915282597, -30836.511354030536, 0.644, -0.668, 0.42, 192.0, 0.0, 0.0, 0.0, 0.0, 0.0, 0.0, 0.0, 0.0, 0.0, 1.6634988402891195E9, 0.0, 2022-09-18 16:00:40.289
141.0, -51566.14501072705, -21801.086878906117, -35421.43528716985, -51523.22966137286, -49268.25157025475, -187500.02235174447, -36310.654736835335, -30520.48003917695, 0.644, -0.668, 0.42, 192.0, 0.0, 0.0, 0.0, 0.0, 0.0, 0.0, 0.0, 0.0, 0.0, 1.6634988402941895E9, 0.0, 2022-09-18 16:00:40.294
142.0, -51323.047438031135, -22549.244469314155, -35002.25067165502, -51135.896281706846, -49911.13244427829, -187500.02235174447, -35955.440813951594, -30149.508136452216, 0.644, -0.668, 0.42, 192.0, 0.0, 0.0, 0.0, 0.0, 0.0, 0.0, 0.0, 0.0, 0.0, 1.6634988402981582E9, 0.0, 2022-09-18 16:00:40.298
143.0, -51098.568868466486, -21968.05440998726, -35086.36028604034, -51266.87750421495, -49893.38515918078, -187500.02235174447, -36056.805975056406, -30252.214402224352, 0.644, -0.668, 0.42, 192.0, 0.0, 0.0, 0.0, 0.0, 0.0, 0.0, 0.0, 0.0, 0.0, 1.6634988403021111E9, 0.0, 2022-09-18 16:00:40.302
144.0, -51019.778969261526, -21219.71800562358, -35369.15455688889, -51534.316126622696, -49864.99844372254, -187500.02235174447, -36294.1144459384, -30496.161341209572, 0.644, -0.668, 0.42, 192.0, 0.0, 0.0, 0.0, 0.0, 0.0, 0.0, 0.0, 0.0, 0.0, 1.6634988403063276E9, 0.0, 2022-09-18 16:00:40.306
145.0, -51191.57447714502, -20586.895416604926, -35740.528791013814, -51885.5961424823, -49199.765825243696, -187500.02235174447, -36613.498522460286, -30824.888446913774, 0.644, -0.668, 0.42, 192.0, 0.0, 0.0, 0.0, 0.0, 0.0, 0.0, 0.0, 0.0, 0.0, 1.6634988403092167E9, 0.0, 2022-09-18 16:00:40.309
146.0, -51547.74952504034, -21797.68941374891, -35337.1915623178, -51490.70787319039, -49240.31188968562, -187500.02235174447, -36282.78211149956, -30482.057390458274, 0.644, -0.668, 0.42, 192.0, 0.0, 0.0, 0.0, 0.0, 0.0, 0.0, 0.0, 0.0, 0.0, 1.6634988403132527E9, 0.0, 2022-09-18 16:00:40.313
147.0, -51315.067865260586, -22522.04239631205, -34980.23420336655, -51138.71260150822, -49844.92657720168, -187500.02235174447, -35953.138584272696, -30144.97073232779, 0.644, -0.668, 0.42, 192.0, 0.0, 0.0, 0.0, 0.0, 0.0, 0.0, 0.0, 0.0, 0.0, 1.6634988403172288E9, 0.0, 2022-09-18 16:00:40.317
148.0, -51088.577638694966, -21947.423749855014, -35127.643958049295, -51266.341062348016, -49812.89652739722, -187500.02235174447, -36051.93329476515, -30246.02296901023, 0.644, -0.668, 0.42, 192.0, 0.0, 0.0, 0.0, 0.0, 0.0, 0.0, 0.0, 0.0, 0.0, 1.6634988403222E9, 0.0, 2022-09-18 16:00:40.322
149.0, -51015.75565525957, -21191.443048887617, -35418.99894702422, -51545.58140582817, -49756.57013136985, -187500.02235174447, -36295.969640728195, -30500.698745334, 0.648, -0.68, 0.41400000000000003, 192.0, 20.0, 64.0, 234.0, 192.0, 12.0, 240.0, 0.0, 0.0, 0.0, 1.6634988403262548E9, 0.0, 2022-09-18 16:00:40.326
150.0, -51209.90290759837, -20591.902207362917, -35785.45579736898, -51906.74089273702, -49087.962399478245, -187500.02235174447, -36627.98245286733, -30840.69113024368, 0.648, -0.68, 0.41400000000000003, 192.0, 0.0, 0.0, 0.0, 0.0, 0.0, 0.0, 0.0, 0.0, 0.0, 1.6634988403302426E9, 0.0, 2022-09-18 16:00:40.330
151.0, -51559.03715599026, -21839.688341580433, -35353.12835611443, -51486.93042837745, -49163.24307480372, -187500.02235174447, -36285.17374815628, -30475.6424397996, 0.648, -0.68, 0.41400000000000003, 192.0, 0.0, 0.0, 0.0, 0.0, 0.0, 0.0, 0.0, 0.0, 0.0, 1.6634988403342333E9, 0.0, 2022-09-18 16:00:40.334
152.0, -51312.8103390706, -22524.970474835693, -34994.047581439925, -51138.15380789683, -49750.13282896672, -187500.02235174447, -35961.16286053215, -30141.14858402593, 0.648, -0.68, 0.41400000000000003, 192.0, 0.0, 0.0, 0.0, 0.0, 0.0, 0.0, 0.0, 0.0, 0.0, 1.6634988403372328E9, 0.0, 2022-09-18 16:00:40.337
153.0, -51100.26760104509, -21933.58802003718, -35144.92185651325, -51276.265236886175, -49713.453616315564, -187500.02235174447, -36077.30252472193, -30255.32129470364, 0.648, -0.68, 0.41400000000000003, 192.0, 0.0, 0.0, 0.0, 0.0, 0.0, 0.0, 0.0, 0.0, 0.0, 1.6634988403412867E9, 0.0, 2022-09-18 16:00:40.341
154.0, -51032.363001389866, -21190.258406431487, -35454.49351721925, -51568.40253691704, -49687.41383402513, -187500.02235174447, -36348.33977798698, -30523.363414211683, 0.648, -0.68, 0.41400000000000003, 192.0, 0.0, 0.0, 0.0, 0.0, 0.0, 0.0, 0.0, 0.0, 0.0, 1.6634988403452928E9, 0.0, 2022-09-18 16:00:40.345
155.0, -51196.782433603104, -20606.520248236688, -35775.33045713073, -51878.13065983423, -49040.308480299536, -187500.02235174447, -36639.11362160607, -30813.444353752657, 0.648, -0.68, 0.41400000000000003, 192.0, 0.0, 0.0, 0.0, 0.0, 0.0, 0.0, 0.0, 0.0, 0.0, 1.6634988403492565E9, 0.0, 2022-09-18 16:00:40.349
156.0, -51532.03624868825, -21864.6105366481, -35336.56571347305, -51453.53692216121, -49186.93592392635, -187500.02235174447, -36287.47597783518, -30443.701796972968, 0.648, -0.68, 0.41400000000000003, 192.0, 0.0, 0.0, 0.0, 0.0, 0.0, 0.0, 0.0, 0.0, 0.0, 1.6634988403542247E9, 0.0, 2022-09-18 16:00:40.354
157.0, -51276.66756828637, -22511.17944850677, -35000.753104776515, -51124.16161586781, -49778.20662000259, -187500.02235174447, -35992.81293068086, -30124.943569295832, 0.648, -0.68, 0.41400000000000003, 192.0, 0.0, 0.0, 0.0, 0.0, 0.0, 0.0, 0.0, 0.0, 0.0, 1.663498840358323E9, 0.0, 2022-09-18 16:00:40.358
158.0, -51081.87211535837, -21935.085586915684, -35158.66817935326, -51277.42752759785, -49744.41078238616, -187500.02235174447, -36109.13140882628, -30254.807204581168, 0.648, -0.68, 0.41400000000000003, 192.0, 0.0, 0.0, 0.0, 0.0, 0.0, 0.0, 0.0, 0.0, 0.0, 1.6634988403622968E9, 0.0, 2022-09-18 16:00:40.362
159.0, -51020.471873339644, -21180.825970271348, -35467.122252836496, -51575.46568816491, -49711.82193897032, -187500.02235174447, -36366.936429373796, -30529.89012359263, 0.648, -0.684, 0.41200000000000003, 192.0, 20.0, 64.0, 234.0, 160.0, 12.0, 224.0, 0.0, 0.0, 0.0, 1.6634988403652823E9, 0.0, 2022-09-18 16:00:40.365
160.0, -51222.06225658206, -20624.491050778754, -35798.75508531989, -51899.32011357786, -49037.67097445381, -187500.02235174447, -36670.763691754786, -30836.868981941818, 0.648, -0.684, 0.41200000000000003, 192.0, 0.0, 0.0, 0.0, 0.0, 0.0, 0.0, 0.0, 0.0, 0.0, 1.6634988403693452E9, 0.0, 2022-09-18 16:00:40.369
161.0, -51540.97694647038, -21905.268359812304, -35337.795059418095, -51444.193892978896, -49185.214839603286, -187500.02235174447, -36300.84232101945, -30437.286846314295, 0.648, -0.684, 0.41200000000000003, 192.0, 0.0, 0.0, 0.0, 0.0, 0.0, 0.0, 0.0, 0.0, 0.0, 1.663498840373444E9, 0.0, 2022-09-18 16:00:40.373
162.0, -51271.68312927284, -22509.033681039058, -35005.82695076787, -51117.567851253494, -49763.61093087327, -187500.02235174447, -36000.72544821804, -30121.076717505064, 0.648, -0.684, 0.41200000000000003, 192.0, 0.0, 0.0, 0.0, 0.0, 0.0, 0.0, 0.0, 0.0, 0.0, 1.6634988403773112E9, 0.0, 2022-09-18 16:00:40.377
163.0, -51080.01692056858, -21928.983560679386, -35172.61566789337, -51278.56746656507, -49714.012409926945, -187500.02235174447, -36131.9301881707, -30253.13082374702, 0.648, -0.684, 0.41200000000000003, 192.0, 0.0, 0.0, 0.0, 0.0, 0.0, 0.0, 0.0, 0.0, 0.0, 1.6634988403822622E9, 0.0, 2022-09-18 16:00:40.382
164.0, -51006.09970165488, -21163.9951066965, -35481.53912801017, -51574.61632187561, -49662.35752849073, -187500.02235174447, -36398.40768556687, -30523.028138044854, 0.648, -0.684, 0.41200000000000003, 192.0, 0.0, 0.0, 0.0, 0.0, 0.0, 0.0, 0.0, 0.0, 0.0, 1.663498840386428E9, 0.0, 2022-09-18 16:00:40.386
165.0, -51196.24599173618, -20616.936161152862, -35787.51215785887, -51875.806078410875, -48993.593334387944, -187500.02235174447, -36680.48670059284, -30809.28692928397, 0.648, -0.684, 0.41200000000000003, 192.0, 0.0, 0.0, 0.0, 0.0, 0.0, 0.0, 0.0, 0.0, 0.0, 1.66349884039042E9, 0.0, 2022-09-18 16:00:40.390
166.0, -51524.05667591771, -21919.841697197164, -35329.32374826953, -51430.87225328353, -49153.20714154329, -187500.02235174447, -36318.00846076113, -30422.22177055142, 0.648, -0.684, 0.41200000000000003, 192.0, 0.0, 0.0, 0.0, 0.0, 0.0, 0.0, 0.0, 0.0, 0.0, 1.663498840393408E9, 0.0, 2022-09-18 16:00:40.393
167.0, -51244.95044290429, -22491.21934070818, -35007.749200791026, -51113.67864771827, -49725.545910065885, -187500.02235174447, -36024.53005606295, -30116.53931338064, 0.648, -0.684, 0.41200000000000003, 192.0, 0.0, 0.0, 0.0, 0.0, 0.0, 0.0, 0.0, 0.0, 0.0, 1.663498840397421E9, 0.0, 2022-09-18 16:00:40.397
168.0, -51053.97713827815, -21889.398621249034, -35171.49808067061, -51270.23026588324, -49695.616924240225, -187500.02235174447, -36155.176002404216, -30248.794585322692, 0.648, -0.684, 0.41200000000000003, 192.0, 0.0, 0.0, 0.0, 0.0, 0.0, 0.0, 0.0, 0.0, 0.0, 1.663498840401395E9, 0.0, 2022-09-18 16:00:40.401
169.0, -50987.547753756975, -21122.554972476362, -35485.428331545394, -51577.097365510155, -49647.247749238944, -187500.02235174447, -36424.98390972423, -30531.074766048765, 0.644, -0.682, 0.41600000000000004, 192.0, 20.0, 32.0, 234.0, 176.0, 13.0, 0.0, 0.0, 0.0, 0.0, 1.6634988404054217E9, 0.0, 2022-09-18 16:00:40.405
170.0, -51203.17503251732, -20631.017760159702, -35790.08260847123, -51879.114136590266, -48991.3134564535, -187500.02235174447, -36706.682945094464, -30818.741717188565, 0.644, -0.682, 0.41600000000000004, 192.0, 0.0, 0.0, 0.0, 0.0, 0.0, 0.0, 0.0, 0.0, 0.0, 1.663498840410364E9, 0.0, 2022-09-18 16:00:40.410
171.0, -51512.09849263412, -21958.666677316032, -35300.5794049, -51409.79455826218, -49197.530650798166, -187500.02235174447, -36319.39426891736, -30407.559026188737, 0.644, -0.682, 0.41600000000000004, 192.0, 0.0, 0.0, 0.0, 0.0, 0.0, 0.0, 0.0, 0.0, 0.0, 1.66349884041446E9, 0.0, 2022-09-18 16:00:40.414
172.0, -51237.14968408939, -22491.509913386097, -34996.97565996357, -51118.59603149844, -49759.27469244894, -187500.02235174447, -36046.0100824845, -30121.747269838725, 0.644, -0.682, 0.41600000000000004, 192.0, 0.0, 0.0, 0.0, 0.0, 0.0, 0.0, 0.0, 0.0, 0.0, 1.6634988404184113E9, 0.0, 2022-09-18 16:00:40.418
173.0, -51051.96548127717, -21899.43455450947, -35168.05591202449, -51279.3050741321, -49733.570186325334, -187500.02235174447, -36175.940773003196, -30257.534117404717, 0.644, -0.682, 0.41600000000000004, 192.0, 0.0, 0.0, 0.0, 0.0, 0.0, 0.0, 0.0, 0.0, 0.0, 1.6634988404214091E9, 0.0, 2022-09-18 16:00:40.421
174.0, -50981.02104437602, -21121.191516064588, -35495.017229916724, -51588.04972029325, -49678.0261013539, -187500.02235174447, -36446.24041870122, -30540.32838825326, 0.644, -0.682, 0.41600000000000004, 192.0, 0.0, 0.0, 0.0, 0.0, 0.0, 0.0, 0.0, 0.0, 0.0, 1.6634988404253943E9, 0.0, 2022-09-18 16:00:40.425
175.0, -51209.61233492045, -20658.689219795375, -35798.911547531075, -51881.77399418045, -49026.89743362635, -187500.02235174447, -36721.3680412016, -30816.730060187587, 0.644, -0.682, 0.41600000000000004, 192.0, 0.0, 0.0, 0.0, 0.0, 0.0, 0.0, 0.0, 0.0, 0.0, 1.6634988404294803E9, 0.0, 2022-09-18 16:00:40.429
176.0, -51511.42794030046, -21990.897892820587, -35312.202312016765, -51404.921877970926, -49232.37702040399, -187500.02235174447, -36326.83739982097, -30395.44438069396, 0.644, -0.682, 0.41600000000000004, 192.0, 0.0, 0.0, 0.0, 0.0, 0.0, 0.0, 0.0, 0.0, 0.0, 1.6634988404334073E9, 0.0, 2022-09-18 16:00:40.433
177.0, -51219.782378647615, -22482.92684351526, -35015.84053228385, -51123.4687117897, -49767.142506497206, -187500.02235174447, -36050.927466264664, -30120.942607038334, 0.644, -0.682, 0.41600000000000004, 192.0, 0.0, 0.0, 0.0, 0.0, 0.0, 0.0, 0.0, 0.0, 0.0, 1.6634988404384365E9, 0.0, 2022-09-18 16:00:40.438
178.0, -51029.90430949978, -21886.224673536384, -35172.325095215456, -51273.739489762724, -49744.500189363986, -187500.02235174447, -36170.554002589466, -30245.08419574311, 0.644, -0.682, 0.41600000000000004, 192.0, 0.0, 0.0, 0.0, 0.0, 0.0, 0.0, 0.0, 0.0, 0.0, 1.6634988404424534E9, 0.0, 2022-09-18 16:00:40.442
179.0, -50950.44385796117, -21093.36359421773, -35492.87146244901, -51582.9758743019, -49678.51783973192, -187500.02235174447, -36448.54264838012, -30532.058242804796, 0.644, -0.682, 0.41600000000000004, 192.0, 0.0, 0.0, 0.0, 0.0, 0.0, 0.0, 0.0, 0.0, 0.0, 1.6634988404464428E9, 0.0, 2022-09-18 16:00:40.446
180.0, -51203.30914298405, -20687.880598054006, -35796.09522772971, -51885.01499712646, -49050.18795134878, -187500.02235174447, -36728.67706163848, -30820.35104278935, 0.64, -0.682, 0.41600000000000004, 192.0, 20.0, 0.0, 234.0, 176.0, 13.0, 0.0, 0.0, 0.0, 0.0, 1.663498840449462E9, 0.0, 2022-09-18 16:00:40.449
181.0, -51484.38232950954, -22032.449785763, -35280.48518663469, -51387.93455218489, -49284.970675107324, -187500.02235174447, -36294.784998272065, -30379.64169736406, 0.64, -0.682, 0.41600000000000004, 192.0, 0.0, 0.0, 0.0, 0.0, 0.0, 0.0, 0.0, 0.0, 0.0, 1.6634988404534812E9, 0.0, 2022-09-18 16:00:40.453
182.0, -51169.26743617862, -22474.254366666602, -34991.678296527665, -51106.8613656594, -49796.82562313385, -187500.02235174447, -36027.9051694757, -30101.563644595582, 0.64, -0.682, 0.41600000000000004, 192.0, 0.0, 0.0, 0.0, 0.0, 0.0, 0.0, 0.0, 0.0, 0.0, 1.6634988404575422E9, 0.0, 2022-09-18 16:00:40.457
183.0, -50990.47583228062, -21879.005060077317, -35170.492252170116, -51276.53345781964, -49777.51371592447, -187500.02235174447, -36170.06226421145, -30246.693521343892, 0.64, -0.682, 0.41600000000000004, 192.0, 0.0, 0.0, 0.0, 0.0, 0.0, 0.0, 0.0, 0.0, 0.0, 1.6634988404614964E9, 0.0, 2022-09-18 16:00:40.461
184.0, -50926.594546627355, -21077.31504169882, -35503.488541065286, -51595.09051979668, -49700.444901042574, -187500.02235174447, -36454.3541019385, -30537.109737051695, 0.64, -0.682, 0.41600000000000004, 192.0, 0.0, 0.0, 0.0, 0.0, 0.0, 0.0, 0.0, 0.0, 0.0, 1.6634988404654841E9, 0.0, 2022-09-18 16:00:40.465
185.0, -51180.51036363964, -20680.549225872663, -35781.96892523395, -51868.22883704053, -49050.076192626504, -187500.02235174447, -36714.93073879847, -30800.055658823927, 0.64, -0.682, 0.41600000000000004, 192.0, 0.0, 0.0, 0.0, 0.0, 0.0, 0.0, 0.0, 0.0, 0.0, 1.66349884047048E9, 0.0, 2022-09-18 16:00:40.470
186.0, -51456.1967797514, -22041.815166689776, -35261.91088699232, -51365.31458679612, -49304.2378788278, -187500.02235174447, -36290.67227729229, -30355.05477846322, 0.64, -0.682, 0.41600000000000004, 192.0, 0.0, 0.0, 0.0, 0.0, 0.0, 0.0, 0.0, 0.0, 0.0, 1.6634988404745257E9, 0.0, 2022-09-18 16:00:40.474
187.0, -51149.70965978023, -22464.665468295272, -34986.82796798086, -51101.87692664587, -49820.116140856284, -187500.02235174447, -36034.87891374575, -30092.198263668808, 0.64, -0.682, 0.41600000000000004, 192.0, 0.0, 0.0, 0.0, 0.0, 0.0, 0.0, 0.0, 0.0, 0.0, 1.6634988404775136E9, 0.0, 2022-09-18 16:00:40.477
188.0, -50980.685768209194, -21870.578452417667, -35163.60791487788, -51272.75601300669, -49787.77316662946, -187500.02235174447, -36182.95922076216, -30239.07157648463, 0.64, -0.682, 0.41600000000000004, 192.0, 0.0, 0.0, 0.0, 0.0, 0.0, 0.0, 0.0, 0.0, 0.0, 1.66349884048147E9, 0.0, 2022-09-18 16:00:40.481
189.0, -50926.52749139399, -21081.74068710097, -35502.46036082034, -51597.9291913425, -49709.29619184687, -187500.02235174447, -36472.54842192512, -30537.802641129812, 0.64, -0.682, 0.41600000000000004, 192.0, 0.0, 0.0, 0.0, 0.0, 0.0, 0.0, 0.0, 0.0, 0.0, 1.6634988404855225E9, 0.0, 2022-09-18 16:00:40.485
190.0, -51178.78927931658, -20692.172132989424, -35770.50248032838, -51854.86249385626, -49067.08587015699, -187500.02235174447, -36718.75288710033, -30787.650440651232, 0.64, -0.678, 0.406, 192.0, 20.0, 0.0, 234.0, 208.0, 12.0, 176.0, 0.0, 0.0, 0.0, 1.6634988404895473E9, 0.0, 2022-09-18 16:00:40.489
191.0, -51473.98876833782, -22072.41470484909, -35271.34332315246, -51370.38843278748, -49361.97243475586, -187500.02235174447, -36319.95306252874, -30362.58731634466, 0.64, -0.678, 0.406, 192.0, 0.0, 0.0, 0.0, 0.0, 0.0, 0.0, 0.0, 0.0, 0.0, 1.663498840493526E9, 0.0, 2022-09-18 16:00:40.493
192.0, -51160.75142154115, -22446.091168652914, -34999.993145465036, -51111.845804672936, -49842.87021671179, -187500.02235174447, -36064.27145770448, -30104.022336485665, 0.64, -0.678, 0.406, 192.0, 0.0, 0.0, 0.0, 0.0, 0.0, 0.0, 0.0, 0.0, 0.0, 1.6634988404985611E9, 0.0, 2022-09-18 16:00:40.498
193.0, -50980.64106472029, -21823.483326850335, -35161.90918229928, -51261.446030312305, -49789.784823630434, -187500.02235174447, -36184.27797368503, -30230.376747891518, 0.64, -0.678, 0.406, 192.0, 0.0, 0.0, 0.0, 0.0, 0.0, 0.0, 0.0, 0.0, 0.0, 1.6634988405015564E9, 0.0, 2022-09-18 16:00:40.501
194.0, -50924.02409601499, -21035.427872589575, -35516.609015060545, -51603.56183094524, -49706.59163076778, -187500.02235174447, -36489.42398898888, -30543.547039454825, 0.64, -0.678, 0.406, 192.0, 0.0, 0.0, 0.0, 0.0, 0.0, 0.0, 0.0, 0.0, 0.0, 1.663498840505549E9, 0.0, 2022-09-18 16:00:40.505
195.0, -51187.03707302059, -20705.404365706967, -35770.74834951739, -51857.3882409797, -49047.282224569586, -187500.02235174447, -36726.464238937406, -30788.388048218258, 0.64, -0.678, 0.406, 192.0, 0.0, 0.0, 0.0, 0.0, 0.0, 0.0, 0.0, 0.0, 0.0, 1.6634988405095162E9, 0.0, 2022-09-18 16:00:40.509
196.0, -51457.671994885444, -22105.47293489849, -35238.866238458904, -51346.69558366485, -49396.14825202802, -187500.02235174447, -36295.14262618335, -30335.519353809283, 0.64, -0.678, 0.406, 192.0, 0.0, 0.0, 0.0, 0.0, 0.0, 0.0, 0.0, 0.0, 0.0, 1.6634988405136495E9, 0.0, 2022-09-18 16:00:40.513
197.0, -51135.78452298457, -22427.71803471065, -34990.001915693516, -51109.7670924386, -49852.79439124995, -187500.02235174447, -36065.74667283853, -30093.807589269592, 0.64, -0.678, 0.406, 192.0, 0.0, 0.0, 0.0, 0.0, 0.0, 0.0, 0.0, 0.0, 0.0, 1.663498840517553E9, 0.0, 2022-09-18 16:00:40.517
198.0, -50977.02008211853, -21811.815716244666, -35167.60887713538, -51280.176792165854, -49807.822681405865, -187500.02235174447, -36211.368287964855, -30241.172640463432, 0.64, -0.678, 0.406, 192.0, 0.0, 0.0, 0.0, 0.0, 0.0, 0.0, 0.0, 0.0, 0.0, 1.6634988405215456E9, 0.0, 2022-09-18 16:00:40.521
199.0, -50933.009497286024, -21010.617436244185, -35536.949102514875, -51638.36349706215, -49720.874395474726, -187500.02235174447, -36533.54633254365, -30573.85600493622, 0.64, -0.678, 0.406, 192.0, 0.0, 0.0, 0.0, 0.0, 0.0, 0.0, 0.0, 0.0, 0.0, 1.6634988405265532E9, 0.0, 2022-09-18 16:00:40.526
200.0, -51198.592924903984, -20717.250790268277, -35764.91454421455, -51860.04809856989, -49066.75059399016, -187500.02235174447, -36757.68962594147, -30788.008068562518, 0.65, -0.672, 0.41200000000000003, 192.0, 20.0, 80.0, 235.0, 0.0, 12.0, 224.0, 0.0, 0.0, 0.0, 1.6634988405296144E9, 0.0, 2022-09-18 16:00:40.529
201.0, -51436.639003353004, -22121.90146707314, -35218.68261321576, -51329.618850900995, -49404.77602538777, -187500.02235174447, -36326.47977190969, -30316.073336133166, 0.65, -0.672, 0.41200000000000003, 192.0, 0.0, 0.0, 0.0, 0.0, 0.0, 0.0, 0.0, 0.0, 0.0, 1.6634988405336113E9, 0.0, 2022-09-18 16:00:40.533
202.0, -51131.02360141559, -22434.982351658626, -35008.77738103597, -51123.513415278605, -49852.704984272124, -187500.02235174447, -36129.11386836933, -30106.995118498224, 0.65, -0.672, 0.41200000000000003, 192.0, 0.0, 0.0, 0.0, 0.0, 0.0, 0.0, 0.0, 0.0, 0.0, 1.6634988405375376E9, 0.0, 2022-09-18 16:00:40.537
203.0, -50987.14542235678, -21826.07612920715, -35185.28910699953, -51296.94060050733, -49810.9072221407, -187500.02235174447, -36262.88905893434, -30257.578820893625, 0.65, -0.672, 0.41200000000000003, 192.0, 0.0, 0.0, 0.0, 0.0, 0.0, 0.0, 0.0, 0.0, 0.0, 1.6634988405417156E9, 0.0, 2022-09-18 16:00:40.541
204.0, -50924.337020437364, -20987.706898177494, -35521.727564540815, -51630.003944635864, -49683.9269618901, -187500.02235174447, -36547.94085597287, -30562.166042586094, 0.65, -0.672, 0.41200000000000003, 192.0, 0.0, 0.0, 0.0, 0.0, 0.0, 0.0, 0.0, 0.0, 0.0, 1.663498840545624E9, 0.0, 2022-09-18 16:00:40.545
205.0, -51205.6337244074, -20735.355703277077, -35743.59098000419, -51849.47572344253, -49036.240462808666, -187500.02235174447, -36757.019073607815, -30776.69808586813, 0.65, -0.672, 0.41200000000000003, 192.0, 0.0, 0.0, 0.0, 0.0, 0.0, 0.0, 0.0, 0.0, 0.0, 1.6634988405496256E9, 0.0, 2022-09-18 16:00:40.549
206.0, -51441.33286968862, -22156.94900237906, -35206.232691554156, -51317.61596412849, -49398.31637124019, -187500.02235174447, -36322.814085819016, -30302.885806904535, 0.65, -0.672, 0.41200000000000003, 192.0, 0.0, 0.0, 0.0, 0.0, 0.0, 0.0, 0.0, 0.0, 0.0, 1.6634988405536344E9, 0.0, 2022-09-18 16:00:40.553
207.0, -51136.45507531823, -22421.90658115227, -35014.72294506108, -51125.1674443683, -49826.32992581486, -187500.02235174447, -36130.633786992286, -30107.28569117614, 0.65, -0.672, 0.41200000000000003, 192.0, 0.0, 0.0, 0.0, 0.0, 0.0, 0.0, 0.0, 0.0, 0.0, 1.6634988405576854E9, 0.0, 2022-09-18 16:00:40.557
208.0, -50989.022968891026, -21806.674815019946, -35198.051953083515, -51297.588801096535, -49793.04817832091, -187500.02235174447, -36264.788957213044, -30257.042379026698, 0.65, -0.672, 0.41200000000000003, 192.0, 0.0, 0.0, 0.0, 0.0, 0.0, 0.0, 0.0, 0.0, 0.0, 1.6634988405606484E9, 0.0, 2022-09-18 16:00:40.560
209.0, -50921.632459358276, -20974.362906737675, -35551.38832943301, -51641.760962219356, -49671.52174371741, -187500.02235174447, -36559.98844623428, -30572.917231669097, 0.65, -0.672, 0.41200000000000003, 192.0, 0.0, 0.0, 0.0, 0.0, 0.0, 0.0, 0.0, 0.0, 0.0, 1.663498840565647E9, 0.0, 2022-09-18 16:00:40.565
210.0, -51203.0856255395, -20749.57141275065, -35756.28677085481, -51846.74881061898, -49027.299765026546, -187500.02235174447, -36750.17943980449, -30774.217042233595, 0.646, -0.674, 0.404, 192.0, 20.0, 48.0, 234.0, 240.0, 12.0, 160.0, 0.0, 0.0, 0.0, 1.6634988405696979E9, 0.0, 2022-09-18 16:00:40.569
211.0, -51424.92668925842, -22186.67682250462, -35205.49508398713, -51310.10577799151, -49392.39315895953, -187500.02235174447, -36293.33213488247, -30292.402838754995, 0.646, -0.674, 0.404, 192.0, 0.0, 0.0, 0.0, 0.0, 0.0, 0.0, 0.0, 0.0, 0.0, 1.663498840573672E9, 0.0, 2022-09-18 16:00:40.573
212.0, -51089.62817068436, -22411.356557769366, -35009.20206418062, -51108.44833951573, -49814.595259975824, -187500.02235174447, -36096.1226935533, -30083.81635949807, 0.646, -0.674, 0.404, 192.0, 0.0, 0.0, 0.0, 0.0, 0.0, 0.0, 0.0, 0.0, 0.0, 1.663498840577634E9, 0.0, 2022-09-18 16:00:40.577
213.0, -50967.900570380756, -21801.533913795225, -35220.06842137199, -51304.69665583332, -49795.77509114446, -187500.02235174447, -36263.09022463444, -30256.684751115416, 0.646, -0.674, 0.404, 192.0, 0.0, 0.0, 0.0, 0.0, 0.0, 0.0, 0.0, 0.0, 0.0, 1.6634988405816648E9, 0.0, 2022-09-18 16:00:40.581
214.0, -50894.720959034086, -20944.925659290035, -35568.643876152506, -51645.02431690983, -49645.54901666034, -187500.02235174447, -36547.09148968357, -30570.77146420139, 0.646, -0.674, 0.404, 192.0, 0.0, 0.0, 0.0, 0.0, 0.0, 0.0, 0.0, 0.0, 0.0, 1.6634988405857096E9, 0.0, 2022-09-18 16:00:40.585
215.0, -51201.744520872184, -20770.78321823874, -35764.445157580994, -51842.189054750095, -49012.72642764168, -187500.02235174447, -36730.19698026145, -30768.51734739749, 0.646, -0.674, 0.404, 192.0, 0.0, 0.0, 0.0, 0.0, 0.0, 0.0, 0.0, 0.0, 0.0, 1.6634988405887046E9, 0.0, 2022-09-18 16:00:40.588
216.0, -51415.69541879838, -22206.614578558754, -35207.283223543556, -51300.22630694226, -49412.755598158314, -187500.02235174447, -36261.145622866825, -30286.032591585234, 0.646, -0.674, 0.404, 192.0, 0.0, 0.0, 0.0, 0.0, 0.0, 0.0, 0.0, 0.0, 0.0, 1.6634988405926652E9, 0.0, 2022-09-18 16:00:40.592
217.0, -51092.9585806082, -22403.24287453209, -35023.93186377667, -51120.40652279932, -49818.21624257758, -187500.02235174447, -36068.60769612881, -30101.071906217567, 0.646, -0.674, 0.404, 192.0, 0.0, 0.0, 0.0, 0.0, 0.0, 0.0, 0.0, 0.0, 0.0, 1.6634988405977275E9, 0.0, 2022-09-18 16:00:40.597
218.0, -50965.26306453504, -21784.434829286914, -35217.98970913765, -51306.82007155658, -49790.835355619834, -187500.02235174447, -36216.30802348948, -30267.145367520498, 0.646, -0.674, 0.404, 192.0, 0.0, 0.0, 0.0, 0.0, 0.0, 0.0, 0.0, 0.0, 0.0, 1.6634988406018052E9, 0.0, 2022-09-18 16:00:40.601
219.0, -50903.59460158284, -20942.265801699854, -35581.16085304748, -51664.492686330406, -49646.48778992746, -187500.02235174447, -36513.720335211794, -30597.34768835875, 0.646, -0.674, 0.404, 192.0, 0.0, 0.0, 0.0, 0.0, 0.0, 0.0, 0.0, 0.0, 0.0, 1.663498840605704E9, 0.0, 2022-09-18 16:00:40.605
220.0, -51208.96413433125, -20799.505209863808, -35758.49959355588, -51837.27167096993, -49021.555366701534, -187500.02235174447, -36674.56348831219, -30770.104321253817, 0.65, -0.682, 0.40800000000000003, 192.0, 20.0, 80.0, 234.0, 176.0, 12.0, 192.0, 0.0, 0.0, 0.0, 1.6634988406096857E9, 0.0, 2022-09-18 16:00:40.609
221.0, -51411.69445654088, -22220.96439849906, -35196.82260713847, -51292.31378940509, -49423.4173802635, -187500.02235174447, -36193.08456100042, -30281.85281537209, 0.65, -0.682, 0.40800000000000003, 192.0, 0.0, 0.0, 0.0, 0.0, 0.0, 0.0, 0.0, 0.0, 0.0, 1.6634988406137311E9, 0.0, 2022-09-18 16:00:40.613
222.0, -51097.67479868827, -22390.72589763712, -35032.93961679216, -51138.4220288303, -49798.14437605672, -187500.02235174447, -36011.76720997896, -30118.752136081715, 0.65, -0.682, 0.40800000000000003, 192.0, 0.0, 0.0, 0.0, 0.0, 0.0, 0.0, 0.0, 0.0, 0.0, 1.6634988406167412E9, 0.0, 2022-09-18 16:00:40.616
223.0, -50978.33883504139, -21781.372640296537, -35231.065479644, -51324.612060143, -49759.520561637946, -187500.02235174447, -36155.22070589312, -30284.71383866237, 0.65, -0.682, 0.40800000000000003, 192.0, 0.0, 0.0, 0.0, 0.0, 0.0, 0.0, 0.0, 0.0, 0.0, 1.6634988406217136E9, 0.0, 2022-09-18 16:00:40.621
224.0, -50923.84528205935, -20922.70802530146, -35598.52815848925, -51675.22152366895, -49583.2547048634, -187500.02235174447, -36451.76129958168, -30610.57992107629, 0.65, -0.682, 0.40800000000000003, 192.0, 0.0, 0.0, 0.0, 0.0, 0.0, 0.0, 0.0, 0.0, 0.0, 1.663498840625693E9, 0.0, 2022-09-18 16:00:40.625
225.0, -51243.072896370046, -20824.092128764645, -35756.93497144401, -51832.66721161213, -48966.43596487474, -187500.02235174447, -36600.95919382086, -30774.015876533496, 0.65, -0.682, 0.40800000000000003, 192.0, 0.0, 0.0, 0.0, 0.0, 0.0, 0.0, 0.0, 0.0, 0.0, 1.663498840629829E9, 0.0, 2022-09-18 16:00:40.629
226.0, -51436.03550625271, -22248.814672090375, -35193.715714659185, -51286.45763235779, -49398.986923573844, -187500.02235174447, -36121.268406065516, -30285.496149718303, 0.65, -0.682, 0.40800000000000003, 192.0, 0.0, 0.0, 0.0, 0.0, 0.0, 0.0, 0.0, 0.0, 0.0, 1.663498840633713E9, 0.0, 2022-09-18 16:00:40.633
227.0, -51115.131511107866, -22375.794932340974, -35036.962930794114, -51139.047877675046, -49777.491364180016, -187500.02235174447, -35951.86453483874, -30126.284673963153, 0.65, -0.682, 0.40800000000000003, 192.0, 0.0, 0.0, 0.0, 0.0, 0.0, 0.0, 0.0, 0.0, 0.0, 1.6634988406377175E9, 0.0, 2022-09-18 16:00:40.637
228.0, -50990.5875910029, -21767.179282567417, -35227.80212495352, -51322.86862407549, -49748.255282432474, -187500.02235174447, -36096.592080186856, -30289.720629420357, 0.65, -0.682, 0.40800000000000003, 192.0, 0.0, 0.0, 0.0, 0.0, 0.0, 0.0, 0.0, 0.0, 0.0, 1.663498840641711E9, 0.0, 2022-09-18 16:00:40.641
229.0, -50930.1708257402, -20903.507876814354, -35603.13261784704, -51684.07281447325, -49576.99621641591, -187500.02235174447, -36407.08016241553, -30624.370947405216, 0.65, -0.682, 0.40800000000000003, 192.0, 0.0, 0.0, 0.0, 0.0, 0.0, 0.0, 0.0, 0.0, 0.0, 1.663498840644869E9, 0.0, 2022-09-18 16:00:40.644
230.0, -51257.71328898827, -20840.45360570593, -35763.55108780278, -51837.986926792495, -48977.8130028025, -187500.02235174447, -36564.25762942524, -30781.70487662612, 0.656, -0.68, 0.40800000000000003, 192.0, 20.0, 128.0, 234.0, 192.0, 12.0, 192.0, 0.0, 0.0, 0.0, 1.6634988406497324E9, 0.0, 2022-09-18 16:00:40.649
231.0, -51431.29693642818, -22270.853492123308, -35198.43193273925, -51281.517896833175, -49409.84987137913, -187500.02235174447, -36097.843777876355, -30281.94222234991, 0.656, -0.68, 0.40800000000000003, 192.0, 0.0, 0.0, 0.0, 0.0, 0.0, 0.0, 0.0, 0.0, 0.0, 1.6634988406537423E9, 0.0, 2022-09-18 16:00:40.653
232.0, -51093.740891664136, -22374.47617941811, -35057.258314759536, -51139.2713951196, -49745.818942286845, -187500.02235174447, -35950.03169179341, -30130.978540298765, 0.656, -0.68, 0.40800000000000003, 192.0, 0.0, 0.0, 0.0, 0.0, 0.0, 0.0, 0.0, 0.0, 0.0, 1.6634988406577911E9, 0.0, 2022-09-18 16:00:40.657
233.0, -50981.15515484276, -21772.11901809204, -35264.101357948944, -51335.18443527036, -49718.46040707355, -187500.02235174447, -36115.70282169614, -30307.177341839953, 0.656, -0.68, 0.40800000000000003, 192.0, 0.0, 0.0, 0.0, 0.0, 0.0, 0.0, 0.0, 0.0, 0.0, 1.663498840661838E9, 0.0, 2022-09-18 16:00:40.661
234.0, -50928.60620362833, -20900.28922561279, -35633.95567345091, -51695.82983205674, -49521.966221566945, -187500.02235174447, -36428.381374881435, -30638.25138071196, 0.656, -0.68, 0.40800000000000003, 192.0, 0.0, 0.0, 0.0, 0.0, 0.0, 0.0, 0.0, 0.0, 0.0, 1.6634988406648254E9, 0.0, 2022-09-18 16:00:40.664
235.0, -51251.92418717434, -20863.989992617368, -35751.03411090781, -51826.78870282039, -48903.828728655426, -187500.02235174447, -36562.22362067981, -30777.055713779417, 0.656, -0.68, 0.40800000000000003, 192.0, 0.0, 0.0, 0.0, 0.0, 0.0, 0.0, 0.0, 0.0, 0.0, 1.663498840668836E9, 0.0, 2022-09-18 16:00:40.668
236.0, -51420.81396827865, -22286.477361497567, -35155.2483624516, -51280.109736932485, -49331.462303574364, -187500.02235174447, -36095.98858308656, -30285.987888096322, 0.656, -0.68, 0.40800000000000003, 192.0, 0.0, 0.0, 0.0, 0.0, 0.0, 0.0, 0.0, 0.0, 0.0, 1.6634988406728008E9, 0.0, 2022-09-18 16:00:40.672
237.0, -51093.00328409711, -22358.114702476825, -35027.30697718942, -51155.90109299435, -49642.4644759255, -187500.02235174447, -35959.62059016473, -30150.40220623043, 0.656, -0.68, 0.40800000000000003, 192.0, 0.0, 0.0, 0.0, 0.0, 0.0, 0.0, 0.0, 0.0, 0.0, 1.6634988406768382E9, 0.0, 2022-09-18 16:00:40.676
238.0, -50969.867523892826, -21748.7837968807, -35224.315252818495, -51341.48762720676, -49609.78622553185, -187500.02235174447, -36117.04392636346, -30315.492190777328, 0.656, -0.68, 0.40800000000000003, 192.0, 0.0, 0.0, 0.0, 0.0, 0.0, 0.0, 0.0, 0.0, 0.0, 1.663498840681857E9, 0.0, 2022-09-18 16:00:40.681
239.0, -50916.80448255593, -20883.79363820477, -35597.58938522213, -51712.079550275754, -49421.3163162847, -187500.02235174447, -36437.56794185257, -30655.350465220272, 0.656, -0.68, 0.40800000000000003, 192.0, 0.0, 0.0, 0.0, 0.0, 0.0, 0.0, 0.0, 0.0, 0.0, 1.6634988406858287E9, 0.0, 2022-09-18 16:00:40.685
240.0, -51254.94167267581, -20900.04335642378, -35723.273244294316, -51840.646784382676, -48842.6296523368, -187500.02235174447, -36573.19832720737, -30787.695144140143, 0.644, -0.668, 0.41400000000000003, 192.0, 20.0, 32.0, 235.0, 32.0, 12.0, 240.0, 0.0, 0.0, 0.0, 1.663498840689822E9, 0.0, 2022-09-18 16:00:40.689
241.0, -51390.54970628616, -22318.038024668458, -35140.60796983337, -51274.20887639629, -49308.0376753852, -187500.02235174447, -36086.936126582164, -30275.70608564688, 0.644, -0.668, 0.41400000000000003, 192.0, 0.0, 0.0, 0.0, 0.0, 0.0, 0.0, 0.0, 0.0, 0.0, 1.663498840692875E9, 0.0, 2022-09-18 16:00:40.692
242.0, -51067.20937099569, -22357.935888521184, -35035.443012171156, -51171.50261062415, -49641.70451661402, -187500.02235174447, -35972.137567059704, -30161.265154035707, 0.644, -0.668, 0.41400000000000003, 192.0, 0.0, 0.0, 0.0, 0.0, 0.0, 0.0, 0.0, 0.0, 0.0, 1.6634988406968799E9, 0.0, 2022-09-18 16:00:40.696
243.0, -50953.640157418275, -21746.772139879722, -35239.73795649266, -51365.85102866305, -49643.604414892725, -187500.02235174447, -36136.55699927294, -30332.926551452467, 0.644, -0.668, 0.41400000000000003, 192.0, 0.0, 0.0, 0.0, 0.0, 0.0, 0.0, 0.0, 0.0, 0.0, 1.6634988407009115E9, 0.0, 2022-09-18 16:00:40.700
244.0, -50921.3195349359, -20891.03560340829, -35632.23458912785, -51747.529416981866, -49470.49015408637, -187500.02235174447, -36468.301590478615, -30685.748837679486, 0.644, -0.668, 0.41400000000000003, 192.0, 0.0, 0.0, 0.0, 0.0, 0.0, 0.0, 0.0, 0.0, 0.0, 1.6634988407048764E9, 0.0, 2022-09-18 16:00:40.704
245.0, -51268.53153330464, -20952.346438449196, -35735.54435200028, -51851.39797346568, -48924.459388787676, -187500.02235174447, -36584.843586068586, -30799.608623934822, 0.644, -0.668, 0.41400000000000003, 192.0, 0.0, 0.0, 0.0, 0.0, 0.0, 0.0, 0.0, 0.0, 0.0, 1.663498840709888E9, 0.0, 2022-09-18 16:00:40.709
246.0, -51410.286296640195, -22377.448961430666, -35166.156013745785, -51300.874507531465, -49424.53496748626, -187500.02235174447, -36116.03809786298, -30304.741001694325, 0.644, -0.668, 0.41400000000000003, 192.0, 0.0, 0.0, 0.0, 0.0, 0.0, 0.0, 0.0, 0.0, 0.0, 1.6634988407139077E9, 0.0, 2022-09-18 16:00:40.713
247.0, -51080.598065924416, -22381.896958577272, -35058.219439771114, -51195.57543940251, -49740.25335791747, -187500.02235174447, -35987.35910503377, -30183.885119424478, 0.644, -0.668, 0.41400000000000003, 192.0, 0.0, 0.0, 0.0, 0.0, 0.0, 0.0, 0.0, 0.0, 0.0, 1.663498840718E9, 0.0, 2022-09-18 16:00:40.718
248.0, -50959.60807318784, -21756.852776629064, -35246.82345948499, -51377.07160437961, -49739.26988116144, -187500.02235174447, -36146.79409823348, -30344.90708648051, 0.644, -0.668, 0.41400000000000003, 192.0, 0.0, 0.0, 0.0, 0.0, 0.0, 0.0, 0.0, 0.0, 0.0, 1.6634988407209017E9, 0.0, 2022-09-18 16:00:40.720
249.0, -50917.005648256025, -20880.351469558653, -35642.06935668819, -51758.012385131406, -49513.74077960739, -187500.02235174447, -36488.909898866405, -30697.148227351696, 0.644, -0.668, 0.41400000000000003, 192.0, 0.0, 0.0, 0.0, 0.0, 0.0, 0.0, 0.0, 0.0, 0.0, 1.6634988407249143E9, 0.0, 2022-09-18 16:00:40.724
250.0, -51266.38576583693, -20978.050944572802, -35723.005023360856, -51838.50101691497, -48966.01128173009, -187500.02235174447, -36573.24303069628, -30788.946841829642, 0.646, -0.676, 0.418, 192.0, 20.0, 48.0, 234.0, 224.0, 13.0, 16.0, 0.0, 0.0, 0.0, 1.6634988407288907E9, 0.0, 2022-09-18 16:00:40.728
251.0, -51401.72557851381, -22384.400353956265, -35158.95875203118, -51285.31769339058, -49480.369625135616, -187500.02235174447, -36109.39962975975, -30287.641917186014, 0.646, -0.676, 0.418, 192.0, 0.0, 0.0, 0.0, 0.0, 0.0, 0.0, 0.0, 0.0, 0.0, 1.6634988407329667E9, 0.0, 2022-09-18 16:00:40.732
252.0, -51060.57090289246, -22323.04481542645, -35056.02896881449, -51181.76206132914, -49742.6896980631, -187500.02235174447, -35995.07045687085, -30166.271944793698, 0.646, -0.676, 0.418, 192.0, 0.0, 0.0, 0.0, 0.0, 0.0, 0.0, 0.0, 0.0, 0.0, 1.6634988407369397E9, 0.0, 2022-09-18 16:00:40.736
253.0, -50955.76357314153, -21714.227999952796, -35252.5231543211, -51369.82963917609, -49705.07171214482, -187500.02235174447, -36150.839763979886, -30335.653464276013, 0.646, -0.676, 0.418, 192.0, 0.0, 0.0, 0.0, 0.0, 0.0, 0.0, 0.0, 0.0, 0.0, 1.6634988407419467E9, 0.0, 2022-09-18 16:00:40.741
254.0, -50929.83554957337, -20850.198966288444, -35648.81958351369, -51752.7150216955, -49436.895482170046, -187500.02235174447, -36484.12662555297, -30686.464093502058, 0.646, -0.676, 0.418, 192.0, 0.0, 0.0, 0.0, 0.0, 0.0, 0.0, 0.0, 0.0, 0.0, 1.663498840745912E9, 0.0, 2022-09-18 16:00:40.745
255.0, -51301.38859765394, -20988.466857488973, -35736.21490433394, -51839.28332797091, -48862.00861477955, -187500.02235174447, -36585.044751768684, -30783.872995838286, 0.646, -0.676, 0.418, 192.0, 0.0, 0.0, 0.0, 0.0, 0.0, 0.0, 0.0, 0.0, 0.0, 1.663498840748986E9, 0.0, 2022-09-18 16:00:40.748
0.0, -51415.47190135383, -22399.890112863795, -35155.874211296345, -51274.85707698549, -49356.58566434213, -187500.02235174447, -36093.06050456292, -30269.961687321866, 0.646, -0.676, 0.418, 192.0, 0.0, 0.0, 0.0, 0.0, 0.0, 0.0, 0.0, 0.0, 0.0, 1.6634988407530067E9, 0.0, 2022-09-18 16:00:40.753
1.0, -51079.45812695719, -22334.578315565388, -35064.54498345196, -51186.41122417584, -49605.941725485536, -187500.02235174447, -35982.24055555351, -30162.047465091644, 0.646, -0.676, 0.418, 192.0, 0.0, 0.0, 0.0, 0.0, 0.0, 0.0, 0.0, 0.0, 0.0, 1.6634988407569401E9, 0.0, 2022-09-18 16:00:40.756
2.0, -50986.787794445496, -21720.754709333745, -35274.29375342056, -51390.39324407497, -49623.264327438395, -187500.02235174447, -36153.52197331452, -30346.784633014755, 0.646, -0.676, 0.418, 192.0, 0.0, 0.0, 0.0, 0.0, 0.0, 0.0, 0.0, 0.0, 0.0, 1.66349884076099E9, 0.0, 2022-09-18 16:00:40.760
3.0, -50963.430221489696, -20842.420559217997, -35677.80979607222, -51785.48267906698, -49404.865432365594, -187500.02235174447, -36490.876852378475, -30713.956739182086, 0.646, -0.676, 0.418, 192.0, 0.0, 0.0, 0.0, 0.0, 0.0, 0.0, 0.0, 0.0, 0.0, 1.663498840765993E9, 0.0, 2022-09-18 16:00:40.765
4.0, -51327.89776657793, -21028.320017852788, -35727.92240714102, -51839.819769837835, -48889.68007441522, -187500.02235174447, -36559.250838667256, -30783.247146993537, 0.658, -0.684, 0.418, 192.0, 20.0, 144.0, 234.0, 160.0, 13.0, 16.0, 0.0, 0.0, 0.0, 1.663498840770006E9, 0.0, 2022-09-18 16:00:40.770
5.0, -51421.21629967884, -22428.030959133026, -35149.57101935995, -51275.9523124638, -49433.02863037928, -187500.02235174447, -36075.58144039887, -30269.201728010386, 0.658, -0.684, 0.418, 192.0, 0.0, 0.0, 0.0, 0.0, 0.0, 0.0, 0.0, 0.0, 0.0, 1.6634988407740614E9, 0.0, 2022-09-18 16:00:40.774
6.0, -51087.929438105755, -22338.400463867245, -35082.44873076066, -51205.879593596415, -49703.70825573305, -187500.02235174447, -35988.02965736743, -30182.32049731261, 0.658, -0.684, 0.418, 192.0, 0.0, 0.0, 0.0, 0.0, 0.0, 0.0, 0.0, 0.0, 0.0, 1.6634988407770002E9, 0.0, 2022-09-18 16:00:40.777
7.0, -50978.04826236347, -21710.562313862123, -35291.437541417785, -51400.96561920233, -49699.059092886346, -187500.02235174447, -36151.957351202655, -30359.458072120917, 0.658, -0.684, 0.418, 192.0, 0.0, 0.0, 0.0, 0.0, 0.0, 0.0, 0.0, 0.0, 0.0, 1.663498840780986E9, 0.0, 2022-09-18 16:00:40.780
8.0, -50937.23397698808, -20834.418634702997, -35689.566813655714, -51788.366054101716, -49429.050019866234, -187500.02235174447, -36486.74177965424, -30718.047108417406, 0.658, -0.684, 0.418, 192.0, 0.0, 0.0, 0.0, 0.0, 0.0, 0.0, 0.0, 0.0, 0.0, 1.6634988407849953E9, 0.0, 2022-09-18 16:00:40.784
9.0, -51292.984341738746, -21049.822396018793, -35709.37045924312, -51813.28824916938, -48916.92685090624, -187500.02235174447, -36530.75236448674, -30760.962457771595, 0.658, -0.684, 0.418, 192.0, 0.0, 0.0, 0.0, 0.0, 0.0, 0.0, 0.0, 0.0, 0.0, 1.6634988407890604E9, 0.0, 2022-09-18 16:00:40.789
10.0, -51396.11529065553, -22437.664560993264, -35139.28921691051, -51262.2506931127, -49470.75837501984, -187500.02235174447, -36056.33658842285, -30262.89853607399, 0.658, -0.684, 0.418, 192.0, 0.0, 0.0, 0.0, 0.0, 0.0, 0.0, 0.0, 0.0, 0.0, 1.6634988407930515E9, 0.0, 2022-09-18 16:00:40.793
11.0, -51066.38235645084, -22316.339292089855, -35077.68780919168, -51199.91167782684, -49699.0814446308, -187500.02235174447, -35975.780901405924, -30183.795712446656, 0.658, -0.684, 0.418, 192.0, 0.0, 0.0, 0.0, 0.0, 0.0, 0.0, 0.0, 0.0, 0.0, 1.6634988407980447E9, 0.0, 2022-09-18 16:00:40.798
12.0, -50946.97933757059, -21674.106618655518, -35276.953611010744, -51382.21250560433, -49675.79092690837, -187500.02235174447, -36138.278083596, -30346.91874348149, 0.658, -0.684, 0.418, 192.0, 0.0, 0.0, 0.0, 0.0, 0.0, 0.0, 0.0, 0.0, 0.0, 1.6634988408020475E9, 0.0, 2022-09-18 16:00:40.802
13.0, -50931.623689129796, -20804.377890155065, -35698.172235271006, -51788.142536657164, -49399.25514450731, -187500.02235174447, -36502.5668147286, -30721.109297407784, 0.658, -0.684, 0.418, 192.0, 0.0, 0.0, 0.0, 0.0, 0.0, 0.0, 0.0, 0.0, 0.0, 1.6634988408051438E9, 0.0, 2022-09-18 16:00:40.805
14.0, -51299.131071463955, -21082.813570834824, -35719.80872390374, -51807.43209212209, -48898.62077219734, -187500.02235174447, -36562.313027657634, -30757.4085304032, 0.648, -0.674, 0.42, 192.0, 20.0, 64.0, 234.0, 240.0, 13.0, 32.0, 0.0, 0.0, 0.0, 1.6634988408090496E9, 0.0, 2022-09-18 16:00:40.809
15.0, -51372.958883399835, -22470.298107898012, -35159.651656109294, -51260.77547797865, -49455.82740972369, -187500.02235174447, -36086.95847832662, -30261.065693028653, 0.648, -0.674, 0.42, 192.0, 0.0, 0.0, 0.0, 0.0, 0.0, 0.0, 0.0, 0.0, 0.0, 1.6634988408130727E9, 0.0, 2022-09-18 16:00:40.813
16.0, -51048.72447833115, -22332.812527753416, -35113.3388415979, -51215.110864056456, -49683.390520023175, -187500.02235174447, -36017.869236215265, -30194.50219804075, 0.648, -0.674, 0.42, 192.0, 0.0, 0.0, 0.0, 0.0, 0.0, 0.0, 0.0, 0.0, 0.0, 1.6634988408170996E9, 0.0, 2022-09-18 16:00:40.817
17.0, -50937.479846177084, -21696.43601136637, -35306.524968925114, -51401.41265409144, -49677.512011231425, -187500.02235174447, -36180.20995619416, -30360.30743841022, 0.648, -0.674, 0.42, 192.0, 0.0, 0.0, 0.0, 0.0, 0.0, 0.0, 0.0, 0.0, 0.0, 1.663498840821111E9, 0.0, 2022-09-18 16:00:40.821
18.0, -50894.20686891161, -20799.058174974703, -35692.45018869045, -51777.3689958297, -49389.62154264707, -187500.02235174447, -36506.50072175273, -30704.7478204665, 0.648, -0.674, 0.42, 192.0, 0.0, 0.0, 0.0, 0.0, 0.0, 0.0, 0.0, 0.0, 0.0, 1.6634988408261628E9, 0.0, 2022-09-18 16:00:40.826
19.0, -51283.37309162296, -21124.32076028833, -35705.28009000779, -51798.24552515096, -48912.858833415376, -187500.02235174447, -36547.002082705745, -30743.192820929627, 0.648, -0.674, 0.42, 192.0, 0.0, 0.0, 0.0, 0.0, 0.0, 0.0, 0.0, 0.0, 0.0, 1.6634988408291578E9, 0.0, 2022-09-18 16:00:40.829
20.0, -51344.95214759733, -22498.148381489325, -35130.21440866165, -51243.25171032569, -49508.01873302683, -187500.02235174447, -36065.836079816356, -30237.46225088385, 0.648, -0.674, 0.42, 192.0, 0.0, 0.0, 0.0, 0.0, 0.0, 0.0, 0.0, 0.0, 0.0, 1.663498840832161E9, 0.0, 2022-09-18 16:00:40.832
21.0, -51016.135634915314, -22299.016690136992, -35088.52840525251, -51208.315933742044, -49720.1367879077, -187500.02235174447, -36007.9003581882, -30183.54984325765, 0.648, -0.674, 0.42, 192.0, 0.0, 0.0, 0.0, 0.0, 0.0, 0.0, 0.0, 0.0, 0.0, 1.6634988408371122E9, 0.0, 2022-09-18 16:00:40.837
22.0, -50936.026982787494, -21676.654717523423, -35313.96809982874, -51424.971392747335, -49717.007543683954, -187500.02235174447, -36190.894090043796, -30379.06055200822, 0.648, -0.674, 0.42, 192.0, 0.0, 0.0, 0.0, 0.0, 0.0, 0.0, 0.0, 0.0, 0.0, 1.6634988408412027E9, 0.0, 2022-09-18 16:00:40.841
23.0, -50911.775340053486, -20796.73359355135, -35712.700869166954, -51807.25327816645, -49424.15498783052, -187500.02235174447, -36531.86995170951, -30728.08304167784, 0.648, -0.674, 0.42, 192.0, 0.0, 0.0, 0.0, 0.0, 0.0, 0.0, 0.0, 0.0, 0.0, 1.6634988408451562E9, 0.0, 2022-09-18 16:00:40.845
24.0, -51301.522708120676, -21143.207984353066, -35697.00994455933, -51793.99869370445, -48968.38056664236, -187500.02235174447, -36556.61333282153, -30737.56018132689, 0.648, -0.674, 0.42, 192.0, 0.0, 0.0, 0.0, 0.0, 0.0, 0.0, 0.0, 0.0, 0.0, 1.6634988408491805E9, 0.0, 2022-09-18 16:00:40.849
25.0, -51354.563397713115, -22495.35441343241, -35129.588559816904, -51244.883387670925, -49563.42870753154, -187500.02235174447, -36074.4638531761, -30237.79752705068, 0.648, -0.676, 0.41600000000000004, 192.0, 20.0, 64.0, 234.0, 224.0, 13.0, 0.0, 0.0, 0.0, 0.0, 1.6634988408532047E9, 0.0, 2022-09-18 16:00:40.853
26.0, -51029.59138507741, -22299.50842851501, -35105.62748976082, -51220.631744936916, -49771.0987652658, -187500.02235174447, -36009.12970413324, -30196.178578874897, 0.648, -0.676, 0.41600000000000004, 192.0, 0.0, 0.0, 0.0, 0.0, 0.0, 0.0, 0.0, 0.0, 0.0, 1.6634988408572195E9, 0.0, 2022-09-18 16:00:40.857
27.0, -50909.65192433023, -21638.455586249303, -35305.85441659146, -51403.156090158955, -49766.27078846345, -187500.02235174447, -36165.8377845094, -30362.38615064456, 0.648, -0.676, 0.41600000000000004, 192.0, 0.0, 0.0, 0.0, 0.0, 0.0, 0.0, 0.0, 0.0, 0.0, 1.663498840860181E9, 0.0, 2022-09-18 16:00:40.860
28.0, -50918.30204943443, -20764.077694902146, -35725.7319361844, -51816.55160385986, -49443.44454329545, -187500.02235174447, -36525.343242328556, -30744.735091297043, 0.648, -0.676, 0.41600000000000004, 192.0, 0.0, 0.0, 0.0, 0.0, 0.0, 0.0, 0.0, 0.0, 0.0, 1.6634988408652267E9, 0.0, 2022-09-18 16:00:40.865
29.0, -51300.20395519781, -21161.201138639586, -35676.62515361609, -51774.57502777279, -48984.76439532809, -187500.02235174447, -36518.41420154741, -30724.752631754, 0.648, -0.676, 0.41600000000000004, 192.0, 0.0, 0.0, 0.0, 0.0, 0.0, 0.0, 0.0, 0.0, 0.0, 1.6634988408692875E9, 0.0, 2022-09-18 16:00:40.869
30.0, -51324.88028107647, -22498.88598905635, -35105.18045487171, -51220.967021103745, -49584.41699557508, -187500.02235174447, -36035.39300386822, -30215.26696863973, 0.648, -0.676, 0.41600000000000004, 192.0, 0.0, 0.0, 0.0, 0.0, 0.0, 0.0, 0.0, 0.0, 0.0, 1.6634988408732655E9, 0.0, 2022-09-18 16:00:40.873
31.0, -51009.51951855654, -22285.516236485986, -35102.36413507034, -51213.79211113359, -49772.57398039985, -187500.02235174447, -36004.3464308198, -30186.96966015931, 0.648, -0.676, 0.41600000000000004, 192.0, 0.0, 0.0, 0.0, 0.0, 0.0, 0.0, 0.0, 0.0, 0.0, 1.663498840877232E9, 0.0, 2022-09-18 16:00:40.877
32.0, -50917.296220933946, -21666.037638907153, -35322.551169699575, -51423.18325319091, -49801.16186155818, -187500.02235174447, -36187.742494075595, -30377.898261296545, 0.648, -0.676, 0.41600000000000004, 192.0, 0.0, 0.0, 0.0, 0.0, 0.0, 0.0, 0.0, 0.0, 0.0, 1.663498840881284E9, 0.0, 2022-09-18 16:00:40.881
33.0, -50895.771491023486, -20784.68600328994, -35716.72418316891, -51810.74015030148, -49464.16461040552, -187500.02235174447, -36522.66103299392, -30734.453288847602, 0.648, -0.676, 0.41600000000000004, 192.0, 0.0, 0.0, 0.0, 0.0, 0.0, 0.0, 0.0, 0.0, 0.0, 1.6634988408852377E9, 0.0, 2022-09-18 16:00:40.885
34.0, -51277.449879342304, -21206.038738016934, -35666.00807499982, -51763.756783456425, -49023.455264980235, -187500.02235174447, -36511.39575378844, -30715.141381638216, 0.648, -0.676, 0.41600000000000004, 192.0, 0.0, 0.0, 0.0, 0.0, 0.0, 0.0, 0.0, 0.0, 0.0, 1.663498840888355E9, 0.0, 2022-09-18 16:00:40.888
35.0, -51295.06305397309, -22514.17458226378, -35105.78395197201, -51219.26828852514, -49626.23710945095, -187500.02235174447, -36037.56112308039, -30213.12120117202, 0.648, -0.676, 0.41600000000000004, 192.0, 20.0, 64.0, 234.0, 224.0, 13.0, 0.0, 0.0, 0.0, 0.0, 1.663498840892264E9, 0.0, 2022-09-18 16:00:40.892
36.0, -50980.79752693147, -22268.84183512233, -35103.95110892667, -51219.84943388098, -49789.56130618588, -187500.02235174447, -36008.81677971086, -30187.93078517089, 0.648, -0.676, 0.41600000000000004, 192.0, 0.0, 0.0, 0.0, 0.0, 0.0, 0.0, 0.0, 0.0, 0.0, 1.663498840897238E9, 0.0, 2022-09-18 16:00:40.897
37.0, -50896.64320905724, -21637.829737404554, -35325.85922787896, -51432.727448073325, -49809.25319305101, -187500.02235174447, -36200.30417445948, -30381.698057853948, 0.648, -0.676, 0.41600000000000004, 192.0, 0.0, 0.0, 0.0, 0.0, 0.0, 0.0, 0.0, 0.0, 0.0, 1.66349884090136E9, 0.0, 2022-09-18 16:00:40.901
38.0, -50893.22339215558, -20757.461578543374, -35730.11287809764, -51828.755656332454, -49457.63790102457, -187500.02235174447, -36535.15565814444, -30748.780757043452, 0.648, -0.676, 0.41600000000000004, 192.0, 0.0, 0.0, 0.0, 0.0, 0.0, 0.0, 0.0, 0.0, 0.0, 1.6634988409052916E9, 0.0, 2022-09-18 16:00:40.905
39.0, -51286.10000444651, -21218.958046312102, -35650.495964347836, -51755.82191417479, -49037.93919538727, -187500.02235174447, -36495.52601522518, -30704.569006510857, 0.648, -0.676, 0.41600000000000004, 192.0, 0.0, 0.0, 0.0, 0.0, 0.0, 0.0, 0.0, 0.0, 0.0, 1.6634988409092944E9, 0.0, 2022-09-18 16:00:40.909
40.0, -51305.54602212263, -22523.09292830145, -35104.17462637122, -51224.52094847214, -49647.650080639134, -187500.02235174447, -36037.04703295792, -30217.993881463277, 0.648, -0.676, 0.41600000000000004, 192.0, 0.0, 0.0, 0.0, 0.0, 0.0, 0.0, 0.0, 0.0, 0.0, 1.6634988409132874E9, 0.0, 2022-09-18 16:00:40.913
41.0, -50994.14151837129, -22272.68633516864, -35114.25526312057, -51234.959213132766, -49815.7575506875, -187500.02235174447, -36017.04222167042, -30206.236863879785, 0.648, -0.676, 0.41600000000000004, 192.0, 0.0, 0.0, 0.0, 0.0, 0.0, 0.0, 0.0, 0.0, 0.0, 1.663498840916392E9, 0.0, 2022-09-18 16:00:40.916
42.0, -50894.60920031181, -21621.781184885644, -35330.933073870314, -51439.61178536556, -49829.8615014388, -187500.02235174447, -36189.217709209646, -30394.706773126934, 0.648, -0.676, 0.41600000000000004, 192.0, 0.0, 0.0, 0.0, 0.0, 0.0, 0.0, 0.0, 0.0, 0.0, 1.663498840921356E9, 0.0, 2022-09-18 16:00:40.921
43.0, -50901.98527598206, -20742.038874869213, -35747.12255562813, -51837.87516807022, -49459.94013070347, -187500.02235174447, -36544.342225115564, -30761.633010105255, 0.648, -0.676, 0.41600000000000004, 192.0, 0.0, 0.0, 0.0, 0.0, 0.0, 0.0, 0.0, 0.0, 0.0, 1.6634988409253492E9, 0.0, 2022-09-18 16:00:40.925
44.0, -51297.72291156327, -21259.79468343195, -35654.45222311643, -51750.189274572054, -49072.07030917052, -187500.02235174447, -36499.549329227135, -30699.584567497324, 0.648, -0.676, 0.41600000000000004, 192.0, 0.0, 0.0, 0.0, 0.0, 0.0, 0.0, 0.0, 0.0, 0.0, 1.6634988409293652E9, 0.0, 2022-09-18 16:00:40.929
45.0, -51282.52372533366, -22533.441785984254, -35099.79368445798, -51211.892212854895, -49680.30597928834, -187500.02235174447, -36030.721489277064, -30203.9793376898, 0.648, -0.678, 0.41600000000000004, 192.0, 20.0, 64.0, 234.0, 208.0, 13.0, 0.0, 0.0, 0.0, 0.0, 1.663498840933377E9, 0.0, 2022-09-18 16:00:40.933
46.0, -50983.479736266105, -22258.87295709526, -35125.18526615921, -51237.50731200067, -49827.78278920446, -187500.02235174447, -36026.876989230754, -30207.577968547103, 0.648, -0.678, 0.41600000000000004, 192.0, 0.0, 0.0, 0.0, 0.0, 0.0, 0.0, 0.0, 0.0, 0.0, 1.6634988409373455E9, 0.0, 2022-09-18 16:00:40.937
47.0, -50879.58882803784, -21623.99400758672, -35330.39663200339, -51440.72937258833, -49845.75359174652, -187500.02235174447, -36195.87852905733, -30395.73495337188, 0.648, -0.678, 0.41600000000000004, 192.0, 0.0, 0.0, 0.0, 0.0, 0.0, 0.0, 0.0, 0.0, 0.0, 1.6634988409414015E9, 0.0, 2022-09-18 16:00:40.941
48.0, -50891.144679921235, -20741.994171380302, -35710.80097088825, -51843.39604895068, -49466.55624706224, -187500.02235174447, -36544.789260004676, -30771.19955673213, 0.648, -0.678, 0.41600000000000004, 192.0, 0.0, 0.0, 0.0, 0.0, 0.0, 0.0, 0.0, 0.0, 0.0, 1.6634988409444044E9, 0.0, 2022-09-18 16:00:40.944
49.0, -51298.572277852574, -21284.336898843874, -35569.94027733091, -51738.164036055095, -49091.270457657636, -187500.02235174447, -36474.448320203825, -30694.73423895052, 0.648, -0.678, 0.41600000000000004, 192.0, 0.0, 0.0, 0.0, 0.0, 0.0, 0.0, 0.0, 0.0, 0.0, 1.6634988409484916E9, 0.0, 2022-09-18 16:00:40.948
50.0, -51280.08738518803, -22537.375693008387, -35022.68016608717, -51210.4393494653, -49704.89289818918, -187500.02235174447, -36009.1520558777, -30207.55561680265, 0.648, -0.678, 0.41600000000000004, 192.0, 0.0, 0.0, 0.0, 0.0, 0.0, 0.0, 0.0, 0.0, 0.0, 1.663498840953369E9, 0.0, 2022-09-18 16:00:40.953
51.0, -50973.68967219468, -22229.77098581445, -35050.821012356406, -51233.26048055416, -49828.09571362683, -187500.02235174447, -36007.43097155463, -30207.667375524925, 0.648, -0.678, 0.41600000000000004, 192.0, 0.0, 0.0, 0.0, 0.0, 0.0, 0.0, 0.0, 0.0, 0.0, 1.6634988409573717E9, 0.0, 2022-09-18 16:00:40.957
52.0, -50885.57909555186, -21596.501361906692, -35285.06729424802, -51449.35714594807, -49855.81187675141, -187500.02235174447, -36200.01360178156, -30405.50266569885, 0.648, -0.678, 0.41600000000000004, 192.0, 0.0, 0.0, 0.0, 0.0, 0.0, 0.0, 0.0, 0.0, 0.0, 1.663498840961364E9, 0.0, 2022-09-18 16:00:40.961
53.0, -50894.720959034086, -20726.48206072832, -35689.67857237799, -51845.11713327374, -49452.31818584421, -187500.02235174447, -36547.53852457268, -30768.71851309759, 0.648, -0.678, 0.41600000000000004, 192.0, 0.0, 0.0, 0.0, 0.0, 0.0, 0.0, 0.0, 0.0, 0.0, 1.6634988409653509E9, 0.0, 2022-09-18 16:00:40.965
54.0, -51299.64516158643, -21325.285294685997, -35568.46506219686, -51730.251518517915, -49109.643591599895, -187500.02235174447, -36475.23063125976, -30685.68178244612, 0.648, -0.678, 0.41600000000000004, 192.0, 0.0, 0.0, 0.0, 0.0, 0.0, 0.0, 0.0, 0.0, 0.0, 1.6634988409693522E9, 0.0, 2022-09-18 16:00:40.969
55.0, -51263.01065242418, -22546.69637044625, -35038.97458779509, -51211.109901798955, -49749.81990454435, -187500.02235174447, -36018.763305993474, -30204.672241767916, 0.646, -0.68, 0.40800000000000003, 192.0, 20.0, 48.0, 234.0, 192.0, 12.0, 192.0, 0.0, 0.0, 0.0, 1.663498840972355E9, 0.0, 2022-09-18 16:00:40.972
56.0, -50961.99970984456, -22213.789488528906, -35078.201899314154, -51243.51993125915, -49814.48350125355, -187500.02235174447, -36020.75261125, -30211.578930804604, 0.646, -0.68, 0.40800000000000003, 192.0, 0.0, 0.0, 0.0, 0.0, 0.0, 0.0, 0.0, 0.0, 0.0, 1.663498840976394E9, 0.0, 2022-09-18 16:00:40.976
57.0, -50872.95035993461, -21584.654937345378, -35295.349096697464, -51448.172503491944, -49847.877007469775, -187500.02235174447, -36197.08552325792, -30398.864197595623, 0.646, -0.68, 0.40800000000000003, 192.0, 0.0, 0.0, 0.0, 0.0, 0.0, 0.0, 0.0, 0.0, 0.0, 1.6634988409814243E9, 0.0, 2022-09-18 16:00:40.981
58.0, -50886.182592652156, -20723.2410577823, -35703.84957836266, -51841.339688460794, -49443.48924678436, -187500.02235174447, -36543.35874835953, -30762.236507205547, 0.646, -0.68, 0.40800000000000003, 192.0, 0.0, 0.0, 0.0, 0.0, 0.0, 0.0, 0.0, 0.0, 0.0, 1.663498840985368E9, 0.0, 2022-09-18 16:00:40.985
59.0, -51289.18454518134, -21356.868309601345, -35576.57874543414, -51714.38177995465, -49122.62995512843, -187500.02235174447, -36468.18983175634, -30670.616706683246, 0.646, -0.68, 0.40800000000000003, 192.0, 0.0, 0.0, 0.0, 0.0, 0.0, 0.0, 0.0, 0.0, 0.0, 1.6634988409894469E9, 0.0, 2022-09-18 16:00:40.989
60.0, -51246.42565803834, -22558.56514675202, -35049.41285245572, -51201.94568657228, -49756.65953834767, -187500.02235174447, -36019.41150658268, -30199.7772097322, 0.646, -0.68, 0.40800000000000003, 192.0, 0.0, 0.0, 0.0, 0.0, 0.0, 0.0, 0.0, 0.0, 0.0, 1.6634988409924183E9, 0.0, 2022-09-18 16:00:40.992
61.0, -50938.329212466386, -22194.410526086158, -35079.92298363721, -51224.9903351057, -49801.608896447295, -187500.02235174447, -36025.84880898581, -30198.145532386963, 0.646, -0.68, 0.40800000000000003, 192.0, 0.0, 0.0, 0.0, 0.0, 0.0, 0.0, 0.0, 0.0, 0.0, 1.6634988409964843E9, 0.0, 2022-09-18 16:00:40.996
62.0, -50861.03688013994, -21559.732742277713, -35311.19648351628, -51445.62440462404, -49839.27158585448, -187500.02235174447, -36209.6472036418, -30398.14894177305, 0.646, -0.68, 0.40800000000000003, 192.0, 0.0, 0.0, 0.0, 0.0, 0.0, 0.0, 0.0, 0.0, 0.0, 1.663498841000497E9, 0.0, 2022-09-18 16:00:41.000
63.0, -50906.589735339854, -20727.934924117915, -35732.32570079872, -51860.3386712478, -49426.5689762317, -187500.02235174447, -36564.279981169704, -30785.482321439067, 0.646, -0.68, 0.40800000000000003, 192.0, 0.0, 0.0, 0.0, 0.0, 0.0, 0.0, 0.0, 0.0, 0.0, 1.6634988410044315E9, 0.0, 2022-09-18 16:00:41.004
64.0, -51295.80066154012, -21390.32887105094, -35563.882954583525, -51698.62380011366, -49123.971059795746, -187500.02235174447, -36449.03438675814, -30659.574944922322, 0.646, -0.68, 0.40800000000000003, 192.0, 0.0, 0.0, 0.0, 0.0, 0.0, 0.0, 0.0, 0.0, 0.0, 1.6634988410094936E9, 0.0, 2022-09-18 16:00:41.009
65.0, -51232.925204387335, -22558.40868454083, -35042.93084656368, -51196.581267903006, -49743.11438120775, -187500.02235174447, -36002.26771858546, -30194.88217769649, 0.644, -0.676, 0.402, 192.0, 20.0, 32.0, 234.0, 224.0, 12.0, 144.0, 0.0, 0.0, 0.0, 1.6634988410134592E9, 0.0, 2022-09-18 16:00:41.013
66.0, -50953.215474273624, -22204.155886668672, -35101.93945192569, -51256.01455640967, -49776.75375661299, -187500.02235174447, -36034.32012013437, -30227.761593790245, 0.644, -0.676, 0.402, 192.0, 0.0, 0.0, 0.0, 0.0, 0.0, 0.0, 0.0, 0.0, 0.0, 1.6634988410174737E9, 0.0, 2022-09-18 16:00:41.017
67.0, -50854.5548742479, -21563.152559179372, -35304.3344979685, -51447.43489592492, -49807.129777327755, -187500.02235174447, -36204.86393032836, -30398.9759563179, 0.644, -0.676, 0.402, 192.0, 0.0, 0.0, 0.0, 0.0, 0.0, 0.0, 0.0, 0.0, 0.0, 1.6634988410205514E9, 0.0, 2022-09-18 16:00:41.020
68.0, -50901.82881377087, -20752.700656974397, -35706.08475280819, -51843.64191813969, -49435.621432736094, -187500.02235174447, -36558.893210755974, -30765.924545040674, 0.644, -0.676, 0.402, 192.0, 0.0, 0.0, 0.0, 0.0, 0.0, 0.0, 0.0, 0.0, 0.0, 1.6634988410244174E9, 0.0, 2022-09-18 16:00:41.024
69.0, -51289.25160041471, -21434.361807627894, -35524.45447736436, -51672.00287246739, -49188.34408382703, -187500.02235174447, -36447.13448847944, -30631.143525975174, 0.644, -0.676, 0.402, 192.0, 0.0, 0.0, 0.0, 0.0, 0.0, 0.0, 0.0, 0.0, 0.0, 1.6634988410284967E9, 0.0, 2022-09-18 16:00:41.028
70.0, -51223.80569264957, -22552.060789115523, -35032.38082318078, -51197.02830279211, -49780.46414619257, -187500.02235174447, -36032.621387555766, -30192.15526487294, 0.644, -0.676, 0.402, 192.0, 0.0, 0.0, 0.0, 0.0, 0.0, 0.0, 0.0, 0.0, 0.0, 1.6634988410324852E9, 0.0, 2022-09-18 16:00:41.032
71.0, -50954.73539289658, -22165.48736876099, -35098.87726293531, -51261.46838205676, -49783.16870727167, -187500.02235174447, -36064.360864682305, -30229.46032636885, 0.644, -0.676, 0.402, 192.0, 0.0, 0.0, 0.0, 0.0, 0.0, 0.0, 0.0, 0.0, 0.0, 1.663498841036543E9, 0.0, 2022-09-18 16:00:41.036
72.0, -50863.11559237428, -21538.45388155626, -35306.50261718066, -51465.919788589454, -49813.38826577524, -187500.02235174447, -36241.05140460151, -30416.611482693137, 0.644, -0.676, 0.402, 192.0, 0.0, 0.0, 0.0, 0.0, 0.0, 0.0, 0.0, 0.0, 0.0, 1.6634988410414317E9, 0.0, 2022-09-18 16:00:41.041
73.0, -50904.33220914986, -20753.125340119048, -35696.78642711478, -51851.82265661033, -49443.19867410645, -187500.02235174447, -36586.74348434729, -30774.060580022408, 0.644, -0.676, 0.402, 192.0, 0.0, 0.0, 0.0, 0.0, 0.0, 0.0, 0.0, 0.0, 0.0, 1.663498841045501E9, 0.0, 2022-09-18 16:00:41.045
74.0, -51282.30020788911, -21474.371430202893, -35512.8315702476, -51677.85902951468, -49196.50247055322, -187500.02235174447, -36467.16165151139, -30637.893752800675, 0.644, -0.676, 0.402, 192.0, 0.0, 0.0, 0.0, 0.0, 0.0, 0.0, 0.0, 0.0, 0.0, 1.6634988410485864E9, 0.0, 2022-09-18 16:00:41.048
75.0, -51202.52683192812, -22557.335800806977, -35023.64129109875, -51205.119634284936, -49749.596387099795, -187500.02235174447, -36052.87206803227, -30199.419581820915, 0.654, -0.674, 0.40800000000000003, 192.0, 20.0, 112.0, 234.0, 240.0, 12.0, 192.0, 0.0, 0.0, 0.0, 1.663498841052529E9, 0.0, 2022-09-18 16:00:41.052
76.0, -50936.40696244323, -22158.915955891127, -35091.38942854279, -51267.50335305969, -49770.495268165505, -187500.02235174447, -36094.73688539706, -30235.025910738223, 0.654, -0.674, 0.40800000000000003, 192.0, 0.0, 0.0, 0.0, 0.0, 0.0, 0.0, 0.0, 0.0, 0.0, 1.6634988410565484E9, 0.0, 2022-09-18 16:00:41.056
77.0, -50857.527656260456, -21524.998131394164, -35307.15081776986, -51472.53590494823, -49801.49713772502, -187500.02235174447, -36282.066855676996, -30421.148886817562, 0.654, -0.674, 0.40800000000000003, 192.0, 0.0, 0.0, 0.0, 0.0, 0.0, 0.0, 0.0, 0.0, 0.0, 1.6634988410605447E9, 0.0, 2022-09-18 16:00:41.060
78.0, -50895.57032532339, -20719.37420599153, -35680.15672924003, -51836.62347038072, -49410.54277545724, -187500.02235174447, -36609.83283636962, -30757.90026878122, 0.654, -0.674, 0.40800000000000003, 192.0, 0.0, 0.0, 0.0, 0.0, 0.0, 0.0, 0.0, 0.0, 0.0, 1.6634988410645587E9, 0.0, 2022-09-18 16:00:41.064
79.0, -51291.97851323825, -21476.092514525953, -35495.21839561682, -51662.74925026289, -49179.85042093402, -187500.02235174447, -36486.02652383167, -30618.69360431357, 0.654, -0.674, 0.40800000000000003, 192.0, 0.0, 0.0, 0.0, 0.0, 0.0, 0.0, 0.0, 0.0, 0.0, 1.6634988410695908E9, 0.0, 2022-09-18 16:00:41.069
80.0, -51201.69981738327, -22540.30377153203, -35016.22051193959, -51200.96220981624, -49725.74707576598, -187500.02235174447, -36073.94976305363, -30189.338945071573, 0.654, -0.674, 0.40800000000000003, 192.0, 0.0, 0.0, 0.0, 0.0, 0.0, 0.0, 0.0, 0.0, 0.0, 1.6634988410735488E9, 0.0, 2022-09-18 16:00:41.073
81.0, -50935.98227929858, -22142.442720227566, -35095.8821291783, -51272.68895777332, -49751.4962853785, -187500.02235174447, -36125.15760960074, -30236.70229157237, 0.654, -0.674, 0.40800000000000003, 192.0, 0.0, 0.0, 0.0, 0.0, 0.0, 0.0, 0.0, 0.0, 0.0, 1.663498841076544E9, 0.0, 2022-09-18 16:00:41.076
82.0, -50849.7045457011, -21514.26929405562, -35317.231454519206, -51477.45328872839, -49801.6535999362, -187500.02235174447, -36316.64500434935, -30422.44528799597, 0.654, -0.674, 0.40800000000000003, 192.0, 0.0, 0.0, 0.0, 0.0, 0.0, 0.0, 0.0, 0.0, 0.0, 1.663498841080574E9, 0.0, 2022-09-18 16:00:41.080
83.0, -50910.61304934181, -20740.58601147962, -35697.83695910418, -51849.20750250906, -49426.121941342586, -187500.02235174447, -36648.233133343834, -30766.997428774528, 0.654, -0.674, 0.40800000000000003, 192.0, 0.0, 0.0, 0.0, 0.0, 0.0, 0.0, 0.0, 0.0, 0.0, 1.6634988410845847E9, 0.0, 2022-09-18 16:00:41.084
84.0, -51308.76467332419, -21534.810547210043, -35505.6790120219, -51670.43825035552, -49215.479101595774, -187500.02235174447, -36507.97593688678, -30625.555589861346, 0.654, -0.674, 0.40800000000000003, 192.0, 0.0, 0.0, 0.0, 0.0, 0.0, 0.0, 0.0, 0.0, 0.0, 1.663498841088601E9, 0.0, 2022-09-18 16:00:41.088
85.0, -51191.10509051145, -22552.84310017146, -35022.300186431436, -51203.46560519524, -49717.81220648435, -187500.02235174447, -36092.27819350698, -30188.26606133772, 0.656, -0.678, 0.40800000000000003, 192.0, 20.0, 128.0, 234.0, 208.0, 12.0, 192.0, 0.0, 0.0, 0.0, 1.6634988410925512E9, 0.0, 2022-09-18 16:00:41.092
86.0, -50932.741276352564, -22149.282354030893, -35093.7810651995, -51269.224437382756, -49721.85787223076, -187500.02235174447, -36136.93697892869, -30229.862657769045, 0.656, -0.678, 0.40800000000000003, 192.0, 0.0, 0.0, 0.0, 0.0, 0.0, 0.0, 0.0, 0.0, 0.0, 1.6634988410976632E9, 0.0, 2022-09-18 16:00:41.097
87.0, -50861.863894684786, -21539.526765290113, -35303.06044853455, -51470.77011713626, -49799.016094090475, -187500.02235174447, -36299.7694372856, -30412.834037880188, 0.656, -0.678, 0.40800000000000003, 192.0, 0.0, 0.0, 0.0, 0.0, 0.0, 0.0, 0.0, 0.0, 0.0, 1.6634988411015725E9, 0.0, 2022-09-18 16:00:41.101
88.0, -50919.8219680574, -20785.11068643459, -35684.24709847535, -51843.21723499504, -49456.00622367933, -187500.02235174447, -36632.229284313835, -30758.526117625966, 0.656, -0.678, 0.40800000000000003, 192.0, 0.0, 0.0, 0.0, 0.0, 0.0, 0.0, 0.0, 0.0, 0.0, 1.6634988411046038E9, 0.0, 2022-09-18 16:00:41.104
89.0, -51269.40325133839, -21531.435433797295, -35479.23689833128, -51647.86298845566, -49197.03891242015, -187500.02235174447, -36480.2597737622, -30600.946319216055, 0.656, -0.678, 0.40800000000000003, 192.0, 0.0, 0.0, 0.0, 0.0, 0.0, 0.0, 0.0, 0.0, 0.0, 1.6634988411085649E9, 0.0, 2022-09-18 16:00:41.108
90.0, -51192.1332707564, -22531.228963283178, -35035.085384259866, -51221.23524203721, -49661.30699650133, -187500.02235174447, -36092.30054525143, -30207.823837736112, 0.656, -0.678, 0.40800000000000003, 192.0, 0.0, 0.0, 0.0, 0.0, 0.0, 0.0, 0.0, 0.0, 0.0, 1.663498841112643E9, 0.0, 2022-09-18 16:00:41.112
91.0, -50948.29809049345, -22149.23765054198, -35100.240719347086, -51279.57329506556, -49689.00080788146, -187500.02235174447, -36131.63961549278, -30242.625503853025, 0.656, -0.678, 0.40800000000000003, 192.0, 0.0, 0.0, 0.0, 0.0, 0.0, 0.0, 0.0, 0.0, 0.0, 1.6634988411166542E9, 0.0, 2022-09-18 16:00:41.116
92.0, -50883.2098106396, -21587.02422225764, -35276.59598309946, -51445.35618369057, -49876.95662700613, -187500.02235174447, -36284.19027140025, -30392.49395042586, 0.656, -0.678, 0.40800000000000003, 192.0, 0.0, 0.0, 0.0, 0.0, 0.0, 0.0, 0.0, 0.0, 0.0, 1.6634988411206539E9, 0.0, 2022-09-18 16:00:41.120
93.0, -50948.09692479336, -21119.403376508162, -35471.86082266102, -51631.30034581427, -50167.48460143621, -187500.02235174447, -36467.83220384505, -30562.590725730744, 0.656, -0.678, 0.40800000000000003, 192.0, 0.0, 0.0, 0.0, 0.0, 0.0, 0.0, 0.0, 0.0, 0.0, 1.6634988411256077E9, 0.0, 2022-09-18 16:00:41.125
94.0, -51131.269470604595, -21650.056141621608, -35341.214876319755, -51529.66696377599, -50233.9586894463, -187500.02235174447, -36356.60992343544, -30486.84066377171, 0.656, -0.678, 0.40800000000000003, 192.0, 0.0, 0.0, 0.0, 0.0, 0.0, 0.0, 0.0, 0.0, 0.0, 1.6634988411296751E9, 0.0, 2022-09-18 16:00:41.129
95.0, -51089.38230149535, -22100.64495809614, -35210.971261378676, -51414.84605250908, -49734.33014563682, -187500.02235174447, -36224.82403812695, -30382.30155495424, 0.648, -0.682, 0.404, 192.0, 20.0, 64.0, 234.0, 176.0, 12.0, 160.0, 0.0, 0.0, 0.0, 1.6634988411326191E9, 0.0, 2022-09-18 16:00:41.132
96.0, -50991.01227414755, -21839.867155536074, -35242.576628038485, -51429.21822419384, -49216.462578351806, -187500.02235174447, -36252.31668380698, -30379.954621786434, 0.648, -0.682, 0.404, 192.0, 0.0, 0.0, 0.0, 0.0, 0.0, 0.0, 0.0, 0.0, 0.0, 1.66349884113665E9, 0.0, 2022-09-18 16:00:41.136
97.0, -50958.55754119844, -21564.56071908006, -35309.408343959854, -51475.35222474959, -49505.44828241447, -187500.02235174447, -36329.89958881135, -30417.572607704715, 0.648, -0.682, 0.404, 192.0, 0.0, 0.0, 0.0, 0.0, 0.0, 0.0, 0.0, 0.0, 0.0, 1.6634988411406531E9, 0.0, 2022-09-18 16:00:41.140
98.0, -50989.917038669235, -21275.284442339474, -35420.1612377359, -51580.04779577826, -50146.049278503575, -187500.02235174447, -36452.20833447079, -30510.645271616613, 0.648, -0.682, 0.404, 192.0, 0.0, 0.0, 0.0, 0.0, 0.0, 0.0, 0.0, 0.0, 0.0, 1.66349884114478E9, 0.0, 2022-09-18 16:00:41.144
99.0, -51121.837034444456, -21689.216397907305, -35330.48603898121, -51522.53675729475, -50266.88280902896, -187500.02235174447, -36365.77413866212, -30476.0447711998, 0.648, -0.682, 0.404, 192.0, 0.0, 0.0, 0.0, 0.0, 0.0, 0.0, 0.0, 0.0, 0.0, 1.6634988411486888E9, 0.0, 2022-09-18 16:00:41.148
100.0, -51105.85553715892, -22093.358289403714, -35244.14125015036, -51453.2463494833, -49711.39725582567, -187500.02235174447, -36271.44977706072, -30415.180971047997, 0.648, -0.682, 0.404, 192.0, 0.0, 0.0, 0.0, 0.0, 0.0, 0.0, 0.0, 0.0, 0.0, 1.6634988411526914E9, 0.0, 2022-09-18 16:00:41.152
101.0, -51028.160873432265, -21872.90303384102, -35287.16835822682, -51482.348320764104, -49175.67064472087, -187500.02235174447, -36310.632385090874, -30430.491915999883, 0.648, -0.682, 0.404, 192.0, 0.0, 0.0, 0.0, 0.0, 0.0, 0.0, 0.0, 0.0, 0.0, 1.6634988411577127E9, 0.0, 2022-09-18 16:00:41.157
102.0, -50964.52545696801, -21581.480989632724, -35317.36556498594, -51490.79728016821, -49491.70195957446, -187500.02235174447, -36350.44084196578, -30434.716395701933, 0.648, -0.682, 0.404, 192.0, 0.0, 0.0, 0.0, 0.0, 0.0, 0.0, 0.0, 0.0, 0.0, 1.663498841160748E9, 0.0, 2022-09-18 16:00:41.160
103.0, -50973.287340794486, -21276.26791909551, -35400.089371215035, -51560.42296414649, -50158.23097923172, -187500.02235174447, -36445.18988671182, -30494.395553397604, 0.648, -0.682, 0.404, 192.0, 0.0, 0.0, 0.0, 0.0, 0.0, 0.0, 0.0, 0.0, 0.0, 1.663498841164729E9, 0.0, 2022-09-18 16:00:41.164
104.0, -51083.41438572579, -21676.989993690255, -35306.10028578046, -51496.6534372155, -50232.9081574569, -187500.02235174447, -36350.26202801013, -30451.681369743514, 0.648, -0.682, 0.404, 192.0, 0.0, 0.0, 0.0, 0.0, 0.0, 0.0, 0.0, 0.0, 0.0, 1.663498841168697E9, 0.0, 2022-09-18 16:00:41.168
105.0, -51056.07820225695, -22043.379788801645, -35221.27541557258, -51427.474788126325, -49612.356676144205, -187500.02235174447, -36255.69179721973, -30389.34235445766, 0.65, -0.682, 0.402, 192.0, 20.0, 80.0, 234.0, 176.0, 12.0, 144.0, 0.0, 0.0, 0.0, 1.663498841172699E9, 0.0, 2022-09-18 16:00:41.172
106.0, -51013.63223953632, -21856.56390864419, -35284.17322446981, -51472.021814825755, -49117.824330070536, -187500.02235174447, -36319.79660031755, -30420.143058317073, 0.65, -0.682, 0.402, 192.0, 0.0, 0.0, 0.0, 0.0, 0.0, 0.0, 0.0, 0.0, 0.0, 1.6634988411768858E9, 0.0, 2022-09-18 16:00:41.176
107.0, -50985.69255896718, -21614.069833048565, -35337.05745185107, -51509.77391121077, -49454.419249823004, -187500.02235174447, -36386.00246739417, -30449.89323018709, 0.65, -0.682, 0.402, 192.0, 0.0, 0.0, 0.0, 0.0, 0.0, 0.0, 0.0, 0.0, 0.0, 1.6634988411817954E9, 0.0, 2022-09-18 16:00:41.181
108.0, -50977.66828270773, -21319.98793125009, -35394.00969672319, -51559.55124611274, -50158.007461787165, -187500.02235174447, -36462.44543343132, -30489.344059150706, 0.65, -0.682, 0.402, 192.0, 0.0, 0.0, 0.0, 0.0, 0.0, 0.0, 0.0, 0.0, 0.0, 1.663498841184687E9, 0.0, 2022-09-18 16:00:41.184
109.0, -51093.13739456385, -21720.5758953781, -35317.00793707465, -51514.177204868465, -50233.221081879274, -187500.02235174447, -36387.25416508367, -30466.634686784113, 0.65, -0.682, 0.402, 192.0, 0.0, 0.0, 0.0, 0.0, 0.0, 0.0, 0.0, 0.0, 0.0, 1.663498841187818E9, 0.0, 2022-09-18 16:00:41.187
110.0, -51060.92853080375, -22060.74709424342, -35240.25204661513, -51447.971337791845, -49579.03022516135, -187500.02235174447, -36310.34181241296, -30406.240273265874, 0.65, -0.682, 0.402, 192.0, 0.0, 0.0, 0.0, 0.0, 0.0, 0.0, 0.0, 0.0, 0.0, 1.6634988411927931E9, 0.0, 2022-09-18 16:00:41.192
111.0, -50995.14734687178, -21853.94875454292, -35275.45604413224, -51470.18897178042, -49072.62910278191, -187500.02235174447, -36346.998673319664, -30411.02354657931, 0.65, -0.682, 0.402, 192.0, 0.0, 0.0, 0.0, 0.0, 0.0, 0.0, 0.0, 0.0, 0.0, 1.6634988411968095E9, 0.0, 2022-09-18 16:00:41.196
112.0, -50955.47300046361, -21575.870701774445, -35311.911739338844, -51489.567934223174, -49418.90232788352, -187500.02235174447, -36393.91498493135, -30427.563837476235, 0.65, -0.682, 0.402, 192.0, 0.0, 0.0, 0.0, 0.0, 0.0, 0.0, 0.0, 0.0, 0.0, 1.663498841200718E9, 0.0, 2022-09-18 16:00:41.200
113.0, -50968.526419225505, -21305.50400084305, -35378.98932444922, -51546.94486223994, -50143.814104058045, -187500.02235174447, -36475.34238998203, -30476.134178177617, 0.65, -0.682, 0.402, 192.0, 0.0, 0.0, 0.0, 0.0, 0.0, 0.0, 0.0, 0.0, 0.0, 1.663498841204798E9, 0.0, 2022-09-18 16:00:41.204
114.0, -51085.560153193495, -21720.86646805602, -35313.99045157319, -51509.43863504394, -50207.002485633195, -187500.02235174447, -36403.9956216807, -30461.44908207048, 0.65, -0.682, 0.402, 192.0, 0.0, 0.0, 0.0, 0.0, 0.0, 0.0, 0.0, 0.0, 0.0, 1.6634988412088566E9, 0.0, 2022-09-18 16:00:41.208
115.0, -51060.52619940355, -22047.291344081324, -35255.89826773385, -51454.92273031745, -49528.98466932591, -187500.02235174447, -36332.29122546807, -30411.8282093797, 0.65, -0.682, 0.402, 192.0, 0.0, 0.0, 0.0, 0.0, 0.0, 0.0, 0.0, 0.0, 0.0, 1.6634988412127423E9, 0.0, 2022-09-18 16:00:41.212
116.0, -51014.48160582562, -21854.28403070975, -35302.836931089994, -51485.09758533211, -49038.833265165485, -187500.02235174447, -36376.59238297849, -30430.089584599686, 0.654, -0.682, 0.406, 192.0, 20.0, 112.0, 234.0, 176.0, 12.0, 176.0, 0.0, 0.0, 0.0, 1.6634988412158363E9, 0.0, 2022-09-18 16:00:41.215
117.0, -50959.36220399883, -21589.371155425448, -35312.64934690587, -51478.54852420671, -49417.60592670512, -187500.02235174447, -36394.63024075392, -30423.49581998537, 0.654, -0.682, 0.406, 192.0, 0.0, 0.0, 0.0, 0.0, 0.0, 0.0, 0.0, 0.0, 0.0, 1.6634988412199333E9, 0.0, 2022-09-18 16:00:41.219
118.0, -50978.04826236347, -21328.191021465187, -35381.44801633931, -51535.67958303447, -50151.52545589513, -187500.02235174447, -36472.59312541403, -30472.289678131307, 0.654, -0.682, 0.406, 192.0, 0.0, 0.0, 0.0, 0.0, 0.0, 0.0, 0.0, 0.0, 0.0, 1.6634988412248752E9, 0.0, 2022-09-18 16:00:41.224
119.0, -51089.78463289555, -21717.29018894317, -35314.2363207622, -51495.87112615957, -50165.2941304796, -187500.02235174447, -36385.84600518298, -30451.97194242143, 0.654, -0.682, 0.406, 192.0, 0.0, 0.0, 0.0, 0.0, 0.0, 0.0, 0.0, 0.0, 0.0, 1.6634988412287948E9, 0.0, 2022-09-18 16:00:41.228
120.0, -51064.862437827884, -22030.79575667331, -35256.345302622954, -51447.211378480366, -49461.19182839296, -187500.02235174447, -36295.09792269444, -30405.457962209937, 0.654, -0.682, 0.406, 192.0, 0.0, 0.0, 0.0, 0.0, 0.0, 0.0, 0.0, 0.0, 0.0, 1.6634988412327993E9, 0.0, 2022-09-18 16:00:41.232
121.0, -51001.69640799718, -21822.812774516675, -35285.3802186704, -51460.57772166464, -48978.349444669424, -187500.02235174447, -36313.76162931462, -30404.988575576375, 0.654, -0.682, 0.406, 192.0, 0.0, 0.0, 0.0, 0.0, 0.0, 0.0, 0.0, 0.0, 0.0, 1.663498841237023E9, 0.0, 2022-09-18 16:00:41.237
122.0, -50964.972491857116, -21574.619004084947, -35319.42192547583, -51475.82161138316, -49391.789661859235, -187500.02235174447, -36357.705158913755, -30412.409354735537, 0.654, -0.682, 0.406, 192.0, 0.0, 0.0, 0.0, 0.0, 0.0, 0.0, 0.0, 0.0, 0.0, 1.663498841239828E9, 0.0, 2022-09-18 16:00:41.239
123.0, -50986.13959385629, -21332.97429477862, -35386.47715884175, -51534.53964406725, -50163.46128743426, -187500.02235174447, -36438.52906686415, -30465.36063735016, 0.654, -0.682, 0.406, 192.0, 0.0, 0.0, 0.0, 0.0, 0.0, 0.0, 0.0, 0.0, 0.0, 1.6634988412438557E9, 0.0, 2022-09-18 16:00:41.243
124.0, -51079.36871997938, -21730.231848982796, -35302.38989620088, -51480.13549806303, -50183.6449126774, -187500.02235174447, -36334.079365024496, -30435.521058502327, 0.654, -0.682, 0.406, 192.0, 0.0, 0.0, 0.0, 0.0, 0.0, 0.0, 0.0, 0.0, 0.0, 1.663498841247863E9, 0.0, 2022-09-18 16:00:41.247
125.0, -51047.07044924146, -22018.07761407824, -35248.231619385675, -51434.91791902995, -49488.70682581745, -187500.02235174447, -36251.66848321778, -30393.20920624843, 0.654, -0.682, 0.406, 192.0, 0.0, 0.0, 0.0, 0.0, 0.0, 0.0, 0.0, 0.0, 0.0, 1.663498841252951E9, 0.0, 2022-09-18 16:00:41.252
126.0, -50994.186221860204, -21815.391995357513, -35291.52694839561, -51461.98588156532, -49029.98197436118, -187500.02235174447, -36285.486672578656, -30409.59303493417, 0.642, -0.682, 0.40800000000000003, 192.0, 20.0, 16.0, 234.0, 176.0, 12.0, 192.0, 0.0, 0.0, 0.0, 1.6634988412568724E9, 0.0, 2022-09-18 16:00:41.256
127.0, -50936.4740176766, -21561.140902178395, -35306.27909973611, -51456.59911115159, -49453.99456667835, -187500.02235174447, -36298.29422215155, -30400.004136562842, 0.642, -0.682, 0.40800000000000003, 192.0, 0.0, 0.0, 0.0, 0.0, 0.0, 0.0, 0.0, 0.0, 0.0, 1.6634988412608764E9, 0.0, 2022-09-18 16:00:41.260
128.0, -50957.59641618686, -21338.718693103638, -35365.690036498316, -51509.66215248849, -50233.13167490145, -187500.02235174447, -36356.4311094798, -30442.02541613882, 0.642, -0.682, 0.40800000000000003, 192.0, 0.0, 0.0, 0.0, 0.0, 0.0, 0.0, 0.0, 0.0, 0.0, 1.66349884126499E9, 0.0, 2022-09-18 16:00:41.264
129.0, -51062.18022849324, -21736.49033743028, -35303.820407846026, -51481.99069285282, -50241.960613961295, -187500.02235174447, -36265.57126826898, -30437.30919805875, 0.642, -0.682, 0.40800000000000003, 192.0, 0.0, 0.0, 0.0, 0.0, 0.0, 0.0, 0.0, 0.0, 0.0, 1.6634988412678888E9, 0.0, 2022-09-18 16:00:41.267
130.0, -51033.19001593471, -22002.900779593085, -35258.06638694601, -51445.15501799047, -49514.54544240778, -187500.02235174447, -36183.02627599553, -30402.30636624174, 0.642, -0.682, 0.40800000000000003, 192.0, 0.0, 0.0, 0.0, 0.0, 0.0, 0.0, 0.0, 0.0, 0.0, 1.6634988412719302E9, 0.0, 2022-09-18 16:00:41.271
131.0, -50989.20178284666, -21804.730213252333, -35288.5318146386, -51467.9985008238, -49070.706852758754, -187500.02235174447, -36202.22642448264, -30412.766982646823, 0.642, -0.682, 0.40800000000000003, 192.0, 0.0, 0.0, 0.0, 0.0, 0.0, 0.0, 0.0, 0.0, 0.0, 1.6634988412758677E9, 0.0, 2022-09-18 16:00:41.275
132.0, -50956.635291175284, -21551.97668695172, -35323.19937028878, -51483.8011841537, -49526.12364603563, -187500.02235174447, -36244.69473894772, -30423.004081607352, 0.642, -0.682, 0.40800000000000003, 192.0, 0.0, 0.0, 0.0, 0.0, 0.0, 0.0, 0.0, 0.0, 0.0, 1.6634988412810152E9, 0.0, 2022-09-18 16:00:41.281
133.0, -50988.285361324, -21337.89167855879, -35393.62971706745, -51545.96138548391, -50289.43571918437, -187500.02235174447, -36329.89958881135, -30475.575384566237, 0.642, -0.682, 0.40800000000000003, 192.0, 0.0, 0.0, 0.0, 0.0, 0.0, 0.0, 0.0, 0.0, 0.0, 1.6634988412849183E9, 0.0, 2022-09-18 16:00:41.284
134.0, -51096.55721146551, -21762.485416231804, -35325.74746915668, -51518.91577469299, -50262.23364618226, -187500.02235174447, -36231.864837630375, -30472.446140342494, 0.642, -0.682, 0.40800000000000003, 192.0, 0.0, 0.0, 0.0, 0.0, 0.0, 0.0, 0.0, 0.0, 0.0, 1.6634988412889197E9, 0.0, 2022-09-18 16:00:41.288
135.0, -51061.19675173721, -22022.391500758113, -35272.75148305315, -51478.90615211799, -49533.11974205014, -187500.02235174447, -36152.53849655849, -30437.59977073667, 0.642, -0.682, 0.40800000000000003, 192.0, 0.0, 0.0, 0.0, 0.0, 0.0, 0.0, 0.0, 0.0, 0.0, 1.6634988412929769E9, 0.0, 2022-09-18 16:00:41.292
136.0, -51002.56812603094, -21823.058643705685, -35298.45598917675, -51489.500878989806, -49097.19366993829, -187500.02235174447, -36176.49956661458, -30438.337378303695, 0.656, -0.682, 0.406, 192.0, 20.0, 128.0, 234.0, 176.0, 12.0, 176.0, 0.0, 0.0, 0.0, 1.6634988412960136E9, 0.0, 2022-09-18 16:00:41.296
