%OpenBCI Raw EEG Data
%Number of channels = 8
%Sample Rate = 250 Hz
%Board = OpenBCI_GUI$BoardCytonSerial
Sample Index, EXG Channel 0, EXG Channel 1, EXG Channel 2, EXG Channel 3, EXG Channel 4, EXG Channel 5, EXG Channel 6, EXG Channel 7, Accel Channel 0, Accel Channel 1, Accel Channel 2, Other, Other, Other, Other, Other, Other, Other, Analog Channel 0, Analog Channel 1, Analog Channel 2, Timestamp, Other, Timestamp (Formatted)
131.0, -12280.517790379261, -1489.1626225903779, -43161.196191453484, -15536.585812161662, -59722.2965624686, -187500.02235174447, -2735.5853003961206, 6702.215278412733, 0.0, 0.0, 0.0, 192.0, 0.0, 0.0, 0.0, 0.0, 0.0, 0.0, 0.0, 0.0, 0.0, 1.6634965832212572E9, 0.0, 2022-09-18 15:23:03.221
132.0, -15825.638571457694, -4567.266055019624, -42455.55161899944, -15879.126295939244, -60778.17061879285, -187500.02235174447, -3009.93061184056, 6548.636442260318, 0.0, 0.0, 0.0, 192.0, 0.0, 0.0, 0.0, 0.0, 0.0, 0.0, 0.0, 0.0, 0.0, 1.6634965832213027E9, 0.0, 2022-09-18 15:23:03.221
133.0, -16328.083435068542, -5125.232651857455, -42178.36763600918, -15608.84900198567, -60533.6872379407, -187500.02235174447, -2669.1559158749483, 6888.517068447718, 0.0, 0.0, 0.0, 192.0, 0.0, 0.0, 0.0, 0.0, 0.0, 0.0, 0.0, 0.0, 0.0, 1.6634965832213252E9, 0.0, 2022-09-18 15:23:03.221
134.0, -14671.148618596628, -3840.3873253330385, -42458.63615973427, -15370.154722947447, -60070.13440968209, -187500.02235174447, -2339.4900369036245, 7003.606200648093, 0.0, 0.0, 0.0, 192.0, 0.0, 0.0, 0.0, 0.0, 0.0, 0.0, 0.0, 0.0, 0.0, 1.66349658322135E9, 0.0, 2022-09-18 15:23:03.221
135.0, -11705.429757288666, -1190.4986131785647, -43018.36854438407, -15152.784008119585, -59351.92815684416, -187500.02235174447, -2216.9130703107203, 7067.152210134532, 0.0, 0.0, 0.0, 192.0, 0.0, 0.0, 0.0, 0.0, 0.0, 0.0, 0.0, 0.0, 0.0, 1.6634965832213728E9, 0.0, 2022-09-18 15:23:03.221
136.0, -12179.21968450781, -1396.7158075232278, -43196.24372675941, -15530.17086150299, -59644.825416186504, -187500.02235174447, -2717.122759476037, 6715.42515938582, 0.0, 0.0, 0.0, 192.0, 0.0, 0.0, 0.0, 0.0, 0.0, 0.0, 0.0, 0.0, 0.0, 1.6634965832213993E9, 0.0, 2022-09-18 15:23:03.221
137.0, -15740.187852405055, -4480.608341766399, -42501.953840488655, -15886.412964631674, -60706.689740024776, -187500.02235174447, -3014.4233124760763, 6536.454741532176, 0.0, 0.0, 0.0, 192.0, 0.0, 0.0, 0.0, 0.0, 0.0, 0.0, 0.0, 0.0, 0.0, 1.6634965832214212E9, 0.0, 2022-09-18 15:23:03.221
138.0, -16355.486673770747, -5137.906090963614, -42193.388008283146, -15621.254220158366, -60487.374423429304, -187500.02235174447, -2685.539744560688, 6870.2333414832765, 0.0, 0.0, 0.0, 192.0, 0.0, 0.0, 0.0, 0.0, 0.0, 0.0, 0.0, 0.0, 0.0, 1.663496583221442E9, 0.0, 2022-09-18 15:23:03.221
139.0, -14764.35539297526, -3917.165567537018, -42462.68182548068, -15381.218836452823, -60037.9702494109, -187500.02235174447, -2350.08476377544, 6992.162107486976, 0.56, -0.584, 0.604, 192.0, 17.0, 128.0, 237.0, 192.0, 18.0, 224.0, 0.0, 0.0, 0.0, 1.663496583221464E9, 0.0, 2022-09-18 15:23:03.221
140.0, -11794.769679876528, -1272.618922307363, -43016.558053083194, -15153.52161568661, -59330.02344727796, -187500.02235174447, -2214.275564464994, 7060.804314709225, 0.56, -0.584, 0.604, 192.0, 0.0, 0.0, 0.0, 0.0, 0.0, 0.0, 0.0, 0.0, 0.0, 1.6634965832214909E9, 0.0, 2022-09-18 15:23:03.221
141.0, -12047.634964899418, -1285.4935271136198, -43212.76166591188, -15500.979483244359, -59553.92087148677, -187500.02235174447, -2689.9877417072944, 6734.5806043840175, 0.56, -0.584, 0.604, 192.0, 0.0, 0.0, 0.0, 0.0, 0.0, 0.0, 0.0, 0.0, 0.0, 1.6634965832215168E9, 0.0, 2022-09-18 15:23:03.221
142.0, -15633.078292975224, -4389.167355199737, -42536.10730601637, -15896.359490914285, -60649.69279166374, -187500.02235174447, -3027.07439983778, 6523.535433237009, 0.56, -0.584, 0.604, 192.0, 0.0, 0.0, 0.0, 0.0, 0.0, 0.0, 0.0, 0.0, 0.0, 1.6634965832215407E9, 0.0, 2022-09-18 15:23:03.221
143.0, -16379.447743826837, -5159.788448785359, -42199.62414498617, -15646.62345011514, -60478.67959483619, -187500.02235174447, -2711.646582084487, 6850.9214342738915, 0.56, -0.584, 0.604, 192.0, 0.0, 0.0, 0.0, 0.0, 0.0, 0.0, 0.0, 0.0, 0.0, 1.6634965832215655E9, 0.0, 2022-09-18 15:23:03.221
144.0, -14839.323143878359, -3982.0526816907745, -42443.63813920476, -15385.644481854973, -60001.91688560449, -187500.02235174447, -2361.595912169923, 7000.700473868904, 0.56, -0.584, 0.604, 192.0, 0.0, 0.0, 0.0, 0.0, 0.0, 0.0, 0.0, 0.0, 0.0, 1.663496583221588E9, 0.0, 2022-09-18 15:23:03.221
145.0, -11867.010517956081, -1345.9549958652253, -42983.52217477825, -15139.440016679768, -59288.94094096911, -187500.02235174447, -2197.5341078679694, 7088.028739455788, 0.56, -0.584, 0.604, 192.0, 0.0, 0.0, 0.0, 0.0, 0.0, 0.0, 0.0, 0.0, 0.0, 1.6634965832216232E9, 0.0, 2022-09-18 15:23:03.221
146.0, -11923.582783172464, -1188.0846247773916, -43232.31944231027, -15467.340107839122, -59453.27096620452, -187500.02235174447, -2659.4999622702558, 6767.974110600247, 0.56, -0.584, 0.604, 192.0, 0.0, 0.0, 0.0, 0.0, 0.0, 0.0, 0.0, 0.0, 0.0, 1.6634965832216492E9, 0.0, 2022-09-18 15:23:03.221
147.0, -15518.994989275336, -4290.976141807573, -42586.57754499645, -15886.48001986504, -60560.97871792063, -187500.02235174447, -3025.554481214819, 6531.2467850740895, 0.56, -0.584, 0.604, 192.0, 0.0, 0.0, 0.0, 0.0, 0.0, 0.0, 0.0, 0.0, 0.0, 1.6634965832218337E9, 0.0, 2022-09-18 15:23:03.221
148.0, -16396.39036612396, -5165.734012810471, -42229.06139243381, -15651.518482150852, -60424.63307674326, -187500.02235174447, -2724.387076424012, 6861.672623356894, 0.56, -0.584, 0.604, 192.0, 0.0, 0.0, 0.0, 0.0, 0.0, 0.0, 0.0, 0.0, 0.0, 1.6634965832218556E9, 0.0, 2022-09-18 15:23:03.221
149.0, -14942.521148028512, -4062.1389820741397, -42469.63321800628, -15409.314979233144, -59962.33194617414, -187500.02235174447, -2385.2887612925483, 7001.102805269099, 0.56, -0.58, 0.604, 192.0, 17.0, 128.0, 237.0, 224.0, 18.0, 224.0, 0.0, 0.0, 0.0, 1.663496583221878E9, 0.0, 2022-09-18 15:23:03.221
150.0, -11990.258036882644, -1454.5397704291072, -42989.49009054781, -15166.709144915241, -59262.34236506729, -187500.02235174447, -2212.755645842033, 7083.468983586906, 0.56, -0.58, 0.604, 192.0, 0.0, 0.0, 0.0, 0.0, 0.0, 0.0, 0.0, 0.0, 0.0, 1.6634965832219064E9, 0.0, 2022-09-18 15:23:03.221
151.0, -11834.667543729252, -1109.1829668501578, -43253.620654776176, -15460.34401182461, -59355.191511534635, -187500.02235174447, -2648.9499388873505, 6788.1130323544785, 0.56, -0.58, 0.604, 192.0, 0.0, 0.0, 0.0, 0.0, 0.0, 0.0, 0.0, 0.0, 0.0, 1.6634965832219317E9, 0.0, 2022-09-18 15:23:03.221
152.0, -15427.62105794204, -4198.708140696066, -42608.66106851829, -15892.872618779258, -60464.35212664034, -187500.02235174447, -3033.4446470075427, 6534.688953720207, 0.56, -0.58, 0.604, 192.0, 0.0, 0.0, 0.0, 0.0, 0.0, 0.0, 0.0, 0.0, 0.0, 1.6634965832219572E9, 0.0, 2022-09-18 15:23:03.221
153.0, -16429.470947917813, -5180.016777517411, -42203.714514221494, -15659.274537476844, -60364.7974568364, -187500.02235174447, -2731.4949311607998, 6857.761068077215, 0.56, -0.58, 0.604, 192.0, 0.0, 0.0, 0.0, 0.0, 0.0, 0.0, 0.0, 0.0, 0.0, 1.663496583221988E9, 0.0, 2022-09-18 15:23:03.221
154.0, -15034.587983439922, -4131.630555585689, -42429.28831926445, -15413.42770021292, -59897.66834946494, -187500.02235174447, -2394.9000114083306, 6997.392415689518, 0.56, -0.58, 0.604, 192.0, 0.0, 0.0, 0.0, 0.0, 0.0, 0.0, 0.0, 0.0, 0.0, 1.663496583222014E9, 0.0, 2022-09-18 15:23:03.222
155.0, -12095.378291055953, -1552.2615971877096, -42960.768098922745, -15175.180456063803, -59213.95083832155, -187500.02235174447, -2215.929593554687, 7067.308672345719, 0.56, -0.58, 0.604, 192.0, 0.0, 0.0, 0.0, 0.0, 0.0, 0.0, 0.0, 0.0, 0.0, 1.66349658322204E9, 0.0, 2022-09-18 15:23:03.222
156.0, -11735.694019281153, -1030.4154193896557, -43265.19885840403, -15446.642392473506, -59263.45995229005, -187500.02235174447, -2634.6671741804093, 6780.491087495218, 0.56, -0.58, 0.604, 192.0, 0.0, 0.0, 0.0, 0.0, 0.0, 0.0, 0.0, 0.0, 0.0, 1.663496583222066E9, 0.0, 2022-09-18 15:23:03.222
157.0, -15313.493050753243, -4104.584944794768, -42646.30140618103, -15902.9532555286, -60404.91883813368, -187500.02235174447, -3052.264815838911, 6498.546182935976, 0.56, -0.58, 0.604, 192.0, 0.0, 0.0, 0.0, 0.0, 0.0, 0.0, 0.0, 0.0, 0.0, 1.6634965832220907E9, 0.0, 2022-09-18 15:23:03.222
158.0, -16462.93150936741, -5215.891327368179, -42232.88354073567, -15697.384261773142, -60374.676927885645, -187500.02235174447, -2784.7591381977963, 6800.808823205093, 0.56, -0.58, 0.604, 192.0, 0.0, 0.0, 0.0, 0.0, 0.0, 0.0, 0.0, 0.0, 0.0, 1.6634965832221165E9, 0.0, 2022-09-18 15:23:03.222
159.0, -15112.4167576333, -4206.397140788691, -42417.643060403236, -15417.830993870617, -59889.82288716113, -187500.02235174447, -2412.6696482503, 6982.439098648918, 0.5660000000000001, -0.588, 0.598, 192.0, 17.0, 176.0, 237.0, 160.0, 18.0, 176.0, 0.0, 0.0, 0.0, 1.6634965832221415E9, 0.0, 2022-09-18 15:23:03.222
160.0, -12193.480097470296, -1654.2526071372756, -42929.67682238541, -15162.507016957643, -59206.55241090684, -187500.02235174447, -2208.598221373346, 7066.101678145133, 0.5660000000000001, -0.588, 0.598, 192.0, 0.0, 0.0, 0.0, 0.0, 0.0, 0.0, 0.0, 0.0, 0.0, 1.6634965832221792E9, 0.0, 2022-09-18 15:23:03.222
161.0, -11635.222927954546, -957.4816772319887, -43266.763480515896, -15402.76591810774, -59180.490276871955, -187500.02235174447, -2601.7207028532866, 6801.1440993719225, 0.5660000000000001, -0.588, 0.598, 192.0, 0.0, 0.0, 0.0, 0.0, 0.0, 0.0, 0.0, 0.0, 0.0, 1.6634965832222044E9, 0.0, 2022-09-18 15:23:03.222
162.0, -15184.791706179585, -3995.7990045307884, -42677.81736586301, -15877.360508127274, -60327.89472674069, -187500.02235174447, -3040.440743022054, 6497.607409668853, 0.5660000000000001, -0.588, 0.598, 192.0, 0.0, 0.0, 0.0, 0.0, 0.0, 0.0, 0.0, 0.0, 0.0, 1.6634965832223186E9, 0.0, 2022-09-18 15:23:03.222
163.0, -16465.546663468678, -5216.204251790554, -42230.24603488994, -15685.873113378659, -60339.450578624084, -187500.02235174447, -2784.7144347088856, 6802.999294161713, 0.5660000000000001, -0.588, 0.598, 192.0, 0.0, 0.0, 0.0, 0.0, 0.0, 0.0, 0.0, 0.0, 0.0, 1.6634965832223449E9, 0.0, 2022-09-18 15:23:03.222
164.0, -15195.408784795856, -4280.716691102587, -42406.62365038677, -15420.557906694165, -59867.068811305624, -187500.02235174447, -2418.548157042045, 6982.819078304658, 0.5660000000000001, -0.588, 0.598, 192.0, 0.0, 0.0, 0.0, 0.0, 0.0, 0.0, 0.0, 0.0, 0.0, 1.66349658322237E9, 0.0, 2022-09-18 15:23:03.222
165.0, -12313.039578561733, -1772.4709835613949, -42908.86734829752, -15168.609043193943, -59203.33375970528, -187500.02235174447, -2204.15022422674, 7067.263968856808, 0.5660000000000001, -0.588, 0.598, 192.0, 0.0, 0.0, 0.0, 0.0, 0.0, 0.0, 0.0, 0.0, 0.0, 1.6634965832223947E9, 0.0, 2022-09-18 15:23:03.222
166.0, -11551.560348458332, -899.8141765372965, -43270.607980562214, -15382.649348097963, -59108.71882542597, -187500.02235174447, -2576.5749903410665, 6821.841814737537, 0.5660000000000001, -0.588, 0.598, 192.0, 0.0, 0.0, 0.0, 0.0, 0.0, 0.0, 0.0, 0.0, 0.0, 1.6634965832224205E9, 0.0, 2022-09-18 15:23:03.222
167.0, -15058.906681407296, -3896.1772794934845, -42702.89602314187, -15878.947481983601, -60255.85505436124, -187500.02235174447, -3037.7361819429616, 6492.868839844327, 0.5660000000000001, -0.588, 0.598, 192.0, 0.0, 0.0, 0.0, 0.0, 0.0, 0.0, 0.0, 0.0, 0.0, 1.6634965832224464E9, 0.0, 2022-09-18 15:23:03.222
168.0, -16461.29983202217, -5217.031266335401, -42213.32576433728, -15693.226837304455, -60303.84424970678, -187500.02235174447, -2783.21686783038, 6794.460927779785, 0.5660000000000001, -0.588, 0.598, 192.0, 0.0, 0.0, 0.0, 0.0, 0.0, 0.0, 0.0, 0.0, 0.0, 1.6634965832224717E9, 0.0, 2022-09-18 15:23:03.222
169.0, -15257.613689614975, -4333.377401039291, -42386.752949566006, -15429.29743877619, -59821.58301133908, -187500.02235174447, -2426.52772981259, 6975.174781700944, 0.556, -0.586, 0.604, 192.0, 17.0, 96.0, 237.0, 176.0, 18.0, 224.0, 0.0, 0.0, 0.0, 1.6634965832224977E9, 0.0, 2022-09-18 15:23:03.222
170.0, -12427.16758575053, -1877.3677202901508, -42895.29983941315, -15190.513752760144, -59173.11420120171, -187500.02235174447, -2221.3834192017816, 7049.4943320148395, 0.556, -0.586, 0.604, 192.0, 0.0, 0.0, 0.0, 0.0, 0.0, 0.0, 0.0, 0.0, 0.0, 1.6634965832225251E9, 0.0, 2022-09-18 15:23:03.222
171.0, -11481.241760401936, -837.9221961405511, -43290.63514359417, -15383.699880087363, -59006.906629432044, -187500.02235174447, -2572.84224901703, 6827.787378762649, 0.556, -0.586, 0.604, 192.0, 0.0, 0.0, 0.0, 0.0, 0.0, 0.0, 0.0, 0.0, 0.0, 1.6634965832225506E9, 0.0, 2022-09-18 15:23:03.222
172.0, -14938.81075844893, -3768.8617430760555, -42726.58887226449, -15879.841551761814, -60098.61053211815, -187500.02235174447, -3040.4183912775984, 6512.940706365193, 0.556, -0.586, 0.604, 192.0, 0.0, 0.0, 0.0, 0.0, 0.0, 0.0, 0.0, 0.0, 0.0, 1.6634965832225795E9, 0.0, 2022-09-18 15:23:03.222
173.0, -16487.719593968344, -5219.266440780931, -42207.64842124563, -15731.247154622932, -60241.527586165386, -187500.02235174447, -2795.5550307697094, 6773.986729858724, 0.556, -0.586, 0.604, 192.0, 0.0, 0.0, 0.0, 0.0, 0.0, 0.0, 0.0, 0.0, 0.0, 1.6634965832226052E9, 0.0, 2022-09-18 15:23:03.222
174.0, -15354.46379833982, -4399.7844338160085, -42369.98914122452, -15470.424648573953, -59780.88048468596, -187500.02235174447, -2437.2789188955926, 6958.343918126097, 0.556, -0.586, 0.604, 192.0, 0.0, 0.0, 0.0, 0.0, 0.0, 0.0, 0.0, 0.0, 0.0, 1.663496583222634E9, 0.0, 2022-09-18 15:23:03.222
175.0, -12544.96127903, -1972.7873173698567, -42850.23872259125, -15211.613799525954, -59130.53412801435, -187500.02235174447, -2203.4796718930806, 7047.0132883803, 0.556, -0.586, 0.604, 192.0, 0.0, 0.0, 0.0, 0.0, 0.0, 0.0, 0.0, 0.0, 0.0, 1.6634965832226596E9, 0.0, 2022-09-18 15:23:03.222
176.0, -11408.911515344564, -778.8241838007193, -43271.65851255161, -15375.832066039095, -58942.600660634125, -187500.02235174447, -2531.6926874748096, 6828.301468885121, 0.556, -0.586, 0.604, 192.0, 0.0, 0.0, 0.0, 0.0, 0.0, 0.0, 0.0, 0.0, 0.0, 1.663496583222684E9, 0.0, 2022-09-18 15:23:03.222
177.0, -14811.6963877316, -3664.0097098362103, -42768.81131754057, -15901.768613072469, -60085.55711335625, -187500.02235174447, -3035.858635408716, 6464.415069152721, 0.556, -0.586, 0.604, 192.0, 0.0, 0.0, 0.0, 0.0, 0.0, 0.0, 0.0, 0.0, 0.0, 1.6634965832227337E9, 0.0, 2022-09-18 15:23:03.222
178.0, -16499.40955631847, -5227.648344951671, -42226.222720887985, -15756.392867135153, -60247.00376355693, -187500.02235174447, -2817.124464169081, 6736.368743940443, 0.556, -0.586, 0.604, 192.0, 0.0, 0.0, 0.0, 0.0, 0.0, 0.0, 0.0, 0.0, 0.0, 1.6634965832227569E9, 0.0, 2022-09-18 15:23:03.222
179.0, -15434.639505701007, -4467.420812537767, -42367.172821423155, -15476.191398643423, -59769.88342641395, -187500.02235174447, -2454.757983059643, 6937.646202760483, 0.558, -0.586, 0.6, 192.0, 17.0, 112.0, 237.0, 176.0, 18.0, 192.0, 0.0, 0.0, 0.0, 1.6634965832227786E9, 0.0, 2022-09-18 15:23:03.222
180.0, -12682.312748707862, -2104.059112555875, -42843.399088787926, -15217.358197850966, -59150.69540151303, -187500.02235174447, -2221.7186953686114, 7023.879232869057, 0.558, -0.586, 0.6, 192.0, 0.0, 0.0, 0.0, 0.0, 0.0, 0.0, 0.0, 0.0, 0.0, 1.663496583222803E9, 0.0, 2022-09-18 15:23:03.222
181.0, -11356.004936218851, -741.899101960552, -43265.66824503759, -15335.576574275086, -58876.037165646216, -187500.02235174447, -2506.9269546183295, 6851.569634863095, 0.558, -0.586, 0.6, 192.0, 0.0, 0.0, 0.0, 0.0, 0.0, 0.0, 0.0, 0.0, 0.0, 1.6634965832228317E9, 0.0, 2022-09-18 15:23:03.222
182.0, -14660.24096730244, -3534.9060338623567, -42777.03675950012, -15855.165225883155, -59987.36589996408, -187500.02235174447, -3021.911146868604, 6483.928142062205, 0.558, -0.586, 0.6, 192.0, 0.0, 0.0, 0.0, 0.0, 0.0, 0.0, 0.0, 0.0, 0.0, 1.6634965832228584E9, 0.0, 2022-09-18 15:23:03.222
183.0, -16494.26865509375, -5222.686257682593, -42222.42292433059, -15749.64264030965, -60213.05146372932, -187500.02235174447, -2843.7453918153515, 6723.270621689632, 0.558, -0.586, 0.6, 192.0, 0.0, 0.0, 0.0, 0.0, 0.0, 0.0, 0.0, 0.0, 0.0, 1.6634965832228994E9, 0.0, 2022-09-18 15:23:03.222
184.0, -15500.532448355252, -4523.3448771649455, -42354.00764393898, -15481.712279523885, -59737.58515567603, -187500.02235174447, -2489.179669520816, 6929.130188123011, 0.558, -0.586, 0.6, 192.0, 0.0, 0.0, 0.0, 0.0, 0.0, 0.0, 0.0, 0.0, 0.0, 1.6634965832229211E9, 0.0, 2022-09-18 15:23:03.222
185.0, -12790.137563960263, -2207.9053172952317, -42822.366097255486, -15225.136604921414, -59125.616744234176, -187500.02235174447, -2242.215245034128, 7022.158148545998, 0.558, -0.586, 0.6, 192.0, 0.0, 0.0, 0.0, 0.0, 0.0, 0.0, 0.0, 0.0, 0.0, 1.6634965832229483E9, 0.0, 2022-09-18 15:23:03.222
186.0, -11307.5687059842, -717.0886656151612, -43289.87518428268, -15340.136330143969, -58814.8827928165, -187500.02235174447, -2521.5449954921005, 6845.668774326894, 0.558, -0.586, 0.6, 192.0, 0.0, 0.0, 0.0, 0.0, 0.0, 0.0, 0.0, 0.0, 0.0, 1.6634965832229753E9, 0.0, 2022-09-18 15:23:03.222
187.0, -14532.411340762537, -3431.3727535453745, -42833.07258284958, -15880.445048862106, -59923.842242222105, -187500.02235174447, -3058.813876964316, 6456.591958593364, 0.558, -0.586, 0.6, 192.0, 0.0, 0.0, 0.0, 0.0, 0.0, 0.0, 0.0, 0.0, 0.0, 1.6634965832230031E9, 0.0, 2022-09-18 15:23:03.223
188.0, -16498.873114451544, -5227.335420529297, -42248.68622406557, -15790.479277429497, -60202.0097019684, -187500.02235174447, -2894.0368168397927, 6684.937379948781, 0.558, -0.586, 0.6, 192.0, 0.0, 0.0, 0.0, 0.0, 0.0, 0.0, 0.0, 0.0, 0.0, 1.6634965832230308E9, 0.0, 2022-09-18 15:23:03.223
189.0, -15564.860768897626, -4576.944360368772, -42341.55772227737, -15506.857992036104, -59716.95449554378, -187500.02235174447, -2516.627611711933, 6919.720103707326, 0.5660000000000001, -0.588, 0.604, 192.0, 17.0, 176.0, 237.0, 160.0, 18.0, 224.0, 0.0, 0.0, 0.0, 1.6634965832230592E9, 0.0, 2022-09-18 15:23:03.223
190.0, -12917.006065488586, -2323.8661675293647, -42812.352515739505, -15265.21328272978, -59123.98506688894, -187500.02235174447, -2270.244332581083, 6996.565401144672, 0.5660000000000001, -0.588, 0.604, 192.0, 0.0, 0.0, 0.0, 0.0, 0.0, 0.0, 0.0, 0.0, 0.0, 1.6634965832230875E9, 0.0, 2022-09-18 15:23:03.223
191.0, -11276.164505024493, -691.2276972803709, -43303.77796933389, -15347.17712964739, -58753.549606031134, -187500.02235174447, -2521.5896989810108, 6845.087628971056, 0.5660000000000001, -0.588, 0.604, 192.0, 0.0, 0.0, 0.0, 0.0, 0.0, 0.0, 0.0, 0.0, 0.0, 1.6634965832231147E9, 0.0, 2022-09-18 15:23:03.223
192.0, -14404.246438055807, -3301.8667461713253, -42874.04333043615, -15877.494618594006, -59788.50242954522, -187500.02235174447, -3067.6875195130733, 6462.068135984914, 0.5660000000000001, -0.588, 0.604, 192.0, 0.0, 0.0, 0.0, 0.0, 0.0, 0.0, 0.0, 0.0, 0.0, 1.6634965832231352E9, 0.0, 2022-09-18 15:23:03.223
193.0, -16509.46784132336, -5220.227565792509, -42273.94369530007, -15818.46366148754, -60139.76009366037, -187500.02235174447, -2926.7150672334515, 6652.974385377692, 0.5660000000000001, -0.588, 0.604, 192.0, 0.0, 0.0, 0.0, 0.0, 0.0, 0.0, 0.0, 0.0, 0.0, 1.6634965832232423E9, 0.0, 2022-09-18 15:23:03.223
194.0, -15649.395066427598, -4642.725544300741, -42342.13886763321, -15527.756873101816, -59688.165448685344, -187500.02235174447, -2548.5906062830218, 6891.087519060078, 0.5660000000000001, -0.588, 0.604, 192.0, 0.0, 0.0, 0.0, 0.0, 0.0, 0.0, 0.0, 0.0, 0.0, 1.663496583223268E9, 0.0, 2022-09-18 15:23:03.223
195.0, -13048.367267652426, -2445.2808434105928, -42774.22043969875, -15260.407657671889, -59096.805345631285, -187500.02235174447, -2274.982902405608, 6994.307874954686, 0.5660000000000001, -0.588, 0.604, 192.0, 0.0, 0.0, 0.0, 0.0, 0.0, 0.0, 0.0, 0.0, 0.0, 1.6634965832232943E9, 0.0, 2022-09-18 15:23:03.223
196.0, -11230.008152724286, -673.033377293751, -43278.81107077731, -15306.161678571902, -58693.356358212994, -187500.02235174447, -2487.950323575774, 6867.4170216819075, 0.5660000000000001, -0.588, 0.604, 192.0, 0.0, 0.0, 0.0, 0.0, 0.0, 0.0, 0.0, 0.0, 0.0, 1.6634965832233143E9, 0.0, 2022-09-18 15:23:03.223
197.0, -14249.214738513798, -3182.4190238021642, -42905.20166220685, -15850.404304314174, -59707.00796926117, -187500.02235174447, -3059.5514845313414, 6469.578322121897, 0.5660000000000001, -0.588, 0.604, 192.0, 0.0, 0.0, 0.0, 0.0, 0.0, 0.0, 0.0, 0.0, 0.0, 1.6634965832233338E9, 0.0, 2022-09-18 15:23:03.223
198.0, -16492.12288762604, -5216.9865628464895, -42286.95241057306, -15818.910696376646, -60115.12847127062, -187500.02235174447, -2947.278672132334, 6644.480722484675, 0.5660000000000001, -0.588, 0.604, 192.0, 0.0, 0.0, 0.0, 0.0, 0.0, 0.0, 0.0, 0.0, 0.0, 1.6634965832233553E9, 0.0, 2022-09-18 15:23:03.223
199.0, -15694.098555338212, -4689.083062301047, -42342.04946065539, -15522.995951532836, -59656.716544236726, -187500.02235174447, -2564.5721035685665, 6900.005865097745, 0.5660000000000001, -0.588, 0.604, 192.0, 0.0, 0.0, 0.0, 0.0, 0.0, 0.0, 0.0, 0.0, 0.0, 1.6634965832233825E9, 0.0, 2022-09-18 15:23:03.223
200.0, -13161.198873662815, -2552.8821412184407, -42779.27193394565, -15270.644756632419, -59076.93464481052, -187500.02235174447, -2294.3842165928145, 6995.961904044379, 0.56, -0.594, 0.602, 192.0, 17.0, 128.0, 237.0, 112.0, 18.0, 208.0, 0.0, 0.0, 0.0, 1.6634965832234054E9, 0.0, 2022-09-18 15:23:03.223
201.0, -11202.716672744355, -659.0858887536393, -43291.26099243892, -15298.763251157196, -58635.2418226292, -187500.02235174447, -2480.1942682497825, 6886.192487024366, 0.56, -0.594, 0.602, 192.0, 0.0, 0.0, 0.0, 0.0, 0.0, 0.0, 0.0, 0.0, 0.0, 1.6634965832234368E9, 0.0, 2022-09-18 15:23:03.223
202.0, -14089.511524380629, -3043.5699872457967, -42944.048994070174, -15841.441254787596, -59614.2705815161, -187500.02235174447, -3059.171504875601, 6486.610351396841, 0.56, -0.594, 0.602, 192.0, 0.0, 0.0, 0.0, 0.0, 0.0, 0.0, 0.0, 0.0, 0.0, 1.6634965832234657E9, 0.0, 2022-09-18 15:23:03.223
203.0, -16467.02187860273, -5188.733957854982, -42294.90963159915, -15829.974809882024, -60079.07510746421, -187500.02235174447, -2964.981253740937, 6648.0570015975245, 0.56, -0.594, 0.602, 192.0, 0.0, 0.0, 0.0, 0.0, 0.0, 0.0, 0.0, 0.0, 0.0, 1.663496583223487E9, 0.0, 2022-09-18 15:23:03.223
204.0, -15757.912785758113, -4740.514426292709, -42339.43430655412, -15545.012419821314, -59644.624250486406, -187500.02235174447, -2593.785833571653, 6899.245905786265, 0.56, -0.594, 0.602, 192.0, 0.0, 0.0, 0.0, 0.0, 0.0, 0.0, 0.0, 0.0, 0.0, 1.6634965832235107E9, 0.0, 2022-09-18 15:23:03.223
205.0, -13299.44441311889, -2681.2482096252693, -42781.61886711346, -15299.970245357783, -59096.26890376436, -187500.02235174447, -2331.6445745998117, 6984.42840390544, 0.56, -0.594, 0.602, 192.0, 0.0, 0.0, 0.0, 0.0, 0.0, 0.0, 0.0, 0.0, 0.0, 1.6634965832235339E9, 0.0, 2022-09-18 15:23:03.223
206.0, -11196.994626163796, -669.5912086476337, -43312.91983281611, -15292.705928409807, -58612.130118862406, -187500.02235174447, -2483.748195618176, 6897.211897040832, 0.56, -0.594, 0.602, 192.0, 0.0, 0.0, 0.0, 0.0, 0.0, 0.0, 0.0, 0.0, 0.0, 1.6634965832235544E9, 0.0, 2022-09-18 15:23:03.223
207.0, -13943.822854020937, -2920.1436543635914, -43000.88948022002, -15825.75033017997, -59557.31833664398, -187500.02235174447, -3058.3221385862994, 6493.494688689076, 0.56, -0.594, 0.602, 192.0, 0.0, 0.0, 0.0, 0.0, 0.0, 0.0, 0.0, 0.0, 0.0, 1.6634965832235777E9, 0.0, 2022-09-18 15:23:03.223
208.0, -16452.426189473415, -5169.5561611123285, -42334.85219894078, -15839.206080342065, -60072.2801771498, -187500.02235174447, -2990.7081116089958, 6630.354419988921, 0.56, -0.594, 0.602, 192.0, 0.0, 0.0, 0.0, 0.0, 0.0, 0.0, 0.0, 0.0, 0.0, 1.6634965832236333E9, 0.0, 2022-09-18 15:23:03.223
209.0, -15813.434518985096, -4776.724252310307, -42346.43040256863, -15538.955097073926, -59624.70884617673, -187500.02235174447, -2601.6759993643764, 6905.571449467117, 0.56, -0.594, 0.602, 192.0, 0.0, 0.0, 0.0, 0.0, 0.0, 0.0, 0.0, 0.0, 0.0, 1.6634965832236547E9, 0.0, 2022-09-18 15:23:03.223
210.0, -13414.645304041542, -2774.812611915185, -42762.21755292625, -15292.817687132085, -59072.50899940837, -187500.02235174447, -2327.88948153132, 6993.503212154295, 0.56, -0.59, 0.596, 192.0, 17.0, 128.0, 237.0, 144.0, 18.0, 160.0, 0.0, 0.0, 0.0, 1.6634965832236772E9, 0.0, 2022-09-18 15:23:03.223
211.0, -11196.927570930431, -670.2394092368376, -43309.90234731464, -15280.524227681664, -58557.70362111374, -187500.02235174447, -2471.4323844233018, 6901.548135465162, 0.56, -0.59, 0.596, 192.0, 0.0, 0.0, 0.0, 0.0, 0.0, 0.0, 0.0, 0.0, 0.0, 1.6634965832236998E9, 0.0, 2022-09-18 15:23:03.223
212.0, -13803.699768030618, -2796.1808796144583, -43036.629919604056, -15818.307199276353, -59475.46624844865, -187500.02235174447, -3056.5787025187856, 6484.844563584872, 0.56, -0.59, 0.596, 192.0, 0.0, 0.0, 0.0, 0.0, 0.0, 0.0, 0.0, 0.0, 0.0, 1.6634965832237222E9, 0.0, 2022-09-18 15:23:03.223
213.0, -16436.44469218787, -5148.567873068795, -42354.14175440571, -15856.573385783839, -60038.59609825565, -187500.02235174447, -3008.634210662152, 6603.085291753447, 0.56, -0.59, 0.596, 192.0, 0.0, 0.0, 0.0, 0.0, 0.0, 0.0, 0.0, 0.0, 0.0, 1.663496583223744E9, 0.0, 2022-09-18 15:23:03.223
214.0, -15884.021327974955, -4831.351915759077, -42348.084431658324, -15563.407905508031, -59615.812851883515, -187500.02235174447, -2618.9762495727837, 6876.491829930763, 0.56, -0.59, 0.596, 192.0, 0.0, 0.0, 0.0, 0.0, 0.0, 0.0, 0.0, 0.0, 0.0, 1.6634965832237651E9, 0.0, 2022-09-18 15:23:03.223
215.0, -13541.782026503328, -2894.796776151273, -42742.03392768311, -15314.118899597992, -59079.10276402268, -187500.02235174447, -2329.655269343289, 6971.173819443443, 0.56, -0.59, 0.596, 192.0, 0.0, 0.0, 0.0, 0.0, 0.0, 0.0, 0.0, 0.0, 0.0, 1.6634965832237864E9, 0.0, 2022-09-18 15:23:03.223
216.0, -11189.93147491592, -679.0907000411391, -43291.21628895, -15257.367820425967, -58498.471498307175, -187500.02235174447, -2439.9611282302294, 6924.302211320664, 0.56, -0.59, 0.596, 192.0, 0.0, 0.0, 0.0, 0.0, 0.0, 0.0, 0.0, 0.0, 0.0, 1.6634965832238076E9, 0.0, 2022-09-18 15:23:03.223
217.0, -13622.583582709263, -2652.1909418333703, -43065.03898680675, -15793.541466419872, -59394.32941607588, -187500.02235174447, -3027.7449521714393, 6495.841621856884, 0.56, -0.59, 0.596, 192.0, 0.0, 0.0, 0.0, 0.0, 0.0, 0.0, 0.0, 0.0, 0.0, 1.6634965832238336E9, 0.0, 2022-09-18 15:23:03.223
218.0, -16392.367052122005, -5116.984858153446, -42373.744234293015, -15861.0437346749, -60015.75261542232, -187500.02235174447, -3022.2911265243447, 6596.670341094773, 0.56, -0.59, 0.596, 192.0, 0.0, 0.0, 0.0, 0.0, 0.0, 0.0, 0.0, 0.0, 0.0, 1.6634965832238555E9, 0.0, 2022-09-18 15:23:03.223
219.0, -15936.011485578, -4875.407204080487, -42342.40708856667, -15559.69751592845, -59584.922741046285, -187500.02235174447, -2635.583595703077, 6886.952446335847, 0.56, -0.59, 0.596, 192.0, 0.0, 0.0, 0.0, 0.0, 0.0, 0.0, 0.0, 0.0, 0.0, 1.6634965832238767E9, 0.0, 2022-09-18 15:23:03.223
220.0, -13662.772019239907, -3007.628382161663, -42732.26621535614, -15316.801108932628, -59064.6411853601, -187500.02235174447, -2353.661042888289, 6972.939607255413, 0.5660000000000001, -0.594, 0.594, 192.0, 17.0, 176.0, 237.0, 112.0, 18.0, 144.0, 0.0, 0.0, 0.0, 1.6634965832239163E9, 0.0, 2022-09-18 15:23:03.223
221.0, -11201.956713432875, -704.3034677867255, -43291.88684128366, -15237.742988794207, -58441.78747436852, -187500.02235174447, -2439.8717212524084, 6940.462522561851, 0.5660000000000001, -0.594, 0.594, 192.0, 0.0, 0.0, 0.0, 0.0, 0.0, 0.0, 0.0, 0.0, 0.0, 1.663496583223941E9, 0.0, 2022-09-18 15:23:03.223
222.0, -13481.164095540536, -2535.067800887561, -43116.71621998742, -15783.21496048152, -59308.09638596731, -187500.02235174447, -3037.5797197317747, 6494.14288927828, 0.5660000000000001, -0.594, 0.594, 192.0, 0.0, 0.0, 0.0, 0.0, 0.0, 0.0, 0.0, 0.0, 0.0, 1.663496583223964E9, 0.0, 2022-09-18 15:23:03.223
223.0, -16362.795694207633, -5087.592314194717, -42403.025019529465, -15878.388688372219, -59994.11612678959, -187500.02235174447, -3051.3930978051544, 6566.96487271367, 0.5660000000000001, -0.594, 0.594, 192.0, 0.0, 0.0, 0.0, 0.0, 0.0, 0.0, 0.0, 0.0, 0.0, 1.6634965832240088E9, 0.0, 2022-09-18 15:23:03.224
224.0, -15974.836465696868, -4899.144756692023, -42322.40227727917, -15554.17663504799, -59549.31641212898, -187500.02235174447, -2642.132656828482, 6888.897048103458, 0.5660000000000001, -0.594, 0.594, 192.0, 0.0, 0.0, 0.0, 0.0, 0.0, 0.0, 0.0, 0.0, 0.0, 1.663496583224032E9, 0.0, 2022-09-18 15:23:03.224
225.0, -13765.366526289765, -3094.889592515182, -42706.87463365491, -15314.610637976008, -59032.87935648911, -187500.02235174447, -2355.404478955803, 6981.925008526446, 0.5660000000000001, -0.594, 0.594, 192.0, 0.0, 0.0, 0.0, 0.0, 0.0, 0.0, 0.0, 0.0, 0.0, 1.6634965832240558E9, 0.0, 2022-09-18 15:23:03.224
226.0, -11211.210335637372, -717.6251074820885, -43298.70412334253, -15228.15409042288, -58378.55438930445, -187500.02235174447, -2429.1205321694056, 6959.081525693122, 0.5660000000000001, -0.594, 0.594, 192.0, 0.0, 0.0, 0.0, 0.0, 0.0, 0.0, 0.0, 0.0, 0.0, 1.6634965832240884E9, 0.0, 2022-09-18 15:23:03.224
227.0, -13317.929305783427, -2386.696921193233, -43154.714185561446, -15758.203358436032, -59197.29878870235, -187500.02235174447, -3012.143434541635, 6516.964020367149, 0.5660000000000001, -0.594, 0.594, 192.0, 0.0, 0.0, 0.0, 0.0, 0.0, 0.0, 0.0, 0.0, 0.0, 1.663496583224113E9, 0.0, 2022-09-18 15:23:03.224
228.0, -16317.376949474448, -5038.798456048782, -42419.23003425956, -15882.121429696255, -59963.136608974535, -187500.02235174447, -3054.276472839889, 6557.711250509174, 0.5660000000000001, -0.594, 0.594, 192.0, 0.0, 0.0, 0.0, 0.0, 0.0, 0.0, 0.0, 0.0, 0.0, 1.6634965832241392E9, 0.0, 2022-09-18 15:23:03.224
229.0, -16043.523376408028, -4950.576120683685, -42335.1427716187, -15582.2280743394, -59549.763447018086, -187500.02235174447, -2682.5669625481323, 6862.45493441283, 0.5660000000000001, -0.594, 0.594, 192.0, 0.0, 0.0, 0.0, 0.0, 0.0, 0.0, 0.0, 0.0, 0.0, 1.6634965832241652E9, 0.0, 2022-09-18 15:23:03.224
230.0, -13900.41576628873, -3212.124492183267, -42713.40134303586, -15347.46770232531, -59035.5839175682, -187500.02235174447, -2390.51906949509, 6956.153447169477, 0.5660000000000001, -0.592, 0.598, 192.0, 17.0, 176.0, 237.0, 128.0, 18.0, 176.0, 0.0, 0.0, 0.0, 1.6634965832241912E9, 0.0, 2022-09-18 15:23:03.224
231.0, -11247.84484479962, -758.7299655353983, -43290.679847083076, -15229.361084623468, -58340.399961519244, -187500.02235174447, -2427.7347240131767, 6966.457601363373, 0.5660000000000001, -0.592, 0.598, 192.0, 0.0, 0.0, 0.0, 0.0, 0.0, 0.0, 0.0, 0.0, 0.0, 1.6634965832242196E9, 0.0, 2022-09-18 15:23:03.224
232.0, -13159.231920150749, -2253.3240620284155, -43172.48382240341, -15748.860329253714, -59093.56434268527, -187500.02235174447, -3000.9005070806156, 6522.52960473652, 0.5660000000000001, -0.592, 0.598, 192.0, 0.0, 0.0, 0.0, 0.0, 0.0, 0.0, 0.0, 0.0, 0.0, 1.6634965832242458E9, 0.0, 2022-09-18 15:23:03.224
233.0, -16273.45577161977, -5000.666380008028, -42440.33008102537, -15919.471194681073, -59926.792672490206, -187500.02235174447, -3080.1597929191344, 6524.898889648783, 0.5660000000000001, -0.592, 0.598, 192.0, 0.0, 0.0, 0.0, 0.0, 0.0, 0.0, 0.0, 0.0, 0.0, 1.6634965832242727E9, 0.0, 2022-09-18 15:23:03.224
234.0, -16092.831324676434, -4992.619752004118, -42334.49457102949, -15614.414586355042, -59533.804301476994, -187500.02235174447, -2699.6213435675318, 6854.2071407088215, 0.5660000000000001, -0.592, 0.598, 192.0, 0.0, 0.0, 0.0, 0.0, 0.0, 0.0, 0.0, 0.0, 0.0, 1.6634965832243E9, 0.0, 2022-09-18 15:23:03.224
235.0, -14004.753709406104, -3305.331266561898, -42689.41792123532, -15358.777685019695, -59014.528574291304, -187500.02235174447, -2390.8990491508307, 6974.995967745301, 0.5660000000000001, -0.592, 0.598, 192.0, 0.0, 0.0, 0.0, 0.0, 0.0, 0.0, 0.0, 0.0, 0.0, 1.6634965832243264E9, 0.0, 2022-09-18 15:23:03.224
236.0, -11271.89532183353, -789.0612827612499, -43259.99090194594, -15214.698340260786, -58285.43702190364, -187500.02235174447, -2406.500566780635, 7003.33797971463, 0.5660000000000001, -0.592, 0.598, 192.0, 0.0, 0.0, 0.0, 0.0, 0.0, 0.0, 0.0, 0.0, 0.0, 1.6634965832243536E9, 0.0, 2022-09-18 15:23:03.224
237.0, -13002.233267096672, -2121.292307530917, -43198.14362503811, -15726.508584798406, -58988.28762630077, -187500.02235174447, -2985.164878984079, 6545.417791058754, 0.5660000000000001, -0.592, 0.598, 192.0, 0.0, 0.0, 0.0, 0.0, 0.0, 0.0, 0.0, 0.0, 0.0, 1.6634965832243793E9, 0.0, 2022-09-18 15:23:03.224
238.0, -16229.06520713153, -4970.55858022673, -42481.613753034326, -15945.354514760318, -59898.3389017986, -187500.02235174447, -3110.6922758450837, 6490.678368887708, 0.5660000000000001, -0.592, 0.598, 192.0, 0.0, 0.0, 0.0, 0.0, 0.0, 0.0, 0.0, 0.0, 0.0, 1.6634965832244103E9, 0.0, 2022-09-18 15:23:03.224
239.0, -16146.654325324813, -5043.201749706477, -42330.76182970546, -15632.094816219189, -59528.48458629663, -187500.02235174447, -2720.5872798666096, 6834.381143376964, 0.5660000000000001, -0.592, 0.598, 192.0, 0.0, 0.0, 0.0, 0.0, 0.0, 0.0, 0.0, 0.0, 0.0, 1.6634965832244596E9, 0.0, 2022-09-18 15:23:03.224
240.0, -14122.32388524102, -3415.055980093, -42673.74934837215, -15370.646461325463, -59011.95812367894, -187500.02235174447, -2406.567622014001, 6962.881322250524, 0.5700000000000001, -0.598, 0.596, 192.0, 17.0, 208.0, 237.0, 80.0, 18.0, 160.0, 0.0, 0.0, 0.0, 1.6634965832244873E9, 0.0, 2022-09-18 15:23:03.224
241.0, -11315.928258410486, -842.3701932871572, -43271.233829406956, -15209.400976824878, -58250.143617408714, -187500.02235174447, -2399.9291539107744, 7009.574116417661, 0.5700000000000001, -0.598, 0.596, 192.0, 0.0, 0.0, 0.0, 0.0, 0.0, 0.0, 0.0, 0.0, 0.0, 1.663496583224516E9, 0.0, 2022-09-18 15:23:03.224
242.0, -12847.268622788028, -1991.8310036457783, -43242.7577069709, -15705.319131054775, -58888.84471521911, -187500.02235174447, -2963.304872906789, 6568.216570403168, 0.5700000000000001, -0.598, 0.596, 192.0, 0.0, 0.0, 0.0, 0.0, 0.0, 0.0, 0.0, 0.0, 0.0, 1.6634965832245426E9, 0.0, 2022-09-18 15:23:03.224
243.0, -16161.00414526512, -4903.101015460613, -42492.655514795246, -15946.874433383278, -59852.65193613195, -187500.02235174447, -3101.6174675962293, 6485.04572928497, 0.5700000000000001, -0.598, 0.596, 192.0, 0.0, 0.0, 0.0, 0.0, 0.0, 0.0, 0.0, 0.0, 0.0, 1.6634965832245693E9, 0.0, 2022-09-18 15:23:03.224
244.0, -16193.861209614422, -5073.264845998865, -42327.118495359246, -15651.876110062136, -59519.16390885877, -187500.02235174447, -2732.5231114057437, 6813.862241966992, 0.5700000000000001, -0.598, 0.596, 192.0, 0.0, 0.0, 0.0, 0.0, 0.0, 0.0, 0.0, 0.0, 0.0, 1.663496583224598E9, 0.0, 2022-09-18 15:23:03.224
245.0, -14246.644287901438, -3519.528033677105, -42668.38492970287, -15404.755223364262, -59019.46830981592, -187500.02235174447, -2424.270203622604, 6940.618984773038, 0.5700000000000001, -0.598, 0.596, 192.0, 0.0, 0.0, 0.0, 0.0, 0.0, 0.0, 0.0, 0.0, 0.0, 1.663496583224626E9, 0.0, 2022-09-18 15:23:03.224
246.0, -11370.041831736784, -892.4157491225898, -43237.08036387925, -15204.573000022532, -58228.37301830924, -187500.02235174447, -2384.2158775586936, 7025.15328230301, 0.5700000000000001, -0.598, 0.596, 192.0, 0.0, 0.0, 0.0, 0.0, 0.0, 0.0, 0.0, 0.0, 0.0, 1.6634965832246573E9, 0.0, 2022-09-18 15:23:03.224
247.0, -12704.932714096632, -1868.4046707635728, -43254.671186765576, -15685.761354656383, -58807.529068890704, -187500.02235174447, -2948.9327012220265, 6582.097003709913, 0.5700000000000001, -0.598, 0.596, 192.0, 0.0, 0.0, 0.0, 0.0, 0.0, 0.0, 0.0, 0.0, 0.0, 1.6634965832246842E9, 0.0, 2022-09-18 15:23:03.224
248.0, -16098.531019512538, -4848.071020611646, -42514.046134238975, -15959.413762022707, -59823.79583404015, -187500.02235174447, -3126.3161452193435, 6463.588054607875, 0.5700000000000001, -0.598, 0.596, 192.0, 0.0, 0.0, 0.0, 0.0, 0.0, 0.0, 0.0, 0.0, 0.0, 1.6634965832247107E9, 0.0, 2022-09-18 15:23:03.224
249.0, -16230.987457154688, -5104.1549568361, -42308.588899205795, -15658.872206076647, -59510.536135499024, -187500.02235174447, -2755.187780283425, 6807.20142211931, 0.5700000000000001, -0.598, 0.596, 192.0, 0.0, 0.0, 0.0, 0.0, 0.0, 0.0, 0.0, 0.0, 0.0, 1.6634965832247367E9, 0.0, 2022-09-18 15:23:03.224
250.0, -14359.587652634104, -3622.5919273605264, -42640.2664351781, -15421.00494158327, -59024.050417429266, -187500.02235174447, -2460.7482505736652, 6923.899879920469, 0.5640000000000001, -0.596, 0.598, 192.0, 17.0, 160.0, 237.0, 96.0, 18.0, 176.0, 0.0, 0.0, 0.0, 1.663496583224764E9, 0.0, 2022-09-18 15:23:03.224
251.0, -11442.260318071882, -969.8421919157735, -43221.83647416073, -15221.87325023094, -58219.67818971613, -187500.02235174447, -2412.8261104614867, 7005.953133815901, 0.5640000000000001, -0.596, 0.598, 192.0, 0.0, 0.0, 0.0, 0.0, 0.0, 0.0, 0.0, 0.0, 0.0, 1.6634965832247894E9, 0.0, 2022-09-18 15:23:03.224
252.0, -12549.141055243143, -1738.496331989328, -43258.26981762288, -15662.403781700586, -58707.79558513112, -187500.02235174447, -2933.8676254591496, 6595.508050383098, 0.5640000000000001, -0.596, 0.598, 192.0, 0.0, 0.0, 0.0, 0.0, 0.0, 0.0, 0.0, 0.0, 0.0, 1.6634965832248151E9, 0.0, 2022-09-18 15:23:03.224
0.0, 0.0, 0.0, 0.0, 0.0, 0.0, 0.0, 0.0, 0.0, 0.5640000000000001, -0.602, 0.598, 192.0, 17.0, 160.0, 237.0, 48.0, 18.0, 176.0, 0.0, 0.0, 0.0, 1.6634965833216338E9, 0.0, 2022-09-18 15:23:03.321
1.0, -14036.1132068769, -4594.959866399749, -41351.77777430746, -15547.851091367138, -43540.885274515786, -187500.02235174447, -4354.924482694207, 5722.672429403357, 0.5640000000000001, -0.602, 0.598, 192.0, 0.0, 0.0, 0.0, 0.0, 0.0, 0.0, 0.0, 0.0, 0.0, 1.6634965838073995E9, 0.0, 2022-09-18 15:23:03.807
2.0, -10919.385960028883, -1851.46204846645, -41918.5956619496, -15287.989710329737, -42526.9877942786, -187500.02235174447, -4266.813906051387, 5943.373554155059, 0.5640000000000001, -0.602, 0.598, 192.0, 0.0, 0.0, 0.0, 0.0, 0.0, 0.0, 0.0, 0.0, 0.0, 1.6634965838074968E9, 0.0, 2022-09-18 15:23:03.807
3.0, -10531.002048373468, -1303.7996058225162, -42224.38987784265, -15613.073481687723, -42461.49718302455, -187500.02235174447, -4708.730245677262, 5597.055625564531, 0.5640000000000001, -0.602, 0.598, 192.0, 0.0, 0.0, 0.0, 0.0, 0.0, 0.0, 0.0, 0.0, 0.0, 1.663496583807536E9, 0.0, 2022-09-18 15:23:03.807
4.0, -14323.914268483433, -4568.629511431398, -41527.52954095954, -16093.61363573237, -43928.8221512821, -187500.02235174447, -5002.901554453559, 5120.807006455303, 0.5640000000000001, -0.602, 0.598, 192.0, 0.0, 0.0, 0.0, 0.0, 0.0, 0.0, 0.0, 0.0, 0.0, 1.663496583807573E9, 0.0, 2022-09-18 15:23:03.807
5.0, -15567.69944044345, -5755.127162352463, -41107.80848357779, -15854.494673549496, -44063.871391281056, -187500.02235174447, -4687.07140530007, 5427.919975271222, 0.5640000000000001, -0.602, 0.598, 192.0, 0.0, 0.0, 0.0, 0.0, 0.0, 0.0, 0.0, 0.0, 0.0, 1.663496583807606E9, 0.0, 2022-09-18 15:23:03.807
6.0, -14161.551196760083, -4694.4474809703215, -41340.22192242407, -15565.17369332, -43493.32076231489, -187500.02235174447, -4382.551238840966, 5702.779376838133, 0.5640000000000001, -0.602, 0.598, 192.0, 0.0, 0.0, 0.0, 0.0, 0.0, 0.0, 0.0, 0.0, 0.0, 1.663496583807662E9, 0.0, 2022-09-18 15:23:03.807
7.0, -11061.990089653742, -1984.387872742161, -41897.56267041715, -15304.977036115772, -42497.86347125334, -187500.02235174447, -4272.5583043764, 5931.057742960184, 0.5640000000000001, -0.602, 0.598, 192.0, 0.0, 0.0, 0.0, 0.0, 0.0, 0.0, 0.0, 0.0, 0.0, 1.6634965838077056E9, 0.0, 2022-09-18 15:23:03.807
8.0, -10434.531919304362, -1228.5412822414974, -42233.59879655824, -15593.403946567054, -42341.0436321549, -187500.02235174447, -4694.469832714776, 5629.353896302449, 0.562, -0.608, 0.588, 192.0, 17.0, 144.0, 237.0, 0.0, 18.0, 96.0, 0.0, 0.0, 0.0, 1.66349658380774E9, 0.0, 2022-09-18 15:23:03.807
9.0, -14203.170144935864, -4455.440277509722, -41570.199021124725, -16094.150077599297, -43780.78654775459, -187500.02235174447, -5024.158063430556, 5137.995497941434, 0.562, -0.608, 0.588, 192.0, 0.0, 0.0, 0.0, 0.0, 0.0, 0.0, 0.0, 0.0, 0.0, 1.6634965838077717E9, 0.0, 2022-09-18 15:23:03.807
10.0, -15573.779114935294, -5758.122296109474, -41097.07964623924, -15868.084534178322, -44006.87444292002, -187500.02235174447, -4692.413472224888, 5428.814045049435, 0.562, -0.608, 0.588, 192.0, 0.0, 0.0, 0.0, 0.0, 0.0, 0.0, 0.0, 0.0, 0.0, 1.6634965838078024E9, 0.0, 2022-09-18 15:23:03.807
11.0, -14233.344999950528, -4757.9040834789375, -41315.76911398997, -15575.567254491718, -43450.830096105354, -187500.02235174447, -4385.568724342433, 5713.731731621234, 0.562, -0.608, 0.588, 192.0, 0.0, 0.0, 0.0, 0.0, 0.0, 0.0, 0.0, 0.0, 0.0, 1.6634965838078392E9, 0.0, 2022-09-18 15:23:03.807
12.0, -11180.744907944789, -2101.645124154702, -41871.94757127137, -15316.51053625471, -42485.21238389163, -187500.02235174447, -4277.498039901023, 5933.5164348502685, 0.562, -0.608, 0.588, 192.0, 0.0, 0.0, 0.0, 0.0, 0.0, 0.0, 0.0, 0.0, 0.0, 1.6634965838078916E9, 0.0, 2022-09-18 15:23:03.807
13.0, -10329.232851175411, -1156.9262930066936, -42249.53559035488, -15583.122144117611, -42261.09144223827, -187500.02235174447, -4685.9985215662155, 5637.2664138396285, 0.562, -0.608, 0.588, 192.0, 0.0, 0.0, 0.0, 0.0, 0.0, 0.0, 0.0, 0.0, 0.0, 1.6634965838079236E9, 0.0, 2022-09-18 15:23:03.807
14.0, -14038.0131051556, -4326.090732346861, -41611.3709344114, -16112.344397585917, -43726.80708489503, -187500.02235174447, -5035.445694380485, 5107.731235948949, 0.562, -0.608, 0.588, 192.0, 0.0, 0.0, 0.0, 0.0, 0.0, 0.0, 0.0, 0.0, 0.0, 1.663496583807957E9, 0.0, 2022-09-18 15:23:03.807
15.0, -15575.768420191816, -5759.731621710256, -41101.460588152484, -15902.975607273056, -43988.724826422316, -187500.02235174447, -4723.3929900399435, 5400.963771458122, 0.562, -0.608, 0.588, 192.0, 0.0, 0.0, 0.0, 0.0, 0.0, 0.0, 0.0, 0.0, 0.0, 1.6634965838079915E9, 0.0, 2022-09-18 15:23:03.807
16.0, -14317.208745146841, -4827.4627122238535, -41289.97520088854, -15598.790716980782, -43429.17125572816, -187500.02235174447, -4399.292695437992, 5698.309027947072, 0.562, -0.608, 0.588, 192.0, 0.0, 0.0, 0.0, 0.0, 0.0, 0.0, 0.0, 0.0, 0.0, 1.6634965838081594E9, 0.0, 2022-09-18 15:23:03.808
17.0, -11313.447214775946, -2225.5184919260137, -41839.47048657781, -15336.425940564388, -42485.16768040272, -187500.02235174447, -4277.028653267462, 5916.685571275422, 0.562, -0.608, 0.588, 192.0, 0.0, 0.0, 0.0, 0.0, 0.0, 0.0, 0.0, 0.0, 0.0, 1.6634965838081932E9, 0.0, 2022-09-18 15:23:03.808
18.0, -10245.905547846025, -1088.1276235732585, -42256.777555558394, -15564.994879364358, -42158.11695553267, -187500.02235174447, -4662.305672443589, 5667.865951998943, 0.562, -0.608, 0.592, 192.0, 17.0, 144.0, 237.0, 0.0, 18.0, 128.0, 0.0, 0.0, 0.0, 1.663496583808223E9, 0.0, 2022-09-18 15:23:03.808
19.0, -13885.887132392781, -4189.856849891764, -41648.16190578484, -16104.588342259925, -43609.99686837159, -187500.02235174447, -5025.074484953223, 5124.852672201714, 0.562, -0.608, 0.592, 192.0, 0.0, 0.0, 0.0, 0.0, 0.0, 0.0, 0.0, 0.0, 0.0, 1.6634965838082552E9, 0.0, 2022-09-18 15:23:03.808
20.0, -15584.597359251662, -5762.257368833705, -41112.61410863568, -15914.106776011799, -43949.60927362553, -187500.02235174447, -4731.238452343757, 5385.429309061684, 0.562, -0.608, 0.592, 192.0, 0.0, 0.0, 0.0, 0.0, 0.0, 0.0, 0.0, 0.0, 0.0, 1.6634965838082862E9, 0.0, 2022-09-18 15:23:03.808
21.0, -14408.694435202413, -4903.525698605264, -41291.09278811131, -15609.56425780824, -43405.59016532781, -187500.02235174447, -4414.2236607341365, 5682.148716705885, 0.562, -0.608, 0.592, 192.0, 0.0, 0.0, 0.0, 0.0, 0.0, 0.0, 0.0, 0.0, 0.0, 1.6634965838083155E9, 0.0, 2022-09-18 15:23:03.808
22.0, -11443.512015761378, -2343.7145166056775, -41810.50262576373, -15328.535774771664, -42473.54477328596, -187500.02235174447, -4267.216237451582, 5917.534937564724, 0.562, -0.608, 0.592, 192.0, 0.0, 0.0, 0.0, 0.0, 0.0, 0.0, 0.0, 0.0, 0.0, 1.6634965838083467E9, 0.0, 2022-09-18 15:23:03.808
23.0, -10157.884378181026, -1017.5408145833987, -42251.86017177822, -15518.905582297515, -42060.261018307334, -187500.02235174447, -4631.080285439526, 5703.516984405159, 0.562, -0.608, 0.592, 192.0, 0.0, 0.0, 0.0, 0.0, 0.0, 0.0, 0.0, 0.0, 0.0, 1.6634965838083775E9, 0.0, 2022-09-18 15:23:03.808
24.0, -13722.875860080227, -4043.542330687324, -41674.1346328419, -16078.056821591475, -43490.77266344699, -187500.02235174447, -5029.723647799927, 5133.771018239381, 0.562, -0.608, 0.592, 192.0, 0.0, 0.0, 0.0, 0.0, 0.0, 0.0, 0.0, 0.0, 0.0, 1.6634965838084075E9, 0.0, 2022-09-18 15:23:03.808
25.0, -15587.301920330754, -5757.004708886709, -41119.54314941682, -15923.986247061044, -43900.23427012376, -187500.02235174447, -4774.980816242793, 5361.714108194603, 0.562, -0.608, 0.592, 192.0, 0.0, 0.0, 0.0, 0.0, 0.0, 0.0, 0.0, 0.0, 0.0, 1.6634965838084383E9, 0.0, 2022-09-18 15:23:03.808
26.0, -14496.29092172276, -4966.155286569034, -41292.098616611795, -15623.154118437067, -43346.7827256659, -187500.02235174447, -4462.704594457698, 5661.719222273734, 0.562, -0.608, 0.592, 192.0, 0.0, 0.0, 0.0, 0.0, 0.0, 0.0, 0.0, 0.0, 0.0, 1.66349658380847E9, 0.0, 2022-09-18 15:23:03.808
27.0, -11598.499011814478, -2476.7073961147544, -41786.18392779636, -15347.288888369667, -42441.11239208131, -187500.02235174447, -4280.336711446847, 5899.631190256023, 0.562, -0.608, 0.592, 192.0, 0.0, 0.0, 0.0, 0.0, 0.0, 0.0, 0.0, 0.0, 0.0, 1.6634965838085012E9, 0.0, 2022-09-18 15:23:03.808
28.0, -10102.586162398597, -975.1172036072259, -42234.626976803185, -15510.747195571328, -41963.41090958249, -187500.02235174447, -4611.433102063311, 5720.817234613566, 0.558, -0.608, 0.586, 192.0, 17.0, 112.0, 237.0, 0.0, 18.0, 80.0, 0.0, 0.0, 0.0, 1.6634965838085365E9, 0.0, 2022-09-18 15:23:03.808
29.0, -13574.750849574906, -3904.737997619867, -41700.91202269936, -16075.016984345555, -43324.296870743856, -187500.02235174447, -5039.312546171253, 5152.300614392831, 0.558, -0.608, 0.586, 192.0, 0.0, 0.0, 0.0, 0.0, 0.0, 0.0, 0.0, 0.0, 0.0, 1.6634965838085737E9, 0.0, 2022-09-18 15:23:03.808
30.0, -15595.616769268128, -5756.736487953244, -41109.66367836758, -15944.751017660024, -43830.31801346756, -187500.02235174447, -4776.99247324377, 5347.274881276475, 0.558, -0.608, 0.586, 192.0, 0.0, 0.0, 0.0, 0.0, 0.0, 0.0, 0.0, 0.0, 0.0, 1.6634965838086033E9, 0.0, 2022-09-18 15:23:03.808
31.0, -14571.035155181307, -5035.71391531395, -41243.81884858833, -15637.10160697718, -43338.89255987317, -187500.02235174447, -4439.279966268536, 5649.984556434698, 0.558, -0.608, 0.586, 192.0, 0.0, 0.0, 0.0, 0.0, 0.0, 0.0, 0.0, 0.0, 0.0, 1.6634965838086326E9, 0.0, 2022-09-18 15:23:03.808
32.0, -11737.392751859756, -2611.7566361137197, -41758.02072978267, -15362.622185066008, -42467.554505771936, -187500.02235174447, -4288.7856708509535, 5872.786745165199, 0.558, -0.608, 0.586, 192.0, 0.0, 0.0, 0.0, 0.0, 0.0, 0.0, 0.0, 0.0, 0.0, 1.6634965838086946E9, 0.0, 2022-09-18 15:23:03.808
33.0, -10055.066353686614, -945.7246596484971, -42275.46361392303, -15500.040709977236, -41906.97275483284, -187500.02235174447, -4632.331983129023, 5707.65205712939, 0.558, -0.608, 0.586, 192.0, 0.0, 0.0, 0.0, 0.0, 0.0, 0.0, 0.0, 0.0, 0.0, 1.663496583808731E9, 0.0, 2022-09-18 15:23:03.808
34.0, -13398.79791722273, -3760.591597627592, -41757.57369489357, -16071.41835348825, -43265.69059678204, -187500.02235174447, -5059.563226647762, 5136.162654896099, 0.558, -0.608, 0.586, 192.0, 0.0, 0.0, 0.0, 0.0, 0.0, 0.0, 0.0, 0.0, 0.0, 1.6634965838087597E9, 0.0, 2022-09-18 15:23:03.808
35.0, -15583.23390283989, -5742.811351157588, -41085.30027691129, -15948.886090384256, -43823.85835931997, -187500.02235174447, -4784.256790191745, 5331.025163057467, 0.558, -0.608, 0.586, 192.0, 0.0, 0.0, 0.0, 0.0, 0.0, 0.0, 0.0, 0.0, 0.0, 1.6634965838087883E9, 0.0, 2022-09-18 15:23:03.808
36.0, -14661.537368480847, -5101.808023668293, -41199.94237422256, -15638.688580833505, -43308.6730013696, -187500.02235174447, -4452.467495497167, 5642.943756931277, 0.558, -0.608, 0.586, 192.0, 0.0, 0.0, 0.0, 0.0, 0.0, 0.0, 0.0, 0.0, 0.0, 1.663496583808817E9, 0.0, 2022-09-18 15:23:03.808
37.0, -11884.44487863122, -2740.033297542727, -41678.44851952178, -15354.307336128633, -42453.38349978728, -187500.02235174447, -4269.831391552852, 5889.036463384207, 0.558, -0.608, 0.586, 192.0, 0.0, 0.0, 0.0, 0.0, 0.0, 0.0, 0.0, 0.0, 0.0, 1.6634965838088453E9, 0.0, 2022-09-18 15:23:03.808
38.0, -10008.910001386404, -912.1523394766259, -42190.19170882603, -15446.597688984597, -41819.84565494605, -187500.02235174447, -4557.498342692655, 5773.321482339083, 0.5680000000000001, -0.608, 0.582, 192.0, 17.0, 192.0, 237.0, 0.0, 18.0, 48.0, 0.0, 0.0, 0.0, 1.6634965838088737E9, 0.0, 2022-09-18 15:23:03.808
39.0, -13234.154967564937, -3616.1322732129424, -41734.46199112678, -16039.477710661617, -43142.756002277856, -187500.02235174447, -5022.347572129675, 5161.330719152775, 0.5680000000000001, -0.608, 0.582, 192.0, 0.0, 0.0, 0.0, 0.0, 0.0, 0.0, 0.0, 0.0, 0.0, 1.6634965838089032E9, 0.0, 2022-09-18 15:23:03.808
40.0, -15580.08230687169, -5735.144702809418, -41081.16520418706, -15963.59353823585, -43781.52415532162, -187500.02235174447, -4820.265450509244, 5296.983456252034, 0.5680000000000001, -0.608, 0.582, 192.0, 0.0, 0.0, 0.0, 0.0, 0.0, 0.0, 0.0, 0.0, 0.0, 1.6634965838089318E9, 0.0, 2022-09-18 15:23:03.808
41.0, -14731.6771425816, -5154.8263615162805, -41171.220382597494, -15636.185185454511, -43274.47483235298, -187500.02235174447, -4474.662777741287, 5635.657088238846, 0.5680000000000001, -0.608, 0.582, 192.0, 0.0, 0.0, 0.0, 0.0, 0.0, 0.0, 0.0, 0.0, 0.0, 1.66349658380896E9, 0.0, 2022-09-18 15:23:03.808
42.0, -12024.120929732435, -2866.320653715212, -41629.05116427555, -15358.285946641678, -42444.152229327236, -187500.02235174447, -4284.672949871177, 5864.337785761093, 0.5680000000000001, -0.608, 0.582, 192.0, 0.0, 0.0, 0.0, 0.0, 0.0, 0.0, 0.0, 0.0, 0.0, 1.66349658380899E9, 0.0, 2022-09-18 15:23:03.808
43.0, -9978.22105624927, -898.6742375700758, -42182.59211571123, -15429.543307965198, -41749.392956422926, -187500.02235174447, -4565.992005585672, 5769.4546305483145, 0.5680000000000001, -0.608, 0.582, 192.0, 0.0, 0.0, 0.0, 0.0, 0.0, 0.0, 0.0, 0.0, 0.0, 1.6634965838090217E9, 0.0, 2022-09-18 15:23:03.809
44.0, -13054.737514822187, -3465.213294650709, -41773.08580554555, -16021.708073819647, -43021.27427116326, -187500.02235174447, -5035.333935658209, 5163.118858709199, 0.5680000000000001, -0.608, 0.582, 192.0, 0.0, 0.0, 0.0, 0.0, 0.0, 0.0, 0.0, 0.0, 0.0, 1.66349658380905E9, 0.0, 2022-09-18 15:23:03.809
45.0, -15560.926861873491, -5712.122406020451, -41100.87944279664, -15966.029878381478, -43728.66227968482, -187500.02235174447, -4849.657994467973, 5287.595723580805, 0.5680000000000001, -0.608, 0.582, 192.0, 0.0, 0.0, 0.0, 0.0, 0.0, 0.0, 0.0, 0.0, 0.0, 1.6634965838090785E9, 0.0, 2022-09-18 15:23:03.809
46.0, -14803.78387019442, -5206.861222608236, -41163.553734249326, -15631.960705752457, -43234.17463710006, -187500.02235174447, -4495.98634195165, 5631.879643425899, 0.5680000000000001, -0.608, 0.582, 192.0, 0.0, 0.0, 0.0, 0.0, 0.0, 0.0, 0.0, 0.0, 0.0, 1.6634965838091087E9, 0.0, 2022-09-18 15:23:03.809
47.0, -12175.93397807288, -2996.787786100839, -41613.963736768215, -15359.023554208703, -42419.78882787095, -187500.02235174447, -4293.256019742014, 5852.625471666512, 0.5680000000000001, -0.608, 0.582, 192.0, 0.0, 0.0, 0.0, 0.0, 0.0, 0.0, 0.0, 0.0, 0.0, 1.6634965838091595E9, 0.0, 2022-09-18 15:23:03.809
48.0, -9963.155980486392, -892.0581212113049, -42172.958513850994, -15399.90489481746, -41680.527231756125, -187500.02235174447, -4531.056229002026, 5785.212610389306, 0.5760000000000001, -0.608, 0.586, 192.0, 18.0, 0.0, 237.0, 0.0, 18.0, 80.0, 0.0, 0.0, 0.0, 1.6634965838091934E9, 0.0, 2022-09-18 15:23:03.809
49.0, -12890.273379120039, -3310.0251328975123, -41804.244137316244, -15989.119230403809, -42859.604103518024, -187500.02235174447, -5035.468046124941, 5196.065330036322, 0.5760000000000001, -0.608, 0.586, 192.0, 0.0, 0.0, 0.0, 0.0, 0.0, 0.0, 0.0, 0.0, 0.0, 1.6634965838092265E9, 0.0, 2022-09-18 15:23:03.809
50.0, -15539.31272498521, -5684.629760340424, -41100.00772476289, -15979.463276799117, -43652.59929330341, -187500.02235174447, -4867.0252999097465, 5274.005862951978, 0.5760000000000001, -0.608, 0.586, 192.0, 0.0, 0.0, 0.0, 0.0, 0.0, 0.0, 0.0, 0.0, 0.0, 1.6634965838092551E9, 0.0, 2022-09-18 15:23:03.809
51.0, -14863.552434867912, -5262.405307579674, -41123.38764946314, -15655.988831041914, -43218.528415981345, -187500.02235174447, -4504.480004844667, 5603.15765180083, 0.5760000000000001, -0.608, 0.586, 192.0, 0.0, 0.0, 0.0, 0.0, 0.0, 0.0, 0.0, 0.0, 0.0, 1.6634965838092842E9, 0.0, 2022-09-18 15:23:03.809
52.0, -12311.430252960952, -3130.8311975993156, -41558.84433494143, -15390.248941212767, -42447.12501133979, -187500.02235174447, -4306.5106042040115, 5815.9462590153535, 0.5760000000000001, -0.608, 0.586, 192.0, 0.0, 0.0, 0.0, 0.0, 0.0, 0.0, 0.0, 0.0, 0.0, 1.6634965838093126E9, 0.0, 2022-09-18 15:23:03.809
53.0, -9948.359125656978, -894.2038886790143, -42111.84884451018, -15382.247016697767, -41634.12501026691, -187500.02235174447, -4513.4654061157, 5829.4467126663585, 0.5760000000000001, -0.608, 0.586, 192.0, 0.0, 0.0, 0.0, 0.0, 0.0, 0.0, 0.0, 0.0, 0.0, 1.6634965838093412E9, 0.0, 2022-09-18 15:23:03.809
54.0, -12694.315635480361, -3151.3724507537427, -41789.55904120911, -15972.266015084508, -42787.117396249465, -187500.02235174447, -5021.632316307106, 5214.192594789576, 0.5760000000000001, -0.608, 0.586, 192.0, 0.0, 0.0, 0.0, 0.0, 0.0, 0.0, 0.0, 0.0, 0.0, 1.6634965838093696E9, 0.0, 2022-09-18 15:23:03.809
55.0, -15490.250645905811, -5645.40244882136, -41052.35380558417, -15995.31066361793, -43649.47004907967, -187500.02235174447, -4876.949474447903, 5242.020516636434, 0.5760000000000001, -0.608, 0.586, 192.0, 0.0, 0.0, 0.0, 0.0, 0.0, 0.0, 0.0, 0.0, 0.0, 1.663496583809398E9, 0.0, 2022-09-18 15:23:03.809
56.0, -14927.791348432464, -5307.555831379394, -41096.99023926142, -15678.497037708406, -43193.89679359159, -187500.02235174447, -4552.133924023381, 5579.643616633847, 0.5760000000000001, -0.608, 0.586, 192.0, 0.0, 0.0, 0.0, 0.0, 0.0, 0.0, 0.0, 0.0, 0.0, 1.6634965838094263E9, 0.0, 2022-09-18 15:23:03.809
57.0, -12446.971231337933, -3244.5121698990074, -41518.41002922178, -15400.575447151119, -42434.58568270036, -187500.02235174447, -4315.116025819305, 5822.942355029864, 0.5760000000000001, -0.608, 0.586, 192.0, 0.0, 0.0, 0.0, 0.0, 0.0, 0.0, 0.0, 0.0, 0.0, 1.6634965838094552E9, 0.0, 2022-09-18 15:23:03.809
58.0, -9938.949041241294, -890.9181822440842, -42051.588541458674, -15339.085798154569, -41568.23206761266, -187500.02235174447, -4426.293602740002, 5875.111326588551, 0.5680000000000001, -0.604, 0.588, 192.0, 17.0, 192.0, 237.0, 32.0, 18.0, 96.0, 0.0, 0.0, 0.0, 1.6634965838094838E9, 0.0, 2022-09-18 15:23:03.809
59.0, -12507.544458811815, -2986.662445862585, -41791.90597437692, -15939.386598990752, -42660.47241216569, -187500.02235174447, -4960.500295221841, 5244.389801548696, 0.5680000000000001, -0.604, 0.588, 192.0, 0.0, 0.0, 0.0, 0.0, 0.0, 0.0, 0.0, 0.0, 0.0, 1.663496583809514E9, 0.0, 2022-09-18 15:23:03.809
60.0, -15452.275032076244, -5608.589125703469, -41083.914468755065, -16009.302855646953, -43604.96772586915, -187500.02235174447, -4881.017491938769, 5218.774702402914, 0.5680000000000001, -0.604, 0.588, 192.0, 0.0, 0.0, 0.0, 0.0, 0.0, 0.0, 0.0, 0.0, 0.0, 1.6634965838095424E9, 0.0, 2022-09-18 15:23:03.809
61.0, -14986.174104949727, -5352.840465645846, -41079.153547186084, -15675.256034762388, -43169.10870899066, -187500.02235174447, -4521.400275397334, 5588.6066661604245, 0.5680000000000001, -0.604, 0.588, 192.0, 0.0, 0.0, 0.0, 0.0, 0.0, 0.0, 0.0, 0.0, 0.0, 1.6634965838095703E9, 0.0, 2022-09-18 15:23:03.809
62.0, -12594.738613931968, -3379.0696715199556, -41494.270145210045, -15404.129374519513, -42445.336871783365, -187500.02235174447, -4308.008171082517, 5808.905459511931, 0.5680000000000001, -0.604, 0.588, 192.0, 0.0, 0.0, 0.0, 0.0, 0.0, 0.0, 0.0, 0.0, 0.0, 1.663496583809599E9, 0.0, 2022-09-18 15:23:03.809
63.0, -9980.143306272425, -943.6906509030642, -42073.15797485805, -15349.524062815199, -41550.909465659795, -187500.02235174447, -4472.047623640015, 5826.004544020241, 0.5680000000000001, -0.604, 0.588, 192.0, 0.0, 0.0, 0.0, 0.0, 0.0, 0.0, 0.0, 0.0, 0.0, 1.6634965838096492E9, 0.0, 2022-09-18 15:23:03.809
64.0, -12346.63425047806, -2852.797848319751, -41840.07398367811, -15941.800587391925, -42556.827373126434, -187500.02235174447, -4994.854926449648, 5225.6143362062385, 0.5680000000000001, -0.604, 0.588, 192.0, 0.0, 0.0, 0.0, 0.0, 0.0, 0.0, 0.0, 0.0, 0.0, 1.6634965838096776E9, 0.0, 2022-09-18 15:23:03.809
65.0, -15413.04772055718, -5563.90798853731, -41082.998047232395, -16023.40680639825, -43533.1739226787, -187500.02235174447, -4906.833756784649, 5207.8894028531795, 0.5680000000000001, -0.604, 0.588, 192.0, 0.0, 0.0, 0.0, 0.0, 0.0, 0.0, 0.0, 0.0, 0.0, 1.6634965838097064E9, 0.0, 2022-09-18 15:23:03.809
66.0, -15049.74246618062, -5397.409844089728, -41047.905808437565, -15689.62820644715, -43129.72493526041, -187500.02235174447, -4542.813246585518, 5574.592122386947, 0.5680000000000001, -0.604, 0.588, 192.0, 0.0, 0.0, 0.0, 0.0, 0.0, 0.0, 0.0, 0.0, 0.0, 1.6634965838097353E9, 0.0, 2022-09-18 15:23:03.809
67.0, -12734.772292944466, -3498.5844491224825, -41456.249827891574, -15429.431549242921, -42411.74219986704, -187500.02235174447, -4332.013944627517, 5791.202877903328, 0.5680000000000001, -0.604, 0.588, 192.0, 0.0, 0.0, 0.0, 0.0, 0.0, 0.0, 0.0, 0.0, 0.0, 1.663496583809769E9, 0.0, 2022-09-18 15:23:03.809
68.0, -9995.186030290846, -967.4952587479662, -42044.27952102179, -15350.03815293767, -41488.25752595157, -187500.02235174447, -4448.131257072837, 5855.352384490059, 0.5700000000000001, -0.6, 0.586, 192.0, 17.0, 208.0, 237.0, 64.0, 18.0, 80.0, 0.0, 0.0, 0.0, 1.6634965838097975E9, 0.0, 2022-09-18 15:23:03.809
69.0, -12164.422829678397, -2692.6923027863863, -41869.95826601485, -15928.43424420765, -42397.213565971084, -187500.02235174447, -4981.376824543098, 5262.919397702146, 0.5700000000000001, -0.6, 0.586, 192.0, 0.0, 0.0, 0.0, 0.0, 0.0, 0.0, 0.0, 0.0, 0.0, 1.6634965838098276E9, 0.0, 2022-09-18 15:23:03.809
70.0, -15360.744638531762, -5517.550470537004, -41104.32161144276, -16050.407713700262, -43459.703738654105, -187500.02235174447, -4918.054332501213, 5185.470603164506, 0.5700000000000001, -0.6, 0.586, 192.0, 0.0, 0.0, 0.0, 0.0, 0.0, 0.0, 0.0, 0.0, 0.0, 1.663496583809874E9, 0.0, 2022-09-18 15:23:03.809
71.0, -15091.316710867492, -5439.386420176795, -41034.338299553194, -15716.20443060451, -43110.725952473396, -187500.02235174447, -4546.23306348718, 5558.990604757143, 0.5700000000000001, -0.6, 0.586, 192.0, 0.0, 0.0, 0.0, 0.0, 0.0, 0.0, 0.0, 0.0, 0.0, 1.6634965838099048E9, 0.0, 2022-09-18 15:23:03.809
72.0, -12856.87987290381, -3618.3450959140177, -41455.534572069, -15460.63458450253, -42434.38451700026, -187500.02235174447, -4335.210244084626, 5768.068822392085, 0.5700000000000001, -0.6, 0.586, 192.0, 0.0, 0.0, 0.0, 0.0, 0.0, 0.0, 0.0, 0.0, 0.0, 1.6634965838099356E9, 0.0, 2022-09-18 15:23:03.809
73.0, -10033.98865866526, -1017.8760907502283, -42049.80040190225, -15359.023554208703, -41467.96214198615, -187500.02235174447, -4438.654117423787, 5844.623547151512, 0.5700000000000001, -0.6, 0.586, 192.0, 0.0, 0.0, 0.0, 0.0, 0.0, 0.0, 0.0, 0.0, 0.0, 1.6634965838099673E9, 0.0, 2022-09-18 15:23:03.809
74.0, -11974.36594657492, -2543.3155945915696, -41901.362466974555, -15913.547982400416, -42312.343992274284, -187500.02235174447, -4955.091173063657, 5260.080726156321, 0.5700000000000001, -0.6, 0.586, 192.0, 0.0, 0.0, 0.0, 0.0, 0.0, 0.0, 0.0, 0.0, 0.0, 1.6634965838099997E9, 0.0, 2022-09-18 15:23:03.809
75.0, -15284.54754168362, -5463.571007677438, -41145.80644915181, -16081.074307092942, -43448.527866426455, -187500.02235174447, -4962.176676055989, 5142.488198576952, 0.5700000000000001, -0.6, 0.586, 192.0, 0.0, 0.0, 0.0, 0.0, 0.0, 0.0, 0.0, 0.0, 0.0, 1.6634965838100312E9, 0.0, 2022-09-18 15:23:03.810
76.0, -15134.746150344152, -5472.422298481739, -41021.66486044703, -15735.1140064137, -43084.775577160784, -187500.02235174447, -4559.197075271258, 5552.016860487087, 0.5700000000000001, -0.6, 0.586, 192.0, 0.0, 0.0, 0.0, 0.0, 0.0, 0.0, 0.0, 0.0, 0.0, 1.6634965838100624E9, 0.0, 2022-09-18 15:23:03.810
77.0, -12973.690089427244, -3721.9007279754555, -41391.38506548227, -15463.540311281718, -42413.53033942346, -187500.02235174447, -4319.832243899375, 5774.349662584026, 0.5700000000000001, -0.6, 0.586, 192.0, 0.0, 0.0, 0.0, 0.0, 0.0, 0.0, 0.0, 0.0, 0.0, 1.6634965838100932E9, 0.0, 2022-09-18 15:23:03.810
78.0, -10067.18099918139, -1063.1830767611357, -42000.60421235612, -15331.642667250951, -41423.57157749791, -187500.02235174447, -4411.094416510394, 5885.080204615618, 0.5680000000000001, -0.602, 0.588, 192.0, 17.0, 192.0, 237.0, 48.0, 18.0, 96.0, 0.0, 0.0, 0.0, 1.6634965838101487E9, 0.0, 2022-09-18 15:23:03.810
79.0, -11798.10008980037, -2399.727988210677, -41929.77153417725, -15877.42756336064, -42191.01872337088, -187500.02235174447, -4946.485751448364, 5311.132110492243, 0.5680000000000001, -0.602, 0.588, 192.0, 0.0, 0.0, 0.0, 0.0, 0.0, 0.0, 0.0, 0.0, 0.0, 1.6634965838101816E9, 0.0, 2022-09-18 15:23:03.810
80.0, -15218.721654262741, -5406.082320938387, -41167.53234476237, -16083.577702471937, -43389.1392814087, -187500.02235174447, -4957.818085887205, 5138.867215975191, 0.5680000000000001, -0.602, 0.588, 192.0, 0.0, 0.0, 0.0, 0.0, 0.0, 0.0, 0.0, 0.0, 0.0, 1.6634965838102124E9, 0.0, 2022-09-18 15:23:03.810
81.0, -15197.420441796834, -5521.596136283414, -41038.83100018871, -15751.095503699245, -43066.15657402952, -187500.02235174447, -4580.900619137361, 5514.801205969001, 0.5680000000000001, -0.602, 0.588, 192.0, 0.0, 0.0, 0.0, 0.0, 0.0, 0.0, 0.0, 0.0, 0.0, 1.6634965838102431E9, 0.0, 2022-09-18 15:23:03.810
82.0, -13125.100806367494, -3854.290110384239, -41417.938937895175, -15489.758907527794, -42417.2630807475, -187500.02235174447, -4346.699040734654, 5710.222507741751, 0.5680000000000001, -0.602, 0.588, 192.0, 0.0, 0.0, 0.0, 0.0, 0.0, 0.0, 0.0, 0.0, 0.0, 1.663496583810274E9, 0.0, 2022-09-18 15:23:03.810
83.0, -10144.160407085468, -1136.8544264858278, -42020.29609922125, -15328.692236982852, -41403.00797259903, -187500.02235174447, -4409.686256609709, 5871.155067819961, 0.5680000000000001, -0.602, 0.588, 192.0, 0.0, 0.0, 0.0, 0.0, 0.0, 0.0, 0.0, 0.0, 0.0, 1.6634965838103049E9, 0.0, 2022-09-18 15:23:03.810
84.0, -11638.173358222648, -2258.219094064128, -41966.093118917124, -15856.774551483937, -42077.09188188218, -187500.02235174447, -4915.461530144397, 5330.220500257075, 0.5680000000000001, -0.602, 0.588, 192.0, 0.0, 0.0, 0.0, 0.0, 0.0, 0.0, 0.0, 0.0, 0.0, 1.6634965838103356E9, 0.0, 2022-09-18 15:23:03.810
85.0, -15159.3777727339, -5344.413857986196, -41195.58378405378, -16094.239484577118, -43319.6253561527, -187500.02235174447, -4966.5799697136845, 5122.438683800541, 0.5680000000000001, -0.602, 0.588, 192.0, 0.0, 0.0, 0.0, 0.0, 0.0, 0.0, 0.0, 0.0, 0.0, 1.6634965838103664E9, 0.0, 2022-09-18 15:23:03.810
86.0, -15255.06559074707, -5561.203427458218, -41034.137133853095, -15758.203358436032, -43038.10513473811, -187500.02235174447, -4592.210601831746, 5510.822595455957, 0.5680000000000001, -0.602, 0.588, 192.0, 0.0, 0.0, 0.0, 0.0, 0.0, 0.0, 0.0, 0.0, 0.0, 1.6634965838104029E9, 0.0, 2022-09-18 15:23:03.810
87.0, -13252.706915462843, -3959.16449536854, -41400.50457722003, -15490.11653543908, -42385.92593502116, -187500.02235174447, -4350.9458721811625, 5735.8823103764435, 0.5680000000000001, -0.602, 0.588, 192.0, 0.0, 0.0, 0.0, 0.0, 0.0, 0.0, 0.0, 0.0, 0.0, 1.663496583810434E9, 0.0, 2022-09-18 15:23:03.810
88.0, -10205.560649104196, -1204.066122062936, -42013.03178227327, -15317.404606032922, -41367.08871925935, -187500.02235174447, -4382.685349307698, 5874.105498088062, 0.5680000000000001, -0.602, 0.588, 192.0, 0.0, 0.0, 0.0, 0.0, 0.0, 0.0, 0.0, 0.0, 0.0, 1.6634965838104649E9, 0.0, 2022-09-18 15:23:03.810
89.0, -11478.380737111656, -2129.5848047238355, -42022.91125332251, -15834.378103539719, -41940.34390930461, -187500.02235174447, -4926.190367482945, 5326.621869399771, 0.5640000000000001, -0.6, 0.584, 192.0, 17.0, 160.0, 237.0, 64.0, 18.0, 64.0, 0.0, 0.0, 0.0, 1.6634965838104956E9, 0.0, 2022-09-18 15:23:03.810
90.0, -15078.687975250243, -5280.957255477579, -41240.66725262014, -16104.722452726657, -43225.166884084574, -187500.02235174447, -4981.712100709928, 5080.372700735653, 0.5640000000000001, -0.6, 0.584, 192.0, 0.0, 0.0, 0.0, 0.0, 0.0, 0.0, 0.0, 0.0, 0.0, 1.663496583810528E9, 0.0, 2022-09-18 15:23:03.810
91.0, -15286.40273647341, -5599.268448265606, -41033.26541581934, -15771.435591153575, -43013.272346648264, -187500.02235174447, -4599.072587379526, 5468.220170524141, 0.5640000000000001, -0.6, 0.584, 192.0, 0.0, 0.0, 0.0, 0.0, 0.0, 0.0, 0.0, 0.0, 0.0, 1.6634965838105586E9, 0.0, 2022-09-18 15:23:03.810
92.0, -13363.795085405718, -4071.2808455563604, -41374.39773969624, -15494.385718630043, -42374.97358023806, -187500.02235174447, -4347.682517490687, 5710.356618208482, 0.5640000000000001, -0.6, 0.584, 192.0, 0.0, 0.0, 0.0, 0.0, 0.0, 0.0, 0.0, 0.0, 0.0, 1.6634965838105931E9, 0.0, 2022-09-18 15:23:03.810
93.0, -10273.46524875942, -1285.292361413522, -41984.04156971473, -15301.98190235876, -41341.89830325822, -187500.02235174447, -4375.175163170715, 5870.462163741847, 0.5640000000000001, -0.6, 0.584, 192.0, 0.0, 0.0, 0.0, 0.0, 0.0, 0.0, 0.0, 0.0, 0.0, 1.6634965838106475E9, 0.0, 2022-09-18 15:23:03.810
94.0, -11303.813612915708, -1992.389797257161, -42048.660462935026, -15798.50355368895, -41848.90292273795, -187500.02235174447, -4904.01743698328, 5347.453695232117, 0.5640000000000001, -0.6, 0.584, 192.0, 0.0, 0.0, 0.0, 0.0, 0.0, 0.0, 0.0, 0.0, 0.0, 1.6634965838106773E9, 0.0, 2022-09-18 15:23:03.810
95.0, -14969.611462308343, -5194.523059668906, -41263.086052308805, -16097.033452634032, -43207.3972472426, -187500.02235174447, -4969.329234281688, 5073.9353983325245, 0.5640000000000001, -0.6, 0.584, 192.0, 0.0, 0.0, 0.0, 0.0, 0.0, 0.0, 0.0, 0.0, 0.0, 1.6634965838107064E9, 0.0, 2022-09-18 15:23:03.810
96.0, -15322.657265979919, -5627.677515468302, -41031.49962800737, -15763.053686982834, -43006.11978842256, -187500.02235174447, -4601.710093225252, 5460.017080309043, 0.5640000000000001, -0.6, 0.584, 192.0, 0.0, 0.0, 0.0, 0.0, 0.0, 0.0, 0.0, 0.0, 0.0, 1.663496583810734E9, 0.0, 2022-09-18 15:23:03.810
97.0, -13478.593644928176, -4173.785945628399, -41367.15577449272, -15501.873553022571, -42391.31270543489, -187500.02235174447, -4355.550331538955, 5669.162353177351, 0.5640000000000001, -0.6, 0.584, 192.0, 0.0, 0.0, 0.0, 0.0, 0.0, 0.0, 0.0, 0.0, 0.0, 1.663496583810762E9, 0.0, 2022-09-18 15:23:03.810
98.0, -10373.221084263454, -1380.3319788374877, -41984.77917728176, -15306.675768694375, -41349.6096550953, -187500.02235174447, -4377.097413193871, 5840.86845408302, 0.5640000000000001, -0.6, 0.584, 192.0, 0.0, 0.0, 0.0, 0.0, 0.0, 0.0, 0.0, 0.0, 0.0, 1.6634965838107944E9, 0.0, 2022-09-18 15:23:03.810
99.0, -11161.20948329085, -1867.6223597076369, -42091.75462624486, -15770.16154171962, -41747.761279077684, -187500.02235174447, -4895.568477579174, 5354.270977290986, 0.5700000000000001, -0.606, 0.578, 192.0, 17.0, 208.0, 237.0, 16.0, 18.0, 16.0, 0.0, 0.0, 0.0, 1.6634965838108263E9, 0.0, 2022-09-18 15:23:03.810
100.0, -14877.812847830397, -5104.512584747385, -41319.18893089163, -16097.771060201057, -43132.38479285059, -187500.02235174447, -5008.333028356198, 5058.33388070272, 0.5700000000000001, -0.606, 0.578, 192.0, 0.0, 0.0, 0.0, 0.0, 0.0, 0.0, 0.0, 0.0, 0.0, 1.6634965838108602E9, 0.0, 2022-09-18 15:23:03.810
101.0, -15371.317013659122, -5655.326623359517, -41026.7834099273, -15774.587187121771, -42978.26951483125, -187500.02235174447, -4628.5321865716205, 5445.533149902004, 0.5700000000000001, -0.606, 0.578, 192.0, 0.0, 0.0, 0.0, 0.0, 0.0, 0.0, 0.0, 0.0, 0.0, 1.6634965838108957E9, 0.0, 2022-09-18 15:23:03.810
102.0, -13607.764376135396, -4272.066565998383, -41341.85359976931, -15511.708320582906, -42377.56638259487, -187500.02235174447, -4366.703852022154, 5676.963111992253, 0.5700000000000001, -0.606, 0.578, 192.0, 0.0, 0.0, 0.0, 0.0, 0.0, 0.0, 0.0, 0.0, 0.0, 1.6634965838109283E9, 0.0, 2022-09-18 15:23:03.810
103.0, -10464.840884785759, -1461.6476251658949, -41937.3487755476, -15285.776887628663, -41327.615538551276, -187500.02235174447, -4335.5678719959105, 5883.78380343721, 0.5700000000000001, -0.606, 0.578, 192.0, 0.0, 0.0, 0.0, 0.0, 0.0, 0.0, 0.0, 0.0, 0.0, 1.6634965838109624E9, 0.0, 2022-09-18 15:23:03.810
104.0, -11002.914429058364, -1732.7966371532248, -42090.48057681091, -15732.476500567975, -41630.05699277604, -187500.02235174447, -4840.270261796744, 5416.542937343471, 0.5700000000000001, -0.606, 0.578, 192.0, 0.0, 0.0, 0.0, 0.0, 0.0, 0.0, 0.0, 0.0, 0.0, 1.6634965838109977E9, 0.0, 2022-09-18 15:23:03.810
105.0, -14770.882102356209, -5008.08715916719, -41341.94300674713, -16112.232638863641, -43056.88060008056, -187500.02235174447, -5018.458368594453, 5054.936415545513, 0.5700000000000001, -0.606, 0.578, 192.0, 0.0, 0.0, 0.0, 0.0, 0.0, 0.0, 0.0, 0.0, 0.0, 1.663496583811037E9, 0.0, 2022-09-18 15:23:03.811
106.0, -15413.114775790547, -5687.9825220087205, -41040.842657189685, -15814.55210620786, -42960.633988456015, -187500.02235174447, -4666.552503890098, 5419.560422844937, 0.5700000000000001, -0.606, 0.578, 192.0, 0.0, 0.0, 0.0, 0.0, 0.0, 0.0, 0.0, 0.0, 0.0, 1.663496583811071E9, 0.0, 2022-09-18 15:23:03.811
107.0, -13715.343322198787, -4366.905017722252, -41314.60682327829, -15533.188347004456, -42362.210734154076, -187500.02235174447, -4382.953570241162, 5673.3644811349495, 0.5700000000000001, -0.606, 0.578, 192.0, 0.0, 0.0, 0.0, 0.0, 0.0, 0.0, 0.0, 0.0, 0.0, 1.6634965838110962E9, 0.0, 2022-09-18 15:23:03.811
108.0, -10565.42373483464, -1561.6940333478492, -41903.37412397553, -15298.31621626809, -41315.43383782313, -187500.02235174447, -4352.152866381749, 5877.368852778537, 0.5700000000000001, -0.606, 0.578, 192.0, 0.0, 0.0, 0.0, 0.0, 0.0, 0.0, 0.0, 0.0, 0.0, 1.663496583811121E9, 0.0, 2022-09-18 15:23:03.811
109.0, -10867.395802425839, -1616.3216967966196, -42092.224012878425, -15713.924552670069, -41502.048552280496, -187500.02235174447, -4840.605537963574, 5431.2950886839735, 0.578, -0.606, 0.58, 192.0, 18.0, 16.0, 237.0, 16.0, 18.0, 32.0, 0.0, 0.0, 0.0, 1.66349658381118E9, 0.0, 2022-09-18 15:23:03.811
110.0, -14673.272034319883, -4909.5830213526515, -41343.26175966999, -16114.937199942733, -42926.56992990612, -187500.02235174447, -5038.887863026603, 5042.575900861729, 0.578, -0.606, 0.58, 192.0, 0.0, 0.0, 0.0, 0.0, 0.0, 0.0, 0.0, 0.0, 0.0, 1.6634965838112245E9, 0.0, 2022-09-18 15:23:03.811
111.0, -15445.614212228564, -5708.166147251863, -41012.76886615382, -15812.965132351535, -42919.104447258054, -187500.02235174447, -4672.229846981746, 5414.7995012759575, 0.578, -0.606, 0.58, 192.0, 0.0, 0.0, 0.0, 0.0, 0.0, 0.0, 0.0, 0.0, 0.0, 1.6634965838112652E9, 0.0, 2022-09-18 15:23:03.811
112.0, -13820.798852538926, -4456.893140899318, -41278.66521819415, -15528.270963224288, -42330.9406436611, -187500.02235174447, -4381.634817318299, 5666.569550820536, 0.578, -0.606, 0.58, 192.0, 0.0, 0.0, 0.0, 0.0, 0.0, 0.0, 0.0, 0.0, 0.0, 1.663496583811299E9, 0.0, 2022-09-18 15:23:03.811
113.0, -10669.515808763004, -1670.2564561672755, -41860.4811263658, -15293.421184232377, -41302.60393650579, -187500.02235174447, -4321.463921244612, 5858.436925224892, 0.578, -0.606, 0.58, 192.0, 0.0, 0.0, 0.0, 0.0, 0.0, 0.0, 0.0, 0.0, 0.0, 1.6634965838113444E9, 0.0, 2022-09-18 15:23:03.811
114.0, -10730.491367637083, -1516.2082333812994, -42103.80221650627, -15685.24726453391, -41406.8748243898, -187500.02235174447, -4804.328656712611, 5443.275623712018, 0.578, -0.606, 0.58, 192.0, 0.0, 0.0, 0.0, 0.0, 0.0, 0.0, 0.0, 0.0, 0.0, 1.6634965838113909E9, 0.0, 2022-09-18 15:23:03.811
115.0, -14559.300489342271, -4816.555060929663, -41405.13138832228, -16137.758331031602, -42848.94232141284, -187500.02235174447, -5072.549590176295, 5007.75188300036, 0.578, -0.606, 0.58, 192.0, 0.0, 0.0, 0.0, 0.0, 0.0, 0.0, 0.0, 0.0, 0.0, 1.663496583811426E9, 0.0, 2022-09-18 15:23:03.811
116.0, -15471.721049752361, -5729.735580651233, -41015.65224118856, -15845.79984495638, -42894.070493468105, -187500.02235174447, -4691.139422790936, 5371.928855410678, 0.578, -0.606, 0.58, 192.0, 0.0, 0.0, 0.0, 0.0, 0.0, 0.0, 0.0, 0.0, 0.0, 1.6634965838114583E9, 0.0, 2022-09-18 15:23:03.811
117.0, -13908.194173359178, -4536.4206476713, -41260.87322960773, -15550.153321046035, -42325.95620464757, -187500.02235174447, -4377.902075994262, 5636.014716150131, 0.578, -0.606, 0.58, 192.0, 0.0, 0.0, 0.0, 0.0, 0.0, 0.0, 0.0, 0.0, 0.0, 1.6634965838114915E9, 0.0, 2022-09-18 15:23:03.811
118.0, -10777.89941762679, -1772.627445772582, -41837.34707085456, -15299.702024424318, -41303.78857896192, -187500.02235174447, -4313.596107196344, 5873.97138762133, 0.578, -0.606, 0.58, 192.0, 0.0, 0.0, 0.0, 0.0, 0.0, 0.0, 0.0, 0.0, 0.0, 1.663496583811528E9, 0.0, 2022-09-18 15:23:03.811
119.0, -10603.108775986288, -1414.0831129650014, -42113.614632322155, -15652.948993795992, -41332.935253731644, -187500.02235174447, -4777.998301744259, 5504.586458752926, 0.582, -0.612, 0.578, 192.0, 18.0, 48.0, 236.0, 224.0, 18.0, 16.0, 0.0, 0.0, 0.0, 1.6634965838115652E9, 0.0, 2022-09-18 15:23:03.811
120.0, -14408.068586357664, -4693.866335614483, -41411.76985642551, -16113.864316208877, -42819.99681234322, -187500.02235174447, -5050.6895840990055, 5039.379601404619, 0.582, -0.612, 0.578, 192.0, 0.0, 0.0, 0.0, 0.0, 0.0, 0.0, 0.0, 0.0, 0.0, 1.6634965838116024E9, 0.0, 2022-09-18 15:23:03.811
121.0, -15483.321605124665, -5733.267156275172, -41010.69015391948, -15839.004914641968, -42889.600144577045, -187500.02235174447, -4705.4892427312425, 5385.518716039505, 0.582, -0.612, 0.578, 192.0, 0.0, 0.0, 0.0, 0.0, 0.0, 0.0, 0.0, 0.0, 0.0, 1.6634965842872088E9, 0.0, 2022-09-18 15:23:04.287
122.0, -14001.065671570977, -4604.615820004442, -41255.30764523836, -15544.498329698841, -42304.252660781465, -187500.02235174447, -4394.934105269206, 5655.3489751039715, 0.582, -0.612, 0.578, 192.0, 0.0, 0.0, 0.0, 0.0, 0.0, 0.0, 0.0, 0.0, 0.0, 1.6634965842874649E9, 0.0, 2022-09-18 15:23:04.287
123.0, -10891.312168993018, -1871.8244876652348, -41821.879663691485, -15284.88281785045, -41292.36683754526, -187500.02235174447, -4302.889621602252, 5868.092878829584, 0.582, -0.612, 0.578, 192.0, 0.0, 0.0, 0.0, 0.0, 0.0, 0.0, 0.0, 0.0, 0.0, 1.6634965842874892E9, 0.0, 2022-09-18 15:23:04.287
124.0, -10474.049803501344, -1300.5138993875862, -42143.00717628088, -15615.353359622164, -41217.28732791988, -187500.02235174447, -4752.22674038729, 5522.311392105984, 0.582, -0.612, 0.578, 192.0, 0.0, 0.0, 0.0, 0.0, 0.0, 0.0, 0.0, 0.0, 0.0, 1.663496584287614E9, 0.0, 2022-09-18 15:23:04.287
125.0, -14266.984375355767, -4562.169857283814, -41462.50831633906, -16110.109223140387, -42713.289584313585, -187500.02235174447, -5049.415534665052, 5043.1793979620215, 0.582, -0.612, 0.578, 192.0, 0.0, 0.0, 0.0, 0.0, 0.0, 0.0, 0.0, 0.0, 0.0, 1.663496584287633E9, 0.0, 2022-09-18 15:23:04.287
126.0, -15510.009588004303, -5750.7909239281325, -41011.85244463116, -15864.821179487846, -42857.70420523932, -187500.02235174447, -4713.692332946341, 5355.835599402857, 0.582, -0.612, 0.578, 192.0, 0.0, 0.0, 0.0, 0.0, 0.0, 0.0, 0.0, 0.0, 0.0, 1.6634965842876513E9, 0.0, 2022-09-18 15:23:04.287
127.0, -14110.253943235153, -4699.767196150684, -41244.24353173298, -15574.449667268953, -42287.533555928894, -187500.02235174447, -4415.184785745715, 5631.343201558972, 0.582, -0.612, 0.578, 192.0, 0.0, 0.0, 0.0, 0.0, 0.0, 0.0, 0.0, 0.0, 0.0, 1.6634965842876692E9, 0.0, 2022-09-18 15:23:04.287
128.0, -11015.029074553142, -1998.2683060489067, -41790.02842784267, -15303.747690170729, -41286.577735731335, -187500.02235174447, -4304.90127860323, 5865.4330212394025, 0.582, -0.612, 0.578, 192.0, 0.0, 0.0, 0.0, 0.0, 0.0, 0.0, 0.0, 0.0, 0.0, 1.6634965842876885E9, 0.0, 2022-09-18 15:23:04.287
129.0, -10360.637052135116, -1221.9922211160924, -42139.02856576783, -15597.047280913268, -41113.32936445825, -187500.02235174447, -4740.782647226172, 5549.312299407995, 0.5700000000000001, -0.606, 0.582, 192.0, 17.0, 208.0, 237.0, 16.0, 18.0, 48.0, 0.0, 0.0, 0.0, 1.6634965842877066E9, 0.0, 2022-09-18 15:23:04.287
130.0, -14134.0361993356, -4450.2099693071805, -41486.044703250496, -16118.804051733501, -42584.85646067339, -187500.02235174447, -5067.408688951575, 5020.291211639787, 0.5700000000000001, -0.606, 0.582, 192.0, 0.0, 0.0, 0.0, 0.0, 0.0, 0.0, 0.0, 0.0, 0.0, 1.6634965842877262E9, 0.0, 2022-09-18 15:23:04.287
131.0, -15541.50319594183, -5777.255389363217, -41016.70277317796, -15889.229284433042, -42812.486626206235, -187500.02235174447, -4740.804998970628, 5340.256433517508, 0.5700000000000001, -0.606, 0.582, 192.0, 0.0, 0.0, 0.0, 0.0, 0.0, 0.0, 0.0, 0.0, 0.0, 1.6634965842877443E9, 0.0, 2022-09-18 15:23:04.287
132.0, -14221.990313767234, -4795.611476375041, -41234.60992987274, -15591.235827354889, -42261.8737532942, -187500.02235174447, -4433.669678410253, 5613.797082161556, 0.5700000000000001, -0.606, 0.582, 192.0, 0.0, 0.0, 0.0, 0.0, 0.0, 0.0, 0.0, 0.0, 0.0, 1.6634965842877624E9, 0.0, 2022-09-18 15:23:04.287
133.0, -11169.59138746159, -2140.760676951489, -41772.19173576734, -15305.602884960519, -41286.085997353315, -187500.02235174447, -4311.271525772992, 5863.890750871987, 0.5700000000000001, -0.606, 0.582, 192.0, 0.0, 0.0, 0.0, 0.0, 0.0, 0.0, 0.0, 0.0, 0.0, 1.6634965842877803E9, 0.0, 2022-09-18 15:23:04.287
134.0, -10276.907417405537, -1156.6357203287746, -42152.81959209676, -15553.528434458785, -41028.01275587234, -187500.02235174447, -4715.905155647416, 5600.855422121933, 0.5700000000000001, -0.606, 0.582, 192.0, 0.0, 0.0, 0.0, 0.0, 0.0, 0.0, 0.0, 0.0, 0.0, 1.6634965842878048E9, 0.0, 2022-09-18 15:23:04.287
135.0, -13988.638101653827, -4318.602897954333, -41526.54606420351, -16083.287129794018, -42468.40387206124, -187500.02235174447, -5072.1472587761, 5079.076299557245, 0.5700000000000001, -0.606, 0.582, 192.0, 0.0, 0.0, 0.0, 0.0, 0.0, 0.0, 0.0, 0.0, 0.0, 1.6634965842878227E9, 0.0, 2022-09-18 15:23:04.287
136.0, -15545.571213432697, -5776.964816685298, -41018.826188901214, -15888.446973377106, -42779.45074790129, -187500.02235174447, -4757.3229381231, 5332.76859912498, 0.5700000000000001, -0.606, 0.582, 192.0, 0.0, 0.0, 0.0, 0.0, 0.0, 0.0, 0.0, 0.0, 0.0, 1.6634965842878487E9, 0.0, 2022-09-18 15:23:04.287
137.0, -14297.583913515082, -4863.046689396702, -41222.07060123332, -15598.008405924846, -42258.90097128165, -187500.02235174447, -4447.527759972544, 5600.5201459551035, 0.5700000000000001, -0.606, 0.582, 192.0, 0.0, 0.0, 0.0, 0.0, 0.0, 0.0, 0.0, 0.0, 0.0, 1.6634965842878668E9, 0.0, 2022-09-18 15:23:04.287
138.0, -11287.116859807595, -2252.3629370168373, -41739.06645048457, -15312.777794930673, -41300.145244615705, -187500.02235174447, -4306.577659437377, 5834.207634235338, 0.5700000000000001, -0.606, 0.582, 192.0, 0.0, 0.0, 0.0, 0.0, 0.0, 0.0, 0.0, 0.0, 0.0, 1.6634965842878847E9, 0.0, 2022-09-18 15:23:04.287
139.0, -10182.11366917058, -1081.5338589589428, -42133.306519187274, -15516.759814829806, -40960.42108063949, -187500.02235174447, -4681.796393608617, 5621.217861320718, 0.5700000000000001, -0.614, 0.578, 192.0, 17.0, 208.0, 236.0, 208.0, 18.0, 16.0, 0.0, 0.0, 0.0, 1.663496584287922E9, 0.0, 2022-09-18 15:23:04.287
140.0, -13811.835803012349, -4175.059995062351, -41539.241855054126, -16063.148208039787, -42423.70038315062, -187500.02235174447, -5052.365964933153, 5071.1190785311555, 0.5700000000000001, -0.614, 0.578, 192.0, 0.0, 0.0, 0.0, 0.0, 0.0, 0.0, 0.0, 0.0, 0.0, 1.6634965842879415E9, 0.0, 2022-09-18 15:23:04.287
141.0, -15535.110597027613, -5768.627616003468, -41002.55411893775, -15883.19431343011, -42776.52266937765, -187500.02235174447, -4762.128563180991, 5322.8220728423685, 0.5700000000000001, -0.614, 0.578, 192.0, 0.0, 0.0, 0.0, 0.0, 0.0, 0.0, 0.0, 0.0, 0.0, 1.663496584287959E9, 0.0, 2022-09-18 15:23:04.287
142.0, -14377.670213898447, -4926.525643649775, -41174.75195822143, -15583.211551095434, -42235.878674492684, -187500.02235174447, -4442.029230836539, 5614.892317639866, 0.5700000000000001, -0.614, 0.578, 192.0, 0.0, 0.0, 0.0, 0.0, 0.0, 0.0, 0.0, 0.0, 0.0, 1.6634965842879772E9, 0.0, 2022-09-18 15:23:04.287
143.0, -11431.576184222244, -2388.909743894308, -41709.942127459304, -15312.822498419584, -41309.085942397825, -187500.02235174447, -4312.120892062294, 5832.039515023174, 0.5700000000000001, -0.614, 0.578, 192.0, 0.0, 0.0, 0.0, 0.0, 0.0, 0.0, 0.0, 0.0, 0.0, 1.663496584287995E9, 0.0, 2022-09-18 15:23:04.287
144.0, -10112.800909614672, -1036.182169459125, -42158.60869391068, -15495.860933764094, -40882.502899468294, -187500.02235174447, -4668.027719024149, 5625.643506722869, 0.5700000000000001, -0.614, 0.578, 192.0, 0.0, 0.0, 0.0, 0.0, 0.0, 0.0, 0.0, 0.0, 0.0, 1.6634965842880127E9, 0.0, 2022-09-18 15:23:04.288
145.0, -13663.04024017337, -4052.483028469447, -41599.54686159454, -16066.344507496895, -42324.8386174248, -187500.02235174447, -5066.559322662273, 5051.404839921575, 0.5700000000000001, -0.614, 0.578, 192.0, 0.0, 0.0, 0.0, 0.0, 0.0, 0.0, 0.0, 0.0, 0.0, 1.663496584288031E9, 0.0, 2022-09-18 15:23:04.288
146.0, -15550.019210579303, -5781.368110342993, -41031.65609021856, -15901.746261328015, -42752.00280571017, -187500.02235174447, -4791.632865861996, 5285.002921223989, 0.5700000000000001, -0.614, 0.578, 192.0, 0.0, 0.0, 0.0, 0.0, 0.0, 0.0, 0.0, 0.0, 0.0, 1.663496584288049E9, 0.0, 2022-09-18 15:23:04.288
147.0, -14461.265738161295, -4994.027911904802, -41176.85302220023, -15578.808257437739, -42209.07893289077, -187500.02235174447, -4452.936882130728, 5603.0458930785535, 0.5700000000000001, -0.614, 0.578, 192.0, 0.0, 0.0, 0.0, 0.0, 0.0, 0.0, 0.0, 0.0, 0.0, 1.6634965842880669E9, 0.0, 2022-09-18 15:23:04.288
148.0, -11573.107430113248, -2515.2194518112483, -41679.02966487761, -15306.362844272, -41311.187006376626, -187500.02235174447, -4293.32307497538, 5832.844177823566, 0.5700000000000001, -0.614, 0.578, 192.0, 0.0, 0.0, 0.0, 0.0, 0.0, 0.0, 0.0, 0.0, 0.0, 1.6634965842880855E9, 0.0, 2022-09-18 15:23:04.288
149.0, -10056.139237420468, -989.1540991251587, -42159.01102531088, -15469.485875306831, -40812.877215490014, -187500.02235174447, -4633.673087796341, 5655.237216381695, 0.5720000000000001, -0.608, 0.5760000000000001, 192.0, 17.0, 224.0, 237.0, 0.0, 18.0, 0.0, 0.0, 0.0, 0.0, 1.6634965842881036E9, 0.0, 2022-09-18 15:23:04.288
150.0, -13498.777270171318, -3895.8196515821996, -41632.850960832955, -16045.400922942272, -42205.92733692257, -187500.02235174447, -5054.198807978489, 5065.262921483865, 0.5720000000000001, -0.608, 0.5760000000000001, 192.0, 0.0, 0.0, 0.0, 0.0, 0.0, 0.0, 0.0, 0.0, 0.0, 1.663496584288122E9, 0.0, 2022-09-18 15:23:04.288
151.0, -15552.924937358492, -5767.33121482506, -41021.44134300248, -15909.837592820835, -42699.07387484001, -187500.02235174447, -4793.7115780963395, 5276.129278675232, 0.5720000000000001, -0.608, 0.5760000000000001, 192.0, 0.0, 0.0, 0.0, 0.0, 0.0, 0.0, 0.0, 0.0, 0.0, 1.66349658428814E9, 0.0, 2022-09-18 15:23:04.288
152.0, -14553.578442761713, -5063.184209249522, -41161.00563538142, -15596.644949513073, -42181.09454883272, -187500.02235174447, -4455.306167042991, 5592.942904584755, 0.5720000000000001, -0.608, 0.5760000000000001, 192.0, 0.0, 0.0, 0.0, 0.0, 0.0, 0.0, 0.0, 0.0, 0.0, 1.6634965842881577E9, 0.0, 2022-09-18 15:23:04.288
153.0, -11726.239231376558, -2652.414459277923, -41660.92475186882, -15323.372521802488, -41299.8993754267, -187500.02235174447, -4291.669045885688, 5816.616811349012, 0.5720000000000001, -0.608, 0.5760000000000001, 192.0, 0.0, 0.0, 0.0, 0.0, 0.0, 0.0, 0.0, 0.0, 0.0, 1.6634965842881756E9, 0.0, 2022-09-18 15:23:04.288
154.0, -10008.082986841559, -961.7732121674076, -42160.75446137839, -15451.49272102031, -40738.53531343166, -187500.02235174447, -4612.148357885881, 5669.184704921807, 0.5720000000000001, -0.608, 0.5760000000000001, 192.0, 0.0, 0.0, 0.0, 0.0, 0.0, 0.0, 0.0, 0.0, 0.0, 1.6634965842882087E9, 0.0, 2022-09-18 15:23:04.288
155.0, -13351.635736422031, -3767.1630104974524, -41679.02966487761, -16045.22210898663, -42069.87226842312, -187500.02235174447, -5063.854761583181, 5077.62343616765, 0.5720000000000001, -0.608, 0.5760000000000001, 192.0, 0.0, 0.0, 0.0, 0.0, 0.0, 0.0, 0.0, 0.0, 0.0, 1.6634965842882268E9, 0.0, 2022-09-18 15:23:04.288
156.0, -15559.652812439539, -5771.958025927309, -41047.50347703737, -15942.001753092021, -42663.13226975588, -187500.02235174447, -4817.940869085893, 5238.555996245861, 0.5720000000000001, -0.608, 0.5760000000000001, 192.0, 0.0, 0.0, 0.0, 0.0, 0.0, 0.0, 0.0, 0.0, 0.0, 1.663496584288248E9, 0.0, 2022-09-18 15:23:04.288
157.0, -14630.08846403223, -5131.088808904745, -41137.42454498107, -15613.185240410001, -42178.769967409375, -187500.02235174447, -4462.838704924429, 5566.545494383036, 0.5720000000000001, -0.608, 0.5760000000000001, 192.0, 0.0, 0.0, 0.0, 0.0, 0.0, 0.0, 0.0, 0.0, 0.0, 1.6634965842882664E9, 0.0, 2022-09-18 15:23:04.288
158.0, -11868.418677856765, -2786.904905665506, -41614.947213524254, -15329.60865850552, -41327.615538551276, -187500.02235174447, -4295.80411860992, 5805.53034609918, 0.5720000000000001, -0.608, 0.5760000000000001, 192.0, 0.0, 0.0, 0.0, 0.0, 0.0, 0.0, 0.0, 0.0, 0.0, 1.6634965842882843E9, 0.0, 2022-09-18 15:23:04.288
159.0, -9965.16763748737, -933.0959240312486, -42130.445495896995, -15409.940828077893, -40678.789100502625, -187500.02235174447, -4583.694587194274, 5708.389664696416, 0.5660000000000001, -0.602, 0.5760000000000001, 192.0, 17.0, 176.0, 237.0, 48.0, 18.0, 0.0, 0.0, 0.0, 0.0, 1.6634965842883022E9, 0.0, 2022-09-18 15:23:04.288
160.0, -13155.163902659882, -3605.090511452021, -41686.472795781236, -16001.367986365318, -41996.3126774207, -187500.02235174447, -5036.831502536715, 5098.231744555444, 0.5660000000000001, -0.602, 0.5760000000000001, 192.0, 0.0, 0.0, 0.0, 0.0, 0.0, 0.0, 0.0, 0.0, 0.0, 1.6634965842883208E9, 0.0, 2022-09-18 15:23:04.288
161.0, -15526.616934134596, -5748.4439907603255, -41035.88056992061, -15935.944430344634, -42660.56181914351, -187500.02235174447, -4829.407313991465, 5227.246013551476, 0.5660000000000001, -0.602, 0.5760000000000001, 192.0, 0.0, 0.0, 0.0, 0.0, 0.0, 0.0, 0.0, 0.0, 0.0, 1.663496584288339E9, 0.0, 2022-09-18 15:23:04.288
162.0, -14701.457584078025, -5189.136289255177, -41126.22632100896, -15613.542868321285, -42164.53190619134, -187500.02235174447, -4485.011635424094, 5564.936168782255, 0.5660000000000001, -0.602, 0.5760000000000001, 192.0, 0.0, 0.0, 0.0, 0.0, 0.0, 0.0, 0.0, 0.0, 0.0, 1.6634965842883592E9, 0.0, 2022-09-18 15:23:04.288
163.0, -12007.178307435312, -2912.5217095043313, -41597.57990808248, -15336.4706440533, -41330.09658218582, -187500.02235174447, -4300.095653545339, 5794.555639571624, 0.5660000000000001, -0.602, 0.5760000000000001, 192.0, 0.0, 0.0, 0.0, 0.0, 0.0, 0.0, 0.0, 0.0, 0.0, 1.6634965842883775E9, 0.0, 2022-09-18 15:23:04.288
164.0, -9930.902413237383, -913.2252232104806, -42129.03733599631, -15383.610473109542, -40611.06331480305, -187500.02235174447, -4558.347708981956, 5730.584946940536, 0.5660000000000001, -0.602, 0.5760000000000001, 192.0, 0.0, 0.0, 0.0, 0.0, 0.0, 0.0, 0.0, 0.0, 0.0, 1.6634965842883956E9, 0.0, 2022-09-18 15:23:04.288
165.0, -12988.844572167942, -3460.228855637176, -41734.618453337964, -15990.482686815583, -41888.73373135731, -187500.02235174447, -5038.932566515514, 5105.8089859257925, 0.5660000000000001, -0.602, 0.5760000000000001, 192.0, 0.0, 0.0, 0.0, 0.0, 0.0, 0.0, 0.0, 0.0, 0.0, 1.663496584288414E9, 0.0, 2022-09-18 15:23:04.288
166.0, -15515.21754446239, -5728.796807384111, -41064.80372724578, -15954.87635789828, -42628.710583294705, -187500.02235174447, -4853.256625325278, 5203.441405706573, 0.5660000000000001, -0.602, 0.5760000000000001, 192.0, 0.0, 0.0, 0.0, 0.0, 0.0, 0.0, 0.0, 0.0, 0.0, 1.6634965842884316E9, 0.0, 2022-09-18 15:23:04.288
167.0, -14768.378706977215, -5231.537548486895, -41118.76083836089, -15618.013217212347, -42131.56308311976, -187500.02235174447, -4491.337179104946, 5561.67281409178, 0.5660000000000001, -0.602, 0.5760000000000001, 192.0, 0.0, 0.0, 0.0, 0.0, 0.0, 0.0, 0.0, 0.0, 0.0, 1.6634965842884493E9, 0.0, 2022-09-18 15:23:04.288
168.0, -12154.275137695688, -3034.3834202746657, -41574.84818397143, -15348.585289548075, -41327.682593784644, -187500.02235174447, -4304.096615802839, 5782.105717910018, 0.5660000000000001, -0.602, 0.5760000000000001, 192.0, 0.0, 0.0, 0.0, 0.0, 0.0, 0.0, 0.0, 0.0, 0.0, 1.6634965842884672E9, 0.0, 2022-09-18 15:23:04.288
169.0, -9933.562270827564, -918.0755517572823, -42148.10337401669, -15385.577426621609, -40568.59500033796, -187500.02235174447, -4557.766563626118, 5731.031981829641, 0.5640000000000001, -0.6, 0.584, 192.0, 17.0, 160.0, 237.0, 64.0, 18.0, 64.0, 0.0, 0.0, 0.0, 1.6634965842884848E9, 0.0, 2022-09-18 15:23:04.288
170.0, -12820.714750375122, -3307.4770340296072, -41785.28985801814, -15979.753849477036, -41775.16451777989, -187500.02235174447, -5039.267842682343, 5120.337619821742, 0.5640000000000001, -0.6, 0.584, 192.0, 0.0, 0.0, 0.0, 0.0, 0.0, 0.0, 0.0, 0.0, 0.0, 1.663496584288519E9, 0.0, 2022-09-18 15:23:04.288
171.0, -15489.133058683046, -5692.3858156664155, -41069.855221492675, -15957.983250377567, -42557.49792546009, -187500.02235174447, -4864.276035341744, 5204.827213862803, 0.5640000000000001, -0.6, 0.584, 192.0, 0.0, 0.0, 0.0, 0.0, 0.0, 0.0, 0.0, 0.0, 0.0, 1.663496584288537E9, 0.0, 2022-09-18 15:23:04.288
172.0, -14843.502920091501, -5284.064147956866, -41096.11852122766, -15616.42624335602, -42086.45726280895, -187500.02235174447, -4503.116548432893, 5567.618378116891, 0.5640000000000001, -0.6, 0.584, 192.0, 0.0, 0.0, 0.0, 0.0, 0.0, 0.0, 0.0, 0.0, 0.0, 1.663496584288555E9, 0.0, 2022-09-18 15:23:04.288
173.0, -12308.368063970574, -3167.108078850279, -41545.880323157355, -15348.853510481538, -41301.88868068322, -187500.02235174447, -4315.227784541582, 5789.90647672492, 0.5640000000000001, -0.6, 0.584, 192.0, 0.0, 0.0, 0.0, 0.0, 0.0, 0.0, 0.0, 0.0, 0.0, 1.6634965842885728E9, 0.0, 2022-09-18 15:23:04.288
174.0, -9916.977276441727, -914.3875139221566, -42113.92755674452, -15346.886556969472, -40495.4600924802, -187500.02235174447, -4530.005697012627, 5771.175714871373, 0.5640000000000001, -0.6, 0.584, 192.0, 0.0, 0.0, 0.0, 0.0, 0.0, 0.0, 0.0, 0.0, 0.0, 1.6634965842885957E9, 0.0, 2022-09-18 15:23:04.288
175.0, -12644.761818022946, -3150.4113257421645, -41790.81073889861, -15939.900689113223, -41610.34275416646, -187500.02235174447, -5038.440828137497, 5162.604768586728, 0.5640000000000001, -0.6, 0.584, 192.0, 0.0, 0.0, 0.0, 0.0, 0.0, 0.0, 0.0, 0.0, 0.0, 1.6634965842886133E9, 0.0, 2022-09-18 15:23:04.288
176.0, -15476.101991665602, -5678.080699215019, -41080.360541386675, -15981.810209966925, -42501.97619223311, -187500.02235174447, -4904.486823616841, 5173.244198947454, 0.5640000000000001, -0.6, 0.584, 192.0, 0.0, 0.0, 0.0, 0.0, 0.0, 0.0, 0.0, 0.0, 0.0, 1.663496584288631E9, 0.0, 2022-09-18 15:23:04.288
177.0, -14905.439603977156, -5342.670421918681, -41085.61320133367, -15646.087008248212, -42086.36785583113, -187500.02235174447, -4523.255470187124, 5534.2472236451185, 0.5640000000000001, -0.6, 0.584, 192.0, 0.0, 0.0, 0.0, 0.0, 0.0, 0.0, 0.0, 0.0, 0.0, 1.6634965842886517E9, 0.0, 2022-09-18 15:23:04.288
178.0, -12431.280306730308, -3290.7802809214927, -41511.88331984083, -15368.210121179834, -41339.68548055714, -187500.02235174447, -4310.556269950423, 5771.9803776717645, 0.5640000000000001, -0.6, 0.584, 192.0, 0.0, 0.0, 0.0, 0.0, 0.0, 0.0, 0.0, 0.0, 0.0, 1.663496584288669E9, 0.0, 2022-09-18 15:23:04.288
179.0, -9921.022942188138, -935.5546159213325, -42100.42710309352, -15338.191728376358, -40475.857612592896, -187500.02235174447, -4510.112644447404, 5788.520668568692, 0.5640000000000001, -0.6, 0.584, 192.0, 0.0, 0.0, 0.0, 0.0, 0.0, 0.0, 0.0, 0.0, 0.0, 1.6634965842886872E9, 0.0, 2022-09-18 15:23:04.288
180.0, -12461.969251867444, -3006.041408305336, -41829.30044285065, -15936.43616872265, -41558.62081749688, -187500.02235174447, -5028.695467554983, 5167.902132022636, 0.56, -0.606, 0.58, 192.0, 17.0, 128.0, 237.0, 16.0, 18.0, 32.0, 0.0, 0.0, 0.0, 1.663496584288705E9, 0.0, 2022-09-18 15:23:04.288
181.0, -15426.592877697096, -5640.887396441388, -41090.75410255839, -16000.362157864829, -42515.454294139665, -187500.02235174447, -4923.597565126129, 5157.35210863973, 0.56, -0.606, 0.58, 192.0, 0.0, 0.0, 0.0, 0.0, 0.0, 0.0, 0.0, 0.0, 0.0, 1.663496584288724E9, 0.0, 2022-09-18 15:23:04.288
182.0, -14967.733915774097, -5388.044463162954, -41072.20215466048, -15657.24052873141, -42072.710939968936, -187500.02235174447, -4553.1621042683255, 5536.52710157956, 0.56, -0.606, 0.58, 192.0, 0.0, 0.0, 0.0, 0.0, 0.0, 0.0, 0.0, 0.0, 0.0, 1.663496584288742E9, 0.0, 2022-09-18 15:23:04.288
183.0, -12573.884436355167, -3411.5244044690617, -41481.842575292896, -15385.756240577251, -41327.190855406625, -187500.02235174447, -4337.065438874417, 5761.877389177966, 0.56, -0.606, 0.58, 192.0, 0.0, 0.0, 0.0, 0.0, 0.0, 0.0, 0.0, 0.0, 0.0, 1.6634965842887597E9, 0.0, 2022-09-18 15:23:04.288
184.0, -9938.591413330008, -958.599264454754, -42072.777995202305, -15327.50759452672, -40420.98407995512, -187500.02235174447, -4499.786138509052, 5809.017218234208, 0.56, -0.606, 0.58, 192.0, 0.0, 0.0, 0.0, 0.0, 0.0, 0.0, 0.0, 0.0, 0.0, 1.6634965842887774E9, 0.0, 2022-09-18 15:23:04.288
185.0, -12284.742270081315, -2852.6190343641088, -41863.56566710063, -15927.495470940528, -41434.18865611418, -187500.02235174447, -5025.588575075695, 5191.058539278333, 0.56, -0.606, 0.58, 192.0, 0.0, 0.0, 0.0, 0.0, 0.0, 0.0, 0.0, 0.0, 0.0, 1.6634965842888136E9, 0.0, 2022-09-18 15:23:04.288
186.0, -15383.118734731524, -5600.989532588665, -41120.124294772664, -16031.051103001966, -42465.69931098215, -187500.02235174447, -4947.804504371226, 5139.247195630932, 0.56, -0.606, 0.58, 192.0, 0.0, 0.0, 0.0, 0.0, 0.0, 0.0, 0.0, 0.0, 0.0, 1.6634965842888317E9, 0.0, 2022-09-18 15:23:04.288
187.0, -15027.524832192044, -5438.738219587591, -41063.775547000834, -15680.508694709384, -42048.34753851265, -187500.02235174447, -4560.337014238478, 5527.944031708722, 0.56, -0.606, 0.58, 192.0, 0.0, 0.0, 0.0, 0.0, 0.0, 0.0, 0.0, 0.0, 0.0, 1.663496584288849E9, 0.0, 2022-09-18 15:23:04.288
188.0, -12710.56535369937, -3535.062496073544, -41457.4344703477, -15405.068147786636, -41325.15684666119, -187500.02235174447, -4329.309383548425, 5754.7248309522665, 0.56, -0.606, 0.58, 192.0, 0.0, 0.0, 0.0, 0.0, 0.0, 0.0, 0.0, 0.0, 0.0, 1.6634965842888672E9, 0.0, 2022-09-18 15:23:04.288
189.0, -9959.758515329184, -985.1978403565694, -42058.294064795264, -15320.600905490031, -40371.56437296443, -187500.02235174447, -4467.666681726776, 5826.4515789093475, 0.56, -0.606, 0.58, 192.0, 0.0, 0.0, 0.0, 0.0, 0.0, 0.0, 0.0, 0.0, 0.0, 1.663496584288885E9, 0.0, 2022-09-18 15:23:04.288
190.0, -12107.828212717559, -2690.5688870631325, -41889.87367032453, -15903.310883439886, -41284.65548570818, -187500.02235174447, -5002.856850964648, 5227.93891762959, 0.5660000000000001, -0.614, 0.5740000000000001, 192.0, 17.0, 176.0, 236.0, 208.0, 17.0, 240.0, 0.0, 0.0, 0.0, 1.663496584288918E9, 0.0, 2022-09-18 15:23:04.288
191.0, -15338.929335943383, -5543.81377027199, -41134.42941122406, -16039.723579850624, -42364.46826034406, -187500.02235174447, -4954.062992818713, 5138.0625531748, 0.5660000000000001, -0.614, 0.5740000000000001, 192.0, 0.0, 0.0, 0.0, 0.0, 0.0, 0.0, 0.0, 0.0, 0.0, 1.6634965842889376E9, 0.0, 2022-09-18 15:23:04.288
192.0, -15088.455687577212, -5476.55737120597, -41053.5384480403, -15699.641787963128, -42010.640145616555, -187500.02235174447, -4569.970616098716, 5512.9013076903, 0.5660000000000001, -0.614, 0.5740000000000001, 192.0, 0.0, 0.0, 0.0, 0.0, 0.0, 0.0, 0.0, 0.0, 0.0, 1.6634965842889564E9, 0.0, 2022-09-18 15:23:04.288
193.0, -12851.090771089885, -3650.799828863124, -41429.897121178765, -15416.020502569736, -41300.435817293626, -187500.02235174447, -4336.841921429864, 5743.034868602142, 0.5660000000000001, -0.614, 0.5740000000000001, 192.0, 0.0, 0.0, 0.0, 0.0, 0.0, 0.0, 0.0, 0.0, 0.0, 1.6634965842889752E9, 0.0, 2022-09-18 15:23:04.288
194.0, -9998.069405325581, -1029.342535655801, -42038.803343630236, -15304.619408204486, -40335.958044047125, -187500.02235174447, -4452.758068175086, 5825.6916195978665, 0.5660000000000001, -0.614, 0.5740000000000001, 192.0, 0.0, 0.0, 0.0, 0.0, 0.0, 0.0, 0.0, 0.0, 0.0, 1.6634965842889936E9, 0.0, 2022-09-18 15:23:04.288
195.0, -11927.673152407784, -2536.8335886995305, -41923.736563174316, -15865.447028332595, -41155.68592020106, -187500.02235174447, -4995.525478783307, 5243.115752114743, 0.5660000000000001, -0.614, 0.5740000000000001, 192.0, 0.0, 0.0, 0.0, 0.0, 0.0, 0.0, 0.0, 0.0, 0.0, 1.6634965842890124E9, 0.0, 2022-09-18 15:23:04.289
196.0, -15274.802181101106, -5486.526249233038, -41156.60234172372, -16036.683742604702, -42302.911556114144, -187500.02235174447, -4976.593551229662, 5115.599049997217, 0.5660000000000001, -0.614, 0.5740000000000001, 192.0, 0.0, 0.0, 0.0, 0.0, 0.0, 0.0, 0.0, 0.0, 0.0, 1.6634965842890308E9, 0.0, 2022-09-18 15:23:04.289
197.0, -15127.548888629544, -5506.665170987269, -41041.51320952335, -15693.942093127025, -41988.84719477263, -187500.02235174447, -4583.538124983087, 5496.875106915844, 0.5660000000000001, -0.614, 0.5740000000000001, 192.0, 0.0, 0.0, 0.0, 0.0, 0.0, 0.0, 0.0, 0.0, 0.0, 1.6634965842890494E9, 0.0, 2022-09-18 15:23:04.289
198.0, -12965.665813167789, -3754.243702202285, -41421.38110654129, -15424.223592784834, -41311.7010964991, -187500.02235174447, -4353.561026282433, 5716.078664789041, 0.5660000000000001, -0.614, 0.5740000000000001, 192.0, 0.0, 0.0, 0.0, 0.0, 0.0, 0.0, 0.0, 0.0, 0.0, 1.6634965842890708E9, 0.0, 2022-09-18 15:23:04.289
199.0, -10051.378315851489, -1084.1043095713032, -42046.04530883376, -15301.356053514011, -40313.62865133627, -187500.02235174447, -4458.6589287112865, 5828.418532421414, 0.5660000000000001, -0.614, 0.5740000000000001, 192.0, 0.0, 0.0, 0.0, 0.0, 0.0, 0.0, 0.0, 0.0, 0.0, 1.6634965842890904E9, 0.0, 2022-09-18 15:23:04.289
200.0, -11750.312060154924, -2387.4345287602578, -41965.31080786119, -15854.449970060585, -41070.52577382634, -187500.02235174447, -4984.662530978028, 5258.493752299995, 0.5640000000000001, -0.61, 0.5720000000000001, 192.0, 17.0, 160.0, 236.0, 240.0, 17.0, 224.0, 0.0, 0.0, 0.0, 1.6634965842891252E9, 0.0, 2022-09-18 15:23:04.289
201.0, -15192.257188827658, -5414.128948942298, -41180.22813561298, -16055.302745735973, -42287.62296290672, -187500.02235174447, -4985.400138545053, 5097.1812125660435, 0.5640000000000001, -0.61, 0.5720000000000001, 192.0, 0.0, 0.0, 0.0, 0.0, 0.0, 0.0, 0.0, 0.0, 0.0, 1.6634965842891452E9, 0.0, 2022-09-18 15:23:04.289
202.0, -15179.382584021401, -5538.583462069448, -41029.15269483956, -15705.699110710517, -41966.04841542822, -187500.02235174447, -4593.216430332235, 5497.031569127032, 0.5640000000000001, -0.61, 0.5720000000000001, 192.0, 0.0, 0.0, 0.0, 0.0, 0.0, 0.0, 0.0, 0.0, 0.0, 1.6634965842891643E9, 0.0, 2022-09-18 15:23:04.289
203.0, -13102.570247956544, -3865.398927378527, -41386.75825438002, -15429.833880643117, -41306.40373306319, -187500.02235174447, -4344.709735478132, 5726.695743405312, 0.5640000000000001, -0.61, 0.5720000000000001, 192.0, 0.0, 0.0, 0.0, 0.0, 0.0, 0.0, 0.0, 0.0, 0.0, 1.6634965842891831E9, 0.0, 2022-09-18 15:23:04.289
204.0, -10098.09346176308, -1129.3889438377553, -41994.189261697444, -15270.510646165687, -40276.658866007194, -187500.02235174447, -4414.424826434234, 5863.354309005059, 0.5640000000000001, -0.61, 0.5720000000000001, 192.0, 0.0, 0.0, 0.0, 0.0, 0.0, 0.0, 0.0, 0.0, 0.0, 1.6634965842892015E9, 0.0, 2022-09-18 15:23:04.289
205.0, -11568.748839944463, -2230.9723175731087, -41972.597476553616, -15811.691082917581, -40948.52995258927, -187500.02235174447, -4953.951234096437, 5298.346912663807, 0.5640000000000001, -0.61, 0.5720000000000001, 192.0, 0.0, 0.0, 0.0, 0.0, 0.0, 0.0, 0.0, 0.0, 0.0, 1.66349658428922E9, 0.0, 2022-09-18 15:23:04.289
206.0, -15110.852135521429, -5340.0105643285, -41197.88601373268, -16063.841112117902, -42222.82525573078, -187500.02235174447, -5003.572106787218, 5081.780860636337, 0.5640000000000001, -0.61, 0.5720000000000001, 192.0, 0.0, 0.0, 0.0, 0.0, 0.0, 0.0, 0.0, 0.0, 0.0, 1.6634965842892385E9, 0.0, 2022-09-18 15:23:04.289
207.0, -15233.026770714137, -5575.016805531598, -41020.45786624645, -15735.1140064137, -41943.361394806074, -187500.02235174447, -4629.426256349833, 5470.187124036208, 0.5640000000000001, -0.61, 0.5720000000000001, 192.0, 0.0, 0.0, 0.0, 0.0, 0.0, 0.0, 0.0, 0.0, 0.0, 1.6634965842892568E9, 0.0, 2022-09-18 15:23:04.289
208.0, -13233.663229186921, -3971.4356030745034, -41351.21898069608, -15465.887244449526, -41293.97616314604, -187500.02235174447, -4369.564875312433, 5703.584039638525, 0.5640000000000001, -0.61, 0.5720000000000001, 192.0, 0.0, 0.0, 0.0, 0.0, 0.0, 0.0, 0.0, 0.0, 0.0, 1.6634965842892754E9, 0.0, 2022-09-18 15:23:04.289
209.0, -10179.20794239139, -1201.1156917948356, -41963.63442702704, -15296.93040811186, -40254.3518250408, -187500.02235174447, -4416.950573557684, 5850.837332110087, 0.5640000000000001, -0.61, 0.5720000000000001, 192.0, 0.0, 0.0, 0.0, 0.0, 0.0, 0.0, 0.0, 0.0, 0.0, 1.663496584289294E9, 0.0, 2022-09-18 15:23:04.289
210.0, -11418.768634649354, -2096.772443863445, -41998.324334421675, -15821.548202222373, -40836.61476810155, -187500.02235174447, -4952.140742795556, 5307.95816277959, 0.56, -0.606, 0.578, 192.0, 17.0, 128.0, 237.0, 16.0, 18.0, 16.0, 0.0, 0.0, 0.0, 1.6634965842893124E9, 0.0, 2022-09-18 15:23:04.289
211.0, -15035.035018329028, -5259.164304633654, -41211.364115639226, -16093.345414798907, -42131.31721393076, -187500.02235174447, -5022.079351196212, 5079.791555379815, 0.56, -0.606, 0.578, 192.0, 0.0, 0.0, 0.0, 0.0, 0.0, 0.0, 0.0, 0.0, 0.0, 1.6634965842893324E9, 0.0, 2022-09-18 15:23:04.289
212.0, -15274.131628767447, -5598.687302909769, -41001.0789038037, -15767.032297495878, -41894.12050177104, -187500.02235174447, -4636.355297130978, 5466.432030967717, 0.56, -0.606, 0.578, 192.0, 0.0, 0.0, 0.0, 0.0, 0.0, 0.0, 0.0, 0.0, 0.0, 1.6634965842893577E9, 0.0, 2022-09-18 15:23:04.289
213.0, -13356.039030079726, -4076.935836903553, -41324.30748037189, -15492.865800007083, -41255.86643884974, -187500.02235174447, -4375.108107937349, 5700.901830303887, 0.56, -0.606, 0.578, 192.0, 0.0, 0.0, 0.0, 0.0, 0.0, 0.0, 0.0, 0.0, 0.0, 1.6634965842893765E9, 0.0, 2022-09-18 15:23:04.289
214.0, -10261.730582920383, -1293.0260649950583, -41938.22049358136, -15306.675768694375, -40230.27899626243, -187500.02235174447, -4404.165375729248, 5861.163838048439, 0.56, -0.606, 0.578, 192.0, 0.0, 0.0, 0.0, 0.0, 0.0, 0.0, 0.0, 0.0, 0.0, 1.663496584289395E9, 0.0, 2022-09-18 15:23:04.289
215.0, -11252.359897179593, -1965.0759655327756, -42000.425398400475, -15788.288806472876, -40695.642315821926, -187500.02235174447, -4927.173844238978, 5356.193227314142, 0.56, -0.606, 0.578, 192.0, 0.0, 0.0, 0.0, 0.0, 0.0, 0.0, 0.0, 0.0, 0.0, 1.6634965842894137E9, 0.0, 2022-09-18 15:23:04.289
216.0, -14944.219880607116, -5188.97982704399, -41228.39614491417, -16101.99553990311, -42039.98798608637, -187500.02235174447, -5037.6585170815615, 5061.932511560025, 0.56, -0.606, 0.578, 192.0, 0.0, 0.0, 0.0, 0.0, 0.0, 0.0, 0.0, 0.0, 0.0, 1.6634965842894485E9, 0.0, 2022-09-18 15:23:04.289
217.0, -15313.22482981978, -5644.396620320871, -40981.275258216294, -15774.49778014395, -41881.04473126468, -187500.02235174447, -4647.642928080908, 5436.83832130889, 0.56, -0.606, 0.578, 192.0, 0.0, 0.0, 0.0, 0.0, 0.0, 0.0, 0.0, 0.0, 0.0, 1.663496584289467E9, 0.0, 2022-09-18 15:23:04.289
218.0, -13468.870636090118, -4189.54392546939, -41303.67682023964, -15495.615064575084, -41277.9946658605, -187500.02235174447, -4387.982712743606, 5675.309082902561, 0.56, -0.606, 0.578, 192.0, 0.0, 0.0, 0.0, 0.0, 0.0, 0.0, 0.0, 0.0, 0.0, 1.663496584289486E9, 0.0, 2022-09-18 15:23:04.289
219.0, -10338.397066402087, -1380.354330581943, -41910.61608917905, -15284.2569690057, -40224.82517061534, -187500.02235174447, -4401.550221627977, 5859.465105469836, 0.56, -0.606, 0.578, 192.0, 0.0, 0.0, 0.0, 0.0, 0.0, 0.0, 0.0, 0.0, 0.0, 1.6634965842895048E9, 0.0, 2022-09-18 15:23:04.289
220.0, -11090.577970812079, -1839.816789605235, -42034.84708486165, -15755.54350084585, -40612.5385299371, -187500.02235174447, -4921.004762769314, 5363.748116940036, 0.5640000000000001, -0.608, 0.5740000000000001, 192.0, 17.0, 160.0, 237.0, 0.0, 17.0, 240.0, 0.0, 0.0, 0.0, 1.6634965842895262E9, 0.0, 2022-09-18 15:23:04.289
221.0, -14840.08310318984, -5105.741930692427, -41283.06851185185, -16115.987731932133, -42025.88403533507, -187500.02235174447, -5074.829468110736, 5018.726589527916, 0.5640000000000001, -0.608, 0.5740000000000001, 192.0, 0.0, 0.0, 0.0, 0.0, 0.0, 0.0, 0.0, 0.0, 0.0, 1.663496584289546E9, 0.0, 2022-09-18 15:23:04.289
222.0, -15364.186807177879, -5684.31683591805, -41016.367497011124, -15809.969998594523, -41887.99612379028, -187500.02235174447, -4716.329838792067, 5388.469146307605, 0.5640000000000001, -0.608, 0.5740000000000001, 192.0, 0.0, 0.0, 0.0, 0.0, 0.0, 0.0, 0.0, 0.0, 0.0, 1.6634965842895644E9, 0.0, 2022-09-18 15:23:04.289
223.0, -13591.626416638663, -4293.27837148647, -41304.28031733994, -15523.085358510658, -41272.76435765796, -187500.02235174447, -4433.937899343718, 5642.362611575439, 0.5640000000000001, -0.608, 0.5740000000000001, 192.0, 0.0, 0.0, 0.0, 0.0, 0.0, 0.0, 0.0, 0.0, 0.0, 1.6634965842895832E9, 0.0, 2022-09-18 15:23:04.289
224.0, -10441.438608341052, -1475.930389872836, -41906.63747866601, -15294.874047621972, -40214.11868502125, -187500.02235174447, -4411.16147174376, 5843.103628528551, 0.5640000000000001, -0.608, 0.5740000000000001, 192.0, 0.0, 0.0, 0.0, 0.0, 0.0, 0.0, 0.0, 0.0, 0.0, 1.6634965842896016E9, 0.0, 2022-09-18 15:23:04.289
225.0, -10944.732838241202, -1709.2155467528758, -42057.75762292834, -15729.503718555417, -40499.28224078206, -187500.02235174447, -4905.716169561883, 5389.340864341362, 0.5640000000000001, -0.608, 0.5740000000000001, 192.0, 0.0, 0.0, 0.0, 0.0, 0.0, 0.0, 0.0, 0.0, 0.0, 1.6634965842896204E9, 0.0, 2022-09-18 15:23:04.289
226.0, -14727.452662879547, -4993.603228760151, -41299.40763704868, -16109.818650462468, -41939.00280463729, -187500.02235174447, -5075.008282066379, 5027.577880332217, 0.5640000000000001, -0.608, 0.5740000000000001, 192.0, 0.0, 0.0, 0.0, 0.0, 0.0, 0.0, 0.0, 0.0, 0.0, 1.6634965842896392E9, 0.0, 2022-09-18 15:23:04.289
227.0, -15388.058470256146, -5688.138984219907, -40981.856403572136, -15800.135231034188, -41849.215847160325, -187500.02235174447, -4704.192841552835, 5402.014303447521, 0.5640000000000001, -0.608, 0.5740000000000001, 192.0, 0.0, 0.0, 0.0, 0.0, 0.0, 0.0, 0.0, 0.0, 0.0, 1.6634965842896576E9, 0.0, 2022-09-18 15:23:04.289
228.0, -13702.267551692434, -4381.076023706916, -41267.422290733135, -15522.459509665909, -41254.39122371569, -187500.02235174447, -4425.1983672616925, 5646.341222088483, 0.5640000000000001, -0.608, 0.5740000000000001, 192.0, 0.0, 0.0, 0.0, 0.0, 0.0, 0.0, 0.0, 0.0, 0.0, 1.6634965842896762E9, 0.0, 2022-09-18 15:23:04.289
229.0, -10549.285775337908, -1576.1332602659775, -41865.68908282388, -15292.303597009612, -40204.77565583893, -187500.02235174447, -4392.229544190114, 5846.724611130311, 0.5640000000000001, -0.608, 0.5740000000000001, 192.0, 0.0, 0.0, 0.0, 0.0, 0.0, 0.0, 0.0, 0.0, 0.0, 1.663496584289698E9, 0.0, 2022-09-18 15:23:04.289
230.0, -10816.009141923088, -1604.1399960684773, -42075.2813905813, -15710.907067168602, -40396.88889943229, -187500.02235174447, -4884.34790186261, 5403.266001137019, 0.5640000000000001, -0.608, 0.5760000000000001, 192.0, 17.0, 160.0, 237.0, 0.0, 18.0, 0.0, 0.0, 0.0, 0.0, 1.6634965842897165E9, 0.0, 2022-09-18 15:23:04.289
231.0, -14632.927135578053, -4906.900812018015, -41333.27052989847, -16124.660208780791, -41853.95441698485, -187500.02235174447, -5090.699206674005, 5020.738246528894, 0.5640000000000001, -0.608, 0.5760000000000001, 192.0, 0.0, 0.0, 0.0, 0.0, 0.0, 0.0, 0.0, 0.0, 0.0, 1.6634965842897513E9, 0.0, 2022-09-18 15:23:04.289
232.0, -15449.950450652892, -5732.194272541317, -40994.999229311856, -15845.41986530064, -41823.623099758996, -187500.02235174447, -4734.926490178882, 5377.807364202424, 0.5640000000000001, -0.608, 0.5760000000000001, 192.0, 0.0, 0.0, 0.0, 0.0, 0.0, 0.0, 0.0, 0.0, 0.0, 1.6634965842897701E9, 0.0, 2022-09-18 15:23:04.289
233.0, -13829.694846832139, -4482.284722600547, -41257.22989526152, -15560.233957795377, -41223.367002411724, -187500.02235174447, -4439.771704646552, 5636.372344061416, 0.5640000000000001, -0.608, 0.5760000000000001, 192.0, 0.0, 0.0, 0.0, 0.0, 0.0, 0.0, 0.0, 0.0, 0.0, 1.6634965842897887E9, 0.0, 2022-09-18 15:23:04.289
234.0, -10669.024070384989, -1686.4391191529178, -41831.66972776291, -15305.513477982699, -40188.52593761992, -187500.02235174447, -4375.353977126358, 5858.861608369542, 0.5640000000000001, -0.608, 0.5760000000000001, 192.0, 0.0, 0.0, 0.0, 0.0, 0.0, 0.0, 0.0, 0.0, 0.0, 1.663496584289807E9, 0.0, 2022-09-18 15:23:04.289
235.0, -10684.111497892321, -1493.409454036886, -42083.64094300759, -15680.307529009287, -40280.101034653315, -187500.02235174447, -4852.295500313699, 5466.744955390091, 0.5640000000000001, -0.608, 0.5760000000000001, 192.0, 0.0, 0.0, 0.0, 0.0, 0.0, 0.0, 0.0, 0.0, 0.0, 1.6634965842898257E9, 0.0, 2022-09-18 15:23:04.289
236.0, -14509.947837584954, -4792.415176917932, -41376.342341463846, -16116.61358077688, -41724.716630544266, -187500.02235174447, -5091.258000285387, 5046.375697419131, 0.5640000000000001, -0.608, 0.5760000000000001, 192.0, 0.0, 0.0, 0.0, 0.0, 0.0, 0.0, 0.0, 0.0, 0.0, 1.6634965842898443E9, 0.0, 2022-09-18 15:23:04.289
237.0, -15458.511168779276, -5739.771513911666, -40981.7222931054, -15843.117635621744, -41789.35787550901, -187500.02235174447, -4724.354115051522, 5378.857896191824, 0.5640000000000001, -0.608, 0.5760000000000001, 192.0, 0.0, 0.0, 0.0, 0.0, 0.0, 0.0, 0.0, 0.0, 0.0, 1.6634965842898629E9, 0.0, 2022-09-18 15:23:04.289
238.0, -13912.441004805685, -4562.639243917375, -41226.8315228023, -15557.663507183017, -41228.887883292184, -187500.02235174447, -4426.092437039904, 5636.0370678945865, 0.5640000000000001, -0.608, 0.5760000000000001, 192.0, 0.0, 0.0, 0.0, 0.0, 0.0, 0.0, 0.0, 0.0, 0.0, 1.6634965842898812E9, 0.0, 2022-09-18 15:23:04.289
239.0, -10778.36880426035, -1797.5049373513386, -41795.88458488996, -15296.2598557782, -40203.52395814943, -187500.02235174447, -4350.632947758788, 5860.001547336763, 0.5640000000000001, -0.608, 0.5760000000000001, 192.0, 0.0, 0.0, 0.0, 0.0, 0.0, 0.0, 0.0, 0.0, 0.0, 1.6634965842899027E9, 0.0, 2022-09-18 15:23:04.289
240.0, -10557.0418306639, -1395.0841301779903, -42084.579716274704, -15641.303734934776, -40207.79314134039, -187500.02235174447, -4813.828148106116, 5486.36978702185, 0.56, -0.608, 0.5760000000000001, 192.0, 17.0, 128.0, 237.0, 0.0, 18.0, 0.0, 0.0, 0.0, 0.0, 1.6634965842899215E9, 0.0, 2022-09-18 15:23:04.289
241.0, -14366.762562604257, -4678.175411006858, -41396.123635306794, -16108.254028350597, -41699.36975233194, -187500.02235174447, -5084.172497293055, 5018.860699994648, 0.56, -0.608, 0.5760000000000001, 192.0, 0.0, 0.0, 0.0, 0.0, 0.0, 0.0, 0.0, 0.0, 0.0, 1.663496584767576E9, 0.0, 2022-09-18 15:23:04.767
242.0, -15484.483895836342, -5757.697612964823, -40987.77961585279, -15847.073894390332, -41793.783520911165, -187500.02235174447, -4747.84579847405, 5347.230177787564, 0.56, -0.608, 0.5760000000000001, 192.0, 0.0, 0.0, 0.0, 0.0, 0.0, 0.0, 0.0, 0.0, 0.0, 1.6634965847676537E9, 0.0, 2022-09-18 15:23:04.767
243.0, -14024.423244526773, -4653.700250828297, -41228.753772825454, -15558.132893816579, -41227.32326118032, -187500.02235174447, -4453.808600164485, 5612.344218771961, 0.56, -0.608, 0.5760000000000001, 192.0, 0.0, 0.0, 0.0, 0.0, 0.0, 0.0, 0.0, 0.0, 0.0, 1.6634965847677383E9, 0.0, 2022-09-18 15:23:04.767
244.0, -10903.896201121355, -1914.7398370194242, -41774.27044800168, -15284.569893428075, -40214.05162978788, -187500.02235174447, -4356.265587361525, 5848.959785575841, 0.56, -0.608, 0.5760000000000001, 192.0, 0.0, 0.0, 0.0, 0.0, 0.0, 0.0, 0.0, 0.0, 0.0, 1.6634965847677867E9, 0.0, 2022-09-18 15:23:04.767
245.0, -10443.942003720047, -1301.452672654709, -42090.391169833085, -15601.383519337598, -40120.71074494252, -187500.02235174447, -4802.205240989357, 5517.461063559183, 0.56, -0.608, 0.5760000000000001, 192.0, 0.0, 0.0, 0.0, 0.0, 0.0, 0.0, 0.0, 0.0, 0.0, 1.6634965847678392E9, 0.0, 2022-09-18 15:23:04.767
246.0, -14238.709418619803, -4564.0250520736045, -41417.8271791729, -16106.488240538627, -41622.61386187242, -187500.02235174447, -5107.954753393502, 5018.9948104613795, 0.56, -0.608, 0.5760000000000001, 192.0, 0.0, 0.0, 0.0, 0.0, 0.0, 0.0, 0.0, 0.0, 0.0, 1.6634965847679234E9, 0.0, 2022-09-18 15:23:04.767
247.0, -15519.240858464344, -5783.647988277435, -40979.15184249304, -15873.694822036603, -41788.93319236436, -187500.02235174447, -4785.195563458868, 5326.823035099868, 0.56, -0.608, 0.5760000000000001, 192.0, 0.0, 0.0, 0.0, 0.0, 0.0, 0.0, 0.0, 0.0, 0.0, 1.6634965847679515E9, 0.0, 2022-09-18 15:23:04.767
248.0, -14128.783539388603, -4738.4133623139105, -41188.498281061446, -15579.03177488229, -41215.566243596826, -187500.02235174447, -4473.165210862781, 5611.58425946048, 0.56, -0.608, 0.5760000000000001, 192.0, 0.0, 0.0, 0.0, 0.0, 0.0, 0.0, 0.0, 0.0, 0.0, 1.66349658476798E9, 0.0, 2022-09-18 15:23:04.767
249.0, -11042.029981855152, -2042.100076925764, -41734.68550857133, -15310.184992573857, -40215.973879811034, -187500.02235174447, -4367.57557005591, 5845.338802974082, 0.56, -0.608, 0.5760000000000001, 192.0, 0.0, 0.0, 0.0, 0.0, 0.0, 0.0, 0.0, 0.0, 0.0, 1.6634965847680075E9, 0.0, 2022-09-18 15:23:04.768
250.0, -10346.421342661542, -1226.3731630293325, -42097.63313503661, -15586.139629619078, -40031.95196771049, -187500.02235174447, -4785.888467536983, 5549.9828517416545, 0.5640000000000001, -0.614, 0.578, 192.0, 17.0, 160.0, 236.0, 208.0, 18.0, 16.0, 0.0, 0.0, 0.0, 1.6634965847680352E9, 0.0, 2022-09-18 15:23:04.768
251.0, -14102.609646631437, -4443.459742481678, -41454.19346740168, -16100.743842213613, -41517.761828632574, -187500.02235174447, -5119.354143065709, 5034.395162391086, 0.5640000000000001, -0.614, 0.578, 192.0, 0.0, 0.0, 0.0, 0.0, 0.0, 0.0, 0.0, 0.0, 0.0, 1.6634965847680655E9, 0.0, 2022-09-18 15:23:04.768
252.0, -15537.79280636225, -5794.533287827169, -40976.08965350266, -15877.47226684955, -41744.900255787405, -187500.02235174447, -4802.607572389552, 5324.632564143249, 0.5640000000000001, -0.614, 0.578, 192.0, 0.0, 0.0, 0.0, 0.0, 0.0, 0.0, 0.0, 0.0, 0.0, 1.663496584768093E9, 0.0, 2022-09-18 15:23:04.768
253.0, -14218.86106954349, -4812.084712038602, -41170.05809188582, -15559.004611850336, -41179.49052804596, -187500.02235174447, -4473.969873663173, 5621.039047365075, 0.5640000000000001, -0.614, 0.578, 192.0, 0.0, 0.0, 0.0, 0.0, 0.0, 0.0, 0.0, 0.0, 0.0, 1.6634965847681215E9, 0.0, 2022-09-18 15:23:04.768
254.0, -11174.665233452944, -2167.091031919841, -41717.60877580748, -15285.93334983985, -40204.26156571646, -187500.02235174447, -4356.444401317168, 5845.830541352098, 0.5640000000000001, -0.614, 0.578, 192.0, 0.0, 0.0, 0.0, 0.0, 0.0, 0.0, 0.0, 0.0, 0.0, 1.6634965847681494E9, 0.0, 2022-09-18 15:23:04.768
255.0, -10250.040620570258, -1151.1595429372244, -42110.99947822088, -15539.759759874316, -39934.85598979664, -187500.02235174447, -4759.289891635167, 5576.313206710006, 0.5640000000000001, -0.614, 0.578, 192.0, 0.0, 0.0, 0.0, 0.0, 0.0, 0.0, 0.0, 0.0, 0.0, 1.6634965847681777E9, 0.0, 2022-09-18 15:23:04.768
0.0, -13948.024981978535, -4301.146185534738, -41488.056360251474, -16070.233711032119, -41379.695103132144, -187500.02235174447, -5115.1073116192, 5046.308642185765, 0.5640000000000001, -0.614, 0.578, 192.0, 0.0, 0.0, 0.0, 0.0, 0.0, 0.0, 0.0, 0.0, 0.0, 1.6634965847682056E9, 0.0, 2022-09-18 15:23:04.768
1.0, -15535.512928427808, -5785.771404000689, -40970.591124366656, -15870.543226068405, -41704.46595006776, -187500.02235174447, -4801.5793921446075, 5303.644276099715, 0.5640000000000001, -0.614, 0.578, 192.0, 0.0, 0.0, 0.0, 0.0, 0.0, 0.0, 0.0, 0.0, 0.0, 1.6634965847682328E9, 0.0, 2022-09-18 15:23:04.768
2.0, -14300.288474594174, -4882.112727417079, -41157.71992894649, -15573.287376557277, -41184.11733914821, -187500.02235174447, -4485.123394146371, 5583.622227146891, 0.5640000000000001, -0.614, 0.578, 192.0, 0.0, 0.0, 0.0, 0.0, 0.0, 0.0, 0.0, 0.0, 0.0, 1.66349658476826E9, 0.0, 2022-09-18 15:23:04.768
3.0, -11298.672711690988, -2282.9177716872423, -41675.09575785348, -15294.494067966232, -40229.60844392877, -187500.02235174447, -4350.320023336413, 5825.378695175493, 0.5640000000000001, -0.614, 0.578, 192.0, 0.0, 0.0, 0.0, 0.0, 0.0, 0.0, 0.0, 0.0, 0.0, 1.6634965847682977E9, 0.0, 2022-09-18 15:23:04.768
4.0, -10154.57632000164, -1075.2530187670015, -42098.57190830373, -15513.697625839428, -39869.63359947605, -187500.02235174447, -4731.6631354884075, 5590.77478537259, 0.5640000000000001, -0.612, 0.58, 192.0, 17.0, 160.0, 236.0, 224.0, 18.0, 32.0, 0.0, 0.0, 0.0, 1.663496584768329E9, 0.0, 2022-09-18 15:23:04.768
5.0, -13781.929168931149, -4163.839419345787, -41523.3497647464, -16079.599091958893, -41339.59607357932, -187500.02235174447, -5110.927535406057, 5017.676057538517, 0.5640000000000001, -0.612, 0.58, 192.0, 0.0, 0.0, 0.0, 0.0, 0.0, 0.0, 0.0, 0.0, 0.0, 1.6634965847683587E9, 0.0, 2022-09-18 15:23:04.768
6.0, -15540.07268429669, -5787.604247046023, -40986.10323501864, -15904.853153807302, -41712.8478542385, -187500.02235174447, -4825.42870347842, 5272.083612928822, 0.5640000000000001, -0.612, 0.58, 192.0, 0.0, 0.0, 0.0, 0.0, 0.0, 0.0, 0.0, 0.0, 0.0, 1.6634965847684174E9, 0.0, 2022-09-18 15:23:04.768
7.0, -14385.292158757706, -4947.201007270934, -41141.67137642758, -15591.928731433003, -41164.76072844991, -187500.02235174447, -4493.617057039387, 5586.2597329926175, 0.5640000000000001, -0.612, 0.58, 192.0, 0.0, 0.0, 0.0, 0.0, 0.0, 0.0, 0.0, 0.0, 0.0, 1.6634965847684393E9, 0.0, 2022-09-18 15:23:04.768
8.0, -11437.298230802802, -2406.85819469192, -41644.96560632773, -15312.710739697308, -40232.71533640806, -187500.02235174447, -4341.312270320925, 5827.166834731917, 0.5640000000000001, -0.612, 0.58, 192.0, 0.0, 0.0, 0.0, 0.0, 0.0, 0.0, 0.0, 0.0, 0.0, 1.6634965847684639E9, 0.0, 2022-09-18 15:23:04.768
9.0, -10087.163458724435, -1024.0675239643483, -42098.25898388136, -15502.745271056328, -39792.83300552762, -187500.02235174447, -4700.191879295335, 5621.329620042994, 0.5640000000000001, -0.612, 0.58, 192.0, 0.0, 0.0, 0.0, 0.0, 0.0, 0.0, 0.0, 0.0, 0.0, 1.663496584768489E9, 0.0, 2022-09-18 15:23:04.768
10.0, -13622.762396664906, -4023.9845542889307, -41541.611139966386, -16072.312423266463, -41230.586615870794, -187500.02235174447, -5099.43873875603, 5046.107476485668, 0.5640000000000001, -0.612, 0.58, 192.0, 0.0, 0.0, 0.0, 0.0, 0.0, 0.0, 0.0, 0.0, 0.0, 1.6634965847685142E9, 0.0, 2022-09-18 15:23:04.768
11.0, -15536.183480761467, -5780.742261498244, -40957.023615482285, -15913.190354489132, -41672.4359002633, -187500.02235174447, -4823.886433111004, 5275.972816464045, 0.5640000000000001, -0.612, 0.58, 192.0, 0.0, 0.0, 0.0, 0.0, 0.0, 0.0, 0.0, 0.0, 0.0, 1.6634965847685385E9, 0.0, 2022-09-18 15:23:04.768
12.0, -14471.01109874381, -5019.017162205835, -41118.62672789416, -15610.346568864175, -41139.771478148876, -187500.02235174447, -4502.93773447725, 5575.016805531598, 0.5640000000000001, -0.612, 0.58, 192.0, 0.0, 0.0, 0.0, 0.0, 0.0, 0.0, 0.0, 0.0, 0.0, 1.663496584768562E9, 0.0, 2022-09-18 15:23:04.768
13.0, -11588.083098898303, -2545.751934737198, -41625.81016132953, -15333.497862040742, -40234.525827708945, -187500.02235174447, -4349.649471002755, 5811.922945013398, 0.5640000000000001, -0.612, 0.58, 192.0, 0.0, 0.0, 0.0, 0.0, 0.0, 0.0, 0.0, 0.0, 0.0, 1.6634965847685857E9, 0.0, 2022-09-18 15:23:04.768
14.0, -10031.798187708639, -982.6720932331197, -42107.467902596945, -15482.49459057982, -39711.740876643766, -187500.02235174447, -4687.6972541448185, 5646.788256977589, 0.562, -0.602, 0.58, 192.0, 17.0, 144.0, 237.0, 48.0, 18.0, 32.0, 0.0, 0.0, 0.0, 1.6634965847686105E9, 0.0, 2022-09-18 15:23:04.768
