%OpenBCI Raw EEG Data
%Number of channels = 8
%Sample Rate = 250 Hz
%Board = OpenBCI_GUI$BoardCytonSerial
Sample Index, EXG Channel 0, EXG Channel 1, EXG Channel 2, EXG Channel 3, EXG Channel 4, EXG Channel 5, EXG Channel 6, EXG Channel 7, Accel Channel 0, Accel Channel 1, Accel Channel 2, Other, Other, Other, Other, Other, Other, Other, Analog Channel 0, Analog Channel 1, Analog Channel 2, Timestamp, Other, Timestamp (Formatted)
3.0, 8790.471707638706, 10293.447708302463, 10259.31659451921, 5016.200842404466, 28547.893887507187, 187500.0, 17208.853925329917, 18450.873309477964, 0.716, -0.682, 0.29, 192.0, 22.0, 96.0, 234.0, 176.0, 9.0, 16.0, 0.0, 0.0, 0.0, 1.6635806350087495E9, 0.0, 2022-09-19 14:43:55.008
4.0, 9020.895841228466, 10429.659239013105, 10265.038641099769, 5134.3968670841305, 28706.658328373236, 187500.0, 17424.59296281254, 18522.980037090783, 0.716, -0.682, 0.29, 192.0, 0.0, 0.0, 0.0, 0.0, 0.0, 0.0, 0.0, 0.0, 0.0, 1.6635806350087848E9, 0.0, 2022-09-19 14:43:55.008
5.0, 8978.762802930212, 10402.077186355256, 10234.886137829559, 5103.327942291253, 28676.706990803123, 187500.0, 17334.202508235277, 18512.85469685253, 0.716, -0.682, 0.29, 192.0, 0.0, 0.0, 0.0, 0.0, 0.0, 0.0, 0.0, 0.0, 0.0, 1.6635806350088015E9, 0.0, 2022-09-19 14:43:55.008
0.0, 0.0, 0.0, 0.0, 0.0, 0.0, 0.0, 0.0, 0.0, 0.724, -0.666, 0.298, 192.0, 22.0, 160.0, 235.0, 48.0, 9.0, 80.0, 0.0, 0.0, 0.0, 1.6635806351034203E9, 0.0, 2022-09-19 14:43:55.103
1.0, 15535.870556339092, 16024.613800598838, 8045.823341110152, 12697.601341915291, 40155.55711454834, 187500.0, 17998.22813251354, 28398.51717931237, 0.724, -0.666, 0.298, 192.0, 0.0, 0.0, 0.0, 0.0, 0.0, 0.0, 0.0, 0.0, 0.0, 1.6635806351203513E9, 0.0, 2022-09-19 14:43:55.120
2.0, 15245.186119697824, 15829.37131278173, 8072.846600156618, 12379.468963082905, 39976.45258622797, 187500.0, 17737.472681697927, 28097.439181499387, 0.724, -0.666, 0.298, 192.0, 0.0, 0.0, 0.0, 0.0, 0.0, 0.0, 0.0, 0.0, 0.0, 1.663580635124405E9, 0.0, 2022-09-19 14:43:55.124
3.0, 15144.536214415577, 15742.065398939301, 8140.930013767483, 12155.839759807559, 39908.90561448403, 187500.0, 17717.26670471033, 27825.664320667307, 0.724, -0.666, 0.298, 192.0, 0.0, 0.0, 0.0, 0.0, 0.0, 0.0, 0.0, 0.0, 0.0, 1.6635806351273737E9, 0.0, 2022-09-19 14:43:55.127
4.0, 15139.819996335507, 15703.463936264985, 8207.359398288656, 11971.70608898474, 39888.61023051861, 187500.0, 17793.687319003024, 27566.249974519014, 0.724, -0.666, 0.298, 192.0, 0.0, 0.0, 0.0, 0.0, 0.0, 0.0, 0.0, 0.0, 0.0, 1.6635806351303453E9, 0.0, 2022-09-19 14:43:55.130
5.0, 15268.677803120352, 15733.907012213114, 8260.511846603376, 11844.43525605622, 39945.76364109083, 187500.0, 17998.496353447004, 27330.5508292378, 0.724, -0.666, 0.298, 192.0, 0.0, 0.0, 0.0, 0.0, 0.0, 0.0, 0.0, 0.0, 0.0, 1.6635806351344652E9, 0.0, 2022-09-19 14:43:55.134
6.0, 15122.89972578284, 15591.101716888157, 8269.609006596686, 11569.777020189407, 39789.1449676925, 187500.0, 17887.698756182046, 27018.989863275274, 0.724, -0.666, 0.298, 192.0, 0.0, 0.0, 0.0, 0.0, 0.0, 0.0, 0.0, 0.0, 0.0, 1.6635806351374388E9, 0.0, 2022-09-19 14:43:55.137
7.0, 14757.694573127577, 15315.303542054124, 8300.521469178375, 11194.40182380698, 39463.36829225639, 187500.0, 17621.82475588617, 26627.543762629484, 0.724, -0.666, 0.298, 192.0, 0.0, 0.0, 0.0, 0.0, 0.0, 0.0, 0.0, 0.0, 0.0, 1.6635806351414323E9, 0.0, 2022-09-19 14:43:55.141
8.0, 14587.21781816695, 15152.359324974934, 8372.583493302285, 10920.9282303963, 39260.682673535666, 187500.0, 17603.51867717727, 26278.476569470953, 0.726, -0.658, 0.296, 192.0, 22.0, 176.0, 235.0, 112.0, 9.0, 64.0, 0.0, 0.0, 0.0, 1.663580635145381E9, 0.0, 2022-09-19 14:43:55.145
9.0, 14515.53577369878, 15044.936841122728, 8440.71161040206, 10700.048291688954, 39117.89972995517, 187500.0, 17677.055916435234, 25962.512309850732, 0.726, -0.658, 0.296, 192.0, 0.0, 0.0, 0.0, 0.0, 0.0, 0.0, 0.0, 0.0, 0.0, 1.6635806351495605E9, 0.0, 2022-09-19 14:43:55.149
10.0, 14605.41213815357, 15030.318800248957, 8508.660913546195, 10558.785266731415, 39077.64423819116, 187500.0, 17890.336262027773, 25692.033850197062, 0.726, -0.658, 0.296, 192.0, 0.0, 0.0, 0.0, 0.0, 0.0, 0.0, 0.0, 0.0, 0.0, 1.663580635154504E9, 0.0, 2022-09-19 14:43:55.154
11.0, 14445.753627509312, 14865.117056979783, 8516.77459678347, 10295.973455425914, 38857.1219273951, 187500.0, 17809.065319188277, 25369.67699166262, 0.726, -0.658, 0.296, 192.0, 0.0, 0.0, 0.0, 0.0, 0.0, 0.0, 0.0, 0.0, 0.0, 1.6635806351584904E9, 0.0, 2022-09-19 14:43:55.158
12.0, 14055.559224553017, 14563.569672533236, 8538.992230772046, 9940.133683697424, 38474.2812483646, 187500.0, 17546.43232183842, 24990.27848127824, 0.726, -0.658, 0.296, 192.0, 0.0, 0.0, 0.0, 0.0, 0.0, 0.0, 0.0, 0.0, 0.0, 1.6635806351614609E9, 0.0, 2022-09-19 14:43:55.161
13.0, 13867.089315305868, 14386.543856447204, 8598.447871023163, 9702.020550015039, 38232.63653905827, 187500.0, 17524.818184950138, 24671.184977434277, 0.726, -0.658, 0.296, 192.0, 0.0, 0.0, 0.0, 0.0, 0.0, 0.0, 0.0, 0.0, 0.0, 1.6635806351664739E9, 0.0, 2022-09-19 14:43:55.166
14.0, 13790.087555657336, 14279.434297017373, 8654.304880416976, 9525.084140906829, 38068.32886556731, 187500.0, 17602.602255654605, 24399.812448002394, 0.726, -0.658, 0.296, 192.0, 0.0, 0.0, 0.0, 0.0, 0.0, 0.0, 0.0, 0.0, 0.0, 1.6635806351704764E9, 0.0, 2022-09-19 14:43:55.170
15.0, 13881.573245712907, 14271.231206802275, 8702.875221118358, 9433.330229917792, 38021.07727778879, 187500.0, 17826.834956030245, 24183.44756167502, 0.726, -0.658, 0.296, 192.0, 0.0, 0.0, 0.0, 0.0, 0.0, 0.0, 0.0, 0.0, 0.0, 1.6635806351734805E9, 0.0, 2022-09-19 14:43:55.173
16.0, 13748.826235392838, 14126.950696343267, 8701.377654239852, 9229.281154785294, 37815.68709798898, 187500.0, 17768.18397857952, 23928.41415743997, 0.726, -0.658, 0.296, 192.0, 0.0, 0.0, 0.0, 0.0, 0.0, 0.0, 0.0, 0.0, 0.0, 1.663580635177494E9, 0.0, 2022-09-19 14:43:55.177
17.0, 13375.574454733665, 13842.211823727112, 8715.638067202339, 8927.66671510538, 37443.19527664129, 187500.0, 17512.90470515546, 23617.546095555557, 0.726, -0.658, 0.296, 192.0, 0.0, 0.0, 0.0, 0.0, 0.0, 0.0, 0.0, 0.0, 0.0, 1.6635806351815207E9, 0.0, 2022-09-19 14:43:55.181
18.0, 13199.241542725747, 13677.61357755823, 8765.30364338203, 8740.984945414657, 37210.06658197243, 187500.0, 17496.051489836158, 23364.546700065937, 0.734, -0.656, 0.3, 192.0, 22.0, 240.0, 235.0, 128.0, 9.0, 96.0, 0.0, 0.0, 0.0, 1.6635806351854515E9, 0.0, 2022-09-19 14:43:55.185
19.0, 13138.154225129394, 13585.92672180256, 8813.762225361137, 8619.592621277883, 37059.39347259921, 187500.0, 17573.835560540625, 23161.168177267096, 0.734, -0.656, 0.3, 192.0, 0.0, 0.0, 0.0, 0.0, 0.0, 0.0, 0.0, 0.0, 0.0, 1.6635806351895044E9, 0.0, 2022-09-19 14:43:55.189
20.0, 13254.986793397284, 13600.053024298315, 8870.08862138851, 8585.662673194727, 37034.67244323164, 187500.0, 17802.806830740792, 23019.860448820647, 0.734, -0.656, 0.3, 192.0, 0.0, 0.0, 0.0, 0.0, 0.0, 0.0, 0.0, 0.0, 0.0, 1.6635806351944788E9, 0.0, 2022-09-19 14:43:55.194
21.0, 13163.478751597257, 13488.875447377617, 8863.092525373999, 8447.573595949842, 36863.994522570916, 187500.0, 17770.061525113764, 22836.598496031584, 0.734, -0.656, 0.3, 192.0, 0.0, 0.0, 0.0, 0.0, 0.0, 0.0, 0.0, 0.0, 0.0, 1.6635806351985967E9, 0.0, 2022-09-19 14:43:55.198
22.0, 12807.706035102134, 13224.342551749058, 8856.454057270772, 8197.591685961686, 36511.82043693309, 187500.0, 17508.099080097567, 22583.107362163944, 0.734, -0.656, 0.3, 192.0, 0.0, 0.0, 0.0, 0.0, 0.0, 0.0, 0.0, 0.0, 0.0, 1.6635806352015555E9, 0.0, 2022-09-19 14:43:55.201
23.0, 12649.478036103015, 13084.577093670023, 8903.102147949, 8063.369460507568, 36305.245614677144, 187500.0, 17489.524780455205, 22390.122400536824, 0.734, -0.656, 0.3, 192.0, 0.0, 0.0, 0.0, 0.0, 0.0, 0.0, 0.0, 0.0, 0.0, 1.6635806352055316E9, 0.0, 2022-09-19 14:43:55.205
24.0, 12608.641398983169, 13019.175889393795, 8943.447046690828, 7990.659235794454, 36183.80858705146, 187500.0, 17569.119342460555, 22245.819538333362, 0.734, -0.656, 0.3, 192.0, 0.0, 0.0, 0.0, 0.0, 0.0, 0.0, 0.0, 0.0, 0.0, 1.6635806352095673E9, 0.0, 2022-09-19 14:43:55.209
25.0, 12741.120188369774, 13054.044610744073, 8976.30411104013, 8000.717520799341, 36183.473310884634, 187500.0, 17798.112964405176, 22154.95969712254, 0.734, -0.656, 0.3, 192.0, 0.0, 0.0, 0.0, 0.0, 0.0, 0.0, 0.0, 0.0, 0.0, 1.6635806352136319E9, 0.0, 2022-09-19 14:43:55.213
26.0, 12688.03479528842, 12975.94761561723, 8958.601529431526, 7911.064673789106, 36053.319102921385, 187500.0, 17783.62903399814, 22028.35941652768, 0.734, -0.656, 0.3, 192.0, 0.0, 0.0, 0.0, 0.0, 0.0, 0.0, 0.0, 0.0, 0.0, 1.6635806352175553E9, 0.0, 2022-09-19 14:43:55.217
27.0, 12358.123047128087, 12737.655667979201, 8942.664735634891, 7701.919400920797, 35732.75038394337, 187500.0, 17523.544135516186, 21833.183983943938, 0.734, -0.656, 0.3, 192.0, 0.0, 0.0, 0.0, 0.0, 0.0, 0.0, 0.0, 0.0, 0.0, 1.66358063522158E9, 0.0, 2022-09-19 14:43:55.221
28.0, 12213.104929102055, 12615.525736275404, 8975.275930795186, 7600.464832838158, 35547.18620147541, 187500.0, 17494.41981249092, 21686.33302287257, 0.728, -0.65, 0.298, 192.0, 22.0, 192.0, 235.0, 176.0, 9.0, 80.0, 0.0, 0.0, 0.0, 1.6635806352265966E9, 0.0, 2022-09-19 14:43:55.226
29.0, 12187.31101600063, 12565.703697884524, 9009.988189934276, 7556.051916605463, 35449.151450294434, 187500.0, 17567.510016859775, 21583.023260000144, 0.728, -0.65, 0.298, 192.0, 0.0, 0.0, 0.0, 0.0, 0.0, 0.0, 0.0, 0.0, 0.0, 1.6635806352305808E9, 0.0, 2022-09-19 14:43:55.230
30.0, 12338.67702945197, 12619.54905027736, 9045.147483962475, 7595.703911269178, 35474.11834885101, 187500.0, 17797.62122602716, 21532.396558808872, 0.728, -0.65, 0.298, 192.0, 0.0, 0.0, 0.0, 0.0, 0.0, 0.0, 0.0, 0.0, 0.0, 1.6635806352335756E9, 0.0, 2022-09-19 14:43:55.233
31.0, 12323.500194966817, 12569.972881075488, 9023.35453311855, 7546.105390322851, 35381.42566459485, 187500.0, 17799.632883028138, 21448.10813046791, 0.728, -0.65, 0.298, 192.0, 0.0, 0.0, 0.0, 0.0, 0.0, 0.0, 0.0, 0.0, 0.0, 1.66358063523761E9, 0.0, 2022-09-19 14:43:55.237
32.0, 12010.642827825885, 12348.556500501216, 9002.410948563927, 7367.671414336135, 35084.70625695065, 187500.0, 17536.642257766995, 21285.812113977925, 0.728, -0.65, 0.298, 192.0, 0.0, 0.0, 0.0, 0.0, 0.0, 0.0, 0.0, 0.0, 0.0, 1.663580635241613E9, 0.0, 2022-09-19 14:43:55.241
33.0, 11873.291358148022, 12237.267164858242, 9034.485701857293, 7294.961189623022, 34914.90005432368, 187500.0, 17502.55584747265, 21168.66662128766, 0.728, -0.65, 0.298, 192.0, 0.0, 0.0, 0.0, 0.0, 0.0, 0.0, 0.0, 0.0, 0.0, 1.6635806352456143E9, 0.0, 2022-09-19 14:43:55.245
34.0, 11853.085381160425, 12196.207010293843, 9059.966690536343, 7280.700776660536, 34826.90123640314, 187500.0, 17571.689793072914, 21087.015698792424, 0.728, -0.65, 0.298, 192.0, 0.0, 0.0, 0.0, 0.0, 0.0, 0.0, 0.0, 0.0, 0.0, 1.6635806352515836E9, 0.0, 2022-09-19 14:43:55.251
35.0, 12004.943132989782, 12256.28849938971, 9085.581789682126, 7342.682164035102, 34858.640713529676, 187500.0, 17794.51433354787, 21053.912765254114, 0.728, -0.65, 0.298, 192.0, 0.0, 0.0, 0.0, 0.0, 0.0, 0.0, 0.0, 0.0, 0.0, 1.663580635255609E9, 0.0, 2022-09-19 14:43:55.255
36.0, 12013.749720305172, 12229.600516510072, 9067.65569062897, 7324.264326603929, 34789.57382316278, 187500.0, 17815.43556635804, 20993.071316846766, 0.728, -0.65, 0.298, 192.0, 0.0, 0.0, 0.0, 0.0, 0.0, 0.0, 0.0, 0.0, 0.0, 1.6635806352586424E9, 0.0, 2022-09-19 14:43:55.258
37.0, 11714.817489959894, 12022.221031453733, 9039.738361804291, 7164.963443870955, 34507.38304941452, 187500.0, 17550.366228862553, 20852.076512822692, 0.728, -0.65, 0.298, 192.0, 0.0, 0.0, 0.0, 0.0, 0.0, 0.0, 0.0, 0.0, 0.0, 1.6635806352626524E9, 0.0, 2022-09-19 14:43:55.262
38.0, 11577.398965048667, 11913.680960378762, 9066.113420261552, 7100.366902395118, 34342.784803245646, 187500.0, 17508.210838819843, 20749.929040661937, 0.734, -0.652, 0.3, 192.0, 22.0, 240.0, 235.0, 160.0, 9.0, 96.0, 0.0, 0.0, 0.0, 1.6635806352656136E9, 0.0, 2022-09-19 14:43:55.265
39.0, 11560.769267173919, 11878.342852394922, 9086.185286782418, 7092.2308674133865, 34265.62658138592, 187500.0, 17578.082391987133, 20683.320842185123, 0.734, -0.652, 0.3, 192.0, 0.0, 0.0, 0.0, 0.0, 0.0, 0.0, 0.0, 0.0, 0.0, 1.66358063526966E9, 0.0, 2022-09-19 14:43:55.269
40.0, 11711.934114925161, 11941.464178736709, 9104.51371723577, 7153.899330365579, 34303.08810509302, 187500.0, 17798.068260916265, 20660.075027951603, 0.734, -0.652, 0.3, 192.0, 0.0, 0.0, 0.0, 0.0, 0.0, 0.0, 0.0, 0.0, 0.0, 1.6635806352737699E9, 0.0, 2022-09-19 14:43:55.273
41.0, 11738.84561524935, 11925.84030936245, 9088.867496117056, 7144.55630118326, 34250.02506375612, 187500.0, 17836.356799168207, 20615.148021596437, 0.734, -0.652, 0.3, 192.0, 0.0, 0.0, 0.0, 0.0, 0.0, 0.0, 0.0, 0.0, 0.0, 1.6635806352777164E9, 0.0, 2022-09-19 14:43:55.277
42.0, 11445.948355907007, 11723.355856341823, 9062.805362082168, 6988.541124885217, 33972.93048774367, 187500.0, 17568.784066293727, 20484.636185721898, 0.734, -0.652, 0.3, 192.0, 0.0, 0.0, 0.0, 0.0, 0.0, 0.0, 0.0, 0.0, 0.0, 1.6635806352827158E9, 0.0, 2022-09-19 14:43:55.282
43.0, 11300.99729311434, 11613.452328855077, 9085.045347815198, 6917.104949606055, 33802.54313976087, 187500.0, 17509.149612086967, 20383.65100427282, 0.734, -0.652, 0.3, 192.0, 0.0, 0.0, 0.0, 0.0, 0.0, 0.0, 0.0, 0.0, 0.0, 1.6635806352856429E9, 0.0, 2022-09-19 14:43:55.285
44.0, 11286.580417940668, 11582.919845929127, 9106.145394581008, 6910.466481502829, 33725.29551092333, 187500.0, 17572.360345406574, 20324.30712274398, 0.734, -0.652, 0.3, 192.0, 0.0, 0.0, 0.0, 0.0, 0.0, 0.0, 0.0, 0.0, 0.0, 1.6635806352897303E9, 0.0, 2022-09-19 14:43:55.289
45.0, 11439.22048082596, 11649.68450661713, 9130.978182670855, 6978.751060813793, 33766.75799688792, 187500.0, 17788.836990456224, 20315.45583193968, 0.734, -0.652, 0.3, 192.0, 0.0, 0.0, 0.0, 0.0, 0.0, 0.0, 0.0, 0.0, 0.0, 1.6635806352937007E9, 0.0, 2022-09-19 14:43:55.293
46.0, 11486.069737204283, 11650.042134528416, 9110.258115560784, 6982.528505626739, 33734.88440929465, 187500.0, 17841.676514348568, 20283.02345073503, 0.734, -0.652, 0.3, 192.0, 0.0, 0.0, 0.0, 0.0, 0.0, 0.0, 0.0, 0.0, 0.0, 1.6635806352976973E9, 0.0, 2022-09-19 14:43:55.297
47.0, 11197.776937219733, 11455.760771722886, 9073.265978487252, 6830.134311930456, 33467.714007820374, 187500.0, 17576.473066386352, 20164.04511499943, 0.734, -0.652, 0.3, 192.0, 0.0, 0.0, 0.0, 0.0, 0.0, 0.0, 0.0, 0.0, 0.0, 1.663580635301718E9, 0.0, 2022-09-19 14:43:55.301
48.0, 11049.450761014314, 11348.830026248697, 9091.70616766288, 6758.675784906839, 33301.28291860616, 187500.0, 17514.245809822776, 20077.521512212934, 0.738, -0.656, 0.306, 192.0, 23.0, 16.0, 235.0, 128.0, 9.0, 144.0, 0.0, 0.0, 0.0, 1.663580635305787E9, 0.0, 2022-09-19 14:43:55.305
49.0, 11035.346810263016, 11321.6726567355, 9110.593391727614, 6751.09854353649, 33231.74664160569, 187500.0, 17573.90261577399, 20032.192174457574, 0.738, -0.656, 0.306, 192.0, 0.0, 0.0, 0.0, 0.0, 0.0, 0.0, 0.0, 0.0, 0.0, 1.663580635309722E9, 0.0, 2022-09-19 14:43:55.309
50.0, 11186.019919636241, 11391.767727347342, 9138.309554852194, 6815.5833262900505, 33279.19939508431, 187500.0, 17779.76218220737, 20030.716959323523, 0.738, -0.656, 0.306, 192.0, 0.0, 0.0, 0.0, 0.0, 0.0, 0.0, 0.0, 0.0, 0.0, 1.6635806353137343E9, 0.0, 2022-09-19 14:43:55.313
51.0, 11250.32588843416, 11404.754090875876, 9113.99085688482, 6829.0837799410565, 33267.37532226746, 187500.0, 17844.58224112776, 20014.24372365996, 0.738, -0.656, 0.306, 192.0, 0.0, 0.0, 0.0, 0.0, 0.0, 0.0, 0.0, 0.0, 0.0, 1.6635806353167834E9, 0.0, 2022-09-19 14:43:55.316
52.0, 10976.896998512388, 11221.156861919984, 9079.680929145925, 6685.56322879353, 33017.080487856925, 187500.0, 17579.579958865637, 19907.625902608146, 0.738, -0.656, 0.306, 192.0, 0.0, 0.0, 0.0, 0.0, 0.0, 0.0, 0.0, 0.0, 0.0, 1.6635806353217852E9, 0.0, 2022-09-19 14:43:55.321
53.0, 10827.52029031757, 11115.075482735096, 9098.858725888578, 6616.07165528198, 32857.98077082405, 187500.0, 17505.171001573923, 19827.427843502504, 0.738, -0.656, 0.306, 192.0, 0.0, 0.0, 0.0, 0.0, 0.0, 0.0, 0.0, 0.0, 0.0, 1.663580635325782E9, 0.0, 2022-09-19 14:43:55.325
54.0, 10818.065502412976, 11093.349587124538, 9122.462168033382, 6614.97641980367, 32800.33562187381, 187500.0, 17565.76658079226, 19789.63104362858, 0.738, -0.656, 0.306, 192.0, 0.0, 0.0, 0.0, 0.0, 0.0, 0.0, 0.0, 0.0, 0.0, 1.6635806353297553E9, 0.0, 2022-09-19 14:43:55.329
55.0, 10967.643376307891, 11163.243492036283, 9138.488368807837, 6684.736214248684, 32853.93510507764, 187500.0, 17770.62031872515, 19795.91188382052, 0.738, -0.656, 0.306, 192.0, 0.0, 0.0, 0.0, 0.0, 0.0, 0.0, 0.0, 0.0, 0.0, 1.6635806353357668E9, 0.0, 2022-09-19 14:43:55.335
56.0, 11057.966775651787, 11195.83233545212, 9128.944173925422, 6715.872194274926, 32866.65324767271, 187500.0, 17856.987459300453, 19798.124706521598, 0.738, -0.656, 0.306, 192.0, 0.0, 0.0, 0.0, 0.0, 0.0, 0.0, 0.0, 0.0, 0.0, 1.663580635338775E9, 0.0, 2022-09-19 14:43:55.338
57.0, 10798.597132992403, 11022.785129879134, 9090.298007762196, 6580.912361253782, 32631.98228263644, 187500.0, 17594.801496839704, 19703.71093794238, 0.738, -0.656, 0.306, 192.0, 0.0, 0.0, 0.0, 0.0, 0.0, 0.0, 0.0, 0.0, 0.0, 1.6635806353417687E9, 0.0, 2022-09-19 14:43:55.341
58.0, 10650.405067253718, 10918.246021061663, 9103.977275368843, 6514.594735454886, 32475.47536796038, 187500.0, 17508.523763242218, 19628.631428317003, 0.734, -0.656, 0.31, 192.0, 22.0, 240.0, 235.0, 128.0, 9.0, 176.0, 0.0, 0.0, 0.0, 1.6635806353458123E9, 0.0, 2022-09-19 14:43:55.345
59.0, 10641.19614853813, 10900.141108052863, 9132.922784438466, 6518.52864247902, 32425.42981212495, 187500.0, 17563.754923791283, 19601.049375659153, 0.734, -0.656, 0.31, 192.0, 0.0, 0.0, 0.0, 0.0, 0.0, 0.0, 0.0, 0.0, 0.0, 1.663580635349768E9, 0.0, 2022-09-19 14:43:55.349
60.0, 10790.036414866021, 10974.058326966564, 9156.012136460799, 6591.440032892231, 32486.65124018803, 187500.0, 17762.66309769906, 19616.047396188664, 0.734, -0.656, 0.31, 192.0, 0.0, 0.0, 0.0, 0.0, 0.0, 0.0, 0.0, 0.0, 0.0, 1.6635806353538413E9, 0.0, 2022-09-19 14:43:55.353
61.0, 10896.274256262095, 11017.688932143323, 9138.063685663186, 6629.706219399717, 32515.306176579736, 187500.0, 17862.06130529181, 19623.22230615882, 0.734, -0.656, 0.31, 192.0, 0.0, 0.0, 0.0, 0.0, 0.0, 0.0, 0.0, 0.0, 0.0, 1.663580635357798E9, 0.0, 2022-09-19 14:43:55.357
62.0, 10647.320526518884, 10855.035287742054, 9096.668254931958, 6500.468432959132, 32298.851883274543, 187500.0, 17606.312645234186, 19542.82308135308, 0.734, -0.656, 0.31, 192.0, 0.0, 0.0, 0.0, 0.0, 0.0, 0.0, 0.0, 0.0, 0.0, 1.6635806353619313E9, 0.0, 2022-09-19 14:43:55.361
63.0, 10494.144021766666, 10752.530187670016, 9111.979199883843, 6431.155673403225, 32149.497526824183, 187500.0, 17509.104908598056, 19480.1487899004, 0.734, -0.656, 0.31, 192.0, 0.0, 0.0, 0.0, 0.0, 0.0, 0.0, 0.0, 0.0, 0.0, 1.6635806353658557E9, 0.0, 2022-09-19 14:43:55.365
64.0, 10493.31700722182, 10740.035562519499, 9136.432008317948, 6435.514263572009, 32108.951462382254, 187500.0, 17563.933737746924, 19465.597804259993, 0.734, -0.656, 0.31, 192.0, 0.0, 0.0, 0.0, 0.0, 0.0, 0.0, 0.0, 0.0, 0.0, 1.6635806353688407E9, 0.0, 2022-09-19 14:43:55.368
65.0, 10641.933756105156, 10814.176298877752, 9155.09571493813, 6506.995142340082, 32173.83857653601, 187500.0, 17756.47166448494, 19485.692022525316, 0.734, -0.656, 0.31, 192.0, 0.0, 0.0, 0.0, 0.0, 0.0, 0.0, 0.0, 0.0, 0.0, 1.6635806353728604E9, 0.0, 2022-09-19 14:43:55.372
66.0, 10766.723545399136, 10871.128543749875, 9135.828511217656, 6554.783171985528, 32217.536236946136, 187500.0, 17873.14777054164, 19498.946606987312, 0.734, -0.656, 0.31, 192.0, 0.0, 0.0, 0.0, 0.0, 0.0, 0.0, 0.0, 0.0, 0.0, 1.66358063537686E9, 0.0, 2022-09-19 14:43:55.376
67.0, 10530.487958250995, 10715.918030252222, 9102.055025345686, 6429.948679202638, 32007.80981872199, 187500.0, 17622.517659964284, 19423.84474561748, 0.734, -0.656, 0.31, 192.0, 0.0, 0.0, 0.0, 0.0, 0.0, 0.0, 0.0, 0.0, 0.0, 1.6635806353818471E9, 0.0, 2022-09-19 14:43:55.381
68.0, 10367.47668593844, 10605.746281832015, 9116.695417963912, 6350.622338130754, 31852.934581391168, 187500.0, 17515.676321467916, 19352.207404638222, 0.736, -0.644, 0.314, 192.0, 23.0, 0.0, 235.0, 224.0, 9.0, 208.0, 0.0, 0.0, 0.0, 1.6635806353857915E9, 0.0, 2022-09-19 14:43:55.385
69.0, 10357.664270122561, 10585.76382228897, 9135.672049006469, 6342.77687582694, 31804.587758134337, 187500.0, 17562.749095290794, 19318.568029232985, 0.736, -0.644, 0.314, 192.0, 0.0, 0.0, 0.0, 0.0, 0.0, 0.0, 0.0, 0.0, 0.0, 1.663580635389967E9, 0.0, 2022-09-19 14:43:55.389
70.0, 10495.954513067545, 10652.237910299053, 9158.359069628605, 6400.869059666284, 31859.081311116377, 187500.0, 17748.46973996994, 19327.128747359366, 0.736, -0.644, 0.314, 192.0, 0.0, 0.0, 0.0, 0.0, 0.0, 0.0, 0.0, 0.0, 0.0, 1.6635806353929913E9, 0.0, 2022-09-19 14:43:55.392
71.0, 10629.036799554444, 10709.793652271468, 9142.24346187633, 6440.878682241283, 31905.79645702797, 187500.0, 17879.495665966948, 19335.331837574464, 0.736, -0.644, 0.314, 192.0, 0.0, 0.0, 0.0, 0.0, 0.0, 0.0, 0.0, 0.0, 0.0, 1.6635806353968751E9, 0.0, 2022-09-19 14:43:55.396
72.0, 10390.946017616514, 10547.363525314751, 9099.953961366888, 6302.767253251941, 31689.900957334157, 187500.0, 17628.507927478306, 19243.175595185232, 0.736, -0.644, 0.314, 192.0, 0.0, 0.0, 0.0, 0.0, 0.0, 0.0, 0.0, 0.0, 0.0, 1.6635806354008763E9, 0.0, 2022-09-19 14:43:55.400
73.0, 10212.936724774449, 10426.842919211736, 9115.890755163522, 6209.336961428758, 31518.77600178433, 187500.0, 17507.786155675192, 19159.334201733374, 0.736, -0.644, 0.314, 192.0, 0.0, 0.0, 0.0, 0.0, 0.0, 0.0, 0.0, 0.0, 0.0, 1.6635806354059217E9, 0.0, 2022-09-19 14:43:55.405
74.0, 10202.431404880454, 10404.804099178804, 9136.677877506958, 6197.043501978338, 31464.170690080013, 187500.0, 17558.412856866464, 19123.705521071617, 0.736, -0.644, 0.314, 192.0, 0.0, 0.0, 0.0, 0.0, 0.0, 0.0, 0.0, 0.0, 0.0, 1.663580635409911E9, 0.0, 2022-09-19 14:43:55.409
75.0, 10334.507862866863, 10465.69025107506, 9154.469866093381, 6248.6760316700975, 31510.32704238022, 187500.0, 17742.010085822356, 19124.510183872007, 0.736, -0.644, 0.314, 192.0, 0.0, 0.0, 0.0, 0.0, 0.0, 0.0, 0.0, 0.0, 0.0, 1.6635806354138985E9, 0.0, 2022-09-19 14:43:55.413
76.0, 10477.737841336471, 10527.895155894179, 9155.341584127138, 6293.603038025265, 31561.11020578268, 187500.0, 17886.60352070374, 19132.914439787204, 0.736, -0.644, 0.314, 192.0, 0.0, 0.0, 0.0, 0.0, 0.0, 0.0, 0.0, 0.0, 0.0, 1.6635806354179013E9, 0.0, 2022-09-19 14:43:55.417
77.0, 10254.17569329449, 10376.395031976108, 9122.439816288927, 6161.727745738954, 31355.72002598286, 187500.0, 17646.322267809184, 19052.42580800364, 0.736, -0.644, 0.314, 192.0, 0.0, 0.0, 0.0, 0.0, 0.0, 0.0, 0.0, 0.0, 0.0, 1.6635806354209557E9, 0.0, 2022-09-19 14:43:55.420
78.0, 10069.863208516028, 10252.655774671528, 9130.397037315017, 6062.955386990951, 31180.392942475435, 187500.0, 17514.715196456338, 18974.686440788086, 0.74, -0.646, 0.316, 192.0, 23.0, 32.0, 235.0, 208.0, 9.0, 224.0, 0.0, 0.0, 0.0, 1.6635806354249496E9, 0.0, 2022-09-19 14:43:55.424
79.0, 10053.904062974938, 10228.35942844861, 9154.156941671008, 6052.204197907949, 31126.92756973834, 187500.0, 17559.016353966756, 18945.405655551633, 0.74, -0.646, 0.316, 192.0, 0.0, 0.0, 0.0, 0.0, 0.0, 0.0, 0.0, 0.0, 0.0, 1.663580635428928E9, 0.0, 2022-09-19 14:43:55.428
80.0, 10171.29542485421, 10282.405946541543, 9168.48440986686, 6103.121471777138, 31168.144186513924, 187500.0, 17725.42509143652, 18950.166577120614, 0.74, -0.646, 0.316, 192.0, 0.0, 0.0, 0.0, 0.0, 0.0, 0.0, 0.0, 0.0, 0.0, 1.6635806354329505E9, 0.0, 2022-09-19 14:43:55.432
81.0, 10330.104569209167, 10358.603043389683, 9169.691404067446, 6162.800629472808, 31237.211076880823, 187500.0, 17895.38775627467, 18973.837074498784, 0.74, -0.646, 0.316, 192.0, 0.0, 0.0, 0.0, 0.0, 0.0, 0.0, 0.0, 0.0, 0.0, 1.6635806354379957E9, 0.0, 2022-09-19 14:43:55.437
82.0, 10120.825185874128, 10218.234088210356, 9127.983048913842, 6041.810636736231, 31045.030778054093, 187500.0, 17658.68278249297, 18904.814887620796, 0.74, -0.646, 0.316, 192.0, 0.0, 0.0, 0.0, 0.0, 0.0, 0.0, 0.0, 0.0, 0.0, 1.6635806354419956E9, 0.0, 2022-09-19 14:43:55.441
83.0, 9928.264907391656, 10091.276179704211, 9131.447569304415, 5936.93625175193, 30868.563755579446, 187500.0, 17512.055338866157, 18824.43801455951, 0.74, -0.646, 0.316, 192.0, 0.0, 0.0, 0.0, 0.0, 0.0, 0.0, 0.0, 0.0, 0.0, 1.6635806354459536E9, 0.0, 2022-09-19 14:43:55.445
84.0, 9913.19983162878, 10070.1761329384, 9154.067534693186, 5920.88769923302, 30819.568731733412, 187500.0, 17556.08827544311, 18801.81804917074, 0.74, -0.646, 0.316, 192.0, 0.0, 0.0, 0.0, 0.0, 0.0, 0.0, 0.0, 0.0, 0.0, 1.663580635448994E9, 0.0, 2022-09-19 14:43:55.448
85.0, 10032.446388297843, 10128.76005515576, 9179.034433249764, 5967.558141655701, 30867.669685801233, 187500.0, 17719.8818588116, 18821.554639524777, 0.74, -0.646, 0.316, 192.0, 0.0, 0.0, 0.0, 0.0, 0.0, 0.0, 0.0, 0.0, 0.0, 1.6635806354530027E9, 0.0, 2022-09-19 14:43:55.453
86.0, 10208.131099716556, 10217.608239365607, 9181.403718162026, 6034.255747110337, 30957.680160722753, 187500.0, 17890.8727038947, 18857.764465542372, 0.74, -0.646, 0.316, 192.0, 0.0, 0.0, 0.0, 0.0, 0.0, 0.0, 0.0, 0.0, 0.0, 1.663580635456961E9, 0.0, 2022-09-19 14:43:55.456
87.0, 10017.895402657437, 10091.432641915399, 9140.030639175253, 5925.5368620797235, 30791.56199593091, 187500.0, 17670.395096587552, 18808.545924251786, 0.74, -0.646, 0.316, 192.0, 0.0, 0.0, 0.0, 0.0, 0.0, 0.0, 0.0, 0.0, 0.0, 1.6635806354610198E9, 0.0, 2022-09-19 14:43:55.461
88.0, 9825.960973019717, 9969.459172422788, 9143.115179910086, 5830.653706866945, 30626.20379045055, 187500.0, 17515.586914490093, 18745.80457756574, 0.74, -0.646, 0.316, 192.0, 0.0, 0.0, 0.0, 0.0, 0.0, 0.0, 0.0, 0.0, 0.0, 1.6635806354659958E9, 0.0, 2022-09-19 14:43:55.465
89.0, 9818.316676416001, 9957.232768205735, 9156.637985305546, 5826.540985887169, 30590.10572315523, 187500.0, 17552.176720163432, 18717.99900746334, 0.738, -0.65, 0.316, 192.0, 23.0, 16.0, 235.0, 176.0, 9.0, 224.0, 0.0, 0.0, 0.0, 1.6635806354700248E9, 0.0, 2022-09-19 14:43:55.470
90.0, 9936.199776673291, 10019.03534162466, 9183.907113541021, 5879.581675479612, 30645.694511615577, 187500.0, 17707.633102850094, 18741.825967052697, 0.738, -0.65, 0.316, 192.0, 0.0, 0.0, 0.0, 0.0, 0.0, 0.0, 0.0, 0.0, 0.0, 1.6635806354739933E9, 0.0, 2022-09-19 14:43:55.473
91.0, 10120.221688773834, 10114.745511382283, 9189.986788032864, 5959.332699696148, 30749.6077715883, 187500.0, 17892.7726021734, 18816.10081387768, 0.738, -0.65, 0.316, 192.0, 0.0, 0.0, 0.0, 0.0, 0.0, 0.0, 0.0, 0.0, 0.0, 1.6635806354769938E9, 0.0, 2022-09-19 14:43:55.476
92.0, 9942.145340698402, 9998.248219281224, 9145.685630522446, 5860.91796885943, 30597.392391847658, 187500.0, 17685.9742624729, 18765.71998187542, 0.738, -0.65, 0.316, 192.0, 0.0, 0.0, 0.0, 0.0, 0.0, 0.0, 0.0, 0.0, 0.0, 1.6635806354810443E9, 0.0, 2022-09-19 14:43:55.481
93.0, 9736.26342252057, 9869.815095641028, 9147.071438678675, 5759.28458682115, 30427.340320031682, 187500.0, 17515.899838912468, 18689.589940260645, 0.738, -0.65, 0.316, 192.0, 0.0, 0.0, 0.0, 0.0, 0.0, 0.0, 0.0, 0.0, 0.0, 1.6635806354850705E9, 0.0, 2022-09-19 14:43:55.485
94.0, 9715.230430988126, 9847.32924071899, 9169.66905232299, 5751.886159406443, 30387.420104434506, 187500.0, 17547.81812999465, 18673.02729761926, 0.738, -0.65, 0.316, 192.0, 0.0, 0.0, 0.0, 0.0, 0.0, 0.0, 0.0, 0.0, 0.0, 1.6635806354890711E9, 0.0, 2022-09-19 14:43:55.489
95.0, 9817.735531060163, 9895.407843042356, 9205.096567284652, 5804.658628065423, 30433.040014867787, 187500.0, 17700.100564968656, 18681.297443067724, 0.738, -0.65, 0.316, 192.0, 0.0, 0.0, 0.0, 0.0, 0.0, 0.0, 0.0, 0.0, 0.0, 1.663580635494064E9, 0.0, 2022-09-19 14:43:55.494
96.0, 10002.405643749911, 9987.295864498123, 9206.929410329987, 5888.634131984011, 30533.242885260926, 187500.0, 17890.69388993906, 18724.19044067746, 0.738, -0.65, 0.316, 192.0, 0.0, 0.0, 0.0, 0.0, 0.0, 0.0, 0.0, 0.0, 0.0, 1.663580635498027E9, 0.0, 2022-09-19 14:43:55.498
97.0, 9828.03968525406, 9869.099839818458, 9164.170523186986, 5796.410834361414, 30376.95948802942, 187500.0, 17688.16473342952, 18666.79116091623, 0.738, -0.65, 0.316, 192.0, 0.0, 0.0, 0.0, 0.0, 0.0, 0.0, 0.0, 0.0, 0.0, 1.6635806355010917E9, 0.0, 2022-09-19 14:43:55.501
98.0, 9598.576676675877, 9719.097282778894, 9159.253139406817, 5679.60061783798, 30179.303011811142, 187500.0, 17503.874600395513, 18561.223871853814, 0.738, -0.65, 0.316, 192.0, 0.0, 0.0, 0.0, 0.0, 0.0, 0.0, 0.0, 0.0, 0.0, 1.6635806355050821E9, 0.0, 2022-09-19 14:43:55.505
99.0, 9556.063658721883, 9674.72907003511, 9191.86433456711, 5653.694946014279, 30112.29248193413, 187500.0, 17536.351685089074, 18523.069444068606, 0.738, -0.656, 0.312, 192.0, 23.0, 16.0, 235.0, 128.0, 9.0, 192.0, 0.0, 0.0, 0.0, 1.6635806355090756E9, 0.0, 2022-09-19 14:43:55.509
100.0, 9627.991572379062, 9695.940875523196, 9211.53386968778, 5675.26437941365, 30124.697700106826, 187500.0, 17675.915977468012, 18497.52140015619, 0.738, -0.656, 0.312, 192.0, 0.0, 0.0, 0.0, 0.0, 0.0, 0.0, 0.0, 0.0, 0.0, 1.6635806355131087E9, 0.0, 2022-09-19 14:43:55.513
101.0, 9792.79098424804, 9767.108829868894, 9223.581459949191, 5714.961077566276, 30199.888968454477, 187500.0, 17861.994250058444, 18500.3153682131, 0.738, -0.656, 0.312, 192.0, 0.0, 0.0, 0.0, 0.0, 0.0, 0.0, 0.0, 0.0, 0.0, 1.6635806355171635E9, 0.0, 2022-09-19 14:43:55.517
102.0, 9603.89639185624, 9629.779711935487, 9189.450346165937, 5583.041081791053, 30018.45985871075, 187500.0, 17669.813951231714, 18411.60129446999, 0.738, -0.656, 0.312, 192.0, 0.0, 0.0, 0.0, 0.0, 0.0, 0.0, 0.0, 0.0, 0.0, 1.6635806355211823E9, 0.0, 2022-09-19 14:43:55.521
103.0, 9342.89507185162, 9451.01045978194, 9187.081061253675, 5429.2387281940855, 29782.69365819617, 187500.0, 17475.979623315292, 18289.784287188566, 0.738, -0.656, 0.312, 192.0, 0.0, 0.0, 0.0, 0.0, 0.0, 0.0, 0.0, 0.0, 0.0, 1.6635806355261257E9, 0.0, 2022-09-19 14:43:55.526
104.0, 9274.7893064963, 9384.491668282946, 9220.519270958814, 5368.665500720203, 29683.87659595926, 187500.0, 17499.35954801554, 18205.831135014432, 0.738, -0.656, 0.312, 192.0, 0.0, 0.0, 0.0, 0.0, 0.0, 0.0, 0.0, 0.0, 0.0, 1.6635806355290952E9, 0.0, 2022-09-19 14:43:55.529
105.0, 9312.206126714484, 9375.081583867262, 9252.124637618619, 5348.839503388346, 29654.327589789344, 187500.0, 17639.169709583486, 18145.72729417411, 0.738, -0.656, 0.312, 192.0, 0.0, 0.0, 0.0, 0.0, 0.0, 0.0, 0.0, 0.0, 0.0, 1.6635806355331807E9, 0.0, 2022-09-19 14:43:55.533
106.0, 9451.658660371144, 9418.645133810656, 9275.348100107682, 5360.909445394212, 29689.57629079536, 187500.0, 17832.199374699518, 18112.467898424613, 0.738, -0.656, 0.312, 192.0, 0.0, 0.0, 0.0, 0.0, 0.0, 0.0, 0.0, 0.0, 0.0, 1.6635806355371518E9, 0.0, 2022-09-19 14:43:55.537
107.0, 9242.02164912482, 9250.716477717933, 9238.758294434345, 5193.338417212774, 29468.584593365744, 187500.0, 17647.39515154304, 17973.283585701418, 0.738, -0.656, 0.312, 192.0, 0.0, 0.0, 0.0, 0.0, 0.0, 0.0, 0.0, 0.0, 0.0, 1.6635806355411477E9, 0.0, 2022-09-19 14:43:55.541
108.0, 8937.859110577001, 9028.115454687531, 9245.821445682222, 4994.966685171925, 29180.023572447728, 187500.0, 17435.947648995836, 17795.94484519301, 0.738, -0.656, 0.312, 192.0, 0.0, 0.0, 0.0, 0.0, 0.0, 0.0, 0.0, 0.0, 0.0, 1.6635806355451305E9, 0.0, 2022-09-19 14:43:55.545
109.0, 8826.882699356402, 8914.389778898929, 9286.568675824246, 4890.092300187624, 29023.8519339385, 187500.0, 17450.319820680597, 17661.476750549882, 0.744, -0.658, 0.312, 192.0, 23.0, 64.0, 235.0, 112.0, 9.0, 192.0, 0.0, 0.0, 0.0, 1.6635806355501478E9, 0.0, 2022-09-19 14:43:55.550
110.0, 8811.325885215509, 8848.183911822309, 9321.549155896802, 4819.974877831326, 28928.8793717479, 187500.0, 17558.9940022223, 17540.017371179747, 0.744, -0.658, 0.312, 192.0, 0.0, 0.0, 0.0, 0.0, 0.0, 0.0, 0.0, 0.0, 0.0, 1.6635806355541182E9, 0.0, 2022-09-19 14:43:55.554
111.0, 8900.375235125452, 8832.18006279231, 9340.414028217081, 4780.524048867708, 28895.86584518741, 187500.0, 17755.17526330653, 17430.40441637092, 0.744, -0.658, 0.312, 192.0, 0.0, 0.0, 0.0, 0.0, 0.0, 0.0, 0.0, 0.0, 0.0, 1.6635806355571465E9, 0.0, 2022-09-19 14:43:55.557
112.0, 8645.632403568317, 8610.651923495761, 9324.499586164902, 4562.527485195099, 28607.930673114144, 187500.0, 17581.9492437779, 17226.31063774951, 0.744, -0.658, 0.312, 192.0, 0.0, 0.0, 0.0, 0.0, 0.0, 0.0, 0.0, 0.0, 0.0, 1.6635806355622647E9, 0.0, 2022-09-19 14:43:55.562
113.0, 8271.598311853208, 8320.369818254689, 9345.890205608632, 4302.017903568495, 28232.220200564887, 187500.0, 17355.280203256632, 16979.390916751734, 0.744, -0.658, 0.312, 192.0, 0.0, 0.0, 0.0, 0.0, 0.0, 0.0, 0.0, 0.0, 0.0, 1.663580635565267E9, 0.0, 2022-09-19 14:43:55.565
114.0, 8111.3586558531115, 8159.347851198656, 9399.757909745922, 4162.185390256094, 28011.49672406873, 187500.0, 17365.986688850724, 16797.581827352267, 0.744, -0.658, 0.312, 192.0, 0.0, 0.0, 0.0, 0.0, 0.0, 0.0, 0.0, 0.0, 0.0, 1.663580635569116E9, 0.0, 2022-09-19 14:43:55.569
115.0, 8064.934082619439, 8065.381117508545, 9442.181520722095, 4083.194325351039, 27878.772065493118, 187500.0, 17471.97866105779, 16660.05154371876, 0.744, -0.658, 0.312, 192.0, 0.0, 0.0, 0.0, 0.0, 0.0, 0.0, 0.0, 0.0, 0.0, 1.6635806355732174E9, 0.0, 2022-09-19 14:43:55.573
116.0, 8150.921243539005, 8048.0808673001375, 9474.54684669338, 4066.4305170095586, 27840.841155152462, 187500.0, 17686.868332251113, 16569.214054252392, 0.744, -0.658, 0.312, 192.0, 0.0, 0.0, 0.0, 0.0, 0.0, 0.0, 0.0, 0.0, 0.0, 1.6635806355772064E9, 0.0, 2022-09-19 14:43:55.577
117.0, 7926.286211763169, 7850.290280615125, 9451.39043943768, 3897.853660327633, 27578.811654902896, 187500.0, 17534.317676343642, 16408.884991274477, 0.744, -0.658, 0.312, 192.0, 0.0, 0.0, 0.0, 0.0, 0.0, 0.0, 0.0, 0.0, 0.0, 1.6635806355822406E9, 0.0, 2022-09-19 14:43:55.582
118.0, 7578.493068038591, 7591.635893778312, 9456.263119728937, 3694.8774689289894, 27238.30517987075, 187500.0, 17308.94503700078, 16223.92430590681, 0.744, -0.658, 0.312, 192.0, 0.0, 0.0, 0.0, 0.0, 0.0, 0.0, 0.0, 0.0, 0.0, 1.663580635585204E9, 0.0, 2022-09-19 14:43:55.585
119.0, 7455.826694467866, 7474.043366198942, 9486.594436954789, 3622.6589825938922, 27067.44844525438, 187500.0, 17324.725368586227, 16118.804051733501, 0.742, -0.662, 0.308, 192.0, 23.0, 48.0, 235.0, 80.0, 9.0, 160.0, 0.0, 0.0, 0.0, 1.663580635589274E9, 0.0, 2022-09-19 14:43:55.589
120.0, 7457.95011019112, 7436.783008191945, 9529.710952009076, 3623.8659767944787, 26996.191083930862, 187500.0, 17436.864070518503, 16077.27451053554, 0.742, -0.662, 0.308, 192.0, 0.0, 0.0, 0.0, 0.0, 0.0, 0.0, 0.0, 0.0, 0.0, 1.6635806355932305E9, 0.0, 2022-09-19 14:43:55.593
121.0, 7621.788397048521, 7500.19490721165, 9544.396048116214, 3710.4566348143385, 27051.06461656864, 187500.0, 17666.34943084114, 16101.436746291727, 0.742, -0.662, 0.308, 192.0, 0.0, 0.0, 0.0, 0.0, 0.0, 0.0, 0.0, 0.0, 0.0, 1.6635806355972586E9, 0.0, 2022-09-19 14:43:55.597
122.0, 7496.8197937989, 7398.338007728817, 9501.413643528658, 3656.857151610512, 26906.31471947607, 187500.0, 17549.695676528892, 16070.32311800994, 0.742, -0.662, 0.308, 192.0, 0.0, 0.0, 0.0, 0.0, 0.0, 0.0, 0.0, 0.0, 0.0, 1.66358063560123E9, 0.0, 2022-09-19 14:43:55.601
123.0, 7227.52597660136, 7219.47934859745, 9478.011367083951, 3551.5804352260157, 26662.300725257486, 187500.0, 17329.486290155208, 15999.490439831072, 0.742, -0.662, 0.308, 192.0, 0.0, 0.0, 0.0, 0.0, 0.0, 0.0, 0.0, 0.0, 0.0, 1.663580635605271E9, 0.0, 2022-09-19 14:43:55.605
124.0, 7177.391013788107, 7178.463897521961, 9500.810146428365, 3573.2616273476638, 26586.26009062053, 187500.0, 17350.832206110026, 16014.220239427119, 0.742, -0.662, 0.308, 192.0, 0.0, 0.0, 0.0, 0.0, 0.0, 0.0, 0.0, 0.0, 0.0, 1.663580635610289E9, 0.0, 2022-09-19 14:43:55.610
125.0, 7239.238290695941, 7208.459938580983, 9516.769291969455, 3651.470381196783, 26600.341689627374, 187500.0, 17467.84358833356, 16066.500969708082, 0.742, -0.662, 0.308, 192.0, 0.0, 0.0, 0.0, 0.0, 0.0, 0.0, 0.0, 0.0, 0.0, 1.6635806356132815E9, 0.0, 2022-09-19 14:43:55.613
126.0, 7456.050211912419, 7329.047599917365, 9517.730416981032, 3792.733406154324, 26729.08773768994, 187500.0, 17706.11318422713, 16163.686354599758, 0.742, -0.662, 0.308, 192.0, 0.0, 0.0, 0.0, 0.0, 0.0, 0.0, 0.0, 0.0, 0.0, 1.663580635617259E9, 0.0, 2022-09-19 14:43:55.617
127.0, 7384.524629655437, 7278.040919070354, 9460.308785475348, 3781.3787199710277, 26646.453338438674, 187500.0, 17596.634339885037, 16180.047831541042, 0.742, -0.662, 0.308, 192.0, 0.0, 0.0, 0.0, 0.0, 0.0, 0.0, 0.0, 0.0, 0.0, 1.6635806356212904E9, 0.0, 2022-09-19 14:43:55.621
128.0, 7135.816769101235, 7127.837196330691, 9436.325363674803, 3699.0572451421317, 26440.727882472027, 187500.0, 17376.15673257789, 16142.295735156029, 0.742, -0.662, 0.308, 192.0, 0.0, 0.0, 0.0, 0.0, 0.0, 0.0, 0.0, 0.0, 0.0, 1.6635806356252527E9, 0.0, 2022-09-19 14:43:55.625
129.0, 7103.0267599853, 7108.16766121002, 9459.191198252583, 3729.9697077238216, 26394.41506796063, 187500.0, 17391.110049618488, 16166.659136612314, 0.742, -0.662, 0.31, 192.0, 23.0, 48.0, 235.0, 80.0, 9.0, 176.0, 0.0, 0.0, 0.0, 1.6635806356292708E9, 0.0, 2022-09-19 14:43:55.629
130.0, 7177.547475999293, 7152.200597786975, 9470.25531175796, 3811.397112774505, 26428.009739876958, 187500.0, 17499.31484452663, 16224.25958207364, 0.742, -0.662, 0.31, 192.0, 0.0, 0.0, 0.0, 0.0, 0.0, 0.0, 0.0, 0.0, 0.0, 1.663580635633263E9, 0.0, 2022-09-19 14:43:55.633
131.0, 7418.186356805129, 7291.787241910368, 9472.311672247848, 3964.5959692711795, 26582.79557022996, 187500.0, 17738.724379387426, 16332.218507792773, 0.742, -0.662, 0.31, 192.0, 0.0, 0.0, 0.0, 0.0, 0.0, 0.0, 0.0, 0.0, 0.0, 1.66358063563746E9, 0.0, 2022-09-19 14:43:55.637
132.0, 7389.50906866897, 7273.905846346122, 9421.126177445196, 3977.045890932786, 26544.30586627792, 187500.0, 17653.743046968346, 16373.52453154618, 0.742, -0.662, 0.31, 192.0, 0.0, 0.0, 0.0, 0.0, 0.0, 0.0, 0.0, 0.0, 0.0, 1.6635806356412983E9, 0.0, 2022-09-19 14:43:55.641
133.0, 7159.286100779307, 7142.432885460006, 9394.14762188764, 3900.6923318734566, 26363.055570489832, 187500.0, 17414.132346407456, 16350.792807435133, 0.742, -0.662, 0.31, 192.0, 0.0, 0.0, 0.0, 0.0, 0.0, 0.0, 0.0, 0.0, 0.0, 1.663580635644337E9, 0.0, 2022-09-19 14:43:55.644
134.0, 7137.716667379937, 7137.4260947020175, 9405.368197604204, 3937.1256753356074, 26335.406462598618, 187500.0, 17424.280038390167, 16382.465229328303, 0.742, -0.662, 0.31, 192.0, 0.0, 0.0, 0.0, 0.0, 0.0, 0.0, 0.0, 0.0, 0.0, 1.6635806356493697E9, 0.0, 2022-09-19 14:43:55.649
135.0, 7224.173214933064, 7196.144127386109, 9407.312799371815, 4022.062304265774, 26388.447152191064, 187500.0, 17525.689902983893, 16447.821730115622, 0.742, -0.662, 0.31, 192.0, 0.0, 0.0, 0.0, 0.0, 0.0, 0.0, 0.0, 0.0, 0.0, 1.66358063565333E9, 0.0, 2022-09-19 14:43:55.653
136.0, 7475.272712143983, 7347.711306537546, 9423.24959316845, 4176.289341007393, 26562.813110686915, 187500.0, 17766.28408030082, 16561.70386811541, 0.742, -0.662, 0.31, 192.0, 0.0, 0.0, 0.0, 0.0, 0.0, 0.0, 0.0, 0.0, 0.0, 1.6635806356573222E9, 0.0, 2022-09-19 14:43:55.657
137.0, 7470.7800115084665, 7348.337155382294, 9372.175857088072, 4192.494355737491, 26548.575049468884, 187500.0, 17698.98297774589, 16606.60852272612, 0.742, -0.662, 0.31, 192.0, 0.0, 0.0, 0.0, 0.0, 0.0, 0.0, 0.0, 0.0, 0.0, 1.6635806356613204E9, 0.0, 2022-09-19 14:43:55.661
138.0, 7244.155674476108, 7224.57554633326, 9346.761923642389, 4110.485805330969, 26375.237271217975, 187500.0, 17452.39853291494, 16583.452115470423, 0.742, -0.662, 0.31, 192.0, 0.0, 0.0, 0.0, 0.0, 0.0, 0.0, 0.0, 0.0, 0.0, 1.6635806356644852E9, 0.0, 2022-09-19 14:43:55.664
139.0, 7212.684418283036, 7215.053703195299, 9359.792990659833, 4128.613070084223, 26346.85055575974, 187500.0, 17448.285811935166, 16600.148868578537, 0.738, -0.654, 0.308, 192.0, 23.0, 16.0, 235.0, 144.0, 9.0, 160.0, 0.0, 0.0, 0.0, 1.6635806356683235E9, 0.0, 2022-09-19 14:43:55.668
140.0, 7289.708529676024, 7265.613349153203, 9370.387717531648, 4196.562373228357, 26398.17016102912, 187500.0, 17538.94448744589, 16653.658944804545, 0.738, -0.654, 0.308, 192.0, 0.0, 0.0, 0.0, 0.0, 0.0, 0.0, 0.0, 0.0, 0.0, 1.6635806356723611E9, 0.0, 2022-09-19 14:43:55.672
141.0, 7535.510663451036, 7414.520670714459, 9369.828923920266, 4339.457075531134, 26573.184320114175, 187500.0, 17772.85549317068, 16759.852082711706, 0.738, -0.654, 0.308, 192.0, 0.0, 0.0, 0.0, 0.0, 0.0, 0.0, 0.0, 0.0, 0.0, 1.6635806356773577E9, 0.0, 2022-09-19 14:43:55.677
142.0, 7557.393021272782, 7432.647935467713, 9328.545251911313, 4363.932235709695, 26587.13180865429, 187500.0, 17722.720530357426, 16813.831545571273, 0.738, -0.654, 0.308, 192.0, 0.0, 0.0, 0.0, 0.0, 0.0, 0.0, 0.0, 0.0, 0.0, 1.6635806356813776E9, 0.0, 2022-09-19 14:43:55.681
143.0, 7332.802692985856, 7306.695855462058, 9299.845612030698, 4275.03934801094, 26422.399452018675, 187500.0, 17469.13998951197, 16789.89282725964, 0.738, -0.654, 0.308, 192.0, 0.0, 0.0, 0.0, 0.0, 0.0, 0.0, 0.0, 0.0, 0.0, 1.663580635685354E9, 0.0, 2022-09-19 14:43:55.685
144.0, 7295.698797190046, 7288.6356459421695, 9314.88833604912, 4278.615627123789, 26387.866006835226, 187500.0, 17455.438370160864, 16798.140620963648, 0.738, -0.654, 0.308, 192.0, 0.0, 0.0, 0.0, 0.0, 0.0, 0.0, 0.0, 0.0, 0.0, 1.6635806356893697E9, 0.0, 2022-09-19 14:43:55.689
145.0, 7365.145667212685, 7335.082570920297, 9329.238155989427, 4331.611613227322, 26432.435385279106, 187500.0, 17541.51493805825, 16836.630324915688, 0.738, -0.654, 0.308, 192.0, 0.0, 0.0, 0.0, 0.0, 0.0, 0.0, 0.0, 0.0, 0.0, 1.6635806356924772E9, 0.0, 2022-09-19 14:43:55.692
146.0, 7616.22281267915, 7493.62349434179, 9338.089446793729, 4478.9096091877955, 26615.69733806817, 187500.0, 17780.052754885288, 16939.269535454456, 0.738, -0.654, 0.308, 192.0, 0.0, 0.0, 0.0, 0.0, 0.0, 0.0, 0.0, 0.0, 0.0, 1.6635806356964114E9, 0.0, 2022-09-19 14:43:55.696
147.0, 7662.714441146189, 7533.499006450058, 9288.803850269776, 4520.327391663479, 26654.209393764664, 187500.0, 17745.74282714639, 17005.22953334207, 0.738, -0.654, 0.308, 192.0, 0.0, 0.0, 0.0, 0.0, 0.0, 0.0, 0.0, 0.0, 0.0, 1.6635806357004037E9, 0.0, 2022-09-19 14:43:55.700
148.0, 7456.51959854598, 7431.485644756037, 9251.297623073771, 4449.606472206888, 26513.54986590742, 187500.0, 17488.742469399273, 17001.27327457348, 0.738, -0.654, 0.308, 192.0, 0.0, 0.0, 0.0, 0.0, 0.0, 0.0, 0.0, 0.0, 0.0, 1.6635806357053833E9, 0.0, 2022-09-19 14:43:55.705
149.0, 7445.231967596051, 7445.433133296148, 9263.792248224288, 4482.977626678661, 26513.929845563158, 187500.0, 17474.83968434807, 17047.071998962405, 0.742, -0.644, 0.306, 192.0, 23.0, 48.0, 235.0, 224.0, 9.0, 144.0, 0.0, 0.0, 0.0, 1.6635806357094526E9, 0.0, 2022-09-19 14:43:55.709
150.0, 7540.316288508927, 7521.183195255184, 9268.687280260001, 4562.348671239456, 26592.160951156733, 187500.0, 17554.747170775794, 17121.10097659838, 0.742, -0.644, 0.306, 192.0, 0.0, 0.0, 0.0, 0.0, 0.0, 0.0, 0.0, 0.0, 0.0, 1.663580635713412E9, 0.0, 2022-09-19 14:43:55.713
151.0, 7815.935649387318, 7706.546212023046, 9270.721289005434, 4730.456141287821, 26807.54236072807, 187500.0, 17794.246112614408, 17258.564204998518, 0.742, -0.644, 0.306, 192.0, 0.0, 0.0, 0.0, 0.0, 0.0, 0.0, 0.0, 0.0, 0.0, 1.6635806357173998E9, 0.0, 2022-09-19 14:43:55.717
152.0, 7915.557374424622, 7793.360387487458, 9226.330724517195, 4811.481214938309, 26903.923082819354, 187500.0, 17784.724269476446, 17369.96529936377, 0.742, -0.644, 0.306, 192.0, 0.0, 0.0, 0.0, 0.0, 0.0, 0.0, 0.0, 0.0, 0.0, 1.6635806357204268E9, 0.0, 2022-09-19 14:43:55.720
153.0, 7751.450866633758, 7733.636526302877, 9184.421203663493, 4778.691205822373, 26818.271198066617, 187500.0, 17534.921173443934, 17413.752366751716, 0.742, -0.644, 0.306, 192.0, 0.0, 0.0, 0.0, 0.0, 0.0, 0.0, 0.0, 0.0, 0.0, 1.6635806357244165E9, 0.0, 2022-09-19 14:43:55.724
154.0, 7773.556741900056, 7787.906561840363, 9179.615578605602, 4848.920386900948, 26873.010620237666, 187500.0, 17517.151536601967, 17506.31094054114, 0.742, -0.644, 0.306, 192.0, 0.0, 0.0, 0.0, 0.0, 0.0, 0.0, 0.0, 0.0, 0.0, 1.6635806357284112E9, 0.0, 2022-09-19 14:43:55.728
155.0, 7912.808109856619, 7911.981095311773, 9172.8653517801, 4976.593551229662, 27017.425241163404, 187500.0, 17600.344729464618, 17640.801386928724, 0.742, -0.644, 0.306, 192.0, 0.0, 0.0, 0.0, 0.0, 0.0, 0.0, 0.0, 0.0, 0.0, 1.6635806357324004E9, 0.0, 2022-09-19 14:43:55.732
156.0, 8234.740285246407, 8143.276946935291, 9171.09956396813, 5192.042016034367, 27300.443029456503, 187500.0, 17846.549194639825, 17836.937944524045, 0.742, -0.644, 0.306, 192.0, 0.0, 0.0, 0.0, 0.0, 0.0, 0.0, 0.0, 0.0, 0.0, 1.6635806357374897E9, 0.0, 2022-09-19 14:43:55.737
157.0, 8392.320083656321, 8280.382547424144, 9119.37762729855, 5320.139863507732, 27466.270621570424, 187500.0, 17861.502511680428, 18000.150382536696, 0.742, -0.644, 0.306, 192.0, 0.0, 0.0, 0.0, 0.0, 0.0, 0.0, 0.0, 0.0, 0.0, 1.6635806357414181E9, 0.0, 2022-09-19 14:43:55.741
158.0, 8268.044384484814, 8262.031765226337, 9071.455487186371, 5320.586898396838, 27432.161859531625, 187500.0, 17610.425366213964, 18087.076316723385, 0.742, -0.644, 0.306, 192.0, 0.0, 0.0, 0.0, 0.0, 0.0, 0.0, 0.0, 0.0, 0.0, 1.6635806357454157E9, 0.0, 2022-09-19 14:43:55.745
159.0, 8338.564138241309, 8368.135496155679, 9067.610987140059, 5434.826664307912, 27550.827270844853, 187500.0, 17594.086241017132, 18234.37431268386, 0.732, -0.65, 0.312, 192.0, 22.0, 224.0, 235.0, 176.0, 9.0, 192.0, 0.0, 0.0, 0.0, 1.66358063574849E9, 0.0, 2022-09-19 14:43:55.748
160.0, 8544.580166885873, 8561.88041709428, 9058.491475402294, 5626.135245100885, 27783.464227135686, 187500.0, 17689.192913674466, 18443.810158230088, 0.732, -0.65, 0.312, 192.0, 0.0, 0.0, 0.0, 0.0, 0.0, 0.0, 0.0, 0.0, 0.0, 1.6635806357524948E9, 0.0, 2022-09-19 14:43:55.752
161.0, 8936.987392543244, 8870.42389755534, 9041.682963571902, 5910.471786316846, 28158.14651944, 187500.0, 17937.8337189953, 18720.547106331243, 0.732, -0.65, 0.312, 192.0, 0.0, 0.0, 0.0, 0.0, 0.0, 0.0, 0.0, 0.0, 0.0, 1.6635806357564435E9, 0.0, 2022-09-19 14:43:55.756
162.0, 9180.062613494709, 9086.498211204793, 8977.980491874278, 6107.524765434834, 28425.629845336658, 187500.0, 17972.45657115657, 18960.046048169857, 0.732, -0.65, 0.312, 192.0, 0.0, 0.0, 0.0, 0.0, 0.0, 0.0, 0.0, 0.0, 0.0, 1.6635806357604797E9, 0.0, 2022-09-19 14:43:55.760
163.0, 9104.93840038042, 9114.840223174122, 8919.485976634738, 6141.342954795713, 28460.140938775654, 187500.0, 17719.479527411404, 19089.708517755094, 0.732, -0.65, 0.312, 192.0, 0.0, 0.0, 0.0, 0.0, 0.0, 0.0, 0.0, 0.0, 0.0, 1.6635806357655137E9, 0.0, 2022-09-19 14:43:55.765
164.0, 9184.957645530421, 9233.930317631999, 8914.747406810213, 6253.101677072248, 28604.108524812287, 187500.0, 17689.572893330205, 19241.119234695343, 0.732, -0.65, 0.312, 192.0, 0.0, 0.0, 0.0, 0.0, 0.0, 0.0, 0.0, 0.0, 0.0, 1.6635806357695804E9, 0.0, 2022-09-19 14:43:55.769
165.0, 9379.820153691788, 9420.254459411439, 8909.159470696386, 6418.303420341423, 28834.487954913136, 187500.0, 17766.172321578542, 19420.93901883829, 0.732, -0.65, 0.312, 192.0, 0.0, 0.0, 0.0, 0.0, 0.0, 0.0, 0.0, 0.0, 0.0, 1.6635806357735257E9, 0.0, 2022-09-19 14:43:55.773
166.0, 9744.555919713488, 9703.026378515528, 8901.783395026136, 6657.064754613013, 29190.17126443044, 187500.0, 17997.42346971315, 19648.8374053046, 0.732, -0.65, 0.312, 192.0, 0.0, 0.0, 0.0, 0.0, 0.0, 0.0, 0.0, 0.0, 0.0, 1.6635806357764947E9, 0.0, 2022-09-19 14:43:55.776
167.0, 9965.88289330994, 9889.842258672985, 8852.095467101988, 6797.567820259073, 29428.999653935392, 187500.0, 18036.829595187857, 19822.39870100006, 0.732, -0.65, 0.312, 192.0, 0.0, 0.0, 0.0, 0.0, 0.0, 0.0, 0.0, 0.0, 0.0, 1.663580635780688E9, 0.0, 2022-09-19 14:43:55.780
168.0, 9841.786008094074, 9870.865627630428, 8796.752547830647, 6758.362860484464, 29409.06189788126, 187500.0, 17764.786513422314, 19864.75525674287, 0.732, -0.65, 0.312, 192.0, 0.0, 0.0, 0.0, 0.0, 0.0, 0.0, 0.0, 0.0, 0.0, 1.6635806357845309E9, 0.0, 2022-09-19 14:43:55.784
169.0, 9846.457522685234, 9920.039465432104, 8795.612608863426, 6780.491087495218, 29475.69244810253, 187500.0, 17700.88287602459, 19914.21966722246, 0.732, -0.646, 0.306, 192.0, 22.0, 224.0, 235.0, 208.0, 9.0, 144.0, 0.0, 0.0, 0.0, 1.6635806357885313E9, 0.0, 2022-09-19 14:43:55.788
170.0, 9954.952890271294, 10018.78947243565, 8807.727254358204, 6835.521082344185, 29607.63479562221, 187500.0, 17753.61064119466, 19977.63156624217, 0.732, -0.646, 0.306, 192.0, 0.0, 0.0, 0.0, 0.0, 0.0, 0.0, 0.0, 0.0, 0.0, 1.6635806357935126E9, 0.0, 2022-09-19 14:43:55.793
171.0, 10213.160242219, 10195.412957121487, 8829.810777880046, 6945.245795875287, 29843.691568814706, 187500.0, 17962.39828615168, 20060.377724215716, 0.732, -0.646, 0.306, 192.0, 0.0, 0.0, 0.0, 0.0, 0.0, 0.0, 0.0, 0.0, 0.0, 1.66358063579767E9, 0.0, 2022-09-19 14:43:55.797
172.0, 10337.368886157143, 10279.857847673637, 8806.855536324447, 6966.055269963178, 29971.185919187777, 187500.0, 17997.89285634671, 20091.670166453143, 0.732, -0.646, 0.306, 192.0, 0.0, 0.0, 0.0, 0.0, 0.0, 0.0, 0.0, 0.0, 0.0, 1.6635806358005784E9, 0.0, 2022-09-19 14:43:55.800
173.0, 10109.090520035092, 10150.351840299589, 8774.892541753357, 6808.698988997816, 29831.934551231214, 187500.0, 17706.962550516433, 20004.654825288635, 0.732, -0.646, 0.306, 192.0, 0.0, 0.0, 0.0, 0.0, 0.0, 0.0, 0.0, 0.0, 0.0, 1.6635806358045752E9, 0.0, 2022-09-19 14:43:55.804
174.0, 10012.93331538836, 10099.367511197033, 8792.908047784334, 6720.230784443711, 29782.604251218352, 187500.0, 17623.992875098334, 19934.358588976695, 0.732, -0.646, 0.306, 192.0, 0.0, 0.0, 0.0, 0.0, 0.0, 0.0, 0.0, 0.0, 0.0, 1.6635806358085356E9, 0.0, 2022-09-19 14:43:55.808
175.0, 10040.448312812843, 10119.19350852889, 8830.257812769152, 6688.692473017272, 29822.412708093252, 187500.0, 17670.35039309864, 19898.70755657048, 0.732, -0.646, 0.306, 192.0, 0.0, 0.0, 0.0, 0.0, 0.0, 0.0, 0.0, 0.0, 0.0, 1.6635806358126929E9, 0.0, 2022-09-19 14:43:55.812
176.0, 10226.325419703177, 10226.236012725356, 8865.215941097253, 6729.305592692565, 29974.203404689244, 187500.0, 17867.895110594643, 19915.024330022854, 0.732, -0.646, 0.306, 192.0, 0.0, 0.0, 0.0, 0.0, 0.0, 0.0, 0.0, 0.0, 0.0, 1.663580635816605E9, 0.0, 2022-09-19 14:43:55.816
177.0, 10321.812072016248, 10280.103716862646, 8861.66201372886, 6718.822624543027, 30059.38590280842, 187500.0, 17923.59565777727, 19911.13512648763, 0.732, -0.646, 0.306, 192.0, 0.0, 0.0, 0.0, 0.0, 0.0, 0.0, 0.0, 0.0, 0.0, 1.6635806358216224E9, 0.0, 2022-09-19 14:43:55.821
178.0, 10067.985661981782, 10127.19543304389, 8834.571699449027, 6543.137913124313, 29885.846958857415, 187500.0, 17640.466110761896, 19803.35501472414, 0.732, -0.646, 0.306, 192.0, 0.0, 0.0, 0.0, 0.0, 0.0, 0.0, 0.0, 0.0, 0.0, 1.6635806358255603E9, 0.0, 2022-09-19 14:43:55.825
179.0, 9947.44270413431, 10055.491036831265, 8859.471542772239, 6449.260586412023, 29809.694565498183, 187500.0, 17555.57418532064, 19726.57677252016, 0.74, -0.644, 0.306, 192.0, 23.0, 32.0, 235.0, 224.0, 9.0, 144.0, 0.0, 0.0, 0.0, 1.6635806358296635E9, 0.0, 2022-09-19 14:43:55.829
180.0, 9969.414468933877, 10070.042022471669, 8888.461755330773, 6433.189682148658, 29838.751833290084, 187500.0, 17606.223238256363, 19703.42036526446, 0.74, -0.644, 0.306, 192.0, 0.0, 0.0, 0.0, 0.0, 0.0, 0.0, 0.0, 0.0, 0.0, 1.6635806358326955E9, 0.0, 2022-09-19 14:43:55.832
181.0, 10150.217729832857, 10178.82796273565, 8916.423787644362, 6499.149680036268, 29988.285003696088, 187500.0, 17803.410327841084, 19733.125833645565, 0.74, -0.644, 0.306, 192.0, 0.0, 0.0, 0.0, 0.0, 0.0, 0.0, 0.0, 0.0, 0.0, 1.6635806358367133E9, 0.0, 2022-09-19 14:43:55.836
182.0, 10274.784001682283, 10252.678126415984, 8906.700778806304, 6526.374104782833, 30094.411086369884, 187500.0, 17883.094296824253, 19760.260851414307, 0.74, -0.644, 0.306, 192.0, 0.0, 0.0, 0.0, 0.0, 0.0, 0.0, 0.0, 0.0, 0.0, 1.6635806358405817E9, 0.0, 2022-09-19 14:43:55.840
183.0, 10044.158702392424, 10116.578354427618, 8872.346147578495, 6383.322940268868, 29940.34051183945, 187500.0, 17614.471031960373, 19684.42138247745, 0.74, -0.644, 0.306, 192.0, 0.0, 0.0, 0.0, 0.0, 0.0, 0.0, 0.0, 0.0, 0.0, 1.6635806358447297E9, 0.0, 2022-09-19 14:43:55.844
184.0, 9923.638096289409, 10051.55712980713, 8890.182839653831, 6311.998523711983, 29868.300839459996, 187500.0, 17525.645199494982, 19631.82772777411, 0.74, -0.644, 0.306, 192.0, 0.0, 0.0, 0.0, 0.0, 0.0, 0.0, 0.0, 0.0, 0.0, 1.663580635848678E9, 0.0, 2022-09-19 14:43:55.848
185.0, 9949.499064624199, 10074.735888807285, 8916.893174277922, 6316.066541202848, 29903.63894744384, 187500.0, 17578.887054787523, 19627.647951560968, 0.74, -0.644, 0.306, 192.0, 0.0, 0.0, 0.0, 0.0, 0.0, 0.0, 0.0, 0.0, 0.0, 1.663580635853686E9, 0.0, 2022-09-19 14:43:55.853
186.0, 10131.732837168318, 10187.187515161933, 8947.358601970507, 6393.917667140683, 30052.278048071632, 187500.0, 17776.945862406, 19665.645917134992, 0.74, -0.644, 0.306, 192.0, 0.0, 0.0, 0.0, 0.0, 0.0, 0.0, 0.0, 0.0, 0.0, 1.663580635856706E9, 0.0, 2022-09-19 14:43:55.856
187.0, 10261.708231175928, 10262.378783509586, 8931.801787829612, 6427.489987312554, 30157.666523178403, 187500.0, 17870.845540862745, 19687.7964958902, 0.74, -0.644, 0.306, 192.0, 0.0, 0.0, 0.0, 0.0, 0.0, 0.0, 0.0, 0.0, 0.0, 1.6635806358607E9, 0.0, 2022-09-19 14:43:55.860
188.0, 10030.50178653023, 10125.630810932018, 8895.636665300926, 6284.729395476508, 29998.633861378894, 187500.0, 17604.993892311322, 19607.374919340007, 0.74, -0.644, 0.306, 192.0, 0.0, 0.0, 0.0, 0.0, 0.0, 0.0, 0.0, 0.0, 0.0, 1.663580635864698E9, 0.0, 2022-09-19 14:43:55.864
189.0, 9894.089090119493, 10047.98085069428, 8912.489880620227, 6206.475938138478, 29907.617557956884, 187500.0, 17506.646216707974, 19541.549031919127, 0.74, -0.644, 0.306, 192.0, 0.0, 0.0, 0.0, 0.0, 0.0, 0.0, 0.0, 0.0, 0.0, 1.6635806358686748E9, 0.0, 2022-09-19 14:43:55.868
190.0, 9909.489442049198, 10060.587234567074, 8946.598642659026, 6204.285467181858, 29927.242389588642, 187500.0, 17558.748133033292, 19525.835755567045, 0.736, -0.648, 0.304, 192.0, 23.0, 0.0, 235.0, 192.0, 9.0, 128.0, 0.0, 0.0, 0.0, 1.66358063587272E9, 0.0, 2022-09-19 14:43:55.872
191.0, 10074.579426596098, 10154.86689267956, 8971.25261679323, 6269.329043546802, 30055.004960895178, 187500.0, 17748.64855392558, 19549.528604689673, 0.736, -0.648, 0.304, 192.0, 0.0, 0.0, 0.0, 0.0, 0.0, 0.0, 0.0, 0.0, 0.0, 1.6635806358767507E9, 0.0, 2022-09-19 14:43:55.876
192.0, 10213.562573619196, 10230.818120338694, 8963.742430656246, 6311.10445393377, 30160.616953446504, 187500.0, 17862.8659680922, 19573.087343345564, 0.736, -0.648, 0.304, 192.0, 0.0, 0.0, 0.0, 0.0, 0.0, 0.0, 0.0, 0.0, 0.0, 1.663580635881766E9, 0.0, 2022-09-19 14:43:55.881
193.0, 9983.697233640818, 10090.315054692634, 8929.343095939528, 6169.3720423426685, 29995.057582266043, 187500.0, 17604.546857422218, 19489.357708615986, 0.736, -0.648, 0.304, 192.0, 0.0, 0.0, 0.0, 0.0, 0.0, 0.0, 0.0, 0.0, 0.0, 1.663580635884798E9, 0.0, 2022-09-19 14:43:55.884
194.0, 9838.589708636966, 10006.138385073948, 8948.096209537533, 6087.117622747139, 29896.329927006955, 187500.0, 17498.957216615345, 19426.258734018655, 0.736, -0.648, 0.304, 192.0, 0.0, 0.0, 0.0, 0.0, 0.0, 0.0, 0.0, 0.0, 0.0, 1.66358063588876E9, 0.0, 2022-09-19 14:43:55.888
195.0, 9852.626604154899, 10016.55429799012, 8976.527628484682, 6085.620055868632, 29913.786639426547, 187500.0, 17550.835615496115, 19412.959446067744, 0.736, -0.648, 0.304, 192.0, 0.0, 0.0, 0.0, 0.0, 0.0, 0.0, 0.0, 0.0, 0.0, 1.663580635892795E9, 0.0, 2022-09-19 14:43:55.892
196.0, 10012.866260154995, 10109.314037479644, 8998.789965962169, 6155.066925891272, 30037.41413800885, 187500.0, 17736.735074130902, 19443.00019061568, 0.736, -0.648, 0.304, 192.0, 0.0, 0.0, 0.0, 0.0, 0.0, 0.0, 0.0, 0.0, 0.0, 1.6635806358967836E9, 0.0, 2022-09-19 14:43:55.896
197.0, 10170.311948098177, 10198.87747751206, 8985.982416389277, 6213.337923686257, 30158.49353772325, 187500.0, 17868.67742165058, 19482.585130046027, 0.736, -0.648, 0.304, 192.0, 0.0, 0.0, 0.0, 0.0, 0.0, 0.0, 0.0, 0.0, 0.0, 1.663580635900807E9, 0.0, 2022-09-19 14:43:55.900
198.0, 9958.864445550973, 10074.735888807285, 8948.431485704361, 6089.933942548507, 30011.441410951786, 187500.0, 17619.500174462817, 19416.40161471386, 0.736, -0.648, 0.304, 192.0, 0.0, 0.0, 0.0, 0.0, 0.0, 0.0, 0.0, 0.0, 0.0, 1.6635806359047265E9, 0.0, 2022-09-19 14:43:55.904
199.0, 9811.342932145946, 9992.07913781156, 8960.099096310032, 6012.887479411063, 29912.981976626157, 187500.0, 17498.51018172624, 19362.15393092083, 0.736, -0.648, 0.304, 192.0, 0.0, 0.0, 0.0, 0.0, 0.0, 0.0, 0.0, 0.0, 0.0, 1.6635806359088552E9, 0.0, 2022-09-19 14:43:55.908
200.0, 9835.32635394649, 10012.419225265889, 8984.931884399877, 6027.9078516850295, 29940.385215328362, 187500.0, 17548.153406161477, 19364.679678044282, 0.738, -0.652, 0.316, 192.0, 23.0, 16.0, 235.0, 160.0, 9.0, 224.0, 0.0, 0.0, 0.0, 1.6635806359128008E9, 0.0, 2022-09-19 14:43:55.912
201.0, 10005.959571118305, 10119.305267251166, 9005.78606197668, 6116.063131816761, 30078.76486525117, 187500.0, 17734.70106538547, 19420.000245571166, 0.738, -0.652, 0.316, 192.0, 0.0, 0.0, 0.0, 0.0, 0.0, 0.0, 0.0, 0.0, 0.0, 1.6635806359158008E9, 0.0, 2022-09-19 14:43:55.915
202.0, 10190.11559368558, 10230.751065105327, 8990.117489113509, 6199.971580501983, 30227.471021112327, 187500.0, 17882.759020657424, 19483.143923657408, 0.738, -0.652, 0.316, 192.0, 0.0, 0.0, 0.0, 0.0, 0.0, 0.0, 0.0, 0.0, 0.0, 1.6635806359208028E9, 0.0, 2022-09-19 14:43:55.920
203.0, 10004.059672839603, 10125.496700465286, 8942.798846101625, 6101.534497920811, 30104.469371374773, 187500.0, 17643.327134052175, 19445.61534471695, 0.738, -0.652, 0.316, 192.0, 0.0, 0.0, 0.0, 0.0, 0.0, 0.0, 0.0, 0.0, 0.0, 1.6635806359247704E9, 0.0, 2022-09-19 14:43:55.924
204.0, 9864.204807782748, 10052.205330396335, 8946.039849047644, 6042.3470786031585, 30016.939940087792, 187500.0, 17514.670492967427, 19411.730100122702, 0.738, -0.652, 0.316, 192.0, 0.0, 0.0, 0.0, 0.0, 0.0, 0.0, 0.0, 0.0, 0.0, 1.6635806359288387E9, 0.0, 2022-09-19 14:43:55.928
205.0, 9898.224162843724, 10084.302435434156, 8964.211817289808, 6077.5063726313565, 30059.721178975247, 187500.0, 17564.33606914712, 19434.238306789197, 0.738, -0.652, 0.316, 192.0, 0.0, 0.0, 0.0, 0.0, 0.0, 0.0, 0.0, 0.0, 0.0, 1.6635806359328253E9, 0.0, 2022-09-19 14:43:55.932
206.0, 10069.28206316019, 10195.725881543862, 8977.242884307252, 6175.742289512431, 30204.292262112172, 187500.0, 17739.327876487718, 19499.974787232255, 0.738, -0.652, 0.316, 192.0, 0.0, 0.0, 0.0, 0.0, 0.0, 0.0, 0.0, 0.0, 0.0, 1.6635806359368477E9, 0.0, 2022-09-19 14:43:55.936
207.0, 10272.571178981207, 10321.722665038427, 8961.462552721805, 6276.459250028044, 30371.282144937773, 187500.0, 17897.48882025347, 19580.48577076027, 0.738, -0.652, 0.316, 192.0, 0.0, 0.0, 0.0, 0.0, 0.0, 0.0, 0.0, 0.0, 0.0, 1.6635806359408247E9, 0.0, 2022-09-19 14:43:55.940
208.0, 10102.921438565427, 10228.895870315537, 8919.262459190186, 6190.382682130657, 30264.79843435269, 187500.0, 17665.567119785206, 19554.378933236472, 0.738, -0.652, 0.316, 192.0, 0.0, 0.0, 0.0, 0.0, 0.0, 0.0, 0.0, 0.0, 0.0, 1.6635806359439292E9, 0.0, 2022-09-19 14:43:55.943
209.0, 9956.048125749603, 10154.375154301542, 8916.982581255745, 6126.836672644219, 30175.68202920938, 187500.0, 17524.818184950138, 19522.371235176473, 0.738, -0.652, 0.316, 192.0, 0.0, 0.0, 0.0, 0.0, 0.0, 0.0, 0.0, 0.0, 0.0, 1.6635806359488437E9, 0.0, 2022-09-19 14:43:55.948
210.0, 9990.82744012206, 10185.421727349965, 8933.701686108314, 6156.475085791956, 30219.290282641687, 187500.0, 17574.148484963, 19547.718113388793, 0.736, -0.648, 0.32, 192.0, 23.0, 0.0, 235.0, 192.0, 10.0, 0.0, 0.0, 0.0, 0.0, 1.663580635952911E9, 0.0, 2022-09-19 14:43:55.952
211.0, 10156.610328747074, 10291.480754790397, 8949.169093271386, 6246.709078158031, 30359.592182587647, 187500.0, 17741.250126510873, 19609.990073441277, 0.736, -0.648, 0.32, 192.0, 0.0, 0.0, 0.0, 0.0, 0.0, 0.0, 0.0, 0.0, 0.0, 1.663580635956876E9, 0.0, 2022-09-19 14:43:55.956
212.0, 10372.349366229697, 10420.427968553064, 8940.00487804471, 6347.180169484636, 30534.583989928247, 187500.0, 17911.860991938232, 19688.93643485742, 0.736, -0.648, 0.32, 192.0, 0.0, 0.0, 0.0, 0.0, 0.0, 0.0, 0.0, 0.0, 0.0, 1.663580635960972E9, 0.0, 2022-09-19 14:43:55.960
213.0, 10214.50134688632, 10329.076388964224, 8892.28390363263, 6259.136648075181, 30433.397642779073, 187500.0, 17688.097678196154, 19660.46031242136, 0.736, -0.648, 0.32, 192.0, 0.0, 0.0, 0.0, 0.0, 0.0, 0.0, 0.0, 0.0, 0.0, 1.6635806359639452E9, 0.0, 2022-09-19 14:43:55.963
214.0, 10054.775781008695, 10240.474073943386, 8893.8485257445, 6184.347711127724, 30332.34540609663, 187500.0, 17535.94935368888, 19618.439032845385, 0.736, -0.648, 0.32, 192.0, 0.0, 0.0, 0.0, 0.0, 0.0, 0.0, 0.0, 0.0, 0.0, 1.6635806359679422E9, 0.0, 2022-09-19 14:43:55.967
215.0, 10076.769897552716, 10258.511931718818, 8915.507366121694, 6201.357388658213, 30365.761264057313, 187500.0, 17576.584825108628, 19625.92686723791, 0.736, -0.648, 0.32, 192.0, 0.0, 0.0, 0.0, 0.0, 0.0, 0.0, 0.0, 0.0, 0.0, 1.6635806359719088E9, 0.0, 2022-09-19 14:43:55.971
216.0, 10222.995009779335, 10347.42717116203, 8938.037924532644, 6274.447593027066, 30486.95242249399, 187500.0, 17732.622353151128, 19666.383524702018, 0.736, -0.648, 0.32, 192.0, 0.0, 0.0, 0.0, 0.0, 0.0, 0.0, 0.0, 0.0, 0.0, 1.6635806359769485E9, 0.0, 2022-09-19 14:43:55.976
217.0, 10437.012962938901, 10471.077021488789, 8939.62489838897, 6365.285082493435, 30653.7858431084, 187500.0, 17912.151564616153, 19726.733234731346, 0.736, -0.648, 0.32, 192.0, 0.0, 0.0, 0.0, 0.0, 0.0, 0.0, 0.0, 0.0, 0.0, 1.6635806359809604E9, 0.0, 2022-09-19 14:43:55.980
218.0, 10276.75095519435, 10370.225950506443, 8898.229467657742, 6266.758592934441, 30544.821088888777, 187500.0, 17696.63604457808, 19683.259091765773, 0.736, -0.648, 0.32, 192.0, 0.0, 0.0, 0.0, 0.0, 0.0, 0.0, 0.0, 0.0, 0.0, 1.6635806359849088E9, 0.0, 2022-09-19 14:43:55.984
219.0, 10091.790269826684, 10259.69657417495, 8904.733825294235, 6171.562513299288, 30416.45502048195, 187500.0, 17531.277839097722, 19618.30492237865, 0.736, -0.648, 0.32, 192.0, 0.0, 0.0, 0.0, 0.0, 0.0, 0.0, 0.0, 0.0, 0.0, 1.6635806359890075E9, 0.0, 2022-09-19 14:43:55.989
220.0, 10095.746528595273, 10261.663527687017, 8931.287697707141, 6172.389527844135, 30424.702814185956, 187500.0, 17568.493493615806, 19607.17375363991, 0.734, -0.644, 0.32, 192.0, 22.0, 240.0, 235.0, 224.0, 10.0, 0.0, 0.0, 0.0, 0.0, 1.6635806359919426E9, 0.0, 2022-09-19 14:43:55.991
221.0, 10218.569364377185, 10331.222156431933, 8955.427581718872, 6225.497272669944, 30520.949425810508, 187500.0, 17717.46787041043, 19629.100814950565, 0.734, -0.644, 0.32, 192.0, 0.0, 0.0, 0.0, 0.0, 0.0, 0.0, 0.0, 0.0, 0.0, 1.6635806359959333E9, 0.0, 2022-09-19 14:43:55.995
222.0, 10426.39588432263, 10446.378343865676, 8957.372183486485, 6305.337703864301, 30674.39415149619, 187500.0, 17907.79297444737, 19674.676021894935, 0.734, -0.644, 0.32, 192.0, 0.0, 0.0, 0.0, 0.0, 0.0, 0.0, 0.0, 0.0, 0.0, 1.6635806359999895E9, 0.0, 2022-09-19 14:43:55.999
223.0, 10269.330176035188, 10345.415514161054, 8921.072950491065, 6204.352522415224, 30560.89199315214, 187500.0, 17707.029605749798, 19621.009483457743, 0.734, -0.644, 0.32, 192.0, 0.0, 0.0, 0.0, 0.0, 0.0, 0.0, 0.0, 0.0, 0.0, 1.66358063600397E9, 0.0, 2022-09-19 14:43:56.003
224.0, 10064.94582473586, 10222.145643490034, 8926.280906949152, 6095.566582151245, 30415.762116403836, 187500.0, 17525.511089028252, 19546.689933143847, 0.734, -0.644, 0.32, 192.0, 0.0, 0.0, 0.0, 0.0, 0.0, 0.0, 0.0, 0.0, 0.0, 1.6635806360089903E9, 0.0, 2022-09-19 14:43:56.008
225.0, 10059.380240366489, 10219.083454499658, 8954.980546829765, 6090.805660582264, 30415.136267559086, 187500.0, 17558.56931907765, 19535.58111614956, 0.734, -0.644, 0.32, 192.0, 0.0, 0.0, 0.0, 0.0, 0.0, 0.0, 0.0, 0.0, 0.0, 1.6635806360129883E9, 0.0, 2022-09-19 14:43:56.012
226.0, 10173.038860921724, 10285.177562854, 8978.941616885855, 6140.873568162152, 30502.30807093478, 187500.0, 17698.245370178865, 19556.144721048444, 0.734, -0.644, 0.32, 192.0, 0.0, 0.0, 0.0, 0.0, 0.0, 0.0, 0.0, 0.0, 0.0, 1.663580636016949E9, 0.0, 2022-09-19 14:43:56.016
227.0, 10383.569941946262, 10404.759395689893, 8981.579122731582, 6227.419522693101, 30659.619648411233, 187500.0, 17896.751212686446, 19607.59843678456, 0.734, -0.644, 0.32, 192.0, 0.0, 0.0, 0.0, 0.0, 0.0, 0.0, 0.0, 0.0, 0.0, 1.6635806360200405E9, 0.0, 2022-09-19 14:43:56.020
228.0, 10238.84239659815, 10314.90538297956, 8937.657944876903, 6136.582033226733, 30558.343894284237, 187500.0, 17710.471774395915, 19565.800674653136, 0.734, -0.644, 0.32, 192.0, 0.0, 0.0, 0.0, 0.0, 0.0, 0.0, 0.0, 0.0, 0.0, 1.6635806360240083E9, 0.0, 2022-09-19 14:43:56.024
229.0, 10024.198594593834, 10186.896942484014, 8937.121503009976, 6027.349058073647, 30405.525017443302, 187500.0, 17520.392539547986, 19492.62106330646, 0.734, -0.644, 0.32, 192.0, 0.0, 0.0, 0.0, 0.0, 0.0, 0.0, 0.0, 0.0, 0.0, 1.6635806360279508E9, 0.0, 2022-09-19 14:43:56.027
230.0, 10020.152928847425, 10184.929988971948, 8968.033965591665, 6028.891328441064, 30404.74270638737, 187500.0, 17552.266127141254, 19483.702717268792, 0.742, -0.65, 0.318, 192.0, 23.0, 48.0, 235.0, 176.0, 9.0, 240.0, 0.0, 0.0, 0.0, 1.6635806360319772E9, 0.0, 2022-09-19 14:43:56.031
231.0, 10132.24692729079, 10250.130027548079, 8991.279779825185, 6086.044739013283, 30488.852320772687, 187500.0, 17688.701175296446, 19509.451926881306, 0.742, -0.65, 0.318, 192.0, 0.0, 0.0, 0.0, 0.0, 0.0, 0.0, 0.0, 0.0, 0.0, 1.663580636037E9, 0.0, 2022-09-19 14:43:56.037
232.0, 10349.170607229544, 10373.757526130383, 8992.419718792406, 6182.894847738129, 30650.25426748446, 187500.0, 17897.801744675846, 19567.119427576, 0.742, -0.65, 0.318, 192.0, 0.0, 0.0, 0.0, 0.0, 0.0, 0.0, 0.0, 0.0, 0.0, 1.6635806360410092E9, 0.0, 2022-09-19 14:43:56.041
233.0, 10227.55476564822, 10297.247504859866, 8953.550035184626, 6106.451881700979, 30563.79771993133, 187500.0, 17727.83907983769, 19535.849337083022, 0.742, -0.65, 0.318, 192.0, 0.0, 0.0, 0.0, 0.0, 0.0, 0.0, 0.0, 0.0, 0.0, 1.6635806360450473E9, 0.0, 2022-09-19 14:43:56.045
234.0, 10013.402702021922, 10170.58016903164, 8948.766761871191, 5997.822403648187, 30408.0284128223, 187500.0, 17526.986304162303, 19464.882548437425, 0.742, -0.65, 0.318, 192.0, 0.0, 0.0, 0.0, 0.0, 0.0, 0.0, 0.0, 0.0, 0.0, 1.663580636047986E9, 0.0, 2022-09-19 14:43:56.047
235.0, 10003.88085888396, 10166.534503285231, 8971.34202377105, 5998.8505838931305, 30403.602767420147, 187500.0, 17554.970688220346, 19452.522033753638, 0.742, -0.65, 0.318, 192.0, 0.0, 0.0, 0.0, 0.0, 0.0, 0.0, 0.0, 0.0, 0.0, 1.6635806360520191E9, 0.0, 2022-09-19 14:43:56.052
236.0, 10106.14008976699, 10226.54893714773, 8988.485811768272, 6053.612357808633, 30482.303259647284, 187500.0, 17681.548617070748, 19477.71244975477, 0.742, -0.65, 0.318, 192.0, 0.0, 0.0, 0.0, 0.0, 0.0, 0.0, 0.0, 0.0, 0.0, 1.6635806360560312E9, 0.0, 2022-09-19 14:43:56.056
237.0, 10330.730418053916, 10353.484493909418, 8990.832744936079, 6157.369155570168, 30648.82375583932, 187500.0, 17893.443154507062, 19540.8114243521, 0.742, -0.65, 0.318, 192.0, 0.0, 0.0, 0.0, 0.0, 0.0, 0.0, 0.0, 0.0, 0.0, 1.6635806360600884E9, 0.0, 2022-09-19 14:43:56.060
238.0, 10225.476053413875, 10285.80341169875, 8946.732753125758, 6092.8843728166075, 30572.42549329108, 187500.0, 17737.338571231197, 19515.1069182285, 0.742, -0.65, 0.318, 192.0, 0.0, 0.0, 0.0, 0.0, 0.0, 0.0, 0.0, 0.0, 0.0, 1.6635806360650105E9, 0.0, 2022-09-19 14:43:56.065
239.0, 10006.674826940874, 10155.358631057577, 8939.446084433328, 5984.523115697279, 30411.761154146334, 187500.0, 17528.483871040808, 19446.822338917536, 0.742, -0.65, 0.318, 192.0, 0.0, 0.0, 0.0, 0.0, 0.0, 0.0, 0.0, 0.0, 0.0, 1.6635806360701993E9, 0.0, 2022-09-19 14:43:56.070
240.0, 9994.001387834714, 10147.535520498219, 8967.206951046819, 5982.399699974025, 30403.91569184252, 187500.0, 17552.95903121937, 19435.199431800775, 0.74, -0.644, 0.316, 192.0, 23.0, 32.0, 235.0, 224.0, 9.0, 224.0, 0.0, 0.0, 0.0, 1.663580636074202E9, 0.0, 2022-09-19 14:43:56.074
241.0, 10093.667816360929, 10207.080567727156, 8993.693768226358, 6036.423866322501, 30480.962154979963, 187500.0, 17678.888759480567, 19462.736780969713, 0.74, -0.644, 0.316, 192.0, 0.0, 0.0, 0.0, 0.0, 0.0, 0.0, 0.0, 0.0, 0.0, 1.6635806360781288E9, 0.0, 2022-09-19 14:43:56.078
242.0, 10324.628391817618, 10341.61571760365, 9002.567410775115, 6143.466370518968, 30651.617723896234, 187500.0, 17901.802706933344, 19529.92612480237, 0.74, -0.644, 0.316, 192.0, 0.0, 0.0, 0.0, 0.0, 0.0, 0.0, 0.0, 0.0, 0.0, 1.6635806360811212E9, 0.0, 2022-09-19 14:43:56.081
243.0, 10229.991105793846, 10280.774269196305, 8959.160323042908, 6082.602570367167, 30584.406028319125, 187500.0, 17755.37642900663, 19504.780412290147, 0.74, -0.644, 0.316, 192.0, 0.0, 0.0, 0.0, 0.0, 0.0, 0.0, 0.0, 0.0, 0.0, 1.6635806360840888E9, 0.0, 2022-09-19 14:43:56.084
244.0, 9996.12480355797, 10141.366439028554, 8946.9115670814, 5967.424031188969, 30415.493895470372, 187500.0, 17530.9872664198, 19430.684379420803, 0.74, -0.644, 0.316, 192.0, 0.0, 0.0, 0.0, 0.0, 0.0, 0.0, 0.0, 0.0, 0.0, 1.6635806360881515E9, 0.0, 2022-09-19 14:43:56.088
245.0, 9975.941178314826, 10130.503491223275, 8970.649119692936, 5963.423068931469, 30401.38994471907, 187500.0, 17550.612098051562, 19414.635826901893, 0.74, -0.644, 0.316, 192.0, 0.0, 0.0, 0.0, 0.0, 0.0, 0.0, 0.0, 0.0, 0.0, 1.6635806360921433E9, 0.0, 2022-09-19 14:43:56.092
246.0, 10063.783534024184, 10181.241951136823, 8989.11166061302, 6008.685351453466, 30468.35577110717, 187500.0, 17664.60599477363, 19435.042969589587, 0.74, -0.644, 0.316, 192.0, 0.0, 0.0, 0.0, 0.0, 0.0, 0.0, 0.0, 0.0, 0.0, 1.6635806360970912E9, 0.0, 2022-09-19 14:43:56.097
247.0, 10291.167830368022, 10310.591496299685, 8998.655855495435, 6114.140881793604, 30634.58569462129, 187500.0, 17889.956282372033, 19496.66672905287, 0.74, -0.644, 0.316, 192.0, 0.0, 0.0, 0.0, 0.0, 0.0, 0.0, 0.0, 0.0, 0.0, 1.6635806361011288E9, 0.0, 2022-09-19 14:43:56.101
248.0, 10211.863841040593, 10258.64604218555, 8960.300262010129, 6060.34023288968, 30575.644144492646, 187500.0, 17761.65726919857, 19475.41022007587, 0.74, -0.644, 0.316, 192.0, 0.0, 0.0, 0.0, 0.0, 0.0, 0.0, 0.0, 0.0, 0.0, 1.663580636104226E9, 0.0, 2022-09-19 14:43:56.104
249.0, 9976.567027159575, 10119.037046317702, 8955.137009040953, 5942.121856465561, 30403.24513950886, 187500.0, 17533.200089120877, 19400.911855806335, 0.74, -0.644, 0.316, 192.0, 0.0, 0.0, 0.0, 0.0, 0.0, 0.0, 0.0, 0.0, 0.0, 1.663580636108153E9, 0.0, 2022-09-19 14:43:56.108
250.0, 9949.2978989241, 10101.803851342662, 8983.25550356573, 5934.589318584123, 30381.407485176027, 187500.0, 17548.980420706324, 19380.862341029926, 0.734, -0.644, 0.32, 192.0, 22.0, 240.0, 235.0, 224.0, 10.0, 0.0, 0.0, 0.0, 0.0, 1.6635806361121156E9, 0.0, 2022-09-19 14:43:56.112
251.0, 10022.991600393249, 10143.15457858498, 9004.422605564905, 5974.576589414667, 30435.29754105777, 187500.0, 17654.525358024282, 19394.2286842142, 0.734, -0.644, 0.32, 192.0, 0.0, 0.0, 0.0, 0.0, 0.0, 0.0, 0.0, 0.0, 0.0, 1.663580636116122E9, 0.0, 2022-09-19 14:43:56.116
252.0, 10248.230129269377, 10271.833571414181, 9011.798681235157, 6077.931055776007, 30597.68296452558, 187500.0, 17882.24493053495, 19450.823301175034, 0.734, -0.644, 0.32, 192.0, 0.0, 0.0, 0.0, 0.0, 0.0, 0.0, 0.0, 0.0, 0.0, 1.6635806361201944E9, 0.0, 2022-09-19 14:43:56.120
253.0, 10182.91833197097, 10226.12425400308, 8970.62676794848, 6025.829139450686, 30545.84926913372, 187500.0, 17769.592138480206, 19430.013827087143, 0.734, -0.644, 0.32, 192.0, 0.0, 0.0, 0.0, 0.0, 0.0, 0.0, 0.0, 0.0, 0.0, 1.663580636125108E9, 0.0, 2022-09-19 14:43:56.125
254.0, 9938.077323207537, 10080.435583643388, 8959.137971298453, 5897.820698955143, 30365.470691379393, 187500.0, 17529.42264430793, 19349.480491814673, 0.734, -0.644, 0.32, 192.0, 0.0, 0.0, 0.0, 0.0, 0.0, 0.0, 0.0, 0.0, 0.0, 1.663580636128189E9, 0.0, 2022-09-19 14:43:56.128
255.0, 9900.951075667272, 10058.262653143724, 8988.06112862362, 5879.984006879808, 30337.553362554714, 187500.0, 17535.88229845551, 19324.513593258096, 0.734, -0.644, 0.32, 192.0, 0.0, 0.0, 0.0, 0.0, 0.0, 0.0, 0.0, 0.0, 0.0, 1.6635806361321568E9, 0.0, 2022-09-19 14:43:56.132
0.0, 9971.202608490303, 10097.311150707144, 9011.396349834962, 5916.462053830869, 30387.665973623512, 187500.0, 17639.281468305762, 19337.209384108708, 0.734, -0.644, 0.32, 192.0, 0.0, 0.0, 0.0, 0.0, 0.0, 0.0, 0.0, 0.0, 0.0, 1.6635806361361637E9, 0.0, 2022-09-19 14:43:56.136
1.0, 10196.441137366432, 10225.252535969323, 9027.623716309514, 6020.531776014778, 30550.766652913888, 187500.0, 17872.320755996796, 19395.9274167928, 0.734, -0.644, 0.32, 192.0, 0.0, 0.0, 0.0, 0.0, 0.0, 0.0, 0.0, 0.0, 0.0, 1.66358063614018E9, 0.0, 2022-09-19 14:43:56.140
2.0, 10146.507340253274, 10189.06506169618, 8990.676282724891, 5977.392909216036, 30511.069954761264, 187500.0, 17779.382202551627, 19382.382259652884, 0.734, -0.644, 0.32, 192.0, 0.0, 0.0, 0.0, 0.0, 0.0, 0.0, 0.0, 0.0, 0.0, 1.6635806361441495E9, 0.0, 2022-09-19 14:43:56.144
3.0, 9896.324264565023, 10038.928394189883, 8972.861942394013, 5848.4680471978245, 30325.81869671568, 187500.0, 17533.960048432356, 19302.29595926952, 0.734, -0.644, 0.32, 192.0, 0.0, 0.0, 0.0, 0.0, 0.0, 0.0, 0.0, 0.0, 0.0, 1.663580636148208E9, 0.0, 2022-09-19 14:43:56.148
4.0, 9855.197054767259, 10014.900268900426, 8996.554791516637, 5832.374791190004, 30292.26872828826, 187500.0, 17536.37403683353, 19275.87619732335, 0.738, -0.644, 0.308, 192.0, 23.0, 16.0, 235.0, 224.0, 9.0, 160.0, 0.0, 0.0, 0.0, 1.663580636153221E9, 0.0, 2022-09-19 14:43:56.153
5.0, 9911.769319983641, 10043.197577380846, 9013.050378924654, 5863.890750871987, 30331.741908996333, 187500.0, 17630.899564135023, 19281.642947392815, 0.738, -0.644, 0.308, 192.0, 0.0, 0.0, 0.0, 0.0, 0.0, 0.0, 0.0, 0.0, 0.0, 1.6635806361562178E9, 0.0, 2022-09-19 14:43:56.156
6.0, 10135.15265406998, 10168.233235863834, 9027.713123287336, 5967.491086422335, 30492.540358607814, 187500.0, 17865.414066960104, 19338.036398653556, 0.738, -0.644, 0.308, 192.0, 0.0, 0.0, 0.0, 0.0, 0.0, 0.0, 0.0, 0.0, 0.0, 1.6635806361601937E9, 0.0, 2022-09-19 14:43:56.160
7.0, 10110.543383424687, 10145.546215241697, 8996.778308961191, 5935.7516092957985, 30468.802805996278, 187500.0, 17795.587217281725, 19331.375578805873, 0.738, -0.644, 0.308, 192.0, 0.0, 0.0, 0.0, 0.0, 0.0, 0.0, 0.0, 0.0, 0.0, 1.6635806361641922E9, 0.0, 2022-09-19 14:43:56.164
8.0, 9852.984232066183, 9988.011120320692, 8979.075727352587, 5802.043473964152, 30275.70608564688, 187500.0, 17544.979458448823, 19251.19987144469, 0.738, -0.644, 0.308, 192.0, 0.0, 0.0, 0.0, 0.0, 0.0, 0.0, 0.0, 0.0, 0.0, 1.663580636168272E9, 0.0, 2022-09-19 14:43:56.168
9.0, 9802.759862275108, 9957.836265306029, 9004.087329398077, 5782.977435943775, 30237.015215994743, 187500.0, 17541.22436538033, 19225.42831008772, 0.738, -0.644, 0.308, 192.0, 0.0, 0.0, 0.0, 0.0, 0.0, 0.0, 0.0, 0.0, 0.0, 1.6635806361721945E9, 0.0, 2022-09-19 14:43:56.172
10.0, 9859.645051913863, 9991.252123266713, 9023.779216263201, 5816.661514837923, 30277.002486825288, 187500.0, 17629.849032145623, 19236.13479568181, 0.738, -0.644, 0.308, 192.0, 0.0, 0.0, 0.0, 0.0, 0.0, 0.0, 0.0, 0.0, 0.0, 1.6635806361762345E9, 0.0, 2022-09-19 14:43:56.176
11.0, 10085.464726145832, 10120.020523073736, 9042.353515905561, 5925.5368620797235, 30439.812593437746, 187500.0, 17866.710468138514, 19295.053994066002, 0.738, -0.644, 0.308, 192.0, 0.0, 0.0, 0.0, 0.0, 0.0, 0.0, 0.0, 0.0, 0.0, 1.6635806361812327E9, 0.0, 2022-09-19 14:43:56.181
12.0, 10073.730060306796, 10108.352912468066, 9010.16700388992, 5904.973257180841, 30426.625064209114, 187500.0, 17811.859287245188, 19293.467020209675, 0.738, -0.644, 0.308, 192.0, 0.0, 0.0, 0.0, 0.0, 0.0, 0.0, 0.0, 0.0, 0.0, 1.6635806361843033E9, 0.0, 2022-09-19 14:43:56.184
13.0, 9819.546022361043, 9957.54569262811, 8991.860925181023, 5775.601360273524, 30236.79169855019, 187500.0, 17554.255432397775, 19215.638246016293, 0.738, -0.644, 0.308, 192.0, 0.0, 0.0, 0.0, 0.0, 0.0, 0.0, 0.0, 0.0, 0.0, 1.6635806361872914E9, 0.0, 2022-09-19 14:43:56.187
14.0, 9765.253635079103, 9925.716808523752, 9016.425492337405, 5755.305976308105, 30195.06099165213, 187500.0, 17540.956144446867, 19193.018280627522, 0.734, -0.65, 0.31, 192.0, 22.0, 240.0, 235.0, 176.0, 9.0, 176.0, 0.0, 0.0, 0.0, 1.6635806361922235E9, 0.0, 2022-09-19 14:43:56.192
15.0, 9819.344856660946, 9957.523340883654, 9035.603289080058, 5788.341854613049, 30234.668282826937, 187500.0, 17623.25526753131, 19207.591618012386, 0.734, -0.65, 0.31, 192.0, 0.0, 0.0, 0.0, 0.0, 0.0, 0.0, 0.0, 0.0, 0.0, 1.6635806361962764E9, 0.0, 2022-09-19 14:43:56.196
16.0, 10041.051809913137, 10085.062394745635, 9050.198978209375, 5894.35617856457, 30394.63971789357, 187500.0, 17854.14878775463, 19266.86844430786, 0.734, -0.65, 0.31, 192.0, 0.0, 0.0, 0.0, 0.0, 0.0, 0.0, 0.0, 0.0, 0.0, 1.6635806362002783E9, 0.0, 2022-09-19 14:43:56.200
17.0, 10049.634879783975, 10083.877752289505, 9015.01733243672, 5882.2191813253385, 30397.701906883947, 187500.0, 17814.295627390817, 19271.942290299212, 0.734, -0.65, 0.31, 192.0, 0.0, 0.0, 0.0, 0.0, 0.0, 0.0, 0.0, 0.0, 0.0, 1.6635806362042649E9, 0.0, 2022-09-19 14:43:56.204
18.0, 9797.015463950094, 9930.276564392634, 8991.570352503104, 5750.857979161498, 30210.528398815204, 187500.0, 17549.941545717902, 19197.600388240862, 0.734, -0.65, 0.31, 192.0, 0.0, 0.0, 0.0, 0.0, 0.0, 0.0, 0.0, 0.0, 0.0, 1.6635806362092931E9, 0.0, 2022-09-19 14:43:56.209
19.0, 9734.4976347086, 9892.636226729897, 9014.9279254589, 5727.120426549963, 30163.053293592133, 187500.0, 17530.56258327515, 19169.727762905095, 0.734, -0.65, 0.31, 192.0, 0.0, 0.0, 0.0, 0.0, 0.0, 0.0, 0.0, 0.0, 0.0, 1.663580636212298E9, 0.0, 2022-09-19 14:43:56.212
20.0, 9784.498487055122, 9923.168709655847, 9033.725742545814, 5758.815200187588, 30199.17371263191, 187500.0, 17611.028863314255, 19178.80257115395, 0.734, -0.65, 0.31, 192.0, 0.0, 0.0, 0.0, 0.0, 0.0, 0.0, 0.0, 0.0, 0.0, 1.6635806362162948E9, 0.0, 2022-09-19 14:43:56.216
21.0, 10005.601943207019, 10051.55712980713, 9050.869530543034, 5867.645843940479, 30360.10627271012, 187500.0, 17844.87281380568, 19238.66054280526, 0.734, -0.65, 0.31, 192.0, 0.0, 0.0, 0.0, 0.0, 0.0, 0.0, 0.0, 0.0, 0.0, 1.663580636220408E9, 0.0, 2022-09-19 14:43:56.220
22.0, 10025.562051005609, 10059.581406066585, 9017.565431304625, 5863.1978467938725, 30372.958525771923, 187500.0, 17824.689188562537, 19247.511833609562, 0.734, -0.65, 0.31, 192.0, 0.0, 0.0, 0.0, 0.0, 0.0, 0.0, 0.0, 0.0, 0.0, 1.6635806362253208E9, 0.0, 2022-09-19 14:43:56.225
23.0, 9771.579178759954, 9910.227049616224, 8992.620884492504, 5734.138874308929, 30183.438084535373, 187500.0, 17559.1951679224, 19173.527559462495, 0.734, -0.65, 0.31, 192.0, 0.0, 0.0, 0.0, 0.0, 0.0, 0.0, 0.0, 0.0, 0.0, 1.663580636229354E9, 0.0, 2022-09-19 14:43:56.229
24.0, 9705.082739005416, 9872.720822420219, 9016.246678381764, 5708.456719929782, 30129.793897842635, 187500.0, 17533.065978654144, 19146.88428007177, 0.736, -0.65, 0.31, 192.0, 23.0, 0.0, 235.0, 176.0, 9.0, 176.0, 0.0, 0.0, 0.0, 1.6635806362333236E9, 0.0, 2022-09-19 14:43:56.233
25.0, 9758.235187320137, 9905.980218169716, 9036.184434435896, 5741.246729045717, 30164.997895359746, 187500.0, 17612.079395303655, 19160.205919767133, 0.736, -0.65, 0.31, 192.0, 0.0, 0.0, 0.0, 0.0, 0.0, 0.0, 0.0, 0.0, 0.0, 1.663580636236399E9, 0.0, 2022-09-19 14:43:56.236
26.0, 9979.36099521649, 10036.313240088612, 9053.730553833313, 5852.178436777406, 30325.23755135984, 187500.0, 17843.084674249254, 19225.830641487915, 0.736, -0.65, 0.31, 192.0, 0.0, 0.0, 0.0, 0.0, 0.0, 0.0, 0.0, 0.0, 0.0, 1.6635806362403643E9, 0.0, 2022-09-19 14:43:56.240
27.0, 10020.376446291977, 10056.407458353933, 9023.667457540925, 5858.638090924989, 30353.020769717787, 187500.0, 17841.58710737075, 19243.66733356325, 0.736, -0.65, 0.31, 192.0, 0.0, 0.0, 0.0, 0.0, 0.0, 0.0, 0.0, 0.0, 0.0, 1.6635806362433517E9, 0.0, 2022-09-19 14:43:56.243
28.0, 9769.254597336603, 9906.986046670205, 8992.844401937056, 5725.354638737994, 30164.88613663747, 187500.0, 17572.67326982895, 19168.163140793222, 0.736, -0.65, 0.31, 192.0, 0.0, 0.0, 0.0, 0.0, 0.0, 0.0, 0.0, 0.0, 0.0, 1.6635806362483585E9, 0.0, 2022-09-19 14:43:56.248
29.0, 9692.744576066087, 9862.483723459689, 9014.838518481078, 5690.955304021276, 30106.145752208922, 187500.0, 17536.485795555807, 19136.758939833515, 0.736, -0.65, 0.31, 192.0, 0.0, 0.0, 0.0, 0.0, 0.0, 0.0, 0.0, 0.0, 0.0, 1.6635806362523775E9, 0.0, 2022-09-19 14:43:56.252
30.0, 9739.929108611239, 9889.417575528334, 9037.056152469653, 5718.984391568231, 30137.10291827952, 187500.0, 17610.268904002776, 19147.018390538502, 0.736, -0.65, 0.31, 192.0, 0.0, 0.0, 0.0, 0.0, 0.0, 0.0, 0.0, 0.0, 0.0, 1.6635806362563815E9, 0.0, 2022-09-19 14:43:56.256
31.0, 9957.500989139198, 10013.872088655484, 9057.284481201707, 5823.255279452238, 30293.632184700036, 187500.0, 17839.821319558778, 19206.496382534075, 0.736, -0.65, 0.31, 192.0, 0.0, 0.0, 0.0, 0.0, 0.0, 0.0, 0.0, 0.0, 0.0, 1.6635806362603836E9, 0.0, 2022-09-19 14:43:56.260
32.0, 10019.594135236042, 10047.08678091607, 9031.244698911274, 5838.7226866153105, 30334.535877053248, 187500.0, 17857.456845934015, 19229.496327578585, 0.736, -0.65, 0.31, 192.0, 0.0, 0.0, 0.0, 0.0, 0.0, 0.0, 0.0, 0.0, 0.0, 1.6635806362633977E9, 0.0, 2022-09-19 14:43:56.263
33.0, 9772.942635171728, 9902.739215223697, 8997.202992105842, 5709.12727226344, 30150.40220623043, 187500.0, 17587.268958958266, 19156.584937165375, 0.736, -0.65, 0.31, 192.0, 0.0, 0.0, 0.0, 0.0, 0.0, 0.0, 0.0, 0.0, 0.0, 1.6635806362674272E9, 0.0, 2022-09-19 14:43:56.267
34.0, 9693.4374801442, 9859.086258302481, 9015.374960348006, 5676.091393958497, 30091.19243516832, 187500.0, 17544.264202626255, 19126.1642129617, 0.736, -0.65, 0.31, 192.0, 0.0, 0.0, 0.0, 0.0, 0.0, 0.0, 0.0, 0.0, 0.0, 1.6635806362714367E9, 0.0, 2022-09-19 14:43:56.271
35.0, 9733.49180620811, 9883.67317720332, 9034.820978024123, 5700.3653884369605, 30119.489743648737, 187500.0, 17616.30387500571, 19134.41200666571, 0.738, -0.652, 0.314, 192.0, 23.0, 16.0, 235.0, 160.0, 9.0, 208.0, 0.0, 0.0, 0.0, 1.6635806362764227E9, 0.0, 2022-09-19 14:43:56.276
36.0, 9943.06176222107, 10005.065501340092, 9053.060001499654, 5801.685846052867, 30270.69929488889, 187500.0, 17841.09536899273, 19191.006623626545, 0.738, -0.652, 0.314, 192.0, 0.0, 0.0, 0.0, 0.0, 0.0, 0.0, 0.0, 0.0, 0.0, 1.6635806362803931E9, 0.0, 2022-09-19 14:43:56.280
37.0, 10021.024646881182, 10046.282118115678, 9028.36132387654, 5825.892785297965, 30324.34348158163, 187500.0, 17878.10985781072, 19217.493440806084, 0.738, -0.652, 0.314, 192.0, 0.0, 0.0, 0.0, 0.0, 0.0, 0.0, 0.0, 0.0, 0.0, 1.6635806362845676E9, 0.0, 2022-09-19 14:43:56.284
38.0, 9777.614149762887, 9902.225125101224, 8998.409986306428, 5695.962094779265, 30142.02030205969, 187500.0, 17609.330130735652, 19148.270088228, 0.738, -0.652, 0.314, 192.0, 0.0, 0.0, 0.0, 0.0, 0.0, 0.0, 0.0, 0.0, 0.0, 1.6635806362884448E9, 0.0, 2022-09-19 14:43:56.288
39.0, 9686.083756218404, 9851.28549948758, 9017.744245260268, 5655.080754170508, 30073.847481471003, 187500.0, 17554.47894984233, 19115.569486089884, 0.738, -0.652, 0.314, 192.0, 0.0, 0.0, 0.0, 0.0, 0.0, 0.0, 0.0, 0.0, 0.0, 1.663580636291422E9, 0.0, 2022-09-19 14:43:56.291
40.0, 9722.628858402832, 9874.978348610204, 9037.883167014501, 5678.259513170661, 30099.931967250344, 187500.0, 17618.67315991797, 19123.88433502726, 0.738, -0.652, 0.314, 192.0, 0.0, 0.0, 0.0, 0.0, 0.0, 0.0, 0.0, 0.0, 0.0, 1.6635806362954233E9, 0.0, 2022-09-19 14:43:56.295
41.0, 9928.4437213473, 9996.795355891629, 9060.816056825644, 5779.647026019934, 30251.253277212774, 187500.0, 17838.48021489146, 19181.909463633237, 0.738, -0.652, 0.314, 192.0, 0.0, 0.0, 0.0, 0.0, 0.0, 0.0, 0.0, 0.0, 0.0, 1.6635806363014195E9, 0.0, 2022-09-19 14:43:56.301
42.0, 10019.817652680595, 10044.739847748262, 9035.156254190953, 5809.508956612224, 30314.195789598918, 187500.0, 17887.274073037395, 19211.793745969982, 0.738, -0.652, 0.314, 192.0, 0.0, 0.0, 0.0, 0.0, 0.0, 0.0, 0.0, 0.0, 0.0, 1.6635806363044891E9, 0.0, 2022-09-19 14:43:56.304
43.0, 9778.865847452385, 9901.554572767565, 8999.21464910682, 5679.712376560256, 30131.53733391015, 187500.0, 17614.314569749185, 19143.50916665902, 0.738, -0.652, 0.314, 192.0, 0.0, 0.0, 0.0, 0.0, 0.0, 0.0, 0.0, 0.0, 0.0, 1.6635806363084753E9, 0.0, 2022-09-19 14:43:56.308
44.0, 9682.216904427636, 9847.642165141364, 9017.900707471455, 5639.769809218623, 30057.32954231853, 187500.0, 17549.449807339886, 19108.014596463992, 0.738, -0.652, 0.314, 192.0, 0.0, 0.0, 0.0, 0.0, 0.0, 0.0, 0.0, 0.0, 0.0, 1.6635806363125007E9, 0.0, 2022-09-19 14:43:56.312
45.0, 9713.531698409523, 9867.42345898431, 9035.759751291245, 5663.999100208175, 30079.32365886255, 187500.0, 17609.24072375783, 19114.384843633754, 0.736, -0.648, 0.31, 192.0, 23.0, 0.0, 235.0, 192.0, 9.0, 176.0, 0.0, 0.0, 0.0, 1.6635806363165038E9, 0.0, 2022-09-19 14:43:56.316
46.0, 9911.210526372257, 9982.445535951321, 9053.931719533412, 5763.3526043120155, 30222.084250698597, 187500.0, 17822.968104239477, 19169.884225116282, 0.736, -0.648, 0.31, 192.0, 0.0, 0.0, 0.0, 0.0, 0.0, 0.0, 0.0, 0.0, 0.0, 1.663580636319471E9, 0.0, 2022-09-19 14:43:56.319
47.0, 10019.817652680595, 10043.51050180322, 9030.574146577615, 5803.764558287211, 30296.359097523582, 187500.0, 17891.96793937301, 19205.691719733684, 0.736, -0.648, 0.31, 192.0, 0.0, 0.0, 0.0, 0.0, 0.0, 0.0, 0.0, 0.0, 0.0, 1.6635806363235288E9, 0.0, 2022-09-19 14:43:56.323
48.0, 9783.291492854536, 9903.566229768543, 8994.453727537839, 5677.387795136905, 30120.540275638137, 187500.0, 17624.48461347635, 19141.36339919131, 0.736, -0.648, 0.31, 192.0, 0.0, 0.0, 0.0, 0.0, 0.0, 0.0, 0.0, 0.0, 0.0, 1.6635806363275378E9, 0.0, 2022-09-19 14:43:56.327
49.0, 9678.886494503797, 9845.09406627346, 9017.654838282448, 5633.265451582129, 30042.622094466937, 187500.0, 17553.584880064118, 19108.238113908545, 0.736, -0.648, 0.31, 192.0, 0.0, 0.0, 0.0, 0.0, 0.0, 0.0, 0.0, 0.0, 0.0, 1.6635806363315537E9, 0.0, 2022-09-19 14:43:56.331
50.0, 9709.217811729648, 9865.009470583138, 9038.330201903605, 5656.690079771291, 30064.07976914403, 187500.0, 17612.459374959395, 19115.077747711868, 0.736, -0.648, 0.31, 192.0, 0.0, 0.0, 0.0, 0.0, 0.0, 0.0, 0.0, 0.0, 0.0, 1.6635806363365624E9, 0.0, 2022-09-19 14:43:56.336
51.0, 9899.162936110848, 9975.427088192355, 9059.609062625059, 5753.85311291851, 30202.0794394111, 187500.0, 17818.72127279297, 19167.31377450392, 0.736, -0.648, 0.31, 192.0, 0.0, 0.0, 0.0, 0.0, 0.0, 0.0, 0.0, 0.0, 0.0, 1.6635806363405135E9, 0.0, 2022-09-19 14:43:56.340
52.0, 10022.03047538167, 10044.963365192814, 9041.414742638439, 5801.797604775144, 30287.261937530275, 187500.0, 17902.49561101146, 19205.55760926695, 0.736, -0.648, 0.31, 192.0, 0.0, 0.0, 0.0, 0.0, 0.0, 0.0, 0.0, 0.0, 0.0, 1.6635806363445404E9, 0.0, 2022-09-19 14:43:56.344
53.0, 9788.32063535698, 9907.097805392481, 9001.919210185912, 5678.773603293133, 30112.29248193413, 187500.0, 17636.845128160134, 19140.379922435277, 0.736, -0.648, 0.31, 192.0, 0.0, 0.0, 0.0, 0.0, 0.0, 0.0, 0.0, 0.0, 0.0, 1.6635806363475754E9, 0.0, 2022-09-19 14:43:56.347
54.0, 9669.230540899103, 9839.439074926267, 9019.398274349962, 5627.632811979391, 30023.489001213195, 187500.0, 17551.170891662943, 19099.140953915234, 0.736, -0.648, 0.31, 192.0, 0.0, 0.0, 0.0, 0.0, 0.0, 0.0, 0.0, 0.0, 0.0, 1.6635806363514924E9, 0.0, 2022-09-19 14:43:56.351
55.0, 9696.790241812498, 9857.52163619061, 9039.69365831538, 5649.157541889852, 30041.303341544073, 187500.0, 17605.686796389436, 19103.87952373976, 0.736, -0.646, 0.312, 192.0, 23.0, 0.0, 235.0, 208.0, 9.0, 192.0, 0.0, 0.0, 0.0, 1.663580636355529E9, 0.0, 2022-09-19 14:43:56.355
56.0, 9877.14646782237, 9963.580663631043, 9058.26795795774, 5741.47024649027, 30172.932764641377, 187500.0, 17802.225685384954, 19154.953259820137, 0.736, -0.646, 0.312, 192.0, 0.0, 0.0, 0.0, 0.0, 0.0, 0.0, 0.0, 0.0, 0.0, 1.663580636359644E9, 0.0, 2022-09-19 14:43:56.359
57.0, 10012.866260154995, 10037.69904824484, 9041.146521704975, 5796.81316576161, 30268.955858821377, 187500.0, 17898.6734627096, 19199.008548141544, 0.736, -0.646, 0.312, 192.0, 0.0, 0.0, 0.0, 0.0, 0.0, 0.0, 0.0, 0.0, 0.0, 1.6635806363645935E9, 0.0, 2022-09-19 14:43:56.364
58.0, 9786.688958011742, 9901.62162800093, 8999.169945617909, 5675.309082902561, 30098.344993394017, 187500.0, 17635.034636859255, 19137.809471822915, 0.736, -0.646, 0.312, 192.0, 0.0, 0.0, 0.0, 0.0, 0.0, 0.0, 0.0, 0.0, 0.0, 1.663580636368554E9, 0.0, 2022-09-19 14:43:56.368
59.0, 9662.301500117957, 9833.046476012049, 9013.519765558216, 5619.988515375676, 30003.50654167015, 187500.0, 17537.37986533402, 19096.68226202515, 0.736, -0.646, 0.312, 192.0, 0.0, 0.0, 0.0, 0.0, 0.0, 0.0, 0.0, 0.0, 0.0, 1.6635806363726244E9, 0.0, 2022-09-19 14:43:56.372
60.0, 9686.977825996617, 9851.66547914332, 9035.759751291245, 5641.3791348194045, 30019.71155640025, 187500.0, 17591.80636308269, 19102.44901209462, 0.736, -0.646, 0.312, 192.0, 0.0, 0.0, 0.0, 0.0, 0.0, 0.0, 0.0, 0.0, 0.0, 1.6635806363755949E9, 0.0, 2022-09-19 14:43:56.375
61.0, 9860.315604247524, 9955.556387371587, 9054.825789311622, 5730.60729868499, 30146.7141683953, 187500.0, 17786.66887124406, 19153.723913875096, 0.736, -0.646, 0.312, 192.0, 0.0, 0.0, 0.0, 0.0, 0.0, 0.0, 0.0, 0.0, 0.0, 1.663580636380604E9, 0.0, 2022-09-19 14:43:56.380
62.0, 10006.563068218598, 10039.263670356711, 9041.12416996052, 5790.845249992043, 30253.063768513653, 187500.0, 17901.690948211068, 19200.059080130944, 0.736, -0.646, 0.312, 192.0, 0.0, 0.0, 0.0, 0.0, 0.0, 0.0, 0.0, 0.0, 0.0, 1.6635806363846152E9, 0.0, 2022-09-19 14:43:56.384
63.0, 9786.465440567188, 9908.617724015443, 8999.92990492939, 5672.336300890005, 30091.68417354634, 187500.0, 17645.003514886324, 19136.334256688864, 0.736, -0.646, 0.312, 192.0, 0.0, 0.0, 0.0, 0.0, 0.0, 0.0, 0.0, 0.0, 0.0, 1.6635806363876665E9, 0.0, 2022-09-19 14:43:56.387
64.0, 9648.443418555667, 9830.431321910777, 9015.285553370184, 5609.9749338596985, 29991.257785708643, 187500.0, 17538.51980430124, 19091.139029400234, 0.736, -0.646, 0.312, 192.0, 0.0, 0.0, 0.0, 0.0, 0.0, 0.0, 0.0, 0.0, 0.0, 1.6635806363916318E9, 0.0, 2022-09-19 14:43:56.391
65.0, 9667.777677509508, 9844.4235139398, 9041.012411238244, 5628.906861413344, 30006.278157982608, 187500.0, 17588.09597350311, 19098.470401581573, 0.736, -0.64, 0.312, 192.0, 23.0, 0.0, 236.0, 0.0, 9.0, 192.0, 0.0, 0.0, 0.0, 1.663580636396618E9, 0.0, 2022-09-19 14:43:56.396
66.0, 9835.192243479758, 9944.760494799673, 9063.36415569355, 5715.765740366667, 30128.162220497397, 187500.0, 17776.61058623917, 19146.638410882762, 0.736, -0.64, 0.312, 192.0, 0.0, 0.0, 0.0, 0.0, 0.0, 0.0, 0.0, 0.0, 0.0, 1.6635806364006157E9, 0.0, 2022-09-19 14:43:56.400
67.0, 9994.157850045902, 10036.961440677815, 9050.914234031945, 5785.4808313227695, 30244.32423643163, 187500.0, 17905.848372679757, 19196.728670207103, 0.736, -0.64, 0.312, 192.0, 0.0, 0.0, 0.0, 0.0, 0.0, 0.0, 0.0, 0.0, 0.0, 1.6635806364038348E9, 0.0, 2022-09-19 14:43:56.403
68.0, 9784.833763221952, 9911.72461649473, 9011.083425412588, 5670.88343750041, 30090.0524962011, 187500.0, 17654.324192324184, 19140.558736390918, 0.736, -0.64, 0.312, 192.0, 0.0, 0.0, 0.0, 0.0, 0.0, 0.0, 0.0, 0.0, 0.0, 1.6635806364076588E9, 0.0, 2022-09-19 14:43:56.407
69.0, 9636.462883527623, 9827.145615475847, 9021.007599950743, 5602.911782611822, 29981.043038492568, 187500.0, 17532.61894376504, 19090.937863700135, 0.736, -0.64, 0.312, 192.0, 0.0, 0.0, 0.0, 0.0, 0.0, 0.0, 0.0, 0.0, 0.0, 1.6635806364116876E9, 0.0, 2022-09-19 14:43:56.411
70.0, 9650.76799997902, 9840.37784819339, 9041.705315316358, 5620.927288642799, 29992.040096764576, 187500.0, 17578.44001989842, 19093.888293968237, 0.736, -0.64, 0.312, 192.0, 0.0, 0.0, 0.0, 0.0, 0.0, 0.0, 0.0, 0.0, 0.0, 1.663580636415659E9, 0.0, 2022-09-19 14:43:56.415
71.0, 9808.973647233683, 9935.529224339632, 9062.045402770687, 5706.646228628902, 30110.884322033446, 187500.0, 17755.689353429003, 19142.145710247245, 0.736, -0.64, 0.312, 192.0, 0.0, 0.0, 0.0, 0.0, 0.0, 0.0, 0.0, 0.0, 0.0, 1.6635806364197247E9, 0.0, 2022-09-19 14:43:56.419
72.0, 9982.669053395874, 10036.223833110791, 9052.724725332824, 5786.4196045898925, 30239.250390440273, 187500.0, 17899.9251603991, 19197.443926029675, 0.736, -0.64, 0.312, 192.0, 0.0, 0.0, 0.0, 0.0, 0.0, 0.0, 0.0, 0.0, 0.0, 1.6635806364247081E9, 0.0, 2022-09-19 14:43:56.424
73.0, 9787.113641156393, 9917.983104942216, 9010.25641086774, 5681.500516116681, 30094.411086369884, 187500.0, 17658.571023770695, 19146.012562038013, 0.736, -0.64, 0.312, 192.0, 0.0, 0.0, 0.0, 0.0, 0.0, 0.0, 0.0, 0.0, 0.0, 1.6635806364277503E9, 0.0, 2022-09-19 14:43:56.427
74.0, 9635.5241102605, 9831.481853900177, 9021.16406216193, 5613.931192628288, 29981.668887337317, 187500.0, 17532.350722831576, 19098.090421925834, 0.736, -0.64, 0.312, 192.0, 0.0, 0.0, 0.0, 0.0, 0.0, 0.0, 0.0, 0.0, 0.0, 1.6635806364317505E9, 0.0, 2022-09-19 14:43:56.431
75.0, 9647.012906910528, 9841.316621460512, 9043.873434528523, 5629.420951535815, 29992.621242120415, 187500.0, 17578.9988135098, 19101.040852193935, 0.738, -0.642, 0.31, 192.0, 23.0, 16.0, 235.0, 240.0, 9.0, 176.0, 0.0, 0.0, 0.0, 1.6635806364356685E9, 0.0, 2022-09-19 14:43:56.435
76.0, 9796.814298249996, 9931.170634170847, 9064.12411500503, 5708.8814030744325, 30103.91057776339, 187500.0, 17748.89442311459, 19144.0679602704, 0.738, -0.642, 0.31, 192.0, 0.0, 0.0, 0.0, 0.0, 0.0, 0.0, 0.0, 0.0, 0.0, 1.6635806364397676E9, 0.0, 2022-09-19 14:43:56.439
77.0, 9978.131649271447, 10037.162606377913, 9055.675155600924, 5787.470136579292, 30235.338835160597, 187500.0, 17901.53448599988, 19199.120306863824, 0.738, -0.642, 0.31, 192.0, 0.0, 0.0, 0.0, 0.0, 0.0, 0.0, 0.0, 0.0, 0.0, 1.6635806364437668E9, 0.0, 2022-09-19 14:43:56.443
78.0, 9794.266199382091, 9930.500081837188, 9011.843384724067, 5685.568533607547, 30099.90961550589, 187500.0, 17672.093829166155, 19152.56162316342, 0.738, -0.642, 0.31, 192.0, 0.0, 0.0, 0.0, 0.0, 0.0, 0.0, 0.0, 0.0, 0.0, 1.6635806364477308E9, 0.0, 2022-09-19 14:43:56.447
79.0, 9633.132473603782, 9838.61206038142, 9020.895841228466, 5610.399617004349, 29983.054695493545, 187500.0, 17532.261315853753, 19102.53841907244, 0.738, -0.642, 0.31, 192.0, 0.0, 0.0, 0.0, 0.0, 0.0, 0.0, 0.0, 0.0, 0.0, 1.6635806364528832E9, 0.0, 2022-09-19 14:43:56.452
80.0, 9650.119799389817, 9853.118342532915, 9045.728629318313, 5628.146902101863, 29996.08576251099, 187500.0, 17578.887054787523, 19107.522858085973, 0.738, -0.642, 0.31, 192.0, 0.0, 0.0, 0.0, 0.0, 0.0, 0.0, 0.0, 0.0, 0.0, 1.6635806364558337E9, 0.0, 2022-09-19 14:43:56.455
81.0, 9796.79194650554, 9942.435913376321, 9068.862684829555, 5705.975676295242, 30105.25168243071, 187500.0, 17746.212213779952, 19154.036838297467, 0.738, -0.642, 0.31, 192.0, 0.0, 0.0, 0.0, 0.0, 0.0, 0.0, 0.0, 0.0, 0.0, 1.6635806364597232E9, 0.0, 2022-09-19 14:43:56.459
82.0, 9995.186030290846, 10057.03330719868, 9062.648899870981, 5795.181488416372, 30249.599248123082, 187500.0, 17914.900829184156, 19217.493440806084, 0.738, -0.642, 0.31, 192.0, 0.0, 0.0, 0.0, 0.0, 0.0, 0.0, 0.0, 0.0, 0.0, 1.6635806364637108E9, 0.0, 2022-09-19 14:43:56.463
83.0, 9821.758845062119, 9954.103523981992, 9016.984285948789, 5701.393568681904, 30121.143772738433, 187500.0, 17690.846942764158, 19174.913367618727, 0.738, -0.642, 0.31, 192.0, 0.0, 0.0, 0.0, 0.0, 0.0, 0.0, 0.0, 0.0, 0.0, 1.663580636467723E9, 0.0, 2022-09-19 14:43:56.467
84.0, 9648.555177277944, 9855.577034422999, 9018.951239460856, 5623.408332277338, 29994.65525086585, 187500.0, 17533.624772265528, 19122.69969257113, 0.738, -0.642, 0.31, 192.0, 0.0, 0.0, 0.0, 0.0, 0.0, 0.0, 0.0, 0.0, 0.0, 1.663580636471786E9, 0.0, 2022-09-19 14:43:56.471
85.0, 9657.384116337791, 9864.070697316016, 9043.985193250799, 5640.038030152086, 30004.601777148462, 187500.0, 17574.148484963, 19124.621942594284, 0.734, -0.646, 0.308, 192.0, 22.0, 240.0, 235.0, 208.0, 9.0, 160.0, 0.0, 0.0, 0.0, 1.663580636475749E9, 0.0, 2022-09-19 14:43:56.475
86.0, 9794.042681937539, 9946.705096567286, 9068.214484240352, 5714.983429310731, 30106.0563452311, 187500.0, 17733.89640258508, 19164.02806806899, 0.734, -0.646, 0.308, 192.0, 0.0, 0.0, 0.0, 0.0, 0.0, 0.0, 0.0, 0.0, 0.0, 1.663580636480722E9, 0.0, 2022-09-19 14:43:56.480
87.0, 9997.845887881027, 10062.844760757062, 9063.02887952672, 5805.664456565912, 30251.722663846336, 187500.0, 17915.79489896237, 19224.04250193149, 0.734, -0.646, 0.308, 192.0, 0.0, 0.0, 0.0, 0.0, 0.0, 0.0, 0.0, 0.0, 0.0, 1.663580636483776E9, 0.0, 2022-09-19 14:43:56.483
88.0, 9838.366191192412, 9962.77600083065, 9018.50420457175, 5713.262344987673, 30131.403223443416, 187500.0, 17705.330873171195, 19180.925986877202, 0.734, -0.646, 0.308, 192.0, 0.0, 0.0, 0.0, 0.0, 0.0, 0.0, 0.0, 0.0, 0.0, 1.663580636486812E9, 0.0, 2022-09-19 14:43:56.486
89.0, 9654.903072703251, 9855.644089656364, 9020.381751105995, 5626.895204412366, 29997.248053222665, 187500.0, 17538.743321745795, 19121.1127187148, 0.734, -0.646, 0.308, 192.0, 0.0, 0.0, 0.0, 0.0, 0.0, 0.0, 0.0, 0.0, 0.0, 1.6635806364919152E9, 0.0, 2022-09-19 14:43:56.491
90.0, 9660.580415794899, 9862.349612992957, 9042.711143816847, 5640.708582485746, 30002.344250958475, 187500.0, 17577.322432675654, 19118.58697159135, 0.734, -0.646, 0.308, 192.0, 0.0, 0.0, 0.0, 0.0, 0.0, 0.0, 0.0, 0.0, 0.0, 1.6635806364957979E9, 0.0, 2022-09-19 14:43:56.495
91.0, 9787.448917323223, 9937.764398785162, 9062.246568470784, 5709.239030985717, 30095.34985963701, 187500.0, 17725.067463525233, 19152.472216185597, 0.734, -0.646, 0.308, 192.0, 0.0, 0.0, 0.0, 0.0, 0.0, 0.0, 0.0, 0.0, 0.0, 1.663580636499823E9, 0.0, 2022-09-19 14:43:56.499
92.0, 9994.984864590748, 10054.239339141768, 9059.854931814067, 5806.2008984328395, 30246.090024243596, 187500.0, 17915.012587906433, 19211.413766314243, 0.734, -0.646, 0.308, 192.0, 0.0, 0.0, 0.0, 0.0, 0.0, 0.0, 0.0, 0.0, 0.0, 1.663580636503786E9, 0.0, 2022-09-19 14:43:56.503
93.0, 9846.256356985135, 9961.412544418878, 9014.50324231425, 5720.951345080298, 30135.113613022997, 187500.0, 17717.289056454785, 19171.40414373924, 0.734, -0.646, 0.308, 192.0, 0.0, 0.0, 0.0, 0.0, 0.0, 0.0, 0.0, 0.0, 0.0, 1.663580636507913E9, 0.0, 2022-09-19 14:43:56.507
94.0, 9652.466732557623, 9848.066848286015, 9010.479928312294, 5626.40346603435, 29990.676640352805, 187500.0, 17538.251583367775, 19106.82995400786, 0.734, -0.646, 0.308, 192.0, 0.0, 0.0, 0.0, 0.0, 0.0, 0.0, 0.0, 0.0, 0.0, 1.6635806365118573E9, 0.0, 2022-09-19 14:43:56.511
95.0, 9653.405505824747, 9850.816112854018, 9033.41281812344, 5633.578376004502, 29990.14019848588, 187500.0, 17571.62273783955, 19100.97379696057, 0.734, -0.654, 0.308, 192.0, 22.0, 240.0, 235.0, 144.0, 9.0, 160.0, 0.0, 0.0, 0.0, 1.6635806365148504E9, 0.0, 2022-09-19 14:43:56.514
96.0, 9771.64623399332, 9921.939363710806, 9052.277690443718, 5696.386777923915, 30075.702676260793, 187500.0, 17711.991693018877, 19134.188489221156, 0.734, -0.654, 0.308, 192.0, 0.0, 0.0, 0.0, 0.0, 0.0, 0.0, 0.0, 0.0, 0.0, 1.6635806365198703E9, 0.0, 2022-09-19 14:43:56.519
97.0, 9989.3075214991, 10047.422057082898, 9053.149408477475, 5795.270895394194, 30231.963721747845, 187500.0, 17915.034939650886, 19196.862780673837, 0.734, -0.654, 0.308, 192.0, 0.0, 0.0, 0.0, 0.0, 0.0, 0.0, 0.0, 0.0, 0.0, 1.663580636523939E9, 0.0, 2022-09-19 14:43:56.523
98.0, 9855.062944300525, 9963.82653282005, 9009.49645155626, 5714.17876651034, 30130.35269145402, 187500.0, 17730.94597231698, 19159.98240232258, 0.734, -0.654, 0.308, 192.0, 0.0, 0.0, 0.0, 0.0, 0.0, 0.0, 0.0, 0.0, 0.0, 1.6635806365279477E9, 0.0, 2022-09-19 14:43:56.527
99.0, 9655.595976781366, 9845.116418017915, 9005.78606197668, 5614.646448450858, 29979.970154758714, 187500.0, 17543.303077614677, 19093.508314312498, 0.734, -0.654, 0.308, 192.0, 0.0, 0.0, 0.0, 0.0, 0.0, 0.0, 0.0, 0.0, 0.0, 1.66358063653192E9, 0.0, 2022-09-19 14:43:56.531
100.0, 9657.227654126604, 9847.99979305265, 9029.8812424995, 5619.139149086374, 29976.148006456853, 187500.0, 17575.064906485666, 19086.132238642247, 0.734, -0.654, 0.308, 192.0, 0.0, 0.0, 0.0, 0.0, 0.0, 0.0, 0.0, 0.0, 0.0, 1.6635806365358849E9, 0.0, 2022-09-19 14:43:56.535
101.0, 9769.723983970163, 9915.859689218962, 9048.79081830869, 5679.26534167115, 30057.12837661843, 187500.0, 17709.868277295624, 19116.485907612554, 0.734, -0.654, 0.308, 192.0, 0.0, 0.0, 0.0, 0.0, 0.0, 0.0, 0.0, 0.0, 0.0, 1.6635806365399213E9, 0.0, 2022-09-19 14:43:56.539
102.0, 9988.97224533227, 10043.041115169659, 9047.829693297112, 5785.346720856038, 30217.524494829715, 187500.0, 17916.621913507213, 19179.562530465428, 0.734, -0.654, 0.308, 192.0, 0.0, 0.0, 0.0, 0.0, 0.0, 0.0, 0.0, 0.0, 0.0, 1.6635806365429544E9, 0.0, 2022-09-19 14:43:56.542
103.0, 9870.083316574493, 9972.96839630227, 8998.320579328607, 5714.2234699992505, 30129.39156644244, 187500.0, 17746.12280680213, 19151.06405628491, 0.734, -0.654, 0.308, 192.0, 0.0, 0.0, 0.0, 0.0, 0.0, 0.0, 0.0, 0.0, 0.0, 1.6635806365478675E9, 0.0, 2022-09-19 14:43:56.547
104.0, 9662.234444884592, 9851.553720421043, 8988.329349557085, 5613.215936805718, 29975.097474467457, 187500.0, 17549.785083506715, 19090.043793921923, 0.734, -0.654, 0.308, 192.0, 0.0, 0.0, 0.0, 0.0, 0.0, 0.0, 0.0, 0.0, 0.0, 1.6635806365519428E9, 0.0, 2022-09-19 14:43:56.551
105.0, 9655.305404103447, 9850.749057620653, 9007.753015488746, 5618.468596752715, 29968.280192408587, 187500.0, 17574.684926829927, 19083.718250241072, 0.744, -0.648, 0.306, 192.0, 23.0, 64.0, 235.0, 192.0, 9.0, 144.0, 0.0, 0.0, 0.0, 1.663580636555974E9, 0.0, 2022-09-19 14:43:56.555
106.0, 9763.420792033767, 9917.267849119646, 9029.59066982158, 5680.31587366055, 30047.919457902844, 187500.0, 17703.766251059325, 19117.134108201757, 0.744, -0.648, 0.306, 192.0, 0.0, 0.0, 0.0, 0.0, 0.0, 0.0, 0.0, 0.0, 0.0, 1.6635806365600133E9, 0.0, 2022-09-19 14:43:56.560
107.0, 9989.285169754645, 10048.427885583387, 9035.178605935407, 5788.453613335325, 30213.79175350568, 187500.0, 17918.924143186112, 19184.18934156768, 0.744, -0.648, 0.306, 192.0, 0.0, 0.0, 0.0, 0.0, 0.0, 0.0, 0.0, 0.0, 0.0, 1.6635806365639558E9, 0.0, 2022-09-19 14:43:56.563
108.0, 9884.924874892817, 9984.367785974478, 8988.083480368075, 5724.639382915424, 30138.265208991197, 187500.0, 17761.143179076098, 19158.08250404388, 0.744, -0.648, 0.306, 192.0, 0.0, 0.0, 0.0, 0.0, 0.0, 0.0, 0.0, 0.0, 0.0, 1.6635806365679169E9, 0.0, 2022-09-19 14:43:56.567
109.0, 9665.788372252986, 9857.923967590807, 8974.515971483705, 5619.20620431974, 29980.148968714355, 187500.0, 17548.779255006226, 19090.937863700135, 0.744, -0.648, 0.306, 192.0, 0.0, 0.0, 0.0, 0.0, 0.0, 0.0, 0.0, 0.0, 0.0, 1.663580636570962E9, 0.0, 2022-09-19 14:43:56.570
110.0, 9654.76896223652, 9852.51484543262, 8996.73360547228, 5620.234384564685, 29971.65530582134, 187500.0, 17571.53333086173, 19085.662852008685, 0.744, -0.648, 0.306, 192.0, 0.0, 0.0, 0.0, 0.0, 0.0, 0.0, 0.0, 0.0, 0.0, 1.663580636575923E9, 0.0, 2022-09-19 14:43:56.575
111.0, 9756.044716363516, 9914.071549662536, 9021.141710417474, 5677.253684670172, 30044.00790262317, 187500.0, 17697.239541678377, 19120.486869870052, 0.744, -0.648, 0.306, 192.0, 0.0, 0.0, 0.0, 0.0, 0.0, 0.0, 0.0, 0.0, 0.0, 1.6635806365800006E9, 0.0, 2022-09-19 14:43:56.580
112.0, 9989.888666854938, 10052.428847840887, 9032.004658222755, 5792.588686059557, 30215.892817484477, 187500.0, 17919.88526819769, 19192.638300971783, 0.744, -0.648, 0.306, 192.0, 0.0, 0.0, 0.0, 0.0, 0.0, 0.0, 0.0, 0.0, 0.0, 1.6635806365839667E9, 0.0, 2022-09-19 14:43:56.583
113.0, 9907.030750159116, 10001.288056527144, 8989.134012357476, 5739.771513911666, 30154.023188832187, 187500.0, 17779.67277522955, 19175.203940296644, 0.744, -0.648, 0.306, 192.0, 0.0, 0.0, 0.0, 0.0, 0.0, 0.0, 0.0, 0.0, 0.0, 1.6635806365880368E9, 0.0, 2022-09-19 14:43:56.588
114.0, 9687.626026585822, 9873.033746842593, 8977.466401751804, 5634.673611482813, 29991.078971753, 187500.0, 17559.37398187804, 19109.73568078705, 0.744, -0.648, 0.306, 192.0, 0.0, 0.0, 0.0, 0.0, 0.0, 0.0, 0.0, 0.0, 0.0, 1.663580636590975E9, 0.0, 2022-09-19 14:43:56.590
115.0, 9673.34326187888, 9866.104706061447, 9000.220477607309, 5634.941832416276, 29980.752465814647, 187500.0, 17575.37783090804, 19101.577294060862, 0.74, -0.646, 0.308, 192.0, 23.0, 32.0, 235.0, 208.0, 9.0, 160.0, 0.0, 0.0, 0.0, 1.6635806365949986E9, 0.0, 2022-09-19 14:43:56.594
116.0, 9763.331385055946, 9919.72654100973, 9018.459501082838, 5685.233257440717, 30046.578353235527, 187500.0, 17686.466000850916, 19124.845460038836, 0.74, -0.646, 0.308, 192.0, 0.0, 0.0, 0.0, 0.0, 0.0, 0.0, 0.0, 0.0, 0.0, 1.6635806365990424E9, 0.0, 2022-09-19 14:43:56.599
117.0, 9992.526172700665, 10051.154798406935, 9026.30496338665, 5795.427357605381, 30213.054145938655, 187500.0, 17909.53641051488, 19190.492533504075, 0.74, -0.646, 0.308, 192.0, 0.0, 0.0, 0.0, 0.0, 0.0, 0.0, 0.0, 0.0, 0.0, 1.6635806366040688E9, 0.0, 2022-09-19 14:43:56.604
118.0, 9923.258116633668, 10006.428957751867, 8984.261332066219, 5748.488694249237, 30160.371084257495, 187500.0, 17786.311243332773, 19179.09314383187, 0.74, -0.646, 0.308, 192.0, 0.0, 0.0, 0.0, 0.0, 0.0, 0.0, 0.0, 0.0, 0.0, 1.6635806366080732E9, 0.0, 2022-09-19 14:43:56.608
119.0, 9696.611427856855, 9873.883113131895, 8968.212779547308, 5638.0934283844745, 29995.21404447723, 187500.0, 17558.301098144188, 19110.987378476548, 0.74, -0.646, 0.308, 192.0, 0.0, 0.0, 0.0, 0.0, 0.0, 0.0, 0.0, 0.0, 0.0, 1.6635806366120777E9, 0.0, 2022-09-19 14:43:56.612
120.0, 9676.874837502819, 9864.405973482844, 8990.609227491526, 5639.300422585061, 29981.89240478187, 187500.0, 17569.521673860752, 19102.091384183335, 0.74, -0.646, 0.308, 192.0, 0.0, 0.0, 0.0, 0.0, 0.0, 0.0, 0.0, 0.0, 0.0, 1.6635806366160364E9, 0.0, 2022-09-19 14:43:56.616
121.0, 9766.79590544652, 9918.608953786965, 9010.16700388992, 5690.709434832267, 30047.360664291464, 187500.0, 17676.69828852395, 19132.713274087106, 0.74, -0.646, 0.308, 192.0, 0.0, 0.0, 0.0, 0.0, 0.0, 0.0, 0.0, 0.0, 0.0, 1.6635806366190383E9, 0.0, 2022-09-19 14:43:56.619
122.0, 10003.657341439408, 10055.982775209282, 9022.192242406874, 5803.630447820478, 30220.251407653264, 187500.0, 17908.9776169035, 19205.199981355665, 0.74, -0.646, 0.308, 192.0, 0.0, 0.0, 0.0, 0.0, 0.0, 0.0, 0.0, 0.0, 0.0, 1.6635806366230483E9, 0.0, 2022-09-19 14:43:56.623
123.0, 9950.907224524883, 10021.874013170484, 8985.244808822252, 5761.452706033315, 30178.945383899856, 187500.0, 17805.086708675233, 19196.438097529186, 0.74, -0.646, 0.308, 192.0, 0.0, 0.0, 0.0, 0.0, 0.0, 0.0, 0.0, 0.0, 0.0, 1.6635806366270354E9, 0.0, 2022-09-19 14:43:56.627
124.0, 9717.130329266827, 9884.500191748166, 8972.973701116289, 5643.122570886919, 30008.35687021695, 187500.0, 17570.929833761435, 19127.93000077367, 0.74, -0.646, 0.308, 192.0, 0.0, 0.0, 0.0, 0.0, 0.0, 0.0, 0.0, 0.0, 0.0, 1.6635806366320767E9, 0.0, 2022-09-19 14:43:56.632
125.0, 9693.146907466282, 9871.357366008446, 8996.666550238913, 5639.1439603738745, 29990.654288608348, 187500.0, 17578.44001989842, 19116.35179714582, 0.736, -0.648, 0.31, 192.0, 23.0, 0.0, 235.0, 192.0, 9.0, 176.0, 0.0, 0.0, 0.0, 1.6635806366361358E9, 0.0, 2022-09-19 14:43:56.636
126.0, 9773.926111927762, 9918.877174720428, 9015.799643492657, 5683.512173117659, 30051.786309693613, 187500.0, 17678.911111225025, 19141.45280616913, 0.736, -0.648, 0.31, 192.0, 0.0, 0.0, 0.0, 0.0, 0.0, 0.0, 0.0, 0.0, 0.0, 1.6635806366401596E9, 0.0, 2022-09-19 14:43:56.640
127.0, 10007.255972296713, 10053.457028085832, 9028.78600702119, 5792.499279081736, 30225.50406760026, 187500.0, 17908.53058201439, 19209.67033024673, 0.736, -0.648, 0.31, 192.0, 0.0, 0.0, 0.0, 0.0, 0.0, 0.0, 0.0, 0.0, 0.0, 1.6635806366440852E9, 0.0, 2022-09-19 14:43:56.644
128.0, 9973.080155024547, 10028.020742895693, 8987.144707100953, 5754.970700141275, 30200.1795411324, 187500.0, 17817.871906503668, 19203.74711796607, 0.736, -0.648, 0.31, 192.0, 0.0, 0.0, 0.0, 0.0, 0.0, 0.0, 0.0, 0.0, 0.0, 1.6635806366471145E9, 0.0, 2022-09-19 14:43:56.647
129.0, 9741.538434212021, 9892.077433118515, 8968.860980136513, 5633.824245193511, 30030.641559438893, 187500.0, 17576.62952859754, 19135.44018691065, 0.736, -0.648, 0.31, 192.0, 0.0, 0.0, 0.0, 0.0, 0.0, 0.0, 0.0, 0.0, 0.0, 1.6635806366512523E9, 0.0, 2022-09-19 14:43:56.651
130.0, 9713.598753642887, 9878.018185856126, 8993.291436826163, 5625.397637533861, 30010.0332510511, 187500.0, 17580.0493454992, 19124.130204216268, 0.736, -0.648, 0.31, 192.0, 0.0, 0.0, 0.0, 0.0, 0.0, 0.0, 0.0, 0.0, 0.0, 1.6635806366551828E9, 0.0, 2022-09-19 14:43:56.655
131.0, 9787.471269067677, 9920.10652066547, 9007.618905022015, 5663.619120552436, 30065.219708111254, 187500.0, 17671.60209078814, 19142.324524202886, 0.736, -0.648, 0.31, 192.0, 0.0, 0.0, 0.0, 0.0, 0.0, 0.0, 0.0, 0.0, 0.0, 1.66358063665916E9, 0.0, 2022-09-19 14:43:56.659
132.0, 10022.164585848403, 10053.434676341376, 9021.633448795492, 5774.103793395018, 30236.903457272467, 187500.0, 17903.16616334512, 19206.474030789617, 0.736, -0.648, 0.31, 192.0, 0.0, 0.0, 0.0, 0.0, 0.0, 0.0, 0.0, 0.0, 0.0, 1.6635806366641505E9, 0.0, 2022-09-19 14:43:56.664
133.0, 10004.149079817424, 10036.581461022075, 8983.30020705464, 5750.835627417044, 30221.704271042858, 187500.0, 17829.62892408716, 19206.295216833976, 0.736, -0.648, 0.31, 192.0, 0.0, 0.0, 0.0, 0.0, 0.0, 0.0, 0.0, 0.0, 0.0, 1.663580636668149E9, 0.0, 2022-09-19 14:43:56.668
134.0, 9762.571425744465, 9894.200848841769, 8961.797828888635, 5628.750399202157, 30045.907800901867, 187500.0, 17577.05421174219, 19134.903745043724, 0.736, -0.648, 0.31, 192.0, 0.0, 0.0, 0.0, 0.0, 0.0, 0.0, 0.0, 0.0, 0.0, 1.6635806366721644E9, 0.0, 2022-09-19 14:43:56.672
135.0, 9719.901945579284, 9869.658633429843, 8985.40127103344, 5612.835957149978, 30017.968120332735, 187500.0, 17568.873473271546, 19114.45189886712, 0.736, -0.648, 0.31, 192.0, 0.0, 0.0, 0.0, 0.0, 0.0, 0.0, 0.0, 0.0, 0.0, 1.6635806366751547E9, 0.0, 2022-09-19 14:43:56.675
136.0, 9783.872638210374, 9904.952037924772, 9006.054282910143, 5649.090486656486, 30067.790158723612, 187500.0, 17658.079285392676, 19128.801718807426, 0.736, -0.65, 0.318, 192.0, 23.0, 0.0, 235.0, 176.0, 9.0, 240.0, 0.0, 0.0, 0.0, 1.6635806366791537E9, 0.0, 2022-09-19 14:43:56.679
137.0, 10015.771986934184, 10037.967269178303, 9022.706332529347, 5760.580987999558, 30240.479736385318, 187500.0, 17893.890189396167, 19196.37104229582, 0.736, -0.65, 0.318, 192.0, 0.0, 0.0, 0.0, 0.0, 0.0, 0.0, 0.0, 0.0, 0.0, 1.6635806366831155E9, 0.0, 2022-09-19 14:43:56.683
138.0, 10012.888611899449, 10029.69712372984, 8987.748204201247, 5742.096095335019, 30235.18237294941, 187500.0, 17837.34027592424, 19201.020205142522, 0.736, -0.65, 0.318, 192.0, 0.0, 0.0, 0.0, 0.0, 0.0, 0.0, 0.0, 0.0, 0.0, 1.6635806366871824E9, 0.0, 2022-09-19 14:43:56.687
139.0, 9767.98054790265, 9881.81798241353, 8962.11075331101, 5614.400579261849, 30053.105062616476, 187500.0, 17577.881226287034, 19127.013579251, 0.736, -0.65, 0.318, 192.0, 0.0, 0.0, 0.0, 0.0, 0.0, 0.0, 0.0, 0.0, 0.0, 1.6635806366921563E9, 0.0, 2022-09-19 14:43:56.692
140.0, 9720.863070590864, 9854.19122626677, 8983.568427988104, 5596.116852297408, 30016.448201709773, 187500.0, 17564.984269736324, 19105.555904573906, 0.736, -0.65, 0.318, 192.0, 0.0, 0.0, 0.0, 0.0, 0.0, 0.0, 0.0, 0.0, 0.0, 1.6635806366961796E9, 0.0, 2022-09-19 14:43:56.696
141.0, 9780.095193397427, 9889.596389483975, 9002.120375886008, 5625.956431145243, 30057.195431851796, 187500.0, 17647.0151718873, 19118.743433802538, 0.736, -0.65, 0.318, 192.0, 0.0, 0.0, 0.0, 0.0, 0.0, 0.0, 0.0, 0.0, 0.0, 1.6635806367001567E9, 0.0, 2022-09-19 14:43:56.700
142.0, 10003.634989694952, 10018.767120691195, 9017.16309990443, 5729.869691117966, 30220.430221608905, 187500.0, 17875.651165920637, 19181.976518866602, 0.736, -0.65, 0.318, 192.0, 0.0, 0.0, 0.0, 0.0, 0.0, 0.0, 0.0, 0.0, 0.0, 1.663580636703233E9, 0.0, 2022-09-19 14:43:56.703
143.0, 10013.715626444297, 10021.739902703752, 8979.992148875255, 5720.2137375132725, 30230.019119980232, 187500.0, 17837.273220690873, 19193.957053894646, 0.736, -0.65, 0.318, 192.0, 0.0, 0.0, 0.0, 0.0, 0.0, 0.0, 0.0, 0.0, 0.0, 1.6635806367071984E9, 0.0, 2022-09-19 14:43:56.707
144.0, 9769.478114781155, 9877.99583411167, 8955.651099163426, 5594.775747630089, 30052.7921381941, 187500.0, 17577.747115820304, 19128.64525659624, 0.736, -0.65, 0.318, 192.0, 0.0, 0.0, 0.0, 0.0, 0.0, 0.0, 0.0, 0.0, 0.0, 1.6635806367111669E9, 0.0, 2022-09-19 14:43:56.711
145.0, 9716.817404844453, 9850.726705876197, 8983.434317521373, 5577.050814277031, 30016.85053310997, 187500.0, 17560.58097607863, 19114.07191921138, 0.736, -0.65, 0.318, 192.0, 0.0, 0.0, 0.0, 0.0, 0.0, 0.0, 0.0, 0.0, 0.0, 1.663580636715181E9, 0.0, 2022-09-19 14:43:56.715
146.0, 9770.975681659662, 9884.544895237077, 9005.182564876386, 5611.338390271472, 30058.38007430793, 187500.0, 17639.415578772496, 19132.713274087106, 0.734, -0.648, 0.314, 192.0, 22.0, 240.0, 235.0, 192.0, 9.0, 208.0, 0.0, 0.0, 0.0, 1.663580636719226E9, 0.0, 2022-09-19 14:43:56.719
147.0, 9994.090794812537, 10013.492108999742, 9022.371056362517, 5720.839586358022, 30222.687747798893, 187500.0, 17867.470427449993, 19198.3826992968, 0.734, -0.648, 0.314, 192.0, 0.0, 0.0, 0.0, 0.0, 0.0, 0.0, 0.0, 0.0, 0.0, 1.6635806367242897E9, 0.0, 2022-09-19 14:43:56.724
148.0, 10024.511519016209, 10028.378370806977, 8990.765689702714, 5721.4430834583145, 30241.954951519365, 187500.0, 17846.81741557329, 19215.504135549563, 0.734, -0.648, 0.314, 192.0, 0.0, 0.0, 0.0, 0.0, 0.0, 0.0, 0.0, 0.0, 0.0, 1.6635806367271805E9, 0.0, 2022-09-19 14:43:56.727
149.0, 9781.302187598014, 9886.422441771323, 8963.29539576714, 5597.189736031263, 30060.503490031184, 187500.0, 17581.993947266812, 19149.611192895318, 0.734, -0.648, 0.314, 192.0, 0.0, 0.0, 0.0, 0.0, 0.0, 0.0, 0.0, 0.0, 0.0, 1.6635806367311857E9, 0.0, 2022-09-19 14:43:56.731
150.0, 9722.025361302538, 9854.861778600429, 8987.25646582323, 5578.570732899992, 30019.13041104441, 187500.0, 17555.37301962054, 19133.74145433205, 0.734, -0.648, 0.314, 192.0, 0.0, 0.0, 0.0, 0.0, 0.0, 0.0, 0.0, 0.0, 0.0, 1.6635806367352002E9, 0.0, 2022-09-19 14:43:56.735
151.0, 9768.069954880471, 9885.215447570736, 9005.96487593232, 5615.182890317785, 30059.117681874955, 187500.0, 17630.54193622374, 19152.405160952232, 0.734, -0.648, 0.314, 192.0, 0.0, 0.0, 0.0, 0.0, 0.0, 0.0, 0.0, 0.0, 0.0, 1.6635806367392733E9, 0.0, 2022-09-19 14:43:56.739
152.0, 9986.781774375651, 10017.783643935161, 9022.683980784892, 5730.339077751527, 30225.392308877985, 187500.0, 17859.736723868456, 19220.242705374087, 0.734, -0.648, 0.314, 192.0, 0.0, 0.0, 0.0, 0.0, 0.0, 0.0, 0.0, 0.0, 0.0, 1.6635806367432368E9, 0.0, 2022-09-19 14:43:56.743
153.0, 10037.028495911181, 10047.690278016362, 8991.771518203203, 5748.958080882798, 30262.22798374033, 187500.0, 17859.02146804589, 19242.594449829394, 0.734, -0.648, 0.314, 192.0, 0.0, 0.0, 0.0, 0.0, 0.0, 0.0, 0.0, 0.0, 0.0, 1.6635806367472267E9, 0.0, 2022-09-19 14:43:56.747
154.0, 9794.690882526742, 9907.924819937327, 8961.663718421903, 5629.957393402743, 30083.43637984233, 187500.0, 17591.471086915863, 19174.622794940806, 0.734, -0.648, 0.314, 192.0, 0.0, 0.0, 0.0, 0.0, 0.0, 0.0, 0.0, 0.0, 0.0, 1.6635806367522447E9, 0.0, 2022-09-19 14:43:56.752
155.0, 9724.081721792427, 9872.094973575471, 8981.132087842476, 5607.069207080509, 30033.167306562344, 187500.0, 17554.255432397775, 19150.371152206797, 0.734, -0.648, 0.314, 192.0, 0.0, 0.0, 0.0, 0.0, 0.0, 0.0, 0.0, 0.0, 0.0, 1.6635806367552142E9, 0.0, 2022-09-19 14:43:56.755
156.0, 9771.780344460052, 9906.203735614268, 8998.387634561972, 5640.775637719112, 30072.1487488924, 187500.0, 17627.949133866925, 19169.683059416184, 0.742, -0.646, 0.308, 192.0, 23.0, 48.0, 235.0, 208.0, 9.0, 160.0, 0.0, 0.0, 0.0, 1.6635806367593863E9, 0.0, 2022-09-19 14:43:56.759
157.0, 9987.184105775847, 10033.340458076056, 9016.045512681665, 5748.488694249237, 30233.617750837537, 187500.0, 17852.85238657622, 19235.352484625877, 0.742, -0.646, 0.308, 192.0, 0.0, 0.0, 0.0, 0.0, 0.0, 0.0, 0.0, 0.0, 0.0, 1.6635806367632213E9, 0.0, 2022-09-19 14:43:56.763
158.0, 10052.94293796336, 10070.80198178315, 8985.311864055619, 5772.539171283147, 30282.098684561097, 187500.0, 17869.951471084532, 19263.314516939463, 0.742, -0.646, 0.308, 192.0, 0.0, 0.0, 0.0, 0.0, 0.0, 0.0, 0.0, 0.0, 0.0, 1.6635806367673087E9, 0.0, 2022-09-19 14:43:56.767
159.0, 9813.332237402468, 9934.366933627956, 8952.812427617602, 5654.164332647841, 30110.32552842206, 187500.0, 17602.021110298767, 19202.674234232218, 0.742, -0.646, 0.308, 192.0, 0.0, 0.0, 0.0, 0.0, 0.0, 0.0, 0.0, 0.0, 0.0, 1.6635806367713132E9, 0.0, 2022-09-19 14:43:56.771
160.0, 9736.174015542749, 9892.882095918905, 8971.453782493327, 5626.179948589796, 30057.865984185457, 187500.0, 17558.18933942191, 19181.015393855025, 0.742, -0.646, 0.308, 192.0, 0.0, 0.0, 0.0, 0.0, 0.0, 0.0, 0.0, 0.0, 0.0, 1.6635806367753055E9, 0.0, 2022-09-19 14:43:56.775
161.0, 9783.090327154438, 9923.77220675614, 8990.631579235982, 5658.299405372072, 30097.830903271548, 187500.0, 17628.284410033753, 19197.46627777413, 0.742, -0.646, 0.308, 192.0, 0.0, 0.0, 0.0, 0.0, 0.0, 0.0, 0.0, 0.0, 0.0, 1.6635806367803707E9, 0.0, 2022-09-19 14:43:56.780
162.0, 9994.940161101838, 10051.668888529408, 9010.010541678732, 5767.040642147141, 30260.37278895054, 187500.0, 17852.24888947593, 19260.922880282746, 0.742, -0.646, 0.308, 192.0, 0.0, 0.0, 0.0, 0.0, 0.0, 0.0, 0.0, 0.0, 0.0, 1.663580636783369E9, 0.0, 2022-09-19 14:43:56.783
163.0, 10081.933150521892, 10102.80967984315, 8985.758898944725, 5799.00363671823, 30327.830353716658, 187500.0, 17891.0738695948, 19295.43397372174, 0.742, -0.646, 0.308, 192.0, 0.0, 0.0, 0.0, 0.0, 0.0, 0.0, 0.0, 0.0, 0.0, 1.6635806367863865E9, 0.0, 2022-09-19 14:43:56.786
164.0, 9849.609118653432, 9967.961605544282, 8949.705535138313, 5676.739594547701, 30162.87447963649, 187500.0, 17623.702302420414, 19233.832566002915, 0.742, -0.646, 0.308, 192.0, 0.0, 0.0, 0.0, 0.0, 0.0, 0.0, 0.0, 0.0, 0.0, 1.6635806367913387E9, 0.0, 2022-09-19 14:43:56.791
165.0, 9769.746335714619, 9926.543823068598, 8966.692860924348, 5640.775637719112, 30112.33718542304, 187500.0, 17575.176665207942, 19211.056138402957, 0.742, -0.646, 0.308, 192.0, 0.0, 0.0, 0.0, 0.0, 0.0, 0.0, 0.0, 0.0, 0.0, 1.6635806367953224E9, 0.0, 2022-09-19 14:43:56.795
166.0, 9815.857984525917, 9958.529169384143, 8982.115564598509, 5667.620082809935, 30154.604334188025, 187500.0, 17641.248421817832, 19228.110519422356, 0.738, -0.65, 0.306, 192.0, 23.0, 16.0, 235.0, 176.0, 9.0, 144.0, 0.0, 0.0, 0.0, 1.6635806367993698E9, 0.0, 2022-09-19 14:43:56.799
167.0, 10025.673809727885, 10085.80000231266, 9001.248657852251, 5771.890970693943, 30316.229798344353, 187500.0, 17859.893186079644, 19295.38927023283, 0.738, -0.65, 0.306, 192.0, 0.0, 0.0, 0.0, 0.0, 0.0, 0.0, 0.0, 0.0, 0.0, 1.6635806368033285E9, 0.0, 2022-09-19 14:43:56.803
168.0, 10129.587069700608, 10149.122494354546, 8979.388651774962, 5812.43703513587, 30401.792276119268, 187500.0, 17913.760890216934, 19339.913945187804, 0.738, -0.65, 0.306, 192.0, 0.0, 0.0, 0.0, 0.0, 0.0, 0.0, 0.0, 0.0, 0.0, 1.6635806368093743E9, 0.0, 2022-09-19 14:43:56.809
169.0, 9905.287314091602, 10023.483338771264, 8942.441218190339, 5698.599600624991, 30244.525402131727, 187500.0, 17650.502044022327, 19286.895607339815, 0.738, -0.65, 0.306, 192.0, 0.0, 0.0, 0.0, 0.0, 0.0, 0.0, 0.0, 0.0, 0.0, 1.6635806368123636E9, 0.0, 2022-09-19 14:43:56.812
170.0, 9821.334161917468, 9982.937274329339, 8958.310956753607, 5669.385870621904, 30191.864692195024, 187500.0, 17591.18051423794, 19265.929671040736, 0.738, -0.65, 0.306, 192.0, 0.0, 0.0, 0.0, 0.0, 0.0, 0.0, 0.0, 0.0, 0.0, 1.663580636816435E9, 0.0, 2022-09-19 14:43:56.816
171.0, 9869.725688663208, 10018.70006545783, 8976.72879418478, 5705.1263100059405, 30237.104622972565, 187500.0, 17654.145378368543, 19286.269758495066, 0.738, -0.65, 0.306, 192.0, 0.0, 0.0, 0.0, 0.0, 0.0, 0.0, 0.0, 0.0, 0.0, 1.6635806368194408E9, 0.0, 2022-09-19 14:43:56.819
172.0, 10068.209179426334, 10137.700752937884, 8993.336140315074, 5808.7713490452, 30393.700944626446, 187500.0, 17864.430590204072, 19345.79245397955, 0.738, -0.65, 0.306, 192.0, 0.0, 0.0, 0.0, 0.0, 0.0, 0.0, 0.0, 0.0, 0.0, 1.6635806368234298E9, 0.0, 2022-09-19 14:43:56.823
