%OpenBCI Raw EEG Data
%Number of channels = 8
%Sample Rate = 250 Hz
%Board = OpenBCI_GUI$BoardCytonSerial
Sample Index, EXG Channel 0, EXG Channel 1, EXG Channel 2, EXG Channel 3, EXG Channel 4, EXG Channel 5, EXG Channel 6, EXG Channel 7, Accel Channel 0, Accel Channel 1, Accel Channel 2, Other, Other, Other, Other, Other, Other, Other, Analog Channel 0, Analog Channel 1, Analog Channel 2, Timestamp, Other, Timestamp (Formatted)
201.0, -34169.93876337275, -11905.075538763469, -39464.70939692371, -50338.18487384139, -72750.70372232243, -187500.02235174447, -28157.207746172877, -23354.890746461242, 0.0, 0.0, 0.0, 192.0, 0.0, 0.0, 0.0, 0.0, 0.0, 0.0, 0.0, 0.0, 0.0, 1.6634991317716007E9, 0.0, 2022-09-18 16:05:31.771
202.0, -33728.53651386935, -10344.767313571849, -39839.391689228025, -50710.296715533346, -72458.56642229157, -187500.02235174447, -28406.541455571827, -23682.008526564663, 0.0, 0.0, 0.0, 192.0, 0.0, 0.0, 0.0, 0.0, 0.0, 0.0, 0.0, 0.0, 0.0, 1.6634991317716277E9, 0.0, 2022-09-18 16:05:31.771
203.0, -33963.5651068169, -9277.292701875294, -40031.996671199406, -50902.678180060175, -71622.87940059655, -187500.02235174447, -28565.8423383048, -23870.858415467552, 0.0, 0.0, 0.0, 192.0, 0.0, 0.0, 0.0, 0.0, 0.0, 0.0, 0.0, 0.0, 0.0, 1.6634991317716403E9, 0.0, 2022-09-18 16:05:31.771
0.0, 0.0, 0.0, 0.0, 0.0, 0.0, 0.0, 0.0, 0.0, 0.0, 0.0, 0.0, 192.0, 0.0, 0.0, 0.0, 0.0, 0.0, 0.0, 0.0, 0.0, 0.0, 1.6634991318705273E9, 0.0, 2022-09-18 16:05:31.870
1.0, -34364.77891978966, -16302.55774290058, -41613.6731640903, -51365.80632517413, -71036.43668132267, -187500.02235174447, -27756.68683727823, -23636.43331962029, 0.658, -0.666, 0.41200000000000003, 192.0, 20.0, 144.0, 235.0, 48.0, 12.0, 224.0, 0.0, 0.0, 0.0, 1.6634991318875601E9, 0.0, 2022-09-18 16:05:31.887
2.0, -34284.960840339765, -15471.899863708004, -41713.92073797235, -51451.05587852668, -71489.79711410965, -187500.02235174447, -27859.79543445056, -23703.399146008393, 0.658, -0.666, 0.41200000000000003, 192.0, 0.0, 0.0, 0.0, 0.0, 0.0, 0.0, 0.0, 0.0, 0.0, 1.6634991318915565E9, 0.0, 2022-09-18 16:05:31.891
3.0, -34604.94841396194, -15963.928814402678, -41583.833585242464, -51355.189246557864, -71685.6207472826, -187500.02235174447, -27750.54010755302, -23652.30305818356, 0.658, -0.666, 0.41200000000000003, 192.0, 0.0, 0.0, 0.0, 0.0, 0.0, 0.0, 0.0, 0.0, 0.0, 1.6634991318945527E9, 0.0, 2022-09-18 16:05:31.894
4.0, -34646.61206562663, -16862.871272906217, -41469.28089490902, -51260.64136751192, -71345.36014143947, -187500.02235174447, -27619.31301585591, -23571.56855721099, 0.658, -0.666, 0.41200000000000003, 192.0, 0.0, 0.0, 0.0, 0.0, 0.0, 0.0, 0.0, 0.0, 0.0, 1.6634991318985643E9, 0.0, 2022-09-18 16:05:31.898
5.0, -34463.77479598222, -16675.474247392922, -41548.13784934734, -51318.085350762056, -70799.93287324105, -187500.02235174447, -27680.80266485246, -23601.989281414662, 0.658, -0.666, 0.41200000000000003, 192.0, 0.0, 0.0, 0.0, 0.0, 0.0, 0.0, 0.0, 0.0, 0.0, 1.6634991319025004E9, 0.0, 2022-09-18 16:05:31.902
6.0, -34368.57871634707, -16183.378241464883, -41627.106562507935, -51364.33111004008, -71062.0741322129, -187500.02235174447, -27774.031790975547, -23638.064996965528, 0.658, -0.666, 0.41200000000000003, 192.0, 0.0, 0.0, 0.0, 0.0, 0.0, 0.0, 0.0, 0.0, 0.0, 1.663499131905579E9, 0.0, 2022-09-18 16:05:31.905
7.0, -34315.26980582116, -15472.43630557493, -41704.68946751231, -51433.2415381958, -71586.28959492322, -187500.02235174447, -27850.899440157347, -23690.41278247986, 0.658, -0.666, 0.41200000000000003, 192.0, 0.0, 0.0, 0.0, 0.0, 0.0, 0.0, 0.0, 0.0, 0.0, 1.6634991319105687E9, 0.0, 2022-09-18 16:05:31.910
8.0, -34606.401277351535, -16001.345634620862, -41563.135869876845, -51333.55275792513, -71771.92083262454, -187500.02235174447, -27719.761755438063, -23634.891049252874, 0.646, -0.672, 0.418, 192.0, 20.0, 48.0, 235.0, 0.0, 13.0, 16.0, 0.0, 0.0, 0.0, 1.663499131914598E9, 0.0, 2022-09-18 16:05:31.914
9.0, -34641.985254524385, -16834.484557447977, -41472.09721471038, -51263.92707394685, -71362.77215037015, -187500.02235174447, -27610.95346342963, -23576.396534013336, 0.646, -0.672, 0.418, 192.0, 0.0, 0.0, 0.0, 0.0, 0.0, 0.0, 0.0, 0.0, 0.0, 1.6634991319185984E9, 0.0, 2022-09-18 16:05:31.918
10.0, -34493.25674691877, -16665.77359029932, -41550.417727281776, -51321.12518800798, -70868.9774118635, -187500.02235174447, -27683.86485384284, -23606.929016939284, 0.646, -0.672, 0.418, 192.0, 0.0, 0.0, 0.0, 0.0, 0.0, 0.0, 0.0, 0.0, 0.0, 1.6634991319224951E9, 0.0, 2022-09-18 16:05:31.922
11.0, -34391.10927475802, -16186.842761855456, -41615.88598679137, -51361.09010709407, -71164.1992526292, -187500.02235174447, -27758.74319776812, -23633.460537607734, 0.646, -0.672, 0.418, 192.0, 0.0, 0.0, 0.0, 0.0, 0.0, 0.0, 0.0, 0.0, 0.0, 1.6634991319266033E9, 0.0, 2022-09-18 16:05:31.926
12.0, -34355.88292549645, -15526.773396345783, -41703.63893552291, -51437.46601789785, -71737.78971884129, -187500.02235174447, -27859.326047816998, -23692.02210808064, 0.646, -0.672, 0.418, 192.0, 0.0, 0.0, 0.0, 0.0, 0.0, 0.0, 0.0, 0.0, 0.0, 1.6634991319306197E9, 0.0, 2022-09-18 16:05:31.930
13.0, -34626.92017876151, -16059.661335904759, -41573.79765198203, -51350.36126975552, -71874.24711874094, -187500.02235174447, -27733.798650955996, -23650.514918627134, 0.646, -0.672, 0.418, 192.0, 0.0, 0.0, 0.0, 0.0, 0.0, 0.0, 0.0, 0.0, 0.0, 1.663499131933617E9, 0.0, 2022-09-18 16:05:31.933
14.0, -34646.36619643762, -16848.43204598809, -41488.57045037395, -51280.132088676946, -71438.03047395116, -187500.02235174447, -27630.08655668337, -23594.14381911085, 0.646, -0.672, 0.418, 192.0, 0.0, 0.0, 0.0, 0.0, 0.0, 0.0, 0.0, 0.0, 0.0, 1.6634991319378524E9, 0.0, 2022-09-18 16:05:31.937
15.0, -34500.67752607793, -16672.30029968027, -41557.4585267852, -51332.65868814691, -70996.31530002538, -187500.02235174447, -27678.746304362572, -23621.189429901773, 0.646, -0.672, 0.418, 192.0, 0.0, 0.0, 0.0, 0.0, 0.0, 0.0, 0.0, 0.0, 0.0, 1.6634991319425397E9, 0.0, 2022-09-18 16:05:31.942
16.0, -34406.2190540098, -16189.122639789897, -41624.022021773104, -51371.17074384341, -71309.35148112196, -187500.02235174447, -27755.88217447784, -23646.670418580823, 0.646, -0.672, 0.418, 192.0, 0.0, 0.0, 0.0, 0.0, 0.0, 0.0, 0.0, 0.0, 0.0, 1.6634991319466069E9, 0.0, 2022-09-18 16:05:31.946
17.0, -34369.74100705874, -15550.153321046035, -41687.05394113707, -51424.904337513966, -71906.94772087905, -187500.02235174447, -27839.544753974053, -23686.590634178, 0.646, -0.672, 0.418, 192.0, 0.0, 0.0, 0.0, 0.0, 0.0, 0.0, 0.0, 0.0, 0.0, 1.6634991319506292E9, 0.0, 2022-09-18 16:05:31.950
18.0, -34634.631530598585, -16105.70592948269, -41566.80155596752, -51350.42832498888, -72047.87546966976, -187500.02235174447, -27723.561551995463, -23655.432302407302, 0.646, -0.666, 0.424, 192.0, 20.0, 48.0, 235.0, 48.0, 13.0, 64.0, 0.0, 0.0, 0.0, 1.6634991319546263E9, 0.0, 2022-09-18 16:05:31.954
19.0, -34626.741364805865, -16831.33296147978, -41480.523822370036, -51276.73462351974, -71556.80764398667, -187500.02235174447, -27616.630806521276, -23589.226435330682, 0.646, -0.666, 0.424, 192.0, 0.0, 0.0, 0.0, 0.0, 0.0, 0.0, 0.0, 0.0, 0.0, 1.6634991319576435E9, 0.0, 2022-09-18 16:05:31.957
20.0, -34484.07017994764, -16632.000104427352, -41546.48382025764, -51323.181548497865, -71094.03712678398, -187500.02235174447, -27670.90084205876, -23613.85805772043, 0.646, -0.666, 0.424, 192.0, 0.0, 0.0, 0.0, 0.0, 0.0, 0.0, 0.0, 0.0, 0.0, 1.6634991319615843E9, 0.0, 2022-09-18 16:05:31.961
21.0, -34416.746725648256, -16184.071145542997, -41625.51958865161, -51377.31747356862, -71444.31131414311, -187500.02235174447, -27762.00655245859, -23654.649991351365, 0.646, -0.666, 0.424, 192.0, 0.0, 0.0, 0.0, 0.0, 0.0, 0.0, 0.0, 0.0, 0.0, 1.6634991319657023E9, 0.0, 2022-09-18 16:05:31.965
22.0, -34389.32113520159, -15589.80531570975, -41683.745882957686, -51430.55932886116, -72043.22630682305, -187500.02235174447, -27830.31348351401, -23689.697526657288, 0.646, -0.666, 0.424, 192.0, 0.0, 0.0, 0.0, 0.0, 0.0, 0.0, 0.0, 0.0, 0.0, 1.6634991319706612E9, 0.0, 2022-09-18 16:05:31.970
23.0, -34625.17674269399, -16144.888537512845, -41558.21848609668, -51349.042516832655, -72129.1240607648, -187500.02235174447, -27702.126229062826, -23655.02997100711, 0.646, -0.666, 0.424, 192.0, 0.0, 0.0, 0.0, 0.0, 0.0, 0.0, 0.0, 0.0, 0.0, 1.6634991319746687E9, 0.0, 2022-09-18 16:05:31.974
24.0, -34630.76467880782, -16832.294086491358, -41492.01261902006, -51313.27972570417, -71614.653958637, -187500.02235174447, -27639.2731236545, -23628.09611893846, 0.646, -0.666, 0.424, 192.0, 0.0, 0.0, 0.0, 0.0, 0.0, 0.0, 0.0, 0.0, 0.0, 1.6634991319786775E9, 0.0, 2022-09-18 16:05:31.978
25.0, -34494.68725856391, -16618.276133331794, -41512.97855531914, -51351.65767093393, -71142.49570876309, -187500.02235174447, -27683.931909076204, -23637.7297207987, 0.646, -0.666, 0.424, 192.0, 0.0, 0.0, 0.0, 0.0, 0.0, 0.0, 0.0, 0.0, 0.0, 1.6634991319816751E9, 0.0, 2022-09-18 16:05:31.981
26.0, -34408.78950462217, -16160.244185953641, -41561.16891636478, -51384.85001145006, -71472.45216041233, -187500.02235174447, -27760.911316980284, -23651.185470960794, 0.646, -0.666, 0.424, 192.0, 0.0, 0.0, 0.0, 0.0, 0.0, 0.0, 0.0, 0.0, 0.0, 1.6634991319856825E9, 0.0, 2022-09-18 16:05:31.985
27.0, -34383.50968164321, -15584.37384180711, -41605.73829480867, -51423.786750291205, -72059.87835644226, -187500.02235174447, -27830.246428280643, -23678.566357918546, 0.646, -0.666, 0.424, 192.0, 0.0, 0.0, 0.0, 0.0, 0.0, 0.0, 0.0, 0.0, 0.0, 1.6634991319896677E9, 0.0, 2022-09-18 16:05:31.989
28.0, -34604.68019302848, -16114.959551687189, -41465.45874660716, -51327.24956598873, -72126.9782932971, -187500.02235174447, -27681.71908637513, -23630.644217806366, 0.65, -0.678, 0.42, 192.0, 20.0, 80.0, 234.0, 208.0, 13.0, 32.0, 0.0, 0.0, 0.0, 1.6634991319937632E9, 0.0, 2022-09-18 16:05:31.993
29.0, -34602.690887771954, -16761.88609145714, -41413.91562389322, -51295.39833013992, -71571.33627788261, -187500.02235174447, -27603.97971915957, -23595.976662156187, 0.65, -0.678, 0.42, 192.0, 0.0, 0.0, 0.0, 0.0, 0.0, 0.0, 0.0, 0.0, 0.0, 1.6634991319979415E9, 0.0, 2022-09-18 16:05:31.997
30.0, -34489.61341257255, -16573.729106632367, -41490.224479463635, -51345.39918248644, -71160.91354619426, -187500.02235174447, -27690.928005090715, -23620.652988034846, 0.65, -0.678, 0.42, 192.0, 0.0, 0.0, 0.0, 0.0, 0.0, 0.0, 0.0, 0.0, 0.0, 1.66349913200272E9, 0.0, 2022-09-18 16:05:32.002
31.0, -34393.746780603746, -16109.66218825128, -41545.43328826824, -51370.9248746544, -71582.08746696562, -187500.02235174447, -27763.124139681357, -23634.421662619312, 0.65, -0.678, 0.42, 192.0, 0.0, 0.0, 0.0, 0.0, 0.0, 0.0, 0.0, 0.0, 0.0, 1.6634991320067575E9, 0.0, 2022-09-18 16:05:32.006
32.0, -34391.93628930286, -15545.817082621705, -41588.39334111135, -51414.5331280867, -72195.88872145281, -187500.02235174447, -27809.68282338176, -23667.09991301297, 0.65, -0.678, 0.42, 192.0, 0.0, 0.0, 0.0, 0.0, 0.0, 0.0, 0.0, 0.0, 0.0, 1.663499132009708E9, 0.0, 2022-09-18 16:05:32.009
33.0, -34622.60629208163, -16153.225738194675, -41448.5831795434, -51323.56152815361, -72294.2140453117, -187500.02235174447, -27659.009714008538, -23618.328406611494, 0.65, -0.678, 0.42, 192.0, 0.0, 0.0, 0.0, 0.0, 0.0, 0.0, 0.0, 0.0, 0.0, 1.6634991320137093E9, 0.0, 2022-09-18 16:05:32.013
34.0, -34599.09225691465, -16779.45456259901, -41403.0750278324, -51289.02808297016, -71738.99671304187, -187500.02235174447, -27586.724172440074, -23581.85035966043, 0.65, -0.678, 0.42, 192.0, 0.0, 0.0, 0.0, 0.0, 0.0, 0.0, 0.0, 0.0, 0.0, 1.6634991320177975E9, 0.0, 2022-09-18 16:05:32.017
35.0, -34520.25765422078, -16579.33939449065, -41509.60344190639, -51372.042461877165, -71317.62162657043, -187500.02235174447, -27700.651013928775, -23644.815223791033, 0.65, -0.678, 0.42, 192.0, 0.0, 0.0, 0.0, 0.0, 0.0, 0.0, 0.0, 0.0, 0.0, 1.6634991320217113E9, 0.0, 2022-09-18 16:05:32.021
36.0, -34448.03916788568, -16127.655342537802, -41559.87251518638, -51395.35533134405, -71766.86933837764, -187500.02235174447, -27768.555613583998, -23652.6830378393, 0.65, -0.678, 0.42, 192.0, 0.0, 0.0, 0.0, 0.0, 0.0, 0.0, 0.0, 0.0, 0.0, 1.6634991320257444E9, 0.0, 2022-09-18 16:05:32.025
37.0, -34401.771056863196, -15566.313632287221, -41558.88903843034, -51402.731407014304, -72374.30034569507, -187500.02235174447, -27788.962756271692, -23649.419683148826, 0.65, -0.678, 0.42, 192.0, 0.0, 0.0, 0.0, 0.0, 0.0, 0.0, 0.0, 0.0, 0.0, 1.6634991320307724E9, 0.0, 2022-09-18 16:05:32.030
38.0, -34630.22823694089, -16192.788325880567, -41441.05064166196, -51334.13390328096, -72450.58684952103, -187500.02235174447, -27659.255583197544, -23627.96200847173, 0.644, -0.672, 0.422, 192.0, 20.0, 32.0, 235.0, 0.0, 13.0, 48.0, 0.0, 0.0, 0.0, 1.6634991320347707E9, 0.0, 2022-09-18 16:05:32.034
39.0, -34608.39058260806, -16797.648882585632, -41413.4238855152, -51310.21753671379, -71882.94194733405, -187500.02235174447, -27602.437448792156, -23602.302205837037, 0.644, -0.672, 0.422, 192.0, 0.0, 0.0, 0.0, 0.0, 0.0, 0.0, 0.0, 0.0, 0.0, 1.6634991320377705E9, 0.0, 2022-09-18 16:05:32.037
40.0, -34504.902005779986, -16573.907920588008, -41473.6394850778, -51347.34378425405, -71443.52900308717, -187500.02235174447, -27666.586955378887, -23614.86388622092, 0.644, -0.672, 0.422, 192.0, 0.0, 0.0, 0.0, 0.0, 0.0, 0.0, 0.0, 0.0, 0.0, 1.663499132041768E9, 0.0, 2022-09-18 16:05:32.041
41.0, -34415.02564132519, -16099.201571846197, -41510.96689831816, -51362.11828733901, -71885.2665287574, -187500.02235174447, -27721.751060694583, -23616.942598455265, 0.644, -0.672, 0.422, 192.0, 0.0, 0.0, 0.0, 0.0, 0.0, 0.0, 0.0, 0.0, 0.0, 1.6634991320458136E9, 0.0, 2022-09-18 16:05:32.045
42.0, -34413.34926049105, -15572.75093469035, -41550.66359647079, -51403.35725585905, -72487.33311740555, -187500.02235174447, -27786.727581826162, -23648.905593026353, 0.644, -0.672, 0.422, 192.0, 0.0, 0.0, 0.0, 0.0, 0.0, 0.0, 0.0, 0.0, 0.0, 1.663499132049758E9, 0.0, 2022-09-18 16:05:32.049
43.0, -34639.817135312216, -16223.365512295428, -41433.316938080425, -51333.99979281423, -72540.15028955345, -187500.02235174447, -27663.256545455046, -23625.480964837192, 0.644, -0.672, 0.422, 192.0, 0.0, 0.0, 0.0, 0.0, 0.0, 0.0, 0.0, 0.0, 0.0, 1.6634991320537543E9, 0.0, 2022-09-18 16:05:32.053
44.0, -34606.84831224064, -16794.832562784264, -41398.04588532995, -51307.1106442345, -71966.62687857472, -187500.02235174447, -27591.12746609777, -23597.943615668253, 0.644, -0.672, 0.422, 192.0, 0.0, 0.0, 0.0, 0.0, 0.0, 0.0, 0.0, 0.0, 0.0, 1.6634991320588596E9, 0.0, 2022-09-18 16:05:32.058
45.0, -34507.4948081368, -16573.460885698903, -41468.85621176437, -51353.15523781243, -71563.0437806897, -187500.02235174447, -27658.786196563986, -23624.16221191433, 0.644, -0.672, 0.422, 192.0, 0.0, 0.0, 0.0, 0.0, 0.0, 0.0, 0.0, 0.0, 0.0, 1.6634991320628452E9, 0.0, 2022-09-18 16:05:32.062
46.0, -34419.116010560516, -16102.107298625388, -41523.37211649086, -51373.18240084439, -72027.98241710453, -187500.02235174447, -27750.897735464307, -23627.939656727274, 0.644, -0.672, 0.422, 192.0, 0.0, 0.0, 0.0, 0.0, 0.0, 0.0, 0.0, 0.0, 0.0, 1.6634991320658352E9, 0.0, 2022-09-18 16:05:32.065
47.0, -34425.64271994147, -15589.60415000965, -41556.162125606796, -51411.22506990732, -72623.56699986065, -187500.02235174447, -27794.662451107797, -23656.34872392997, 0.644, -0.672, 0.422, 192.0, 0.0, 0.0, 0.0, 0.0, 0.0, 0.0, 0.0, 0.0, 0.0, 1.663499132069861E9, 0.0, 2022-09-18 16:05:32.069
48.0, -34632.50811487533, -16238.475291547215, -41418.989469884575, -51322.80156884212, -72660.22386076735, -187500.02235174447, -27632.254675895536, -23623.357549113938, 0.644, -0.68, 0.422, 192.0, 20.0, 32.0, 234.0, 192.0, 13.0, 48.0, 0.0, 0.0, 0.0, 1.6634991320738373E9, 0.0, 2022-09-18 16:05:32.073
49.0, -34600.61217553761, -16789.155219692617, -41404.84081564436, -51312.58682162605, -72089.02503121198, -187500.02235174447, -27585.159550328204, -23609.298301851548, 0.644, -0.68, 0.422, 192.0, 0.0, 0.0, 0.0, 0.0, 0.0, 0.0, 0.0, 0.0, 0.0, 1.6634991320778308E9, 0.0, 2022-09-18 16:05:32.077
50.0, -34496.721267309345, -16537.36281840358, -41469.70557805367, -51348.08139182108, -71682.80442748123, -187500.02235174447, -27650.896030771262, -23622.195258402262, 0.644, -0.68, 0.422, 192.0, 0.0, 0.0, 0.0, 0.0, 0.0, 0.0, 0.0, 0.0, 0.0, 1.6634991320818367E9, 0.0, 2022-09-18 16:05:32.081
51.0, -34404.006231308726, -16040.438835673194, -41523.77444789105, -51368.22031357531, -72141.3281132374, -187500.02235174447, -27727.271941575047, -23628.63256080539, 0.644, -0.68, 0.422, 192.0, 0.0, 0.0, 0.0, 0.0, 0.0, 0.0, 0.0, 0.0, 0.0, 1.663499132085952E9, 0.0, 2022-09-18 16:05:32.085
52.0, -34424.30161527415, -15547.806387878227, -41577.28452411706, -51419.450511866875, -72709.50945729131, -187500.02235174447, -27798.015212776092, -23673.44780843828, 0.644, -0.68, 0.422, 192.0, 0.0, 0.0, 0.0, 0.0, 0.0, 0.0, 0.0, 0.0, 0.0, 1.6634991320909264E9, 0.0, 2022-09-18 16:05:32.090
53.0, -34625.89199851656, -16240.777521226111, -41435.44035380368, -51328.52361542268, -72701.48518103185, -187500.02235174447, -27635.674492797196, -23627.805546260544, 0.644, -0.68, 0.422, 192.0, 0.0, 0.0, 0.0, 0.0, 0.0, 0.0, 0.0, 0.0, 0.0, 1.6634991320938544E9, 0.0, 2022-09-18 16:05:32.093
54.0, -34581.45673053941, -16772.145542162125, -41412.686277948174, -51308.51880413519, -72098.36806039429, -187500.02235174447, -27587.998221874026, -23602.48101979268, 0.644, -0.68, 0.422, 192.0, 0.0, 0.0, 0.0, 0.0, 0.0, 0.0, 0.0, 0.0, 0.0, 1.6634991320979788E9, 0.0, 2022-09-18 16:05:32.097
55.0, -34486.48416834881, -16527.773920032254, -41475.91936301224, -51348.39431624345, -71714.00746274083, -187500.02235174447, -27651.85715578284, -23620.965912457217, 0.644, -0.68, 0.422, 192.0, 0.0, 0.0, 0.0, 0.0, 0.0, 0.0, 0.0, 0.0, 0.0, 1.6634991321018884E9, 0.0, 2022-09-18 16:05:32.101
56.0, -34394.32792595958, -16022.915068020235, -41520.13111354484, -51361.64890070545, -72206.17052390224, -187500.02235174447, -27719.739403693606, -23618.39546184486, 0.644, -0.68, 0.422, 192.0, 0.0, 0.0, 0.0, 0.0, 0.0, 0.0, 0.0, 0.0, 0.0, 1.663499132105894E9, 0.0, 2022-09-18 16:05:32.105
57.0, -34408.074248799596, -15546.912318100014, -41548.741346447634, -51392.20373537585, -72798.49175196789, -187500.02235174447, -27766.11927343837, -23643.854098779455, 0.644, -0.68, 0.422, 192.0, 0.0, 0.0, 0.0, 0.0, 0.0, 0.0, 0.0, 0.0, 0.0, 1.6634991321099572E9, 0.0, 2022-09-18 16:05:32.109
58.0, -34622.203960681436, -16267.286690150106, -41428.46660953362, -51322.265126975195, -72790.71334489743, -187500.02235174447, -27624.69978626964, -23622.15055491335, 0.652, -0.68, 0.418, 192.0, 20.0, 96.0, 234.0, 192.0, 13.0, 16.0, 0.0, 0.0, 0.0, 1.6634991321139522E9, 0.0, 2022-09-18 16:05:32.113
59.0, -34575.622925236574, -16772.32435611777, -41414.42971401569, -51316.49837690573, -72178.99080264459, -187500.02235174447, -27585.248957306023, -23607.73367973968, 0.652, -0.68, 0.418, 192.0, 0.0, 0.0, 0.0, 0.0, 0.0, 0.0, 0.0, 0.0, 0.0, 1.663499132118916E9, 0.0, 2022-09-18 16:05:32.118
60.0, -34481.25386014627, -16524.622324064057, -41458.708519781656, -51342.31464175161, -71834.57277233276, -187500.02235174447, -27635.093347441358, -23610.840572218964, 0.652, -0.68, 0.418, 192.0, 0.0, 0.0, 0.0, 0.0, 0.0, 0.0, 0.0, 0.0, 0.0, 1.6634991321219666E9, 0.0, 2022-09-18 16:05:32.121
61.0, -34403.156865019424, -16027.40776865575, -41515.83957860942, -51369.315549053616, -72365.3819996574, -187500.02235174447, -27723.78506944002, -23618.99895894515, 0.652, -0.68, 0.418, 192.0, 0.0, 0.0, 0.0, 0.0, 0.0, 0.0, 0.0, 0.0, 0.0, 1.6634991321259773E9, 0.0, 2022-09-18 16:05:32.125
62.0, -34441.847734671566, -15572.46036201243, -41556.45269828471, -51414.71194204235, -72936.9608088685, -187500.02235174447, -27788.49336963813, -23661.15434898786, 0.652, -0.68, 0.418, 192.0, 0.0, 0.0, 0.0, 0.0, 0.0, 0.0, 0.0, 0.0, 0.0, 1.6634991321299849E9, 0.0, 2022-09-18 16:05:32.129
63.0, -34641.58292312419, -16310.403205204393, -41424.97973739859, -51327.74130436675, -72899.63339562815, -187500.02235174447, -27635.719196286107, -23623.53636306958, 0.652, -0.68, 0.418, 192.0, 0.0, 0.0, 0.0, 0.0, 0.0, 0.0, 0.0, 0.0, 0.0, 1.663499132134009E9, 0.0, 2022-09-18 16:05:32.134
64.0, -34579.825053194174, -16792.463277872, -41406.65130694524, -51306.618905856485, -72296.00218486812, -187500.02235174447, -27588.69112595214, -23591.796885943044, 0.652, -0.68, 0.418, 192.0, 0.0, 0.0, 0.0, 0.0, 0.0, 0.0, 0.0, 0.0, 0.0, 1.6634991321380093E9, 0.0, 2022-09-18 16:05:32.138
65.0, -34477.275249633225, -16520.219030406362, -41453.813487745945, -51328.52361542268, -71959.67548604912, -187500.02235174447, -27634.08751894087, -23595.931958667275, 0.652, -0.68, 0.418, 192.0, 0.0, 0.0, 0.0, 0.0, 0.0, 0.0, 0.0, 0.0, 0.0, 1.6634991321420019E9, 0.0, 2022-09-18 16:05:32.142
66.0, -34398.910033572916, -16018.69058831818, -41517.18068327674, -51360.933644882876, -72487.57898659456, -187500.02235174447, -27715.380813524822, -23612.38284258638, 0.652, -0.68, 0.418, 192.0, 0.0, 0.0, 0.0, 0.0, 0.0, 0.0, 0.0, 0.0, 0.0, 1.6634991321469884E9, 0.0, 2022-09-18 16:05:32.146
67.0, -34431.901208388954, -15582.116315617122, -41544.42745976776, -51386.50404053975, -73058.62135393874, -187500.02235174447, -27763.191194914725, -23635.785119031087, 0.652, -0.68, 0.418, 192.0, 0.0, 0.0, 0.0, 0.0, 0.0, 0.0, 0.0, 0.0, 0.0, 1.663499132150084E9, 0.0, 2022-09-18 16:05:32.150
68.0, -34637.447850399956, -16325.647094922913, -41419.81648442942, -51312.49741464823, -73022.59034187678, -187500.02235174447, -27619.80475423393, -23616.808487988532, 0.642, -0.68, 0.418, 192.0, 20.0, 16.0, 234.0, 192.0, 13.0, 16.0, 0.0, 0.0, 0.0, 1.6634991321540065E9, 0.0, 2022-09-18 16:05:32.154
69.0, -34580.45090203892, -16769.105704916205, -41409.981716869086, -51305.30015293362, -72398.95431982927, -187500.02235174447, -27584.04196310544, -23599.508237780123, 0.642, -0.68, 0.418, 192.0, 0.0, 0.0, 0.0, 0.0, 0.0, 0.0, 0.0, 0.0, 0.0, 1.6634991321580195E9, 0.0, 2022-09-18 16:05:32.158
70.0, -34488.85345326107, -16498.35902432907, -41461.18956341619, -51334.69269689235, -72091.43901961316, -187500.02235174447, -27640.413062621723, -23608.225418117694, 0.642, -0.68, 0.418, 192.0, 0.0, 0.0, 0.0, 0.0, 0.0, 0.0, 0.0, 0.0, 0.0, 1.663499132162067E9, 0.0, 2022-09-18 16:05:32.162
71.0, -34398.46299868381, -15978.703317487636, -41515.88428209833, -51362.45356350584, -72633.2900086987, -187500.02235174447, -27721.125211849834, -23616.808487988532, 0.642, -0.68, 0.418, 192.0, 0.0, 0.0, 0.0, 0.0, 0.0, 0.0, 0.0, 0.0, 0.0, 1.663499132166051E9, 0.0, 2022-09-18 16:05:32.166
72.0, -34442.07125211612, -15578.718850459916, -41539.7559451766, -51386.861668451034, -73195.45873349413, -187500.02235174447, -27762.4535873477, -23637.95323824325, 0.642, -0.68, 0.418, 192.0, 0.0, 0.0, 0.0, 0.0, 0.0, 0.0, 0.0, 0.0, 0.0, 1.6634991321700156E9, 0.0, 2022-09-18 16:05:32.170
73.0, -34634.56447536522, -16336.599449706013, -41406.33838252287, -51300.360417409, -73111.61734004228, -187500.02235174447, -27607.131315127768, -23603.79977271554, 0.642, -0.68, 0.418, 192.0, 0.0, 0.0, 0.0, 0.0, 0.0, 0.0, 0.0, 0.0, 0.0, 1.6634991321740553E9, 0.0, 2022-09-18 16:05:32.174
74.0, -34563.262410552794, -16760.83555946774, -41379.7174548766, -51285.76472827968, -72465.54016656162, -187500.02235174447, -27561.64551516122, -23579.458723003714, 0.642, -0.68, 0.418, 192.0, 0.0, 0.0, 0.0, 0.0, 0.0, 0.0, 0.0, 0.0, 0.0, 1.6634991321771574E9, 0.0, 2022-09-18 16:05:32.177
75.0, -34470.77089199673, -16481.103477609573, -41433.33928982488, -51315.58195538306, -72168.77605542852, -187500.02235174447, -27620.587065289863, -23588.779400441577, 0.642, -0.68, 0.418, 192.0, 0.0, 0.0, 0.0, 0.0, 0.0, 0.0, 0.0, 0.0, 0.0, 1.663499132182036E9, 0.0, 2022-09-18 16:05:32.182
76.0, -34396.76426610521, -15948.416703750696, -41504.26137498157, -51353.35640351253, -72723.34518710914, -187500.02235174447, -27722.57807523943, -23607.10783089493, 0.642, -0.68, 0.418, 192.0, 0.0, 0.0, 0.0, 0.0, 0.0, 0.0, 0.0, 0.0, 0.0, 1.663499132186035E9, 0.0, 2022-09-18 16:05:32.186
77.0, -34448.888534174985, -15560.345716517653, -41521.56162518998, -51385.07352889461, -73273.35456292088, -187500.02235174447, -27758.184404156735, -23640.81426153353, 0.642, -0.68, 0.418, 192.0, 0.0, 0.0, 0.0, 0.0, 0.0, 0.0, 0.0, 0.0, 0.0, 1.6634991321901135E9, 0.0, 2022-09-18 16:05:32.190
78.0, -34639.30304518974, -16363.510950030202, -41384.52307993449, -51302.17090870988, -73132.42681413017, -187500.02235174447, -27596.60364348932, -23606.794906472554, 0.642, -0.68, 0.418, 192.0, 0.0, 0.0, 0.0, 0.0, 0.0, 0.0, 0.0, 0.0, 0.0, 1.6634991321940618E9, 0.0, 2022-09-18 16:05:32.194
79.0, -34567.21866932138, -16787.32237664728, -41383.56195492291, -51298.013484241186, -72501.88410304596, -187500.02235174447, -27570.005067587506, -23590.969871398196, 0.636, -0.674, 0.426, 192.0, 19.0, 224.0, 234.0, 240.0, 13.0, 80.0, 0.0, 0.0, 0.0, 1.663499132198064E9, 0.0, 2022-09-18 16:05:32.198
80.0, -34494.59785158609, -16517.536821071724, -41461.34602562738, -51346.315604009105, -72267.32489673197, -187500.02235174447, -27650.203126693148, -23621.949389213252, 0.636, -0.674, 0.426, 192.0, 0.0, 0.0, 0.0, 0.0, 0.0, 0.0, 0.0, 0.0, 0.0, 1.6634991322020943E9, 0.0, 2022-09-18 16:05:32.202
81.0, -34404.497969686745, -15955.815131165402, -41516.13015128734, -51371.751889199244, -72825.89499067009, -187500.02235174447, -27734.02216840055, -23626.777366015598, 0.636, -0.674, 0.426, 192.0, 0.0, 0.0, 0.0, 0.0, 0.0, 0.0, 0.0, 0.0, 0.0, 1.6634991322050877E9, 0.0, 2022-09-18 16:05:32.205
82.0, -34450.47550803131, -15581.490466772375, -41516.800703621, -51384.85001145006, -73369.37765710088, -187500.02235174447, -27758.452625090198, -23640.233116177693, 0.636, -0.674, 0.426, 192.0, 0.0, 0.0, 0.0, 0.0, 0.0, 0.0, 0.0, 0.0, 0.0, 1.6634991322090695E9, 0.0, 2022-09-18 16:05:32.209
83.0, -34643.88515280309, -16410.494316875258, -41387.02647531348, -51311.44688265883, -73225.74534723107, -187500.02235174447, -27606.192541860648, -23613.43337457578, 0.636, -0.674, 0.426, 192.0, 0.0, 0.0, 0.0, 0.0, 0.0, 0.0, 0.0, 0.0, 0.0, 1.6634991322140236E9, 0.0, 2022-09-18 16:05:32.214
84.0, -34574.12535835807, -16810.791708325352, -41393.66494341671, -51320.92402230788, -72591.76046750075, -187500.02235174447, -27570.921489110173, -23607.376051828393, 0.636, -0.674, 0.426, 192.0, 0.0, 0.0, 0.0, 0.0, 0.0, 0.0, 0.0, 0.0, 0.0, 1.66349913221813E9, 0.0, 2022-09-18 16:05:32.218
85.0, -34494.48609286381, -16529.80792877769, -41462.21774366114, -51362.2747495502, -72377.36253468544, -187500.02235174447, -27655.90282152925, -23628.409043360836, 0.636, -0.674, 0.426, 192.0, 0.0, 0.0, 0.0, 0.0, 0.0, 0.0, 0.0, 0.0, 0.0, 1.6634991322220979E9, 0.0, 2022-09-18 16:05:32.222
86.0, -34401.5698911631, -15963.30296555793, -41521.91925310126, -51391.73434874229, -72959.24549809044, -187500.02235174447, -27753.937572710227, -23633.974627730207, 0.636, -0.674, 0.426, 192.0, 0.0, 0.0, 0.0, 0.0, 0.0, 0.0, 0.0, 0.0, 0.0, 1.6634991322261245E9, 0.0, 2022-09-18 16:05:32.226
87.0, -34464.24418261578, -15617.767348023339, -41533.989195107126, -51415.65071530947, -73485.78554222413, -187500.02235174447, -27781.340811412432, -23661.78019783261, 0.636, -0.674, 0.426, 192.0, 0.0, 0.0, 0.0, 0.0, 0.0, 0.0, 0.0, 0.0, 0.0, 1.66349913223013E9, 0.0, 2022-09-18 16:05:32.230
88.0, -34649.38368193909, -16454.840177874587, -41400.52692896449, -51333.530406180675, -73332.74314793863, -187500.02235174447, -27605.1643616157, -23628.319636383014, 0.636, -0.674, 0.426, 192.0, 0.0, 0.0, 0.0, 0.0, 0.0, 0.0, 0.0, 0.0, 0.0, 1.6634991322331624E9, 0.0, 2022-09-18 16:05:32.233
89.0, -34549.51608771278, -16797.961807008007, -41391.34036199336, -51316.85600481701, -72646.38813094952, -187500.02235174447, -27575.03421008995, -23594.277929577584, 0.652, -0.674, 0.43, 192.0, 20.0, 96.0, 234.0, 240.0, 13.0, 112.0, 0.0, 0.0, 0.0, 1.6634991322371244E9, 0.0, 2022-09-18 16:05:32.237
90.0, -34437.13151659149, -16464.563186712647, -41420.464685018625, -51318.085350762056, -72386.21382548974, -187500.02235174447, -27619.73769900056, -23579.346964281438, 0.652, -0.674, 0.43, 192.0, 0.0, 0.0, 0.0, 0.0, 0.0, 0.0, 0.0, 0.0, 0.0, 1.6634991322421932E9, 0.0, 2022-09-18 16:05:32.242
91.0, -34367.237611679746, -15899.24286594902, -41499.3439912014, -51364.10759259553, -72973.21533837501, -187500.02235174447, -27735.698549234698, -23604.939711682764, 0.652, -0.674, 0.43, 192.0, 0.0, 0.0, 0.0, 0.0, 0.0, 0.0, 0.0, 0.0, 0.0, 1.6634991322462246E9, 0.0, 2022-09-18 16:05:32.246
92.0, -34439.54550499267, -15588.710080231438, -41512.08448554093, -51383.68772073838, -73450.089806329, -187500.02235174447, -27756.48567157813, -23627.693787538265, 0.652, -0.674, 0.43, 192.0, 0.0, 0.0, 0.0, 0.0, 0.0, 0.0, 0.0, 0.0, 0.0, 1.663499132250212E9, 0.0, 2022-09-18 16:05:32.250
93.0, -34619.36528913561, -16416.663398344925, -41390.71451314861, -51301.94739126533, -73166.6696866357, -187500.02235174447, -27596.111905111302, -23594.32263306649, 0.652, -0.674, 0.43, 192.0, 0.0, 0.0, 0.0, 0.0, 0.0, 0.0, 0.0, 0.0, 0.0, 1.6634991322542083E9, 0.0, 2022-09-18 16:05:32.254
94.0, -34536.70853813989, -16743.49060577042, -41408.61826045731, -51304.76371106669, -72375.03795326209, -187500.02235174447, -27577.716419424585, -23580.844531159943, 0.652, -0.674, 0.43, 192.0, 0.0, 0.0, 0.0, 0.0, 0.0, 0.0, 0.0, 0.0, 0.0, 1.663499132257228E9, 0.0, 2022-09-18 16:05:32.257
95.0, -34468.93804895139, -16446.435921959393, -41483.3401421714, -51342.38169698497, -72084.88995848775, -187500.02235174447, -27655.612248851332, -23605.409098316326, 0.652, -0.674, 0.43, 192.0, 0.0, 0.0, 0.0, 0.0, 0.0, 0.0, 0.0, 0.0, 0.0, 1.6634991322613108E9, 0.0, 2022-09-18 16:05:32.261
96.0, -34390.39401893545, -15870.47617083504, -41545.83561966844, -51369.29319730916, -72641.62720938053, -187500.02235174447, -27750.853031975395, -23614.327444353992, 0.652, -0.674, 0.43, 192.0, 0.0, 0.0, 0.0, 0.0, 0.0, 0.0, 0.0, 0.0, 0.0, 1.6634991322651913E9, 0.0, 2022-09-18 16:05:32.265
97.0, -34464.624162271524, -15561.373896762598, -41538.37013702037, -51377.38452880199, -73114.16543891019, -187500.02235174447, -27750.227183130646, -23632.63352306289, 0.652, -0.674, 0.43, 192.0, 0.0, 0.0, 0.0, 0.0, 0.0, 0.0, 0.0, 0.0, 0.0, 1.6634991322702038E9, 0.0, 2022-09-18 16:05:32.270
98.0, -34640.800612068255, -16406.158078450928, -41411.7251529366, -51300.96391450929, -72900.59452063973, -187500.02235174447, -27572.396704244224, -23601.96692967021, 0.652, -0.674, 0.43, 192.0, 0.0, 0.0, 0.0, 0.0, 0.0, 0.0, 0.0, 0.0, 0.0, 1.6634991322742145E9, 0.0, 2022-09-18 16:05:32.274
99.0, -34551.41598599148, -16722.278800282336, -41428.62307174481, -51302.88616453244, -72222.08496595442, -187500.02235174447, -27566.160567541192, -23583.213816072206, 0.65, -0.68, 0.424, 192.0, 20.0, 80.0, 234.0, 192.0, 13.0, 64.0, 0.0, 0.0, 0.0, 1.663499132278211E9, 0.0, 2022-09-18 16:05:32.278
100.0, -34472.29081061969, -16424.06182575963, -41480.54617411449, -51324.857929332014, -72064.57222277788, -187500.02235174447, -27634.33338812988, -23591.215740587206, 0.65, -0.68, 0.424, 192.0, 0.0, 0.0, 0.0, 0.0, 0.0, 0.0, 0.0, 0.0, 0.0, 1.6634991322822156E9, 0.0, 2022-09-18 16:05:32.282
101.0, -34382.548556631635, -15840.703647220571, -41533.74332591812, -51351.81413314511, -72711.74463173683, -187500.02235174447, -27715.894903647295, -23601.743412225656, 0.65, -0.68, 0.424, 192.0, 0.0, 0.0, 0.0, 0.0, 0.0, 0.0, 0.0, 0.0, 0.0, 1.6634991322862191E9, 0.0, 2022-09-18 16:05:32.286
102.0, -34460.06440640264, -15584.597359251662, -41523.439171724225, -51360.576016971594, -73250.33226613191, -187500.02235174447, -27719.62764497133, -23621.5247060686, 0.65, -0.68, 0.424, 192.0, 0.0, 0.0, 0.0, 0.0, 0.0, 0.0, 0.0, 0.0, 0.0, 1.6634991322892857E9, 0.0, 2022-09-18 16:05:32.289
103.0, -34635.123268976604, -16459.355230254558, -41408.52885347949, -51292.492603360726, -73048.07133055585, -187500.02235174447, -27566.182919285646, -23598.882388935377, 0.65, -0.68, 0.424, 192.0, 0.0, 0.0, 0.0, 0.0, 0.0, 0.0, 0.0, 0.0, 0.0, 1.663499132293244E9, 0.0, 2022-09-18 16:05:32.293
104.0, -34557.49566048332, -16755.6052512652, -41450.036042932996, -51321.88514731946, -72348.39467387137, -187500.02235174447, -27585.561881728398, -23609.790040229564, 0.65, -0.68, 0.424, 192.0, 0.0, 0.0, 0.0, 0.0, 0.0, 0.0, 0.0, 0.0, 0.0, 1.6634991322972353E9, 0.0, 2022-09-18 16:05:32.297
105.0, -34456.59988601207, -16426.900497305454, -41460.18373491571, -51311.782158825656, -72172.17352058573, -187500.02235174447, -27613.389803575257, -23584.420810272793, 0.65, -0.68, 0.424, 192.0, 0.0, 0.0, 0.0, 0.0, 0.0, 0.0, 0.0, 0.0, 0.0, 1.6634991323022938E9, 0.0, 2022-09-18 16:05:32.302
106.0, -34379.08403624106, -15842.111807121255, -41528.73653516013, -51359.10080183754, -72816.41785102103, -187500.02235174447, -27717.124249592336, -23611.309958852526, 0.65, -0.68, 0.424, 192.0, 0.0, 0.0, 0.0, 0.0, 0.0, 0.0, 0.0, 0.0, 0.0, 1.6634991323062654E9, 0.0, 2022-09-18 16:05:32.306
107.0, -34469.362732096044, -15616.672112545028, -41515.48195069814, -51373.04829037766, -73309.40792672729, -187500.02235174447, -27718.219485070647, -23637.95323824325, 0.65, -0.68, 0.424, 192.0, 0.0, 0.0, 0.0, 0.0, 0.0, 0.0, 0.0, 0.0, 0.0, 1.6634991323102705E9, 0.0, 2022-09-18 16:05:32.310
108.0, -34639.05717600074, -16487.943111412897, -41398.224699285594, -51303.64612384393, -73022.36682443223, -187500.02235174447, -27566.339381496833, -23613.992168187164, 0.65, -0.68, 0.424, 192.0, 0.0, 0.0, 0.0, 0.0, 0.0, 0.0, 0.0, 0.0, 0.0, 1.6634991323133273E9, 0.0, 2022-09-18 16:05:32.313
109.0, -34552.846497636616, -16769.575091549767, -41421.716382708124, -51318.51003390671, -72360.91165076634, -187500.02235174447, -27567.88165186425, -23609.052432662542, 0.644, -0.682, 0.42, 192.0, 20.0, 32.0, 234.0, 176.0, 13.0, 32.0, 0.0, 0.0, 0.0, 1.6634991323173513E9, 0.0, 2022-09-18 16:05:32.317
110.0, -34475.531813565714, -16462.886805878497, -41461.34602562738, -51340.88413010647, -72264.55328041951, -187500.02235174447, -27625.32563511439, -23612.405194330837, 0.644, -0.682, 0.42, 192.0, 0.0, 0.0, 0.0, 0.0, 0.0, 0.0, 0.0, 0.0, 0.0, 1.6634991323212905E9, 0.0, 2022-09-18 16:05:32.321
111.0, -34390.304611957625, -15848.303240335375, -41523.97561359115, -51376.98219740179, -72921.85102961672, -187500.02235174447, -27727.517810764053, -23625.369206114916, 0.644, -0.682, 0.42, 192.0, 0.0, 0.0, 0.0, 0.0, 0.0, 0.0, 0.0, 0.0, 0.0, 1.6634991323253164E9, 0.0, 2022-09-18 16:05:32.325
112.0, -34484.91954623694, -15638.979153511424, -41506.76477036056, -51384.09005213858, -73408.09087849747, -187500.02235174447, -27723.673310717742, -23644.189374946283, 0.644, -0.682, 0.42, 192.0, 0.0, 0.0, 0.0, 0.0, 0.0, 0.0, 0.0, 0.0, 0.0, 1.6634991323303761E9, 0.0, 2022-09-18 16:05:32.330
113.0, -34648.064929016226, -16525.248172908803, -41383.56195492291, -51305.59072561154, -73168.86015759232, -187500.02235174447, -27566.294678007926, -23609.14183964036, 0.644, -0.682, 0.42, 192.0, 0.0, 0.0, 0.0, 0.0, 0.0, 0.0, 0.0, 0.0, 0.0, 1.6634991323343124E9, 0.0, 2022-09-18 16:05:32.334
114.0, -34540.620093419566, -16758.98036467795, -41410.607565713835, -51314.55377513812, -72483.66743131488, -187500.02235174447, -27566.339381496833, -23596.937787167764, 0.644, -0.682, 0.42, 192.0, 0.0, 0.0, 0.0, 0.0, 0.0, 0.0, 0.0, 0.0, 0.0, 1.6634991323383384E9, 0.0, 2022-09-18 16:05:32.338
115.0, -34455.07996738911, -16432.376674697003, -41456.450993591665, -51324.500301420725, -72371.72989508271, -187500.02235174447, -27619.84945772284, -23596.088420878463, 0.644, -0.682, 0.42, 192.0, 0.0, 0.0, 0.0, 0.0, 0.0, 0.0, 0.0, 0.0, 0.0, 1.6634991323413005E9, 0.0, 2022-09-18 16:05:32.341
116.0, -34373.317286171594, -15804.382062480696, -41536.67140444177, -51365.80632517413, -73035.33083621632, -187500.02235174447, -27731.138793365815, -23617.121412410906, 0.644, -0.682, 0.42, 192.0, 0.0, 0.0, 0.0, 0.0, 0.0, 0.0, 0.0, 0.0, 0.0, 1.6634991323453856E9, 0.0, 2022-09-18 16:05:32.345
117.0, -34492.49678760729, -15611.71002527595, -41537.43136375325, -51386.68285449539, -73491.93227194934, -187500.02235174447, -27734.91623817876, -23651.72191282772, 0.644, -0.682, 0.42, 192.0, 0.0, 0.0, 0.0, 0.0, 0.0, 0.0, 0.0, 0.0, 0.0, 1.663499132349352E9, 0.0, 2022-09-18 16:05:32.349
118.0, -34647.68494936049, -16494.939207427407, -41405.24314704456, -51301.96974300978, -73198.40916376223, -187500.02235174447, -27561.913736094684, -23608.33717683997, 0.644, -0.682, 0.42, 192.0, 0.0, 0.0, 0.0, 0.0, 0.0, 0.0, 0.0, 0.0, 0.0, 1.663499132353371E9, 0.0, 2022-09-18 16:05:32.353
119.0, -34579.64623923853, -16748.27387908386, -41443.06229866294, -51323.78504559816, -72474.32440213257, -187500.02235174447, -27579.862186892296, -23603.263330848615, 0.648, -0.682, 0.418, 192.0, 20.0, 64.0, 234.0, 176.0, 13.0, 16.0, 0.0, 0.0, 0.0, 1.6634991323583255E9, 0.0, 2022-09-18 16:05:32.358
120.0, -34528.170171757956, -16457.075352320117, -41506.250680238096, -51345.95797609782, -72394.4839709382, -187500.02235174447, -27667.23515596809, -23618.551924056046, 0.648, -0.682, 0.418, 192.0, 0.0, 0.0, 0.0, 0.0, 0.0, 0.0, 0.0, 0.0, 0.0, 1.663499132362319E9, 0.0, 2022-09-18 16:05:32.362
121.0, -34384.09082699905, -15756.638736324161, -41558.9113901748, -51361.87241815, -73064.90219413069, -187500.02235174447, -27751.657694775786, -23622.15055491335, 0.648, -0.682, 0.418, 192.0, 0.0, 0.0, 0.0, 0.0, 0.0, 0.0, 0.0, 0.0, 0.0, 1.663499132365379E9, 0.0, 2022-09-18 16:05:32.365
122.0, -34489.34519163909, -15583.837399940181, -41526.21078803668, -51357.73734542577, -73510.30540589159, -187500.02235174447, -27715.76079318056, -23633.527592841103, 0.648, -0.682, 0.418, 192.0, 0.0, 0.0, 0.0, 0.0, 0.0, 0.0, 0.0, 0.0, 0.0, 1.663499132369396E9, 0.0, 2022-09-18 16:05:32.369
123.0, -34643.035786513785, -16491.228817847827, -41412.10513259234, -51286.70350154681, -73207.05928886644, -187500.02235174447, -27559.276230248957, -23602.86099944842, 0.648, -0.682, 0.418, 192.0, 0.0, 0.0, 0.0, 0.0, 0.0, 0.0, 0.0, 0.0, 0.0, 1.6634991323733976E9, 0.0, 2022-09-18 16:05:32.373
124.0, -34554.70169242641, -16708.241904764403, -41447.800868487466, -51307.98236226826, -72547.50401347924, -187500.02235174447, -27583.192596816138, -23599.06120289102, 0.648, -0.682, 0.418, 192.0, 0.0, 0.0, 0.0, 0.0, 0.0, 0.0, 0.0, 0.0, 0.0, 1.663499132377325E9, 0.0, 2022-09-18 16:05:32.377
125.0, -34487.266479404745, -16394.378709122982, -41505.28955522651, -51338.760714383214, -72477.87832950096, -187500.02235174447, -27661.33429543189, -23620.965912457217, 0.648, -0.682, 0.418, 192.0, 0.0, 0.0, 0.0, 0.0, 0.0, 0.0, 0.0, 0.0, 0.0, 1.6634991323814137E9, 0.0, 2022-09-18 16:05:32.381
126.0, -34378.79346356314, -15763.701887572039, -41555.737442462145, -51361.71595593882, -73109.22570338556, -187500.02235174447, -27750.763624997573, -23628.789023016576, 0.648, -0.682, 0.418, 192.0, 0.0, 0.0, 0.0, 0.0, 0.0, 0.0, 0.0, 0.0, 0.0, 1.6634991323864455E9, 0.0, 2022-09-18 16:05:32.386
127.0, -34484.20429041437, -15649.328011194231, -41516.5995379209, -51358.474952992794, -73460.48336750071, -187500.02235174447, -27724.232104329123, -23643.094139467972, 0.648, -0.682, 0.418, 192.0, 0.0, 0.0, 0.0, 0.0, 0.0, 0.0, 0.0, 0.0, 0.0, 1.6634991323904052E9, 0.0, 2022-09-18 16:05:32.390
128.0, -34626.51784736131, -16547.21993770837, -41398.939955108166, -51289.36335913699, -73018.1870482191, -187500.02235174447, -27574.095436822827, -23614.685072265278, 0.648, -0.682, 0.418, 192.0, 0.0, 0.0, 0.0, 0.0, 0.0, 0.0, 0.0, 0.0, 0.0, 1.6634991323934145E9, 0.0, 2022-09-18 16:05:32.393
129.0, -34526.67260487945, -16724.82689915024, -41435.64151950378, -51309.72579833577, -72259.59119315042, -187500.02235174447, -27595.910739411207, -23613.612188531424, 0.634, -0.67, 0.42, 192.0, 19.0, 208.0, 235.0, 16.0, 13.0, 32.0, 0.0, 0.0, 0.0, 1.66349913239743E9, 0.0, 2022-09-18 16:05:32.397
130.0, -34464.065368660136, -16398.44672661385, -41486.46938639515, -51338.268976005194, -72116.8753048033, -187500.02235174447, -27662.630696610297, -23629.705444539242, 0.634, -0.67, 0.42, 192.0, 0.0, 0.0, 0.0, 0.0, 0.0, 0.0, 0.0, 0.0, 0.0, 1.6634991324014492E9, 0.0, 2022-09-18 16:05:32.401
131.0, -34382.056818253615, -15771.972033020502, -41541.02999461055, -51370.433136276384, -72680.07220984367, -187500.02235174447, -27753.870517476862, -23641.350703400458, 0.634, -0.67, 0.42, 192.0, 0.0, 0.0, 0.0, 0.0, 0.0, 0.0, 0.0, 0.0, 0.0, 1.6634991324054518E9, 0.0, 2022-09-18 16:05:32.405
132.0, -34491.20038642888, -15680.44163947602, -41495.678305110734, -51361.58184547208, -72994.85182700776, -187500.02235174447, -27719.44883101569, -23653.77827331761, 0.634, -0.67, 0.42, 192.0, 0.0, 0.0, 0.0, 0.0, 0.0, 0.0, 0.0, 0.0, 0.0, 1.663499132409467E9, 0.0, 2022-09-18 16:05:32.409
133.0, -34612.03391695427, -16570.063420541694, -41357.879800543764, -51269.73852750523, -72578.48353129429, -187500.02235174447, -27553.420073201665, -23601.251673847637, 0.634, -0.67, 0.42, 192.0, 0.0, 0.0, 0.0, 0.0, 0.0, 0.0, 0.0, 0.0, 0.0, 1.6634991324134767E9, 0.0, 2022-09-18 16:05:32.413
134.0, -34504.03028774623, -16714.36628274516, -41389.99925732604, -51291.71029230479, -71856.45513015451, -187500.02235174447, -27570.6085646878, -23596.356641811926, 0.634, -0.67, 0.42, 192.0, 0.0, 0.0, 0.0, 0.0, 0.0, 0.0, 0.0, 0.0, 0.0, 1.6634991324184823E9, 0.0, 2022-09-18 16:05:32.418
135.0, -34483.80195901418, -16418.138613478972, -41483.63071484932, -51361.78301117218, -71866.93809830405, -187500.02235174447, -27684.848330598874, -23653.688866339788, 0.634, -0.67, 0.42, 192.0, 0.0, 0.0, 0.0, 0.0, 0.0, 0.0, 0.0, 0.0, 0.0, 1.6634991324214609E9, 0.0, 2022-09-18 16:05:32.421
136.0, -34394.216167237304, -15784.421954682108, -41540.89588414382, -51386.50404053975, -72546.49818497874, -187500.02235174447, -27777.920994510772, -23655.76757857413, 0.634, -0.67, 0.42, 192.0, 0.0, 0.0, 0.0, 0.0, 0.0, 0.0, 0.0, 0.0, 0.0, 1.6634991324245238E9, 0.0, 2022-09-18 16:05:32.424
137.0, -34507.9418430259, -15729.213145877498, -41482.937810771204, -51362.610025717026, -72937.94428562454, -187500.02235174447, -27723.315682806457, -23652.414816905835, 0.634, -0.67, 0.42, 192.0, 0.0, 0.0, 0.0, 0.0, 0.0, 0.0, 0.0, 0.0, 0.0, 1.66349913242949E9, 0.0, 2022-09-18 16:05:32.429
138.0, -34633.178667208995, -16630.413130571025, -41356.11401273179, -51283.887181745435, -72605.77501127422, -187500.02235174447, -27558.650381404208, -23612.338139097472, 0.634, -0.67, 0.42, 192.0, 0.0, 0.0, 0.0, 0.0, 0.0, 0.0, 0.0, 0.0, 0.0, 1.663499132433498E9, 0.0, 2022-09-18 16:05:32.433
139.0, -34513.46272390637, -16731.107739342184, -41404.19261505516, -51306.7083128343, -71910.03226161389, -187500.02235174447, -27591.820370175883, -23611.645235019358, 0.642, -0.676, 0.418, 192.0, 20.0, 16.0, 234.0, 224.0, 13.0, 16.0, 0.0, 0.0, 0.0, 1.6634991324374807E9, 0.0, 2022-09-18 16:05:32.437
140.0, -34467.10520590606, -16386.779116008176, -41481.283781681515, -51343.655746418925, -71883.23252001197, -187500.02235174447, -27678.746304362572, -23638.73554929919, 0.642, -0.676, 0.418, 192.0, 0.0, 0.0, 0.0, 0.0, 0.0, 0.0, 0.0, 0.0, 0.0, 1.6634991324414976E9, 0.0, 2022-09-18 16:05:32.441
141.0, -34388.18119623437, -15731.247154622932, -41537.78899166453, -51377.87626718, -72471.64219279792, -187500.02235174447, -27772.176596185756, -23650.805491305055, 0.642, -0.676, 0.418, 192.0, 0.0, 0.0, 0.0, 0.0, 0.0, 0.0, 0.0, 0.0, 0.0, 1.6634991324465132E9, 0.0, 2022-09-18 16:05:32.446
142.0, -34510.691107593906, -15700.289988552331, -41482.87075553784, -51352.66349943441, -72712.88457070406, -187500.02235174447, -27728.814211942463, -23649.799662804566, 0.642, -0.676, 0.418, 192.0, 0.0, 0.0, 0.0, 0.0, 0.0, 0.0, 0.0, 0.0, 0.0, 1.6634991324494753E9, 0.0, 2022-09-18 16:05:32.449
143.0, -34638.87836204509, -16587.073098072186, -41375.98471355256, -51281.517896833175, -72164.05983734845, -187500.02235174447, -27566.004105330005, -23617.21081938873, 0.642, -0.676, 0.418, 192.0, 0.0, 0.0, 0.0, 0.0, 0.0, 0.0, 0.0, 0.0, 0.0, 1.6634991324524722E9, 0.0, 2022-09-18 16:05:32.452
144.0, -34503.87382553504, -16664.16426469854, -41389.64162941476, -51275.706443274794, -71286.73151573319, -187500.02235174447, -27565.93705009664, -23587.43829577426, 0.642, -0.676, 0.418, 192.0, 0.0, 0.0, 0.0, 0.0, 0.0, 0.0, 0.0, 0.0, 0.0, 1.6634991324575505E9, 0.0, 2022-09-18 16:05:32.457
145.0, -34428.66020544293, -16302.691853367312, -41442.21293237364, -51296.06888247358, -71099.08862103088, -187500.02235174447, -27636.970893975606, -23593.76383945511, 0.642, -0.676, 0.418, 192.0, 0.0, 0.0, 0.0, 0.0, 0.0, 0.0, 0.0, 0.0, 0.0, 1.663499132461537E9, 0.0, 2022-09-18 16:05:32.461
146.0, -34377.094730984536, -15678.944072597513, -41543.421631267265, -51365.56045598513, -71594.06800199366, -187500.02235174447, -27768.22033741717, -23639.450805121756, 0.642, -0.676, 0.418, 192.0, 0.0, 0.0, 0.0, 0.0, 0.0, 0.0, 0.0, 0.0, 0.0, 1.663499132465517E9, 0.0, 2022-09-18 16:05:32.465
147.0, -34538.49667769631, -15742.378323361674, -41517.27009025456, -51373.16004909993, -71793.37850730163, -187500.02235174447, -27739.610104514373, -23665.579994390013, 0.642, -0.676, 0.418, 192.0, 0.0, 0.0, 0.0, 0.0, 0.0, 0.0, 0.0, 0.0, 0.0, 1.6634991324695668E9, 0.0, 2022-09-18 16:05:32.469
148.0, -34647.46143191593, -16646.05935168974, -41406.91952787871, -51302.61794359898, -71236.59655291993, -187500.02235174447, -27592.84855042083, -23624.832764247985, 0.642, -0.676, 0.418, 192.0, 0.0, 0.0, 0.0, 0.0, 0.0, 0.0, 0.0, 0.0, 0.0, 1.663499132474596E9, 0.0, 2022-09-18 16:05:32.474
149.0, -34522.04579377721, -16692.193352245493, -41438.211970116135, -51312.43035941486, -70484.75092467677, -187500.02235174447, -27609.791172717953, -23609.499467551646, 0.664, -0.684, 0.418, 192.0, 20.0, 192.0, 234.0, 160.0, 13.0, 16.0, 0.0, 0.0, 0.0, 1.663499132477588E9, 0.0, 2022-09-18 16:05:32.477
150.0, -34449.29086557518, -16309.08445228153, -41475.02529323403, -51324.992039798744, -70480.90642463046, -187500.02235174447, -27658.76384481953, -23606.392575072357, 0.664, -0.684, 0.418, 192.0, 0.0, 0.0, 0.0, 0.0, 0.0, 0.0, 0.0, 0.0, 0.0, 1.663499132480575E9, 0.0, 2022-09-18 16:05:32.480
151.0, -34369.74100705874, -15647.741037337904, -41540.96293937718, -51378.479764280295, -71148.10599662138, -187500.02235174447, -27757.603258800897, -23632.275895151604, 0.664, -0.684, 0.418, 192.0, 0.0, 0.0, 0.0, 0.0, 0.0, 0.0, 0.0, 0.0, 0.0, 1.6634991324855838E9, 0.0, 2022-09-18 16:05:32.485
152.0, -34521.799924588195, -15710.72825321296, -41492.12437774234, -51371.23779907678, -71519.74845167977, -187500.02235174447, -27702.48385697411, -23648.995000004175, 0.664, -0.684, 0.418, 192.0, 0.0, 0.0, 0.0, 0.0, 0.0, 0.0, 0.0, 0.0, 0.0, 1.6634991324895735E9, 0.0, 2022-09-18 16:05:32.489
153.0, -34640.48768764588, -16628.04384565876, -41385.95359157963, -51301.63446684295, -71198.28566292353, -187500.02235174447, -27559.633858160243, -23609.477115807193, 0.664, -0.684, 0.418, 192.0, 0.0, 0.0, 0.0, 0.0, 0.0, 0.0, 0.0, 0.0, 0.0, 1.663499132493595E9, 0.0, 2022-09-18 16:05:32.493
154.0, -34562.03306460775, -16739.132015601637, -41457.4344703477, -51360.084278593575, -70608.98192035937, -187500.02235174447, -27622.79988799094, -23635.382787630893, 0.664, -0.684, 0.418, 192.0, 0.0, 0.0, 0.0, 0.0, 0.0, 0.0, 0.0, 0.0, 0.0, 1.6634991324976823E9, 0.0, 2022-09-18 16:05:32.497
155.0, -34457.67276974592, -16352.558595247103, -41478.288647924506, -51348.908406365925, -70708.55894190776, -187500.02235174447, -27666.922231545715, -23613.411022831326, 0.664, -0.684, 0.418, 192.0, 0.0, 0.0, 0.0, 0.0, 0.0, 0.0, 0.0, 0.0, 0.0, 1.6634991325016193E9, 0.0, 2022-09-18 16:05:32.501
156.0, -34390.19285323535, -15661.710877622472, -41563.94053267724, -51408.051122194665, -71443.46194785381, -187500.02235174447, -27787.375782415365, -23654.649991351365, 0.664, -0.684, 0.418, 192.0, 0.0, 0.0, 0.0, 0.0, 0.0, 0.0, 0.0, 0.0, 0.0, 1.6634991325055892E9, 0.0, 2022-09-18 16:05:32.505
157.0, -34531.83585784863, -15722.619381263183, -41484.10010148288, -51370.857819421035, -71804.196751618, -187500.02235174447, -27700.09222031739, -23648.704427326255, 0.664, -0.684, 0.418, 192.0, 0.0, 0.0, 0.0, 0.0, 0.0, 0.0, 0.0, 0.0, 0.0, 1.6634991325086532E9, 0.0, 2022-09-18 16:05:32.508
158.0, -34625.24379792736, -16598.338377277658, -41367.49105065955, -51287.39640562492, -71392.56702572906, -187500.02235174447, -27540.433709673132, -23594.367336555402, 0.664, -0.684, 0.418, 192.0, 0.0, 0.0, 0.0, 0.0, 0.0, 0.0, 0.0, 0.0, 0.0, 1.6634991325136368E9, 0.0, 2022-09-18 16:05:32.513
159.0, -34515.45202916289, -16647.53456682379, -41422.990432142076, -51319.82878682957, -70786.11949516767, -187500.02235174447, -27596.17896034467, -23603.464496548713, 0.654, -0.672, 0.422, 192.0, 20.0, 112.0, 235.0, 0.0, 13.0, 48.0, 0.0, 0.0, 0.0, 1.6634991325176318E9, 0.0, 2022-09-18 16:05:32.517
160.0, -34449.55908650864, -16296.545123642103, -41476.053473478976, -51339.92300509489, -70886.36706904972, -187500.02235174447, -27672.443112426176, -23617.09906066645, 0.654, -0.672, 0.422, 192.0, 0.0, 0.0, 0.0, 0.0, 0.0, 0.0, 0.0, 0.0, 0.0, 1.6634991325216436E9, 0.0, 2022-09-18 16:05:32.521
161.0, -34366.611762835, -15644.85766230317, -41535.553817219, -51377.45158403535, -71553.47723406283, -187500.02235174447, -27764.48759609313, -23635.04751146406, 0.654, -0.672, 0.422, 192.0, 0.0, 0.0, 0.0, 0.0, 0.0, 0.0, 0.0, 0.0, 0.0, 1.6634991325256822E9, 0.0, 2022-09-18 16:05:32.525
162.0, -34520.123543754045, -15768.999251007946, -41456.16042091375, -51350.383621499976, -71826.07910943974, -187500.02235174447, -27683.641336398287, -23638.132052198896, 0.654, -0.672, 0.422, 192.0, 0.0, 0.0, 0.0, 0.0, 0.0, 0.0, 0.0, 0.0, 0.0, 1.663499132529622E9, 0.0, 2022-09-18 16:05:32.529
163.0, -34614.716126288906, -16653.368372126624, -41349.296730672926, -51283.37309162296, -71344.60018212798, -187500.02235174447, -27543.31708470787, -23602.257502348126, 0.654, -0.672, 0.422, 192.0, 0.0, 0.0, 0.0, 0.0, 0.0, 0.0, 0.0, 0.0, 0.0, 1.663499132533602E9, 0.0, 2022-09-18 16:05:32.533
164.0, -34512.367488428055, -16692.01453828985, -41411.88161514779, -51323.98621129826, -70709.49771517489, -187500.02235174447, -27601.632785991766, -23614.48390656518, 0.654, -0.672, 0.422, 192.0, 0.0, 0.0, 0.0, 0.0, 0.0, 0.0, 0.0, 0.0, 0.0, 1.6634991325366998E9, 0.0, 2022-09-18 16:05:32.536
165.0, -34450.60961849804, -16333.693722926822, -41464.1846971732, -51343.946319096845, -70804.3138151543, -187500.02235174447, -27682.210824753147, -23622.128203168893, 0.654, -0.672, 0.422, 192.0, 0.0, 0.0, 0.0, 0.0, 0.0, 0.0, 0.0, 0.0, 0.0, 1.6634991325416944E9, 0.0, 2022-09-18 16:05:32.541
166.0, -34361.82848952156, -15661.666174133561, -41508.28468898353, -51369.047328120156, -71457.94587826084, -187500.02235174447, -27769.02500021756, -23626.285627637582, 0.654, -0.672, 0.422, 192.0, 0.0, 0.0, 0.0, 0.0, 0.0, 0.0, 0.0, 0.0, 0.0, 1.6634991325456686E9, 0.0, 2022-09-18 16:05:32.545
167.0, -34526.4490874349, -15814.619161441227, -41443.24111261858, -51348.93075811038, -71730.5254018933, -187500.02235174447, -27703.62379594133, -23638.422624876814, 0.654, -0.672, 0.422, 192.0, 0.0, 0.0, 0.0, 0.0, 0.0, 0.0, 0.0, 0.0, 0.0, 1.6634991325497005E9, 0.0, 2022-09-18 16:05:32.549
168.0, -34635.01151025433, -16703.369224473146, -41348.06738472788, -51292.58201033855, -71289.43607681229, -187500.02235174447, -27576.285907779446, -23609.96885418521, 0.654, -0.672, 0.422, 192.0, 0.0, 0.0, 0.0, 0.0, 0.0, 0.0, 0.0, 0.0, 0.0, 1.6634991325537064E9, 0.0, 2022-09-18 16:05:32.553
169.0, -34520.280005965236, -16711.661721666067, -41389.976905581585, -51315.35843793851, -70719.93597983551, -187500.02235174447, -27603.197408103635, -23601.989281414662, 0.644, -0.676, 0.422, 192.0, 20.0, 32.0, 234.0, 224.0, 13.0, 48.0, 0.0, 0.0, 0.0, 1.6634991325567093E9, 0.0, 2022-09-18 16:05:32.556
170.0, -34451.39192955398, -16339.102845085008, -41429.71830722312, -51327.04840028863, -70893.89960693117, -187500.02235174447, -27657.288629685478, -23598.211836601717, 0.644, -0.676, 0.422, 192.0, 0.0, 0.0, 0.0, 0.0, 0.0, 0.0, 0.0, 0.0, 0.0, 1.6634991325607061E9, 0.0, 2022-09-18 16:05:32.560
171.0, -34379.37460891898, -15672.86439810567, -41491.11854924185, -51363.34763328405, -71574.33141163962, -187500.02235174447, -27747.053235417992, -23608.314825095516, 0.644, -0.676, 0.422, 192.0, 0.0, 0.0, 0.0, 0.0, 0.0, 0.0, 0.0, 0.0, 0.0, 1.663499132564726E9, 0.0, 2022-09-18 16:05:32.564
172.0, -34545.53747719973, -15836.412112285152, -41421.1799408412, -51334.20095851433, -71885.08771480176, -187500.02235174447, -27668.5315571465, -23619.24482813416, 0.644, -0.676, 0.422, 192.0, 0.0, 0.0, 0.0, 0.0, 0.0, 0.0, 0.0, 0.0, 0.0, 1.6634991325686967E9, 0.0, 2022-09-18 16:05:32.568
173.0, -34645.67329235951, -16698.45184069298, -41360.45025115612, -51300.941562764834, -71486.44435244135, -187500.02235174447, -27563.16543378418, -23612.62871177539, 0.644, -0.676, 0.422, 192.0, 0.0, 0.0, 0.0, 0.0, 0.0, 0.0, 0.0, 0.0, 0.0, 1.6634991325738008E9, 0.0, 2022-09-18 16:05:32.573
174.0, -34518.89419780901, -16657.279927406304, -41412.73098143709, -51327.093103777544, -70843.45171969554, -187500.02235174447, -27598.928224912674, -23608.53834254007, 0.644, -0.676, 0.422, 192.0, 0.0, 0.0, 0.0, 0.0, 0.0, 0.0, 0.0, 0.0, 0.0, 1.663499132577769E9, 0.0, 2022-09-18 16:05:32.577
175.0, -34450.00612139775, -16276.875588521432, -41467.55981058595, -51344.66157491942, -71006.23947456354, -187500.02235174447, -27663.34595243287, -23615.266217621116, 0.644, -0.676, 0.422, 192.0, 0.0, 0.0, 0.0, 0.0, 0.0, 0.0, 0.0, 0.0, 0.0, 1.6634991325817685E9, 0.0, 2022-09-18 16:05:32.581
176.0, -34390.8187020801, -15621.187164925, -41549.098974358916, -51395.55649704415, -71665.2136045949, -187500.02235174447, -27764.48759609313, -23643.20589819025, 0.644, -0.676, 0.422, 192.0, 0.0, 0.0, 0.0, 0.0, 0.0, 0.0, 0.0, 0.0, 0.0, 1.6634991325847592E9, 0.0, 2022-09-18 16:05:32.584
177.0, -34569.25267806681, -15866.989298700011, -41483.988342760604, -51363.41468851742, -71919.55410475185, -187500.02235174447, -27677.13697876179, -23647.676247081312, 0.644, -0.676, 0.422, 192.0, 0.0, 0.0, 0.0, 0.0, 0.0, 0.0, 0.0, 0.0, 0.0, 1.6634991325887594E9, 0.0, 2022-09-18 16:05:32.588
178.0, -34632.23989394187, -16717.45082347999, -41381.12561477728, -51290.72681554876, -71460.65043933994, -187500.02235174447, -27534.376386925745, -23605.520857038602, 0.644, -0.676, 0.422, 192.0, 0.0, 0.0, 0.0, 0.0, 0.0, 0.0, 0.0, 0.0, 0.0, 1.6634991325927484E9, 0.0, 2022-09-18 16:05:32.592
179.0, -34501.90687202298, -16638.169185897015, -41432.46757179112, -51312.63152511496, -70848.7714348759, -187500.02235174447, -27576.867053135284, -23606.325519838992, 0.644, -0.676, 0.422, 192.0, 0.0, 0.0, 0.0, 0.0, 0.0, 0.0, 0.0, 0.0, 0.0, 1.6634991325967932E9, 0.0, 2022-09-18 16:05:32.596
180.0, -34440.7301474488, -16239.972858425721, -41483.63071484932, -51326.7131241218, -71059.25781241152, -187500.02235174447, -27638.155536431736, -23605.09617389395, 0.648, -0.686, 0.418, 192.0, 20.0, 64.0, 234.0, 144.0, 13.0, 16.0, 0.0, 0.0, 0.0, 1.663499132601752E9, 0.0, 2022-09-18 16:05:32.601
181.0, -34381.14039673095, -15570.761629433828, -41553.926951161266, -51379.99968290325, -71749.30086723577, -187500.02235174447, -27740.548877781497, -23636.410967875836, 0.648, -0.686, 0.418, 192.0, 0.0, 0.0, 0.0, 0.0, 0.0, 0.0, 0.0, 0.0, 0.0, 1.6634991326058962E9, 0.0, 2022-09-18 16:05:32.605
182.0, -34571.13022460106, -15836.412112285152, -41481.283781681515, -51349.4224964884, -72032.00573110649, -187500.02235174447, -27670.364400191833, -23646.581011603, 0.648, -0.686, 0.418, 192.0, 0.0, 0.0, 0.0, 0.0, 0.0, 0.0, 0.0, 0.0, 0.0, 1.6634991326098187E9, 0.0, 2022-09-18 16:05:32.609
183.0, -34648.199039482955, -16694.428526691023, -41403.16443481021, -51297.454690629806, -71607.32258645566, -187500.02235174447, -27559.566802926878, -23617.613150788922, 0.648, -0.686, 0.418, 192.0, 0.0, 0.0, 0.0, 0.0, 0.0, 0.0, 0.0, 0.0, 0.0, 1.663499132612784E9, 0.0, 2022-09-18 16:05:32.612
184.0, -34529.33246246963, -16626.7250927359, -41453.92524646822, -51327.9648218113, -71009.97221588758, -187500.02235174447, -27594.860207421807, -23621.30118862405, 0.648, -0.686, 0.418, 192.0, 0.0, 0.0, 0.0, 0.0, 0.0, 0.0, 0.0, 0.0, 0.0, 1.6634991326167858E9, 0.0, 2022-09-18 16:05:32.616
185.0, -34448.754423708255, -16222.739663450679, -41480.63558109231, -51332.055191046624, -71238.67526515428, -187500.02235174447, -27648.169117947713, -23614.70742400973, 0.648, -0.686, 0.418, 192.0, 0.0, 0.0, 0.0, 0.0, 0.0, 0.0, 0.0, 0.0, 0.0, 1.6634991326208868E9, 0.0, 2022-09-18 16:05:32.620
186.0, -34392.56213814761, -15572.214492823423, -41548.47312551417, -51383.26303759373, -71945.32566610881, -187500.02235174447, -27751.233011631135, -23643.317656912524, 0.648, -0.686, 0.418, 192.0, 0.0, 0.0, 0.0, 0.0, 0.0, 0.0, 0.0, 0.0, 0.0, 1.6634991326248484E9, 0.0, 2022-09-18 16:05:32.624
187.0, -34569.476195511364, -15869.000955700989, -41462.28479889451, -51344.95214759733, -72185.67397423674, -187500.02235174447, -27660.3284669314, -23641.462462122734, 0.648, -0.686, 0.418, 192.0, 0.0, 0.0, 0.0, 0.0, 0.0, 0.0, 0.0, 0.0, 0.0, 1.663499132629831E9, 0.0, 2022-09-18 16:05:32.629
188.0, -34633.603350353646, -16721.764710159863, -41384.724245634585, -51302.19326045433, -71710.65470107255, -187500.02235174447, -27551.87780283425, -23615.422679832303, 0.648, -0.686, 0.418, 192.0, 0.0, 0.0, 0.0, 0.0, 0.0, 0.0, 0.0, 0.0, 0.0, 1.6634991326338706E9, 0.0, 2022-09-18 16:05:32.633
189.0, -34530.8523810926, -16650.507348836345, -41444.47045856362, -51341.33116499557, -71109.19160952469, -187500.02235174447, -27593.250881821023, -23626.844421248963, 0.648, -0.686, 0.418, 192.0, 0.0, 0.0, 0.0, 0.0, 0.0, 0.0, 0.0, 0.0, 0.0, 1.6634991326378706E9, 0.0, 2022-09-18 16:05:32.637
190.0, -34459.55031628017, -16213.530744735093, -41490.87268005284, -51358.0726215926, -71339.14635648088, -187500.02235174447, -27667.90570830175, -23633.035854463084, 0.654, -0.672, 0.41600000000000004, 192.0, 20.0, 112.0, 235.0, 0.0, 13.0, 0.0, 0.0, 0.0, 0.0, 1.6634991326408672E9, 0.0, 2022-09-18 16:05:32.640
191.0, -34401.32402197409, -15546.331172744176, -41534.346823018415, -51394.99770343277, -72014.90664659819, -187500.02235174447, -27749.06489241897, -23644.390540646382, 0.654, -0.672, 0.41600000000000004, 192.0, 0.0, 0.0, 0.0, 0.0, 0.0, 0.0, 0.0, 0.0, 0.0, 1.663499132644863E9, 0.0, 2022-09-18 16:05:32.644
192.0, -34575.73468395885, -15865.022345187945, -41426.186731599184, -51342.15817954042, -72215.31238738446, -187500.02235174447, -27637.70850154263, -23632.320598640516, 0.654, -0.672, 0.41600000000000004, 192.0, 0.0, 0.0, 0.0, 0.0, 0.0, 0.0, 0.0, 0.0, 0.0, 1.6634991326489756E9, 0.0, 2022-09-18 16:05:32.648
193.0, -34626.51784736131, -16691.25457897837, -41349.296730672926, -51293.83370802805, -71709.80533478325, -187500.02235174447, -27532.945875280606, -23606.48198205018, 0.654, -0.672, 0.41600000000000004, 192.0, 0.0, 0.0, 0.0, 0.0, 0.0, 0.0, 0.0, 0.0, 0.0, 1.6634991326528907E9, 0.0, 2022-09-18 16:05:32.652
194.0, -34532.93109332694, -16626.76979622481, -41430.90294967925, -51353.84814189054, -71166.72499975265, -187500.02235174447, -27620.832934478873, -23639.92019175532, 0.654, -0.672, 0.41600000000000004, 192.0, 0.0, 0.0, 0.0, 0.0, 0.0, 0.0, 0.0, 0.0, 0.0, 1.6634991326569407E9, 0.0, 2022-09-18 16:05:32.656
195.0, -34482.34909562458, -16233.06616938903, -41470.577296087424, -51364.86755190701, -71444.02074146518, -187500.02235174447, -27684.46835094313, -23635.762767286633, 0.654, -0.672, 0.41600000000000004, 192.0, 0.0, 0.0, 0.0, 0.0, 0.0, 0.0, 0.0, 0.0, 0.0, 1.6634991326619296E9, 0.0, 2022-09-18 16:05:32.661
196.0, -34418.93719660487, -15570.426353266997, -41506.47419768265, -51391.28731385319, -72146.67018016221, -187500.02235174447, -27743.387549327323, -23642.401235389858, 0.654, -0.672, 0.41600000000000004, 192.0, 0.0, 0.0, 0.0, 0.0, 0.0, 0.0, 0.0, 0.0, 0.0, 1.6634991326659188E9, 0.0, 2022-09-18 16:05:32.665
197.0, -34619.14177169106, -15930.892936097734, -41426.678469977196, -51364.95695888483, -72342.62792380189, -187500.02235174447, -27649.018484237014, -23659.701485598267, 0.654, -0.672, 0.41600000000000004, 192.0, 0.0, 0.0, 0.0, 0.0, 0.0, 0.0, 0.0, 0.0, 0.0, 1.6634991326689157E9, 0.0, 2022-09-18 16:05:32.668
198.0, -34665.678103647006, -16741.814224936275, -41349.27437892847, -51306.73066457876, -71838.5066793569, -187500.02235174447, -27532.856468302783, -23621.01061594613, 0.654, -0.672, 0.41600000000000004, 192.0, 0.0, 0.0, 0.0, 0.0, 0.0, 0.0, 0.0, 0.0, 0.0, 1.6634991326728487E9, 0.0, 2022-09-18 16:05:32.672
199.0, -34543.749337643305, -16640.225546386904, -41401.55510920943, -51331.83167360207, -71325.5341441076, -187500.02235174447, -27578.945765369626, -23619.91538046782, 0.654, -0.672, 0.41600000000000004, 192.0, 0.0, 0.0, 0.0, 0.0, 0.0, 0.0, 0.0, 0.0, 0.0, 1.663499132676988E9, 0.0, 2022-09-18 16:05:32.676
200.0, -34477.92345022243, -16230.965105410232, -41463.46944135064, -51359.30196753764, -71641.83367989465, -187500.02235174447, -27664.508243144544, -23635.762767286633, 0.654, -0.668, 0.418, 192.0, 20.0, 112.0, 235.0, 32.0, 13.0, 16.0, 0.0, 0.0, 0.0, 1.6634991326809363E9, 0.0, 2022-09-18 16:05:32.680
201.0, -34436.19274332437, -15598.746013491871, -41535.17383756326, -51407.22410764982, -72347.43354885979, -187500.02235174447, -27763.079436192445, -23664.44005542279, 0.654, -0.668, 0.418, 192.0, 0.0, 0.0, 0.0, 0.0, 0.0, 0.0, 0.0, 0.0, 0.0, 1.6634991326849318E9, 0.0, 2022-09-18 16:05:32.684
202.0, -34613.15150417704, -15980.156180877231, -41426.79022869948, -51347.14261855395, -72529.37674872599, -187500.02235174447, -27642.20120217815, -23642.87062202342, 0.654, -0.668, 0.418, 192.0, 0.0, 0.0, 0.0, 0.0, 0.0, 0.0, 0.0, 0.0, 0.0, 1.6634991326900487E9, 0.0, 2022-09-18 16:05:32.690
203.0, -34650.54597265077, -16762.377829835157, -41363.80301282442, -51302.48383313225, -72011.53153318544, -187500.02235174447, -27550.44729118911, -23615.042700176564, 0.654, -0.668, 0.418, 192.0, 0.0, 0.0, 0.0, 0.0, 0.0, 0.0, 0.0, 0.0, 0.0, 1.6634991326929317E9, 0.0, 2022-09-18 16:05:32.692
204.0, -34542.02825332025, -16627.887383447574, -41421.44816177466, -51340.168874283896, -71450.18982293484, -187500.02235174447, -27597.385954545254, -23626.352682870947, 0.654, -0.668, 0.418, 192.0, 0.0, 0.0, 0.0, 0.0, 0.0, 0.0, 0.0, 0.0, 0.0, 1.6634991326969185E9, 0.0, 2022-09-18 16:05:32.696
205.0, -34472.00023794177, -16196.230494526684, -41465.81637451844, -51351.88118837848, -71751.31252423675, -187500.02235174447, -27664.24002221108, -23628.945485227763, 0.654, -0.668, 0.418, 192.0, 0.0, 0.0, 0.0, 0.0, 0.0, 0.0, 0.0, 0.0, 0.0, 1.663499132700988E9, 0.0, 2022-09-18 16:05:32.700
206.0, -34419.27247277171, -15548.231071022878, -41527.976575848654, -51394.5283167992, -72399.20018901827, -187500.02235174447, -27751.54593605351, -23650.91725002733, 0.654, -0.668, 0.418, 192.0, 0.0, 0.0, 0.0, 0.0, 0.0, 0.0, 0.0, 0.0, 0.0, 1.6634991327049532E9, 0.0, 2022-09-18 16:05:32.704
207.0, -34617.95712923493, -16000.585675309381, -41433.29458633597, -51339.72183939479, -72569.63224049, -187500.02235174447, -27638.311998642923, -23638.020293476617, 0.654, -0.668, 0.418, 192.0, 0.0, 0.0, 0.0, 0.0, 0.0, 0.0, 0.0, 0.0, 0.0, 1.663499132708952E9, 0.0, 2022-09-18 16:05:32.708
208.0, -34649.92012380602, -16777.934643976052, -41383.49489968955, -51303.37790291046, -72066.18154837866, -187500.02235174447, -27556.191689514126, -23617.5237438111, 0.654, -0.668, 0.418, 192.0, 0.0, 0.0, 0.0, 0.0, 0.0, 0.0, 0.0, 0.0, 0.0, 1.663499132712969E9, 0.0, 2022-09-18 16:05:32.712
209.0, -34520.056488520684, -16601.24410405685, -41438.547246282964, -51322.60040314202, -71513.13233532099, -187500.02235174447, -27603.89031218175, -23608.851266962443, 0.654, -0.668, 0.418, 192.0, 0.0, 0.0, 0.0, 0.0, 0.0, 0.0, 0.0, 0.0, 0.0, 1.6634991327179856E9, 0.0, 2022-09-18 16:05:32.717
210.0, -34450.27434233121, -16167.709668601712, -41483.362493915854, -51339.811246372614, -71843.42406313706, -187500.02235174447, -27654.539365117475, -23607.845438461954, 0.654, -0.676, 0.41600000000000004, 192.0, 20.0, 112.0, 234.0, 224.0, 13.0, 0.0, 0.0, 0.0, 0.0, 1.6634991327209384E9, 0.0, 2022-09-18 16:05:32.720
211.0, -34420.77003965021, -15531.176690003478, -41557.79380295203, -51399.26688662373, -72514.98222529677, -187500.02235174447, -27751.769453498062, -23651.073712238518, 0.654, -0.676, 0.41600000000000004, 192.0, 0.0, 0.0, 0.0, 0.0, 0.0, 0.0, 0.0, 0.0, 0.0, 1.6634991327249987E9, 0.0, 2022-09-18 16:05:32.724
212.0, -34625.66848107201, -15992.15906764973, -41462.53066808351, -51346.11443830901, -72678.39582900952, -187500.02235174447, -27637.3732253758, -23645.128148213407, 0.654, -0.676, 0.41600000000000004, 192.0, 0.0, 0.0, 0.0, 0.0, 0.0, 0.0, 0.0, 0.0, 0.0, 1.6634991327290084E9, 0.0, 2022-09-18 16:05:32.729
213.0, -34646.54501039327, -16751.827806452253, -41396.45891147362, -51298.6616848304, -72169.29014555099, -187500.02235174447, -27540.478413162044, -23605.7220227387, 0.654, -0.676, 0.41600000000000004, 192.0, 0.0, 0.0, 0.0, 0.0, 0.0, 0.0, 0.0, 0.0, 0.0, 1.663499132732999E9, 0.0, 2022-09-18 16:05:32.732
214.0, -34544.106965554594, -16604.708624447423, -41463.245923906084, -51346.53912145366, -71641.45370023891, -187500.02235174447, -27603.80090520393, -23624.989226459173, 0.654, -0.676, 0.41600000000000004, 192.0, 0.0, 0.0, 0.0, 0.0, 0.0, 0.0, 0.0, 0.0, 0.0, 1.6634991327370312E9, 0.0, 2022-09-18 16:05:32.737
215.0, -34465.875859961016, -16165.698011600736, -41493.42077892074, -51347.9696330988, -71988.46453290756, -187500.02235174447, -27660.797853564964, -23615.33327285448, 0.654, -0.676, 0.41600000000000004, 192.0, 0.0, 0.0, 0.0, 0.0, 0.0, 0.0, 0.0, 0.0, 0.0, 1.6634991327411196E9, 0.0, 2022-09-18 16:05:32.741
216.0, -34440.28311255969, -15534.55180341623, -41563.02411115457, -51406.03946519369, -72669.67864867195, -187500.02235174447, -27761.82773850295, -23658.516843142133, 0.654, -0.676, 0.41600000000000004, 192.0, 0.0, 0.0, 0.0, 0.0, 0.0, 0.0, 0.0, 0.0, 0.0, 1.6634991327461002E9, 0.0, 2022-09-18 16:05:32.746
217.0, -34647.39437668257, -16019.986989496589, -41467.87273500833, -51359.63724370447, -72774.9777168009, -187500.02235174447, -27653.84646103936, -23657.801587319565, 0.654, -0.676, 0.41600000000000004, 192.0, 0.0, 0.0, 0.0, 0.0, 0.0, 0.0, 0.0, 0.0, 0.0, 1.663499132749088E9, 0.0, 2022-09-18 16:05:32.749
218.0, -34657.206792498444, -16763.6071757802, -41388.635800914264, -51301.61211509849, -72216.45232635169, -187500.02235174447, -27542.534773651932, -23613.09809840895, 0.654, -0.676, 0.41600000000000004, 192.0, 0.0, 0.0, 0.0, 0.0, 0.0, 0.0, 0.0, 0.0, 0.0, 1.6634991327520387E9, 0.0, 2022-09-18 16:05:32.752
219.0, -34543.43641322094, -16604.23923781386, -41442.86113296284, -51334.62564165898, -71744.3387799667, -187500.02235174447, -27588.020573618483, -23619.602456045446, 0.654, -0.676, 0.41600000000000004, 192.0, 0.0, 0.0, 0.0, 0.0, 0.0, 0.0, 0.0, 0.0, 0.0, 1.663499132757017E9, 0.0, 2022-09-18 16:05:32.757
220.0, -34463.17129888193, -16137.065426953486, -41484.03304624952, -51351.30004302264, -72084.24175789855, -187500.02235174447, -27664.016504766525, -23622.619941546913, 0.654, -0.672, 0.422, 192.0, 20.0, 112.0, 235.0, 0.0, 13.0, 48.0, 0.0, 0.0, 0.0, 1.6634991327610424E9, 0.0, 2022-09-18 16:05:32.761
221.0, -34435.63394971299, -15522.839489321648, -41530.47997122764, -51393.50013655426, -72749.58613509967, -187500.02235174447, -27747.544973796008, -23648.39150290388, 0.654, -0.672, 0.422, 192.0, 0.0, 0.0, 0.0, 0.0, 0.0, 0.0, 0.0, 0.0, 0.0, 1.6634991327651448E9, 0.0, 2022-09-18 16:05:32.765
222.0, -34642.49934464686, -16053.067571290443, -41432.5793305134, -51349.467199977305, -72834.85804019666, -187500.02235174447, -27640.815394021916, -23646.87158428092, 0.654, -0.672, 0.422, 192.0, 0.0, 0.0, 0.0, 0.0, 0.0, 0.0, 0.0, 0.0, 0.0, 1.6634991327691271E9, 0.0, 2022-09-18 16:05:32.769
223.0, -34646.23208597089, -16774.73834451894, -41370.44148092765, -51308.78702506865, -72246.73894008863, -187500.02235174447, -27533.079985747336, -23613.65689202033, 0.654, -0.672, 0.422, 192.0, 0.0, 0.0, 0.0, 0.0, 0.0, 0.0, 0.0, 0.0, 0.0, 1.6634991327731197E9, 0.0, 2022-09-18 16:05:32.773
224.0, -34538.653139907496, -16612.24116232886, -41423.7280397091, -51337.844292860544, -71784.52721649733, -187500.02235174447, -27584.55605322791, -23619.4236420898, 0.654, -0.672, 0.422, 192.0, 0.0, 0.0, 0.0, 0.0, 0.0, 0.0, 0.0, 0.0, 0.0, 1.6634991327770565E9, 0.0, 2022-09-18 16:05:32.777
225.0, -34449.179106852906, -16146.117883457886, -41455.19929590217, -51341.8676068625, -72159.12010182382, -187500.02235174447, -27648.236173181078, -23609.00772917363, 0.654, -0.672, 0.422, 192.0, 0.0, 0.0, 0.0, 0.0, 0.0, 0.0, 0.0, 0.0, 0.0, 1.6634991327811067E9, 0.0, 2022-09-18 16:05:32.781
226.0, -34445.35695855105, -15549.147492545546, -41532.64809043981, -51413.61670656404, -72800.34694675768, -187500.02235174447, -27751.12125290886, -23666.407008934857, 0.654, -0.672, 0.422, 192.0, 0.0, 0.0, 0.0, 0.0, 0.0, 0.0, 0.0, 0.0, 0.0, 1.6634991327850688E9, 0.0, 2022-09-18 16:05:32.785
227.0, -34650.724786606406, -16111.226810363152, -41414.519120993515, -51349.467199977305, -72902.02503228486, -187500.02235174447, -27610.08174539587, -23651.699561083267, 0.654, -0.672, 0.422, 192.0, 0.0, 0.0, 0.0, 0.0, 0.0, 0.0, 0.0, 0.0, 0.0, 1.6634991327891064E9, 0.0, 2022-09-18 16:05:32.789
228.0, -34642.07466150221, -16796.97833025197, -41363.065405257395, -51310.932792536354, -72328.9710079397, -187500.02235174447, -27519.87010477425, -23618.99895894515, 0.654, -0.672, 0.422, 192.0, 0.0, 0.0, 0.0, 0.0, 0.0, 0.0, 0.0, 0.0, 0.0, 1.6634991327921686E9, 0.0, 2022-09-18 16:05:32.792
229.0, -34548.89023886803, -16614.632798985578, -41440.62595851731, -51360.97834837179, -71859.53967088934, -187500.02235174447, -27598.391783045743, -23642.647104578868, 0.654, -0.672, 0.422, 192.0, 0.0, 0.0, 0.0, 0.0, 0.0, 0.0, 0.0, 0.0, 0.0, 1.6634991327962613E9, 0.0, 2022-09-18 16:05:32.796
230.0, -34474.749502509774, -16147.168415447286, -41495.14186324381, -51385.45350855035, -72261.89342282932, -187500.02235174447, -27688.715182389642, -23653.01831400613, 0.644, -0.672, 0.422, 192.0, 20.0, 32.0, 235.0, 0.0, 13.0, 48.0, 0.0, 0.0, 0.0, 1.6634991328011475E9, 0.0, 2022-09-18 16:05:32.801
231.0, -34467.6863512619, -15565.441914253464, -41558.866686685884, -51440.72937258833, -72899.43222992805, -187500.02235174447, -27777.563366599486, -23692.491494714202, 0.644, -0.672, 0.422, 192.0, 0.0, 0.0, 0.0, 0.0, 0.0, 0.0, 0.0, 0.0, 0.0, 1.6634991328051653E9, 0.0, 2022-09-18 16:05:32.805
232.0, -34649.71895810592, -16149.604755592914, -41407.54537672346, -51344.34865049704, -72969.3708383287, -187500.02235174447, -27602.638614492254, -23641.328351656004, 0.644, -0.672, 0.422, 192.0, 0.0, 0.0, 0.0, 0.0, 0.0, 0.0, 0.0, 0.0, 0.0, 1.663499132809159E9, 0.0, 2022-09-18 16:05:32.809
233.0, -34629.669443329505, -16811.79753682584, -41368.027492526475, -51312.765635581694, -72401.7929913751, -187500.02235174447, -27530.77775606844, -23615.53443855458, 0.644, -0.672, 0.422, 192.0, 0.0, 0.0, 0.0, 0.0, 0.0, 0.0, 0.0, 0.0, 0.0, 1.6634991328132818E9, 0.0, 2022-09-18 16:05:32.813
234.0, -34529.578331658646, -16587.31896726119, -41433.65221424725, -51350.20480754433, -71930.10412813474, -187500.02235174447, -27594.167303343693, -23630.465403850725, 0.644, -0.672, 0.422, 192.0, 0.0, 0.0, 0.0, 0.0, 0.0, 0.0, 0.0, 0.0, 0.0, 1.6634991328171806E9, 0.0, 2022-09-18 16:05:32.817
235.0, -34449.82730744211, -16093.725394454646, -41470.443185620694, -51355.23395004678, -72339.27516213359, -187500.02235174447, -27659.747321575564, -23620.183601401284, 0.644, -0.672, 0.422, 192.0, 0.0, 0.0, 0.0, 0.0, 0.0, 0.0, 0.0, 0.0, 0.0, 1.6634991328201635E9, 0.0, 2022-09-18 16:05:32.820
236.0, -34451.23546734279, -15513.87643979507, -41531.77637240605, -51407.492328583285, -72959.64782949064, -187500.02235174447, -27746.606200528888, -23658.695657097778, 0.644, -0.672, 0.422, 192.0, 0.0, 0.0, 0.0, 0.0, 0.0, 0.0, 0.0, 0.0, 0.0, 1.6634991328242571E9, 0.0, 2022-09-18 16:05:32.824
237.0, -34663.42057745702, -16121.66507502378, -41426.410249043736, -51344.63922317496, -72946.63911421766, -187500.02235174447, -27617.971911188593, -23643.362360401436, 0.644, -0.672, 0.422, 192.0, 0.0, 0.0, 0.0, 0.0, 0.0, 0.0, 0.0, 0.0, 0.0, 1.6634991328291605E9, 0.0, 2022-09-18 16:05:32.829
238.0, -34658.77141461032, -16795.056080228816, -41389.30635324793, -51308.25058320172, -72349.53461283859, -187500.02235174447, -27543.853526574796, -23607.57721752849, 0.644, -0.672, 0.422, 192.0, 0.0, 0.0, 0.0, 0.0, 0.0, 0.0, 0.0, 0.0, 0.0, 1.6634991328332407E9, 0.0, 2022-09-18 16:05:32.833
239.0, -34571.42079727898, -16590.939949862954, -41476.321694412436, -51364.04053736217, -71922.23631408648, -187500.02235174447, -27627.85138223784, -23637.841479520976, 0.644, -0.672, 0.422, 192.0, 0.0, 0.0, 0.0, 0.0, 0.0, 0.0, 0.0, 0.0, 0.0, 1.6634991328371875E9, 0.0, 2022-09-18 16:05:32.837
240.0, -34449.71554871983, -16058.119065537343, -41493.17490973174, -51340.57120568409, -72289.54253072054, -187500.02235174447, -27665.62583036731, -23600.849342447444, 0.65, -0.682, 0.42, 192.0, 20.0, 80.0, 234.0, 176.0, 13.0, 32.0, 0.0, 0.0, 0.0, 1.6634991328411925E9, 0.0, 2022-09-18 16:05:32.841
241.0, -34443.2782463167, -15489.222465660867, -41540.82882891045, -51374.50115376725, -72925.51671570739, -187500.02235174447, -27737.15141262429, -23625.21274390373, 0.65, -0.682, 0.42, 192.0, 0.0, 0.0, 0.0, 0.0, 0.0, 0.0, 0.0, 0.0, 0.0, 1.663499132845189E9, 0.0, 2022-09-18 16:05:32.845
242.0, -34658.90552507705, -16134.09264494093, -41429.07010663392, -51322.421589186386, -72924.39912848463, -187500.02235174447, -27599.08468712386, -23621.837630490976, 0.65, -0.682, 0.42, 192.0, 0.0, 0.0, 0.0, 0.0, 0.0, 0.0, 0.0, 0.0, 0.0, 1.6634991328482652E9, 0.0, 2022-09-18 16:05:32.848
243.0, -34648.02022552732, -16780.862722499696, -41400.66103943122, -51309.07759774657, -72304.11586810541, -187500.02235174447, -27540.00902652848, -23608.940673940262, 0.65, -0.682, 0.42, 192.0, 0.0, 0.0, 0.0, 0.0, 0.0, 0.0, 0.0, 0.0, 0.0, 1.6634991328532E9, 0.0, 2022-09-18 16:05:32.853
244.0, -34553.11471857008, -16577.953586334417, -41465.01171171805, -51352.887016878965, -71898.65522368613, -187500.02235174447, -27610.975815174083, -23627.738491027176, 0.65, -0.682, 0.42, 192.0, 0.0, 0.0, 0.0, 0.0, 0.0, 0.0, 0.0, 0.0, 0.0, 1.6634991328572304E9, 0.0, 2022-09-18 16:05:32.857
245.0, -34464.80297622716, -16080.157885570276, -41516.53248268754, -51372.78006944419, -72334.29072312007, -187500.02235174447, -27695.532464448508, -23630.845383506465, 0.65, -0.682, 0.42, 192.0, 0.0, 0.0, 0.0, 0.0, 0.0, 0.0, 0.0, 0.0, 0.0, 1.6634991328611994E9, 0.0, 2022-09-18 16:05:32.861
246.0, -34471.01676118574, -15537.546937173242, -41563.15822162131, -51422.89268051299, -72973.84118721976, -187500.02235174447, -27756.195098900214, -23671.59261364849, 0.65, -0.682, 0.42, 192.0, 0.0, 0.0, 0.0, 0.0, 0.0, 0.0, 0.0, 0.0, 0.0, 1.6634991328653016E9, 0.0, 2022-09-18 16:05:32.865
247.0, -34669.25438275986, -16198.175096294297, -41423.459818775635, -51343.365173741004, -72983.78771350237, -187500.02235174447, -27590.099285852826, -23637.39444463187, 0.65, -0.682, 0.42, 192.0, 0.0, 0.0, 0.0, 0.0, 0.0, 0.0, 0.0, 0.0, 0.0, 1.663499132869239E9, 0.0, 2022-09-18 16:05:32.869
248.0, -34639.83948705667, -16799.2135046975, -41389.30635324793, -51320.76756009669, -72377.02725851862, -187500.02235174447, -27525.45804088808, -23610.52764779659, 0.65, -0.682, 0.42, 192.0, 0.0, 0.0, 0.0, 0.0, 0.0, 0.0, 0.0, 0.0, 0.0, 1.663499132872264E9, 0.0, 2022-09-18 16:05:32.872
249.0, -34542.654102165, -16573.460885698903, -41454.238170890596, -51359.90546463794, -72005.45185869359, -187500.02235174447, -27589.5628439859, -23624.072804936506, 0.65, -0.682, 0.42, 192.0, 0.0, 0.0, 0.0, 0.0, 0.0, 0.0, 0.0, 0.0, 0.0, 1.6634991328762348E9, 0.0, 2022-09-18 16:05:32.876
250.0, -34456.28696158969, -16057.627327159325, -41512.19624426321, -51386.77226147321, -72465.22724213926, -187500.02235174447, -27674.275955471512, -23635.986284731185, 0.656, -0.67, 0.42, 192.0, 20.0, 128.0, 235.0, 16.0, 13.0, 32.0, 0.0, 0.0, 0.0, 1.663499132880363E9, 0.0, 2022-09-18 16:05:32.880
251.0, -34463.95360993786, -15516.73746308535, -41547.53435224704, -51422.244479923786, -73058.50959521647, -187500.02235174447, -27737.866668446863, -23658.29332569758, 0.656, -0.67, 0.42, 192.0, 0.0, 0.0, 0.0, 0.0, 0.0, 0.0, 0.0, 0.0, 0.0, 1.6634991328852415E9, 0.0, 2022-09-18 16:05:32.885
252.0, -34676.451644474466, -16222.426739028304, -41420.55409199645, -51346.807342387125, -73065.1927668086, -187500.02235174447, -27584.93603288365, -23630.465403850725, 0.656, -0.67, 0.42, 192.0, 0.0, 0.0, 0.0, 0.0, 0.0, 0.0, 0.0, 0.0, 0.0, 1.6634991328892531E9, 0.0, 2022-09-18 16:05:32.889
253.0, -34643.77339408081, -16808.556533879822, -41396.39185624026, -51329.48474043426, -72445.96003841878, -187500.02235174447, -27537.17035498266, -23612.986339686675, 0.656, -0.67, 0.42, 192.0, 0.0, 0.0, 0.0, 0.0, 0.0, 0.0, 0.0, 0.0, 0.0, 1.6634991328932953E9, 0.0, 2022-09-18 16:05:32.893
254.0, -34551.795965647216, -16590.738784162855, -41456.54040056949, -51367.48270600828, -72060.83948145383, -187500.02235174447, -27612.249864608035, -23629.951313728252, 0.656, -0.67, 0.42, 192.0, 0.0, 0.0, 0.0, 0.0, 0.0, 0.0, 0.0, 0.0, 0.0, 1.6634991328972874E9, 0.0, 2022-09-18 16:05:32.897
255.0, -34451.14606036497, -16071.70892616617, -41489.82214806344, -51373.31651131112, -72551.72849318129, -187500.02235174447, -27663.480062899598, -23617.34492985546, 0.656, -0.67, 0.42, 192.0, 0.0, 0.0, 0.0, 0.0, 0.0, 0.0, 0.0, 0.0, 0.0, 1.6634991329012976E9, 0.0, 2022-09-18 16:05:32.901
0.0, -34462.97013318183, -15526.661637623507, -41526.76958164806, -51410.24159315129, -73153.3703986848, -187500.02235174447, -27718.375947281835, -23650.649029093867, 0.656, -0.67, 0.42, 192.0, 0.0, 0.0, 0.0, 0.0, 0.0, 0.0, 0.0, 0.0, 0.0, 1.6634991329043384E9, 0.0, 2022-09-18 16:05:32.904
1.0, -34670.32726649371, -16233.803776956056, -41395.16251029522, -51327.85306308902, -73146.35195092583, -187500.02235174447, -27555.677599391653, -23622.35172061345, 0.656, -0.67, 0.42, 192.0, 0.0, 0.0, 0.0, 0.0, 0.0, 0.0, 0.0, 0.0, 0.0, 1.66349913290838E9, 0.0, 2022-09-18 16:05:32.908
2.0, -34633.51394337582, -16787.970577236483, -41385.12657703478, -51319.98524904076, -72516.90447531993, -187500.02235174447, -27514.416279127156, -23612.092269908462, 0.656, -0.67, 0.42, 192.0, 0.0, 0.0, 0.0, 0.0, 0.0, 0.0, 0.0, 0.0, 0.0, 1.6634991329122903E9, 0.0, 2022-09-18 16:05:32.912
3.0, -34531.254712492795, -16526.142242687016, -41443.308167851945, -51343.521635952195, -72122.75381359505, -187500.02235174447, -27578.49873048052, -23617.836668233474, 0.656, -0.67, 0.42, 192.0, 0.0, 0.0, 0.0, 0.0, 0.0, 0.0, 0.0, 0.0, 0.0, 1.6634991329175537E9, 0.0, 2022-09-18 16:05:32.917
4.0, -34452.08483363209, -16009.369910880318, -41512.33035472994, -51370.54489499866, -72624.81869755014, -187500.02235174447, -27667.637487368287, -23630.219534661715, 0.65, -0.678, 0.41600000000000004, 192.0, 20.0, 80.0, 234.0, 208.0, 13.0, 0.0, 0.0, 0.0, 0.0, 1.6634991329213657E9, 0.0, 2022-09-18 16:05:32.921
5.0, -34481.56678456865, -15517.07273925218, -41555.40216629531, -51409.54868907317, -73217.81047794945, -187500.02235174447, -27732.792822455507, -23662.987192033197, 0.65, -0.678, 0.41600000000000004, 192.0, 0.0, 0.0, 0.0, 0.0, 0.0, 0.0, 0.0, 0.0, 0.0, 1.6634991329253895E9, 0.0, 2022-09-18 16:05:32.925
6.0, -34679.55853695375, -16240.64341075938, -41421.157589096736, -51313.43618791535, -73184.84165487786, -187500.02235174447, -27569.155701298205, -23617.546095555557, 0.65, -0.678, 0.41600000000000004, 192.0, 0.0, 0.0, 0.0, 0.0, 0.0, 0.0, 0.0, 0.0, 0.0, 1.6634991329284372E9, 0.0, 2022-09-18 16:05:32.928
7.0, -34636.732594577385, -16777.375850364668, -41406.405437756235, -51300.472176131276, -72564.08900786507, -187500.02235174447, -27523.60284609829, -23593.450915032736, 0.65, -0.678, 0.41600000000000004, 192.0, 0.0, 0.0, 0.0, 0.0, 0.0, 0.0, 0.0, 0.0, 0.0, 1.6634991329323304E9, 0.0, 2022-09-18 16:05:32.932
8.0, -34539.18958177442, -16525.091710697616, -41467.91743849724, -51336.10085679303, -72215.15592517328, -187500.02235174447, -27584.712515439096, -23606.750202983643, 0.65, -0.678, 0.41600000000000004, 192.0, 0.0, 0.0, 0.0, 0.0, 0.0, 0.0, 0.0, 0.0, 0.0, 1.6634991329363306E9, 0.0, 2022-09-18 16:05:32.936
9.0, -34447.25685682975, -15979.418573310206, -41533.94449161822, -51366.61098797453, -72724.64158828754, -187500.02235174447, -27686.591766666388, -23619.311883367525, 0.65, -0.678, 0.41600000000000004, 192.0, 0.0, 0.0, 0.0, 0.0, 0.0, 0.0, 0.0, 0.0, 0.0, 1.6634991329414227E9, 0.0, 2022-09-18 16:05:32.941
10.0, -34489.61341257255, -15510.59073336014, -41582.47012883069, -51418.9364217444, -73304.11056329138, -187500.02235174447, -27742.67229350475, -23668.463369424746, 0.65, -0.678, 0.41600000000000004, 192.0, 0.0, 0.0, 0.0, 0.0, 0.0, 0.0, 0.0, 0.0, 0.0, 1.663499132945376E9, 0.0, 2022-09-18 16:05:32.945
11.0, -34688.320420780234, -16287.31385318206, -41431.88642643529, -51321.572222897084, -73249.59465856489, -187500.02235174447, -27560.080893049348, -23625.548020070557, 0.65, -0.678, 0.41600000000000004, 192.0, 0.0, 0.0, 0.0, 0.0, 0.0, 0.0, 0.0, 0.0, 0.0, 1.6634991329493797E9, 0.0, 2022-09-18 16:05:32.949
12.0, -34632.105783475134, -16798.073565730283, -41421.068182118914, -51305.30015293362, -72605.99852871877, -187500.02235174447, -27523.98282575403, -23600.782287214075, 0.65, -0.678, 0.41600000000000004, 192.0, 0.0, 0.0, 0.0, 0.0, 0.0, 0.0, 0.0, 0.0, 0.0, 1.6634991329523528E9, 0.0, 2022-09-18 16:05:32.952
13.0, -34544.59870393261, -16534.479443368848, -41490.24683120809, -51348.908406365925, -72259.34532396142, -187500.02235174447, -27606.572521516387, -23621.837630490976, 0.65, -0.678, 0.41600000000000004, 192.0, 0.0, 0.0, 0.0, 0.0, 0.0, 0.0, 0.0, 0.0, 0.0, 1.6634991329564545E9, 0.0, 2022-09-18 16:05:32.956
14.0, -34461.69608374788, -15980.156180877231, -41545.74621269062, -51381.56430501513, -72772.6307836331, -187500.02235174447, -27694.705449903664, -23638.15440394335, 0.648, -0.68, 0.41600000000000004, 192.0, 20.0, 64.0, 234.0, 192.0, 13.0, 0.0, 0.0, 0.0, 0.0, 1.6634991329603975E9, 0.0, 2022-09-18 16:05:32.960
15.0, -34489.993392228294, -15504.891038524038, -41551.825887182466, -51401.0326744357, -73312.33600525094, -187500.02235174447, -27711.223389056137, -23653.800625062064, 0.648, -0.68, 0.41600000000000004, 192.0, 0.0, 0.0, 0.0, 0.0, 0.0, 0.0, 0.0, 0.0, 0.0, 1.6634991329644043E9, 0.0, 2022-09-18 16:05:32.964
16.0, -34699.585699985706, -16317.578115174547, -41403.410303999226, -51312.09508324803, -73256.21077492366, -187500.02235174447, -27546.334570209336, -23614.215685631716, 0.648, -0.68, 0.41600000000000004, 192.0, 0.0, 0.0, 0.0, 0.0, 0.0, 0.0, 0.0, 0.0, 0.0, 1.6634991329684644E9, 0.0, 2022-09-18 16:05:32.968
17.0, -34642.23112371339, -16812.691606604054, -41394.179033539185, -51308.58585936855, -72603.18220891741, -187500.02235174447, -27517.746689050997, -23599.262368591117, 0.648, -0.68, 0.41600000000000004, 192.0, 0.0, 0.0, 0.0, 0.0, 0.0, 0.0, 0.0, 0.0, 0.0, 1.6634991329734168E9, 0.0, 2022-09-18 16:05:32.973
18.0, -34535.63565440603, -16528.645638066013, -41445.31982485292, -51331.563452668604, -72287.7096876752, -187500.02235174447, -27577.85052989132, -23605.76672622761, 0.648, -0.68, 0.41600000000000004, 192.0, 0.0, 0.0, 0.0, 0.0, 0.0, 0.0, 0.0, 0.0, 0.0, 1.6634991329774387E9, 0.0, 2022-09-18 16:05:32.977
19.0, -34455.01291215574, -15975.708183730625, -41523.41681997977, -51377.54099101317, -72849.945467704, -187500.02235174447, -27687.128208533315, -23632.879392251896, 0.648, -0.68, 0.41600000000000004, 192.0, 0.0, 0.0, 0.0, 0.0, 0.0, 0.0, 0.0, 0.0, 0.0, 1.6634991329804392E9, 0.0, 2022-09-18 16:05:32.980
20.0, -34503.136217968015, -15527.421596934986, -41552.65290172731, -51420.16576768944, -73407.82265756401, -187500.02235174447, -27736.950246924192, -23673.224290993727, 0.648, -0.68, 0.41600000000000004, 192.0, 0.0, 0.0, 0.0, 0.0, 0.0, 0.0, 0.0, 0.0, 0.0, 1.6634991329844687E9, 0.0, 2022-09-18 16:05:32.984
21.0, -34714.0919821372, -16359.33117381706, -41411.09930409185, -51335.74322888175, -73300.64604290081, -187500.02235174447, -27575.816521145884, -23636.76859578712, 0.648, -0.68, 0.41600000000000004, 192.0, 0.0, 0.0, 0.0, 0.0, 0.0, 0.0, 0.0, 0.0, 0.0, 1.6634991329886124E9, 0.0, 2022-09-18 16:05:32.988
22.0, -34662.81708035673, -16867.565139241833, -41414.13914133777, -51336.90551959343, -72666.05766607019, -187500.02235174447, -27554.6047156578, -23625.704482281744, 0.648, -0.68, 0.41600000000000004, 192.0, 0.0, 0.0, 0.0, 0.0, 0.0, 0.0, 0.0, 0.0, 0.0, 1.663499132992437E9, 0.0, 2022-09-18 16:05:32.992
23.0, -34516.10022975209, -16539.106254471095, -41425.89615892126, -51316.40896992791, -72375.10500849546, -187500.02235174447, -27570.22858503206, -23590.321670808993, 0.648, -0.68, 0.41600000000000004, 192.0, 0.0, 0.0, 0.0, 0.0, 0.0, 0.0, 0.0, 0.0, 0.0, 1.6634991329965255E9, 0.0, 2022-09-18 16:05:32.996
24.0, -34407.82837961058, -15918.510069669495, -41489.30805794097, -51345.57799644208, -72916.86659060318, -187500.02235174447, -27667.279859457, -23600.625825002888, 0.648, -0.68, 0.41600000000000004, 192.0, 0.0, 0.0, 0.0, 0.0, 0.0, 0.0, 0.0, 0.0, 0.0, 1.6634991330014958E9, 0.0, 2022-09-18 16:05:33.001
25.0, -34494.59785158609, -15504.35459665711, -41541.74525043312, -51405.63713379349, -73468.70880946027, -187500.02235174447, -27733.284560833523, -23664.797683334076, 0.656, -0.678, 0.41600000000000004, 192.0, 20.0, 128.0, 234.0, 208.0, 13.0, 0.0, 0.0, 0.0, 0.0, 1.6634991330054703E9, 0.0, 2022-09-18 16:05:33.005
26.0, -34721.177485129534, -16364.38266806396, -41407.947708123655, -51327.786007855655, -73389.89655851085, -187500.02235174447, -27576.285907779446, -23638.40027313236, 0.656, -0.678, 0.41600000000000004, 192.0, 0.0, 0.0, 0.0, 0.0, 0.0, 0.0, 0.0, 0.0, 0.0, 1.6634991330084865E9, 0.0, 2022-09-18 16:05:33.008
27.0, -34645.405071426045, -16802.432155899067, -41404.41613249971, -51319.85113857403, -72732.08471919116, -187500.02235174447, -27539.02554977245, -23619.06601417852, 0.656, -0.678, 0.41600000000000004, 192.0, 0.0, 0.0, 0.0, 0.0, 0.0, 0.0, 0.0, 0.0, 0.0, 1.6634991330124507E9, 0.0, 2022-09-18 16:05:33.012
28.0, -34551.90772436949, -16508.305550611683, -41463.514144839544, -51345.332127253074, -72445.80357620759, -187500.02235174447, -27603.152704614724, -23626.039758448573, 0.656, -0.678, 0.41600000000000004, 192.0, 0.0, 0.0, 0.0, 0.0, 0.0, 0.0, 0.0, 0.0, 0.0, 1.66349913301652E9, 0.0, 2022-09-18 16:05:33.016
29.0, -34446.318083562626, -15903.355586928796, -41522.656860668285, -51371.282502565686, -72969.88492845118, -187500.02235174447, -27696.761810393553, -23631.8288602625, 0.656, -0.678, 0.41600000000000004, 192.0, 0.0, 0.0, 0.0, 0.0, 0.0, 0.0, 0.0, 0.0, 0.0, 1.663499133020516E9, 0.0, 2022-09-18 16:05:33.020
30.0, -34512.25572970578, -15504.131079212557, -41547.89198015833, -51406.68766578289, -73450.62624819593, -187500.02235174447, -27742.06879640446, -23671.994945048686, 0.656, -0.678, 0.41600000000000004, 192.0, 0.0, 0.0, 0.0, 0.0, 0.0, 0.0, 0.0, 0.0, 0.0, 1.663499133024685E9, 0.0, 2022-09-18 16:05:33.024
31.0, -34726.497200309896, -16404.59345633906, -41403.29854527695, -51312.765635581694, -73344.29899982203, -187500.02235174447, -27576.531776968455, -23628.185525916284, 0.656, -0.678, 0.41600000000000004, 192.0, 0.0, 0.0, 0.0, 0.0, 0.0, 0.0, 0.0, 0.0, 0.0, 1.663499133029534E9, 0.0, 2022-09-18 16:05:33.029
32.0, -34639.86183880113, -16828.650752145142, -41404.796112155454, -51313.50324314872, -72683.76024767879, -187500.02235174447, -27552.950686568107, -23618.104889166938, 0.656, -0.678, 0.41600000000000004, 192.0, 0.0, 0.0, 0.0, 0.0, 0.0, 0.0, 0.0, 0.0, 0.0, 1.6634991330335965E9, 0.0, 2022-09-18 16:05:33.033
33.0, -34540.3518724861, -16513.826431492143, -41464.31880763994, -51343.20871152982, -72391.62294764793, -187500.02235174447, -27614.932073942673, -23627.6267323049, 0.656, -0.678, 0.41600000000000004, 192.0, 0.0, 0.0, 0.0, 0.0, 0.0, 0.0, 0.0, 0.0, 0.0, 1.6634991330365715E9, 0.0, 2022-09-18 16:05:33.036
34.0, -34440.19370558187, -15893.520819368461, -41528.334203759936, -51379.91027592543, -72907.70237537651, -187500.02235174447, -27707.378889009822, -23644.435244135293, 0.656, -0.678, 0.41600000000000004, 192.0, 0.0, 0.0, 0.0, 0.0, 0.0, 0.0, 0.0, 0.0, 0.0, 1.66349913304059E9, 0.0, 2022-09-18 16:05:33.040
35.0, -34515.4967326518, -15517.340960185644, -41547.46729701368, -51410.9344972294, -73361.37573258588, -187500.02235174447, -27739.76656672556, -23678.342840473993, 0.65, -0.664, 0.424, 192.0, 20.0, 80.0, 235.0, 64.0, 13.0, 64.0, 0.0, 0.0, 0.0, 1.663499133044613E9, 0.0, 2022-09-18 16:05:33.044
36.0, -34716.46126704947, -16397.44089811336, -41384.5677834234, -51305.993057011736, -73142.61920960179, -187500.02235174447, -27554.26943949097, -23622.262313635627, 0.65, -0.664, 0.424, 192.0, 0.0, 0.0, 0.0, 0.0, 0.0, 0.0, 0.0, 0.0, 0.0, 1.6634991330486302E9, 0.0, 2022-09-18 16:05:33.048
37.0, -34629.535332862775, -16818.74892935144, -41375.090643774354, -51292.62671382746, -72501.63823385695, -187500.02235174447, -27525.748613565996, -23598.05537439053, 0.65, -0.664, 0.424, 192.0, 0.0, 0.0, 0.0, 0.0, 0.0, 0.0, 0.0, 0.0, 0.0, 1.6634991330525272E9, 0.0, 2022-09-18 16:05:33.052
38.0, -34528.371337458055, -16502.896428453496, -41438.77076372752, -51330.42351370138, -72281.27238527208, -187500.02235174447, -27596.76010570051, -23621.457650835237, 0.65, -0.664, 0.424, 192.0, 0.0, 0.0, 0.0, 0.0, 0.0, 0.0, 0.0, 0.0, 0.0, 1.663499133056626E9, 0.0, 2022-09-18 16:05:33.056
39.0, -34430.44834499936, -15869.447990590095, -41513.60440416389, -51375.37287180101, -72824.15155460258, -187500.02235174447, -27697.208845282657, -23646.87158428092, 0.65, -0.664, 0.424, 192.0, 0.0, 0.0, 0.0, 0.0, 0.0, 0.0, 0.0, 0.0, 0.0, 1.6634991330616808E9, 0.0, 2022-09-18 16:05:33.061
40.0, -34509.3947064155, -15533.657733638018, -41514.274956497546, -51390.50500279725, -73327.17756356926, -187500.02235174447, -27713.615025712854, -23666.943450801784, 0.65, -0.664, 0.424, 192.0, 0.0, 0.0, 0.0, 0.0, 0.0, 0.0, 0.0, 0.0, 0.0, 1.66349913306466E9, 0.0, 2022-09-18 16:05:33.064
41.0, -34719.791676973306, -16441.719703879324, -41381.19267001065, -51309.52463263567, -73131.84566877433, -187500.02235174447, -27559.432692460145, -23635.24867716416, 0.65, -0.664, 0.424, 192.0, 0.0, 0.0, 0.0, 0.0, 0.0, 0.0, 0.0, 0.0, 0.0, 1.6634991330685854E9, 0.0, 2022-09-18 16:05:33.068
42.0, -34638.09605098916, -16835.311571992825, -41392.90498410523, -51313.033856515154, -72505.79565832563, -187500.02235174447, -27545.328741708847, -23625.838592748474, 0.65, -0.664, 0.424, 192.0, 0.0, 0.0, 0.0, 0.0, 0.0, 0.0, 0.0, 0.0, 0.0, 1.6634991330725875E9, 0.0, 2022-09-18 16:05:33.072
43.0, -34544.7551661438, -16528.422120621457, -41446.97385394262, -51345.130961552975, -72329.820374229, -187500.02235174447, -27609.344137828844, -23640.076653966506, 0.65, -0.664, 0.424, 192.0, 0.0, 0.0, 0.0, 0.0, 0.0, 0.0, 0.0, 0.0, 0.0, 1.6634991330766861E9, 0.0, 2022-09-18 16:05:33.076
44.0, -34453.00125515476, -15902.52857238395, -41524.1544275468, -51397.54580230067, -72894.67130835907, -187500.02235174447, -27717.1913048257, -23667.949279302273, 0.65, -0.664, 0.424, 192.0, 0.0, 0.0, 0.0, 0.0, 0.0, 0.0, 0.0, 0.0, 0.0, 1.6634991330806437E9, 0.0, 2022-09-18 16:05:33.080
45.0, -34529.01953804726, -15561.172731062501, -41521.11459030087, -51403.04433143668, -73347.22707834568, -187500.02235174447, -27722.689833961707, -23687.954090589774, 0.642, -0.674, 0.42, 192.0, 20.0, 16.0, 234.0, 240.0, 13.0, 32.0, 0.0, 0.0, 0.0, 1.6634991330845788E9, 0.0, 2022-09-18 16:05:33.084
46.0, -34719.12112463965, -16464.429076245913, -41377.750501364535, -51297.56644935208, -73166.40146570223, -187500.02235174447, -27566.004105330005, -23631.940618984776, 0.642, -0.674, 0.42, 192.0, 0.0, 0.0, 0.0, 0.0, 0.0, 0.0, 0.0, 0.0, 0.0, 1.6634991330896788E9, 0.0, 2022-09-18 16:05:33.089
47.0, -34619.812324024715, -16804.80144081133, -41398.17999579668, -51303.15438546591, -72497.27964368816, -187500.02235174447, -27570.586212943344, -23618.23899963367, 0.642, -0.674, 0.42, 192.0, 0.0, 0.0, 0.0, 0.0, 0.0, 0.0, 0.0, 0.0, 0.0, 1.663499133092688E9, 0.0, 2022-09-18 16:05:33.092
48.0, -34538.13904978503, -16467.02187860273, -41461.6365983053, -51340.48179870627, -72275.08095205796, -187500.02235174447, -27613.83683846436, -23641.663627822832, 0.642, -0.674, 0.42, 192.0, 0.0, 0.0, 0.0, 0.0, 0.0, 0.0, 0.0, 0.0, 0.0, 1.6634991330967045E9, 0.0, 2022-09-18 16:05:33.096
49.0, -34425.19568505236, -15813.389815496186, -41520.48874145612, -51363.727612939794, -72833.42752855153, -187500.02235174447, -27691.777371380016, -23643.585877845988, 0.642, -0.674, 0.42, 192.0, 0.0, 0.0, 0.0, 0.0, 0.0, 0.0, 0.0, 0.0, 0.0, 1.6634991331006577E9, 0.0, 2022-09-18 16:05:33.100
50.0, -34522.291662966214, -15547.873443111594, -41530.211750294184, -51388.64980800746, -73286.56444389396, -187500.02235174447, -27707.468295987645, -23675.839445094996, 0.642, -0.674, 0.42, 192.0, 0.0, 0.0, 0.0, 0.0, 0.0, 0.0, 0.0, 0.0, 0.0, 1.6634991331047127E9, 0.0, 2022-09-18 16:05:33.104
51.0, -34725.26785436486, -16481.975195643332, -41406.0254581005, -51302.99792325472, -73079.74375244901, -187500.02235174447, -27550.51434642248, -23637.39444463187, 0.642, -0.674, 0.42, 192.0, 0.0, 0.0, 0.0, 0.0, 0.0, 0.0, 0.0, 0.0, 0.0, 1.663499133108727E9, 0.0, 2022-09-18 16:05:33.108
52.0, -34623.165085693014, -16791.435097627058, -41425.069144376415, -51305.45661514481, -72405.86100886596, -187500.02235174447, -27546.15575625369, -23620.988264201675, 0.642, -0.674, 0.42, 192.0, 0.0, 0.0, 0.0, 0.0, 0.0, 0.0, 0.0, 0.0, 0.0, 1.6634991331126745E9, 0.0, 2022-09-18 16:05:33.112
53.0, -34533.37812821605, -16457.745904653777, -41484.72595032763, -51337.62077541599, -72219.17923917524, -187500.02235174447, -27615.334405342866, -23637.34974114296, 0.642, -0.674, 0.42, 192.0, 0.0, 0.0, 0.0, 0.0, 0.0, 0.0, 0.0, 0.0, 0.0, 1.6634991331167789E9, 0.0, 2022-09-18 16:05:33.116
54.0, -34441.53481024919, -15806.41607122613, -41582.581887552966, -51395.9811801888, -72795.65308042205, -187500.02235174447, -27729.77533695404, -23671.97259330423, 0.642, -0.674, 0.42, 192.0, 0.0, 0.0, 0.0, 0.0, 0.0, 0.0, 0.0, 0.0, 0.0, 1.6634991331198485E9, 0.0, 2022-09-18 16:05:33.119
55.0, -34553.69586392592, -15548.186367533966, -41579.69851251823, -51411.627401307516, -73212.15548660225, -187500.02235174447, -27736.68202599073, -23698.5935209505, 0.65, -0.68, 0.41600000000000004, 192.0, 20.0, 80.0, 234.0, 192.0, 13.0, 0.0, 0.0, 0.0, 0.0, 1.663499133123768E9, 0.0, 2022-09-18 16:05:33.123
56.0, -34753.09577621172, -16508.149088400496, -41437.87669394931, -51312.07273150358, -73006.49708586896, -187500.02235174447, -27567.50167220851, -23643.563526101534, 0.65, -0.68, 0.41600000000000004, 192.0, 0.0, 0.0, 0.0, 0.0, 0.0, 0.0, 0.0, 0.0, 0.0, 1.6634991331287692E9, 0.0, 2022-09-18 16:05:33.128
57.0, -34648.981350538896, -16798.587655852756, -41462.55301982797, -51322.30983046411, -72325.08180440447, -187500.02235174447, -27574.54247171193, -23626.933828226785, 0.65, -0.68, 0.41600000000000004, 192.0, 0.0, 0.0, 0.0, 0.0, 0.0, 0.0, 0.0, 0.0, 0.0, 1.6634991331327157E9, 0.0, 2022-09-18 16:05:33.132
58.0, -34556.623942449565, -16459.176416298917, -41506.67536338275, -51343.454580718826, -72177.89556716628, -187500.02235174447, -27630.600646805844, -23631.046549206563, 0.65, -0.68, 0.41600000000000004, 192.0, 0.0, 0.0, 0.0, 0.0, 0.0, 0.0, 0.0, 0.0, 0.0, 1.6634991331368065E9, 0.0, 2022-09-18 16:05:33.136
59.0, -34460.15381338046, -15805.119670047721, -41579.38558809586, -51393.07545340961, -72777.57051915771, -187500.02235174447, -27735.11740387886, -23659.656782109356, 0.65, -0.68, 0.41600000000000004, 192.0, 0.0, 0.0, 0.0, 0.0, 0.0, 0.0, 0.0, 0.0, 0.0, 1.663499133140814E9, 0.0, 2022-09-18 16:05:33.140
60.0, -34583.960125918406, -15597.404908824554, -41574.15527989332, -51409.90631698446, -73219.26334133904, -187500.02235174447, -27738.894848691805, -23691.30685225807, 0.65, -0.68, 0.41600000000000004, 192.0, 0.0, 0.0, 0.0, 0.0, 0.0, 0.0, 0.0, 0.0, 0.0, 1.663499133144788E9, 0.0, 2022-09-18 16:05:33.144
61.0, -34769.50195664191, -16543.12956847305, -41430.880597934796, -51306.86477504549, -72973.93059419759, -187500.02235174447, -27562.83015761735, -23630.510107339636, 0.65, -0.68, 0.41600000000000004, 192.0, 0.0, 0.0, 0.0, 0.0, 0.0, 0.0, 0.0, 0.0, 0.0, 1.6634991331478002E9, 0.0, 2022-09-18 16:05:33.147
62.0, -34646.030920270794, -16790.719841804486, -41438.144914882774, -51302.81910929908, -72334.44718533126, -187500.02235174447, -27548.726206866053, -23601.877522692386, 0.65, -0.68, 0.41600000000000004, 192.0, 0.0, 0.0, 0.0, 0.0, 0.0, 0.0, 0.0, 0.0, 0.0, 1.663499133151894E9, 0.0, 2022-09-18 16:05:33.151
63.0, -34549.96312260188, -16437.517575921724, -41495.611249877365, -51336.659650404414, -72239.76519581857, -187500.02235174447, -27618.843629222352, -23620.49652582366, 0.65, -0.68, 0.41600000000000004, 192.0, 0.0, 0.0, 0.0, 0.0, 0.0, 0.0, 0.0, 0.0, 0.0, 1.6634991331568253E9, 0.0, 2022-09-18 16:05:33.156
64.0, -34455.07996738911, -15764.953585261535, -41579.65380902932, -51394.46126156584, -72831.25940933936, -187500.02235174447, -27737.263171346567, -23657.220441963727, 0.65, -0.68, 0.41600000000000004, 192.0, 0.0, 0.0, 0.0, 0.0, 0.0, 0.0, 0.0, 0.0, 0.0, 1.6634991331607513E9, 0.0, 2022-09-18 16:05:33.160
65.0, -34587.42464630898, -15591.995786666368, -41568.522640290576, -51406.03946519369, -73232.29440835648, -187500.02235174447, -27721.751060694583, -23683.59550042099, 0.644, -0.674, 0.41600000000000004, 192.0, 20.0, 32.0, 234.0, 240.0, 13.0, 0.0, 0.0, 0.0, 0.0, 1.6634991331647813E9, 0.0, 2022-09-18 16:05:33.164
66.0, -34755.12978495715, -16559.80396983671, -41411.792208169965, -51291.48677486024, -72940.04534960334, -187500.02235174447, -27538.287942205425, -23613.142801897862, 0.644, -0.674, 0.41600000000000004, 192.0, 0.0, 0.0, 0.0, 0.0, 0.0, 0.0, 0.0, 0.0, 0.0, 1.6634991331687963E9, 0.0, 2022-09-18 16:05:33.168
67.0, -34624.640300827064, -16790.697490060033, -41421.20229258565, -51287.39640562492, -72296.62803371287, -187500.02235174447, -27539.316122450367, -23592.08745862096, 0.644, -0.674, 0.41600000000000004, 192.0, 0.0, 0.0, 0.0, 0.0, 0.0, 0.0, 0.0, 0.0, 0.0, 1.6634991331718507E9, 0.0, 2022-09-18 16:05:33.171
68.0, -34525.77853510124, -16418.33977917907, -41480.45676713667, -51320.70050486333, -72193.27356735153, -187500.02235174447, -27603.219759848093, -23612.80752573103, 0.644, -0.674, 0.41600000000000004, 192.0, 0.0, 0.0, 0.0, 0.0, 0.0, 0.0, 0.0, 0.0, 0.0, 1.6634991331758533E9, 0.0, 2022-09-18 16:05:33.175
69.0, -34422.71464141782, -15726.68739875405, -41556.11742211788, -51364.24170306227, -72792.0320978203, -187500.02235174447, -27698.30408076097, -23632.477060851703, 0.644, -0.674, 0.41600000000000004, 192.0, 0.0, 0.0, 0.0, 0.0, 0.0, 0.0, 0.0, 0.0, 0.0, 1.663499133179864E9, 0.0, 2022-09-18 16:05:33.179
70.0, -34557.89799188352, -15577.042469625769, -41535.732631174644, -51374.568209000616, -73220.93972217319, -187500.02235174447, -27689.832769612407, -23658.181566975305, 0.644, -0.674, 0.41600000000000004, 192.0, 0.0, 0.0, 0.0, 0.0, 0.0, 0.0, 0.0, 0.0, 0.0, 1.6634991331848726E9, 0.0, 2022-09-18 16:05:33.184
71.0, -34746.03262496384, -16556.875891313066, -41403.56676621041, -51296.739434807234, -72973.95294594204, -187500.02235174447, -27535.136346237225, -23624.16221191433, 0.644, -0.674, 0.41600000000000004, 192.0, 0.0, 0.0, 0.0, 0.0, 0.0, 0.0, 0.0, 0.0, 0.0, 1.6634991331887743E9, 0.0, 2022-09-18 16:05:33.188
72.0, -34635.43619339898, -16775.878283486163, -41439.0836881499, -51323.09214152004, -72309.25676933012, -187500.02235174447, -27558.717436637573, -23627.11264218243, 0.644, -0.674, 0.41600000000000004, 192.0, 0.0, 0.0, 0.0, 0.0, 0.0, 0.0, 0.0, 0.0, 0.0, 1.663499133192791E9, 0.0, 2022-09-18 16:05:33.192
73.0, -34534.65217765, -16409.399081396947, -41489.91155504126, -51348.66253717691, -72218.12870718584, -187500.02235174447, -27622.71048101312, -23637.55090684306, 0.644, -0.674, 0.41600000000000004, 192.0, 0.0, 0.0, 0.0, 0.0, 0.0, 0.0, 0.0, 0.0, 0.0, 1.6634991331969233E9, 0.0, 2022-09-18 16:05:33.196
74.0, -34444.50759226175, -15716.182078860054, -41578.737387506655, -51408.14052917249, -72815.43437426501, -187500.02235174447, -27733.64218874481, -23669.7374188587, 0.644, -0.674, 0.41600000000000004, 192.0, 0.0, 0.0, 0.0, 0.0, 0.0, 0.0, 0.0, 0.0, 0.0, 1.6634991331998353E9, 0.0, 2022-09-18 16:05:33.199
75.0, -34579.3109630717, -15615.688635788994, -41539.577131220954, -51399.3339418571, -73224.24778035257, -187500.02235174447, -27704.160237808257, -23677.672288140333, 0.648, -0.674, 0.41400000000000003, 192.0, 20.0, 64.0, 234.0, 240.0, 12.0, 240.0, 0.0, 0.0, 0.0, 1.6634991332038321E9, 0.0, 2022-09-18 16:05:33.203
76.0, -34732.97920620194, -16594.583284209166, -41392.32383874939, -51299.86867903098, -72957.47971027848, -187500.02235174447, -27526.44151764411, -23619.66951127881, 0.648, -0.674, 0.41400000000000003, 192.0, 0.0, 0.0, 0.0, 0.0, 0.0, 0.0, 0.0, 0.0, 0.0, 1.6634991332078269E9, 0.0, 2022-09-18 16:05:33.207
77.0, -34604.456675583926, -16771.51969331738, -41422.94572865316, -51313.05620825961, -72285.29569927404, -187500.02235174447, -27533.191744469616, -23602.14574362585, 0.648, -0.674, 0.41400000000000003, 192.0, 0.0, 0.0, 0.0, 0.0, 0.0, 0.0, 0.0, 0.0, 0.0, 1.663499133212866E9, 0.0, 2022-09-18 16:05:33.212
78.0, -34526.38203220154, -16410.78488955318, -41500.46157842417, -51355.94920586934, -72239.22875395164, -187500.02235174447, -27616.56375128791, -23627.49262183817, 0.648, -0.674, 0.41400000000000003, 192.0, 0.0, 0.0, 0.0, 0.0, 0.0, 0.0, 0.0, 0.0, 0.0, 1.6634991332169263E9, 0.0, 2022-09-18 16:05:33.216
79.0, -34431.92356013341, -15708.090747367234, -41596.6187830709, -51423.563232846645, -72852.73943576092, -187500.02235174447, -27734.402148056288, -23671.234985737203, 0.648, -0.674, 0.41400000000000003, 192.0, 0.0, 0.0, 0.0, 0.0, 0.0, 0.0, 0.0, 0.0, 0.0, 1.6634991332208557E9, 0.0, 2022-09-18 16:05:33.220
80.0, -34573.72302695787, -15613.274647387821, -41558.732576219154, -51412.677933296916, -73215.62000699282, -187500.02235174447, -27700.427496484223, -23683.79666612109, 0.648, -0.674, 0.41400000000000003, 192.0, 0.0, 0.0, 0.0, 0.0, 0.0, 0.0, 0.0, 0.0, 0.0, 1.6634991332248757E9, 0.0, 2022-09-18 16:05:33.224
81.0, -34759.5554303593, -16615.325703063692, -41457.03213894751, -51344.706278408325, -72925.00262558492, -187500.02235174447, -27563.992448329027, -23654.76175007364, 0.648, -0.674, 0.41400000000000003, 192.0, 0.0, 0.0, 0.0, 0.0, 0.0, 0.0, 0.0, 0.0, 0.0, 1.6634991332279685E9, 0.0, 2022-09-18 16:05:33.227
82.0, -34639.28069344529, -16777.46525734249, -41490.224479463635, -51356.57505471409, -72231.2491811811, -187500.02235174447, -27573.290774022436, -23641.037778978083, 0.648, -0.674, 0.41400000000000003, 192.0, 0.0, 0.0, 0.0, 0.0, 0.0, 0.0, 0.0, 0.0, 0.0, 1.663499133231908E9, 0.0, 2022-09-18 16:05:33.231
83.0, -34531.902913082, -16364.114447130496, -41516.84540710991, -51353.35640351253, -72153.24159303207, -187500.02235174447, -27608.89710293974, -23626.956179971243, 0.648, -0.674, 0.41400000000000003, 192.0, 0.0, 0.0, 0.0, 0.0, 0.0, 0.0, 0.0, 0.0, 0.0, 1.6634991332359672E9, 0.0, 2022-09-18 16:05:33.235
84.0, -34433.018795611715, -15648.210423971466, -41589.913259734305, -51395.55649704415, -72755.39758865804, -187500.02235174447, -27707.825923898927, -23644.949334257763, 0.648, -0.674, 0.41400000000000003, 192.0, 0.0, 0.0, 0.0, 0.0, 0.0, 0.0, 0.0, 0.0, 0.0, 1.6634991332399676E9, 0.0, 2022-09-18 16:05:33.239
85.0, -34609.195245408446, -15628.183260939511, -41561.14656462033, -51395.35533134405, -73121.02742445796, -187500.02235174447, -27688.826941111918, -23666.943450801784, 0.646, -0.68, 0.41000000000000003, 192.0, 20.0, 48.0, 234.0, 192.0, 12.0, 208.0, 0.0, 0.0, 0.0, 1.6634991332450304E9, 0.0, 2022-09-18 16:05:33.245
86.0, -34754.43688087903, -16602.585208724166, -41416.08374310538, -51290.391539381926, -72759.8679375491, -187500.02235174447, -27520.2947879189, -23600.75993546962, 0.646, -0.68, 0.41000000000000003, 192.0, 0.0, 0.0, 0.0, 0.0, 0.0, 0.0, 0.0, 0.0, 0.0, 1.66349913324893E9, 0.0, 2022-09-18 16:05:33.248
87.0, -34628.3730421511, -16751.98426866344, -41451.64536853378, -51307.78119656816, -72124.273732218, -187500.02235174447, -27543.652360874697, -23595.37316505589, 0.646, -0.68, 0.41000000000000003, 192.0, 0.0, 0.0, 0.0, 0.0, 0.0, 0.0, 0.0, 0.0, 0.0, 1.6634991332529387E9, 0.0, 2022-09-18 16:05:33.252
88.0, -34536.66383465098, -16372.943386190342, -41498.271107467546, -51327.69660087784, -72129.79461309846, -187500.02235174447, -27596.581291744864, -23603.330386081983, 0.646, -0.68, 0.41000000000000003, 192.0, 0.0, 0.0, 0.0, 0.0, 0.0, 0.0, 0.0, 0.0, 0.0, 1.663499133255937E9, 0.0, 2022-09-18 16:05:33.255
89.0, -34472.022589686225, -15683.034441832835, -41611.61680360041, -51411.672104796424, -72772.74254235537, -187500.02235174447, -27738.87249694735, -23665.26706996764, 0.646, -0.68, 0.41000000000000003, 192.0, 0.0, 0.0, 0.0, 0.0, 0.0, 0.0, 0.0, 0.0, 0.0, 1.6634991332599852E9, 0.0, 2022-09-18 16:05:33.259
90.0, -34638.073699244705, -15682.028613332346, -41559.581942508456, -51389.454470807854, -73141.43456714565, -187500.02235174447, -27693.81138012545, -23667.748113602178, 0.646, -0.68, 0.41000000000000003, 192.0, 0.0, 0.0, 0.0, 0.0, 0.0, 0.0, 0.0, 0.0, 0.0, 1.6634991332639322E9, 0.0, 2022-09-18 16:05:33.263
91.0, -34758.661360581085, -16642.505424321345, -41409.892309891264, -51279.59564681002, -72815.32261554273, -187500.02235174447, -27514.371575638244, -23592.132162109872, 0.646, -0.68, 0.41000000000000003, 192.0, 0.0, 0.0, 0.0, 0.0, 0.0, 0.0, 0.0, 0.0, 0.0, 1.663499133267991E9, 0.0, 2022-09-18 16:05:33.267
92.0, -34629.49062937387, -16743.445902281514, -41452.51708656753, -51310.5081093917, -72139.29410449197, -187500.02235174447, -27540.746634095507, -23595.641385989355, 0.646, -0.68, 0.41000000000000003, 192.0, 0.0, 0.0, 0.0, 0.0, 0.0, 0.0, 0.0, 0.0, 0.0, 1.663499133272091E9, 0.0, 2022-09-18 16:05:33.272
93.0, -34543.03408182074, -16358.727676716768, -41509.536386673026, -51339.00658357222, -72143.25036326055, -187500.02235174447, -27616.250826865537, -23610.63940651887, 0.646, -0.68, 0.41000000000000003, 192.0, 0.0, 0.0, 0.0, 0.0, 0.0, 0.0, 0.0, 0.0, 0.0, 1.6634991332770724E9, 0.0, 2022-09-18 16:05:33.277
94.0, -34458.94681917987, -15656.569976397752, -41604.665411074806, -51406.79942450517, -72773.18957724447, -187500.02235174447, -27742.784052227027, -23652.414816905835, 0.646, -0.68, 0.41000000000000003, 192.0, 0.0, 0.0, 0.0, 0.0, 0.0, 0.0, 0.0, 0.0, 0.0, 1.663499133281005E9, 0.0, 2022-09-18 16:05:33.281
95.0, -34633.78216430928, -15685.649595934106, -41561.14656462033, -51403.781939003704, -73079.78845593792, -187500.02235174447, -27699.19815053918, -23674.855968338965, 0.65, -0.674, 0.41200000000000003, 192.0, 20.0, 80.0, 234.0, 240.0, 12.0, 224.0, 0.0, 0.0, 0.0, 1.6634991332839868E9, 0.0, 2022-09-18 16:05:33.283
96.0, -34794.15593077611, -16686.001919031372, -41449.49960106607, -51332.055191046624, -72717.73489925086, -187500.02235174447, -27557.376331970256, -23639.651970821855, 0.65, -0.674, 0.41200000000000003, 192.0, 0.0, 0.0, 0.0, 0.0, 0.0, 0.0, 0.0, 0.0, 0.0, 1.6634991332880173E9, 0.0, 2022-09-18 16:05:33.288
97.0, -34628.8200770402, -16753.12420763066, -41459.49083083759, -51323.20390024232, -72089.87439750128, -187500.02235174447, -27552.34718946781, -23604.358566326926, 0.65, -0.674, 0.41200000000000003, 192.0, 0.0, 0.0, 0.0, 0.0, 0.0, 0.0, 0.0, 0.0, 0.0, 1.6634991332920153E9, 0.0, 2022-09-18 16:05:33.292
98.0, -34536.70853813989, -16343.595545720524, -41516.62188966535, -51353.73638316827, -72144.63617141679, -187500.02235174447, -27619.38007108928, -23620.34006361247, 0.65, -0.674, 0.41200000000000003, 192.0, 0.0, 0.0, 0.0, 0.0, 0.0, 0.0, 0.0, 0.0, 0.0, 1.6634991332959936E9, 0.0, 2022-09-18 16:05:33.295
99.0, -34457.15867962345, -15632.340685408199, -41612.04148674506, -51422.803273535166, -72783.20315876046, -187500.02235174447, -27740.68298824823, -23665.26706996764, 0.65, -0.674, 0.41200000000000003, 192.0, 0.0, 0.0, 0.0, 0.0, 0.0, 0.0, 0.0, 0.0, 0.0, 1.6634991333010132E9, 0.0, 2022-09-18 16:05:33.301
100.0, -34630.38469915208, -15702.815735675782, -41557.8608581854, -51400.87621222451, -73100.21795037008, -187500.02235174447, -27688.268147500534, -23671.68202062631, 0.65, -0.674, 0.41200000000000003, 192.0, 0.0, 0.0, 0.0, 0.0, 0.0, 0.0, 0.0, 0.0, 0.0, 1.6634991333050528E9, 0.0, 2022-09-18 16:05:33.305
101.0, -34767.043264751825, -16688.125334754626, -41432.51227528004, -51319.58291764056, -72749.09439672166, -187500.02235174447, -27539.494936406012, -23623.089328180475, 0.65, -0.674, 0.41200000000000003, 192.0, 0.0, 0.0, 0.0, 0.0, 0.0, 0.0, 0.0, 0.0, 0.0, 1.6634991333081868E9, 0.0, 2022-09-18 16:05:33.308
102.0, -34640.308873690235, -16771.206768895005, -41477.863964779855, -51350.83065638908, -72105.69943257564, -187500.02235174447, -27574.721285667576, -23626.509145082135, 0.65, -0.674, 0.41200000000000003, 192.0, 0.0, 0.0, 0.0, 0.0, 0.0, 0.0, 0.0, 0.0, 0.0, 1.663499133312035E9, 0.0, 2022-09-18 16:05:33.312
103.0, -34535.233323005836, -16340.37689451896, -41517.15833153228, -51359.816057660115, -72152.99572384307, -187500.02235174447, -27629.125431671793, -23625.659778792833, 0.65, -0.674, 0.41200000000000003, 192.0, 0.0, 0.0, 0.0, 0.0, 0.0, 0.0, 0.0, 0.0, 0.0, 1.6634991333160355E9, 0.0, 2022-09-18 16:05:33.316
104.0, -34453.3812348105, -15603.931618205503, -41605.224204686194, -51422.89268051299, -72796.435391478, -187500.02235174447, -27748.30493310749, -23665.44588392328, 0.65, -0.674, 0.41200000000000003, 192.0, 0.0, 0.0, 0.0, 0.0, 0.0, 0.0, 0.0, 0.0, 0.0, 1.663499133320155E9, 0.0, 2022-09-18 16:05:33.320
105.0, -34651.01535928433, -15719.40073006162, -41555.08924187294, -51407.44762509437, -73113.69605227662, -187500.02235174447, -27697.655880171762, -23676.666459639844, 0.648, -0.678, 0.41000000000000003, 192.0, 20.0, 64.0, 234.0, 208.0, 12.0, 208.0, 0.0, 0.0, 0.0, 1.6634991333241184E9, 0.0, 2022-09-18 16:05:33.324
106.0, -34775.40281717811, -16691.29928246728, -41431.41703980172, -51317.57126063958, -72734.1187279366, -187500.02235174447, -27540.992503284517, -23618.171944400307, 0.648, -0.678, 0.41000000000000003, 192.0, 0.0, 0.0, 0.0, 0.0, 0.0, 0.0, 0.0, 0.0, 0.0, 1.6634991333280883E9, 0.0, 2022-09-18 16:05:33.328
107.0, -34634.4750683874, -16725.005713105886, -41469.07972920892, -51334.89386259245, -72076.262185128, -187500.02235174447, -27564.327724495855, -23608.270121606605, 0.648, -0.678, 0.41000000000000003, 192.0, 0.0, 0.0, 0.0, 0.0, 0.0, 0.0, 0.0, 0.0, 0.0, 1.6634991333330605E9, 0.0, 2022-09-18 16:05:33.333
108.0, -34542.18471553144, -16319.433309964337, -41512.93385183023, -51351.21063604482, -72155.72263666661, -187500.02235174447, -27625.437393836666, -23612.584008286478, 0.648, -0.678, 0.41000000000000003, 192.0, 0.0, 0.0, 0.0, 0.0, 0.0, 0.0, 0.0, 0.0, 0.0, 1.6634991333360574E9, 0.0, 2022-09-18 16:05:33.336
109.0, -34475.330647865616, -15615.353359622164, -41605.40301864183, -51422.579756090614, -72805.84547589367, -187500.02235174447, -27747.075587162446, -23657.332200686003, 0.648, -0.678, 0.41000000000000003, 192.0, 0.0, 0.0, 0.0, 0.0, 0.0, 0.0, 0.0, 0.0, 0.0, 1.66349913334014E9, 0.0, 2022-09-18 16:05:33.340
110.0, -34661.90065883406, -15760.147960203643, -41539.13009633185, -51389.92385744141, -73082.13538910572, -187500.02235174447, -27685.76475212154, -23654.76175007364, 0.648, -0.678, 0.41000000000000003, 192.0, 0.0, 0.0, 0.0, 0.0, 0.0, 0.0, 0.0, 0.0, 0.0, 1.663499133344154E9, 0.0, 2022-09-18 16:05:33.344
111.0, -34773.972305532974, -16716.869678124152, -41430.12063862332, -51311.06690300309, -72647.88569782802, -187500.02235174447, -27537.058596260384, -23608.180714628783, 0.648, -0.678, 0.41000000000000003, 192.0, 0.0, 0.0, 0.0, 0.0, 0.0, 0.0, 0.0, 0.0, 0.0, 1.6634991333480773E9, 0.0, 2022-09-18 16:05:33.348
112.0, -34652.69174011848, -16760.03089666735, -41487.005828262074, -51348.01433658771, -72041.88520215574, -187500.02235174447, -27574.98950660104, -23617.859019977932, 0.648, -0.678, 0.41000000000000003, 192.0, 0.0, 0.0, 0.0, 0.0, 0.0, 0.0, 0.0, 0.0, 0.0, 1.6634991333521595E9, 0.0, 2022-09-18 16:05:33.352
113.0, -34544.039910321226, -16337.85114739551, -41518.968822833165, -51356.75386866974, -72126.21833398561, -187500.02235174447, -27625.839725236863, -23611.57817978599, 0.648, -0.678, 0.41000000000000003, 192.0, 0.0, 0.0, 0.0, 0.0, 0.0, 0.0, 0.0, 0.0, 0.0, 1.663499133356227E9, 0.0, 2022-09-18 16:05:33.356
114.0, -34465.33941809409, -15617.812051512248, -41605.939460508765, -51424.16672994694, -72758.30331543724, -187500.02235174447, -27749.713093008173, -23654.15825297335, 0.648, -0.678, 0.41000000000000003, 192.0, 0.0, 0.0, 0.0, 0.0, 0.0, 0.0, 0.0, 0.0, 0.0, 1.6634991333601544E9, 0.0, 2022-09-18 16:05:33.360
115.0, -34651.976484295905, -15779.325756946297, -41530.23410203864, -51394.5283167992, -72979.54088205587, -187500.02235174447, -27672.66662987073, -23652.839500050486, 0.644, -0.676, 0.41400000000000003, 192.0, 20.0, 32.0, 234.0, 224.0, 12.0, 240.0, 0.0, 0.0, 0.0, 1.663499133364152E9, 0.0, 2022-09-18 16:05:33.364
116.0, -34753.833383778736, -16717.62963743563, -41410.942841880664, -51307.9600105238, -72484.74031504874, -187500.02235174447, -27518.88662801822, -23592.95917665472, 0.644, -0.676, 0.41400000000000003, 192.0, 0.0, 0.0, 0.0, 0.0, 0.0, 0.0, 0.0, 0.0, 0.0, 1.663499133367164E9, 0.0, 2022-09-18 16:05:33.367
117.0, -34622.22631242589, -16725.65391369509, -41457.099194180875, -51339.43126671687, -71842.32882765876, -187500.02235174447, -27558.516270937478, -23598.837685446466, 0.644, -0.676, 0.41400000000000003, 192.0, 0.0, 0.0, 0.0, 0.0, 0.0, 0.0, 0.0, 0.0, 0.0, 1.6634991333722456E9, 0.0, 2022-09-18 16:05:33.372
118.0, -34514.602662873585, -16296.99215853121, -41490.157424230274, -51350.383621499976, -71909.42876451359, -187500.02235174447, -27610.864056451806, -23597.161304612317, 0.644, -0.676, 0.41400000000000003, 192.0, 0.0, 0.0, 0.0, 0.0, 0.0, 0.0, 0.0, 0.0, 0.0, 1.6634991333761652E9, 0.0, 2022-09-18 16:05:33.376
119.0, -34437.355034036045, -15571.141609089567, -41581.41959684129, -51418.98112523331, -72437.57813424803, -187500.02235174447, -27726.757851452574, -23643.11649121243, 0.644, -0.676, 0.41400000000000003, 192.0, 0.0, 0.0, 0.0, 0.0, 0.0, 0.0, 0.0, 0.0, 0.0, 1.6634991333801532E9, 0.0, 2022-09-18 16:05:33.380
120.0, -34650.300103461755, -15792.1780100081, -41518.611194921876, -51398.37281684552, -72556.5788217281, -187500.02235174447, -27667.592783879376, -23659.232098964705, 0.644, -0.676, 0.41400000000000003, 192.0, 0.0, 0.0, 0.0, 0.0, 0.0, 0.0, 0.0, 0.0, 0.0, 1.6634991333841634E9, 0.0, 2022-09-18 16:05:33.384
121.0, -34759.3542646592, -16739.534347001834, -41422.16341759723, -51330.40116195693, -72002.5461319144, -187500.02235174447, -27546.088701020326, -23621.90468572434, 0.644, -0.676, 0.41400000000000003, 192.0, 0.0, 0.0, 0.0, 0.0, 0.0, 0.0, 0.0, 0.0, 0.0, 1.663499133389162E9, 0.0, 2022-09-18 16:05:33.389
122.0, -34620.08054495818, -16726.816204406765, -41464.65408380677, -51349.6236621885, -71279.86953018542, -187500.02235174447, -27569.915660609684, -23616.76378449962, 0.644, -0.676, 0.41400000000000003, 192.0, 0.0, 0.0, 0.0, 0.0, 0.0, 0.0, 0.0, 0.0, 0.0, 1.6634991333922548E9, 0.0, 2022-09-18 16:05:33.392
123.0, -34528.393689202516, -16305.530524913136, -41517.493607699114, -51373.227104333295, -71371.71284815227, -187500.02235174447, -27645.553963846443, -23629.638389305877, 0.644, -0.676, 0.41400000000000003, 192.0, 0.0, 0.0, 0.0, 0.0, 0.0, 0.0, 0.0, 0.0, 0.0, 1.6634991333962193E9, 0.0, 2022-09-18 16:05:33.396
124.0, -34469.00510418476, -15597.18139138, -41614.14255072386, -51438.874177798534, -71998.52281791244, -187500.02235174447, -27765.091093193423, -23672.553738660066, 0.644, -0.676, 0.41400000000000003, 192.0, 0.0, 0.0, 0.0, 0.0, 0.0, 0.0, 0.0, 0.0, 0.0, 1.6634991334002068E9, 0.0, 2022-09-18 16:05:33.400
125.0, -34670.349618238164, -15847.1409496237, -41529.98823284963, -51392.22608712031, -72233.93139051573, -187500.02235174447, -27672.15253974826, -23663.501282155667, 0.644, -0.676, 0.41400000000000003, 192.0, 0.0, 0.0, 0.0, 0.0, 0.0, 0.0, 0.0, 0.0, 0.0, 1.6634991334042048E9, 0.0, 2022-09-18 16:05:33.404
126.0, -34774.75461658891, -16780.75096377742, -41436.267368348526, -51327.13780726645, -71791.16568460056, -187500.02235174447, -27545.93223880914, -23625.235095648182, 0.62, -0.67, 0.42, 192.0, 19.0, 96.0, 235.0, 16.0, 13.0, 32.0, 0.0, 0.0, 0.0, 1.6634991334082282E9, 0.0, 2022-09-18 16:05:33.408
127.0, -34624.170914193506, -16745.97164940496, -41470.219668176134, -51333.329240480576, -71233.02027380708, -187500.02235174447, -27570.295640265424, -23603.933883182275, 0.62, -0.67, 0.42, 192.0, 0.0, 0.0, 0.0, 0.0, 0.0, 0.0, 0.0, 0.0, 0.0, 1.6634991334122436E9, 0.0, 2022-09-18 16:05:33.412
128.0, -34540.821259119664, -16336.487690983737, -41528.08833457093, -51362.63237746148, -71420.5067062982, -187500.02235174447, -27648.459690625634, -23620.161249656827, 0.62, -0.67, 0.42, 192.0, 0.0, 0.0, 0.0, 0.0, 0.0, 0.0, 0.0, 0.0, 0.0, 1.6634991334172487E9, 0.0, 2022-09-18 16:05:33.417
129.0, -34488.00408697177, -15663.72253462345, -41621.317460694016, -51435.96845101935, -72085.98519396606, -187500.02235174447, -27770.41080837379, -23674.72185787223, 0.62, -0.67, 0.42, 192.0, 0.0, 0.0, 0.0, 0.0, 0.0, 0.0, 0.0, 0.0, 0.0, 1.6634991334202232E9, 0.0, 2022-09-18 16:05:33.420
130.0, -34684.140644567095, -15902.550924128405, -41535.17383756326, -51380.64788349246, -72288.7602196646, -187500.02235174447, -27675.61706013883, -23658.338029186492, 0.62, -0.67, 0.42, 192.0, 0.0, 0.0, 0.0, 0.0, 0.0, 0.0, 0.0, 0.0, 0.0, 1.6634991334233005E9, 0.0, 2022-09-18 16:05:33.423
131.0, -34751.26293316638, -16756.052286154307, -41430.00887990104, -51295.219516184276, -71783.65549846357, -187500.02235174447, -27531.984750269028, -23597.67539473479, 0.62, -0.67, 0.42, 192.0, 0.0, 0.0, 0.0, 0.0, 0.0, 0.0, 0.0, 0.0, 0.0, 1.6634991334282248E9, 0.0, 2022-09-18 16:05:33.428
132.0, -34628.909484018026, -16703.056300050772, -41501.333296457924, -51346.42736273138, -71194.21764543267, -187500.02235174447, -27590.501617253023, -23622.195258402262, 0.62, -0.67, 0.42, 192.0, 0.0, 0.0, 0.0, 0.0, 0.0, 0.0, 0.0, 0.0, 0.0, 1.663499133432282E9, 0.0, 2022-09-18 16:05:33.432
133.0, -34531.679395637446, -16263.106913936963, -41550.37302379287, -51368.24266531976, -71340.75568208167, -187500.02235174447, -27655.612248851332, -23629.97366547271, 0.62, -0.67, 0.42, 192.0, 0.0, 0.0, 0.0, 0.0, 0.0, 0.0, 0.0, 0.0, 0.0, 1.663499133436296E9, 0.0, 2022-09-18 16:05:33.436
134.0, -34452.35305456556, -15525.476995167375, -41619.43991415977, -51418.75760778876, -71898.99049985297, -187500.02235174447, -27753.423482587754, -23656.616944863435, 0.62, -0.67, 0.42, 192.0, 0.0, 0.0, 0.0, 0.0, 0.0, 0.0, 0.0, 0.0, 0.0, 1.6634991334402664E9, 0.0, 2022-09-18 16:05:33.440
135.0, -34681.72665616592, -15858.51798755145, -41545.522695246065, -51391.24261036427, -72073.17764439317, -187500.02235174447, -27682.2331764976, -23668.999811291673, 0.62, -0.67, 0.42, 192.0, 0.0, 0.0, 0.0, 0.0, 0.0, 0.0, 0.0, 0.0, 0.0, 1.6634991334442608E9, 0.0, 2022-09-18 16:05:33.444
136.0, -34757.70023556951, -16771.474989828468, -41447.934978954196, -51318.0629990176, -71609.62481613456, -187500.02235174447, -27557.175166270157, -23617.836668233474, 0.638, -0.668, 0.418, 192.0, 19.0, 240.0, 235.0, 32.0, 13.0, 16.0, 0.0, 0.0, 0.0, 1.6634991334482644E9, 0.0, 2022-09-18 16:05:33.448
137.0, -34617.53244609028, -16695.21083774696, -41492.37024693135, -51344.90744410842, -71006.59710247483, -187500.02235174447, -27584.533701483455, -23612.114621652916, 0.638, -0.668, 0.418, 192.0, 0.0, 0.0, 0.0, 0.0, 0.0, 0.0, 0.0, 0.0, 0.0, 1.6634991334512844E9, 0.0, 2022-09-18 16:05:33.451
138.0, -34535.25567475029, -16250.858157975455, -41545.56739873498, -51378.88209568049, -71207.49458163913, -187500.02235174447, -27665.1787954782, -23632.544116085068, 0.638, -0.668, 0.418, 192.0, 0.0, 0.0, 0.0, 0.0, 0.0, 0.0, 0.0, 0.0, 0.0, 1.6634991334563525E9, 0.0, 2022-09-18 16:05:33.456
139.0, -34486.238299159806, -15545.235937265867, -41627.531245652586, -51444.193892978896, -71821.38524310413, -187500.02235174447, -27777.563366599486, -23678.3875439629, 0.638, -0.668, 0.418, 192.0, 0.0, 0.0, 0.0, 0.0, 0.0, 0.0, 0.0, 0.0, 0.0, 1.6634991334603024E9, 0.0, 2022-09-18 16:05:33.460
140.0, -34697.37287728464, -15905.903685796702, -41521.58397693443, -51384.134755627485, -72023.53441995793, -187500.02235174447, -27673.650106626763, -23662.24958446617, 0.638, -0.668, 0.418, 192.0, 0.0, 0.0, 0.0, 0.0, 0.0, 0.0, 0.0, 0.0, 0.0, 1.663499133464327E9, 0.0, 2022-09-18 16:05:33.464
