%OpenBCI Raw EEG Data
%Number of channels = 8
%Sample Rate = 250 Hz
%Board = OpenBCI_GUI$BoardCytonSerial
Sample Index, EXG Channel 0, EXG Channel 1, EXG Channel 2, EXG Channel 3, EXG Channel 4, EXG Channel 5, EXG Channel 6, EXG Channel 7, Accel Channel 0, Accel Channel 1, Accel Channel 2, Other, Other, Other, Other, Other, Other, Other, Analog Channel 0, Analog Channel 1, Analog Channel 2, Timestamp, Other, Timestamp (Formatted)
152.0, -47089.5152794737, -47317.659535129016, -37441.25067487367, -61025.895002591016, -55324.501433909114, -79174.39391307758, -62351.040524368356, -69508.31496814669, 0.0, 0.0, 0.0, 192.0, 0.0, 0.0, 0.0, 0.0, 0.0, 0.0, 0.0, 0.0, 0.0, 1.6635026368281524E9, 0.0, 2022-09-18 17:03:56.828
153.0, -45029.24323430577, -47051.94199704433, -37440.02132892863, -60996.92714177694, -55374.278768811084, -79130.36097650063, -62342.92684113108, -69479.3024038437, 0.0, 0.0, 0.0, 192.0, 0.0, 0.0, 0.0, 0.0, 0.0, 0.0, 0.0, 0.0, 0.0, 1.6635026368281755E9, 0.0, 2022-09-18 17:03:56.828
154.0, -48149.43500154436, -49655.853170854236, -37295.114969624876, -60810.87122093097, -55291.644369559814, -78930.55873281465, -62188.96802532292, -69303.41652672489, 0.0, 0.0, 0.0, 192.0, 0.0, 0.0, 0.0, 0.0, 0.0, 0.0, 0.0, 0.0, 0.0, 1.6635026368281894E9, 0.0, 2022-09-18 17:03:56.828
0.0, 0.0, 0.0, 0.0, 0.0, 0.0, 0.0, 0.0, 0.0, 0.396, -0.896, 0.224, 192.0, 12.0, 96.0, 228.0, 0.0, 7.0, 0.0, 0.0, 0.0, 0.0, 1.663502636888562E9, 0.0, 2022-09-18 17:03:56.888
1.0, -61876.58004481555, -49876.39783339475, -36731.53808492876, -60903.0274633202, -55037.90736650317, -80126.62293036257, -62255.55387205528, -69642.15721394506, 0.396, -0.896, 0.224, 192.0, 0.0, 0.0, 0.0, 0.0, 0.0, 0.0, 0.0, 0.0, 0.0, 1.6635026369056118E9, 0.0, 2022-09-18 17:03:56.905
2.0, -55396.00466442164, -45469.95257973106, -36975.46267216953, -61174.13177181862, -55214.530851189, -80425.28693977439, -62501.91479944168, -69910.91458927568, 0.396, -0.896, 0.224, 192.0, 0.0, 0.0, 0.0, 0.0, 0.0, 0.0, 0.0, 0.0, 0.0, 1.6635026369086013E9, 0.0, 2022-09-18 17:03:56.908
3.0, -56028.156701106636, -47009.54073781261, -36816.60882432566, -60940.757207960756, -55182.791374062464, -80149.44406145145, -62329.1134630577, -69679.1493510186, 0.396, -0.896, 0.224, 192.0, 0.0, 0.0, 0.0, 0.0, 0.0, 0.0, 0.0, 0.0, 0.0, 1.6635026369116104E9, 0.0, 2022-09-18 17:03:56.911
4.0, -64077.377507373996, -52883.15449752266, -36481.93615459635, -60571.349927347896, -54898.2089636575, -79751.27008572461, -62000.07343293112, -69310.88200937296, 0.396, -0.896, 0.224, 192.0, 0.0, 0.0, 0.0, 0.0, 0.0, 0.0, 0.0, 0.0, 0.0, 1.6635026369156008E9, 0.0, 2022-09-18 17:03:56.915
5.0, -65209.538067524205, -52691.10830916266, -36548.45494609534, -60685.00854790313, -54887.14485015212, -79892.3095932376, -62078.77392515826, -69424.60768516155, 0.396, -0.896, 0.224, 192.0, 0.0, 0.0, 0.0, 0.0, 0.0, 0.0, 0.0, 0.0, 0.0, 1.663502636918615E9, 0.0, 2022-09-18 17:03:56.918
6.0, -61775.863084299934, -49793.204640532094, -36727.35830871562, -60894.8243731051, -55035.38161937972, -80138.08937526816, -62257.40906684507, -69640.72670229991, 0.396, -0.896, 0.224, 192.0, 0.0, 0.0, 0.0, 0.0, 0.0, 0.0, 0.0, 0.0, 0.0, 1.663502636921621E9, 0.0, 2022-09-18 17:03:56.921
7.0, -55297.67934056275, -45402.67382892058, -36967.19252672107, -61165.19107403649, -55210.06050229794, -80429.89139913219, -62497.064470894875, -69904.18671419463, 0.396, -0.896, 0.224, 192.0, 0.0, 0.0, 0.0, 0.0, 0.0, 0.0, 0.0, 0.0, 0.0, 1.66350263692662E9, 0.0, 2022-09-18 17:03:56.926
8.0, -56196.264171155, -47132.34122185007, -36802.37076310763, -60927.882603154496, -55172.666033824215, -80140.03397703577, -62316.37296871817, -69669.40399043608, 0.386, -0.904, 0.24, 192.0, 12.0, 16.0, 227.0, 192.0, 7.0, 128.0, 0.0, 0.0, 0.0, 1.66350263693062E9, 0.0, 2022-09-18 17:03:56.930
9.0, -64214.527811351756, -52945.73938199752, -36485.24421277574, -60576.98256695063, -54897.47135609047, -79752.8794113254, -62001.86157248755, -69313.02777684067, 0.386, -0.904, 0.24, 192.0, 0.0, 0.0, 0.0, 0.0, 0.0, 0.0, 0.0, 0.0, 0.0, 1.6635026369346511E9, 0.0, 2022-09-18 17:03:56.934
10.0, -65179.385564254, -52635.720686402405, -36567.45392888236, -60704.85689697944, -54898.0077979574, -79902.14436079793, -62097.035300378244, -69435.40357773346, 0.386, -0.904, 0.24, 192.0, 0.0, 0.0, 0.0, 0.0, 0.0, 0.0, 0.0, 0.0, 0.0, 1.663502636938646E9, 0.0, 2022-09-18 17:03:56.938
11.0, -61670.69812663772, -49704.40115981116, -36748.92774211499, -60916.79613790467, -55047.78683755241, -80149.0193783068, -62278.57616884425, -69651.45553963847, 0.386, -0.904, 0.24, 192.0, 0.0, 0.0, 0.0, 0.0, 0.0, 0.0, 0.0, 0.0, 0.0, 1.66350263694265E9, 0.0, 2022-09-18 17:03:56.942
12.0, -55196.04595852447, -45342.65939505809, -36991.488872943984, -61184.74885043489, -55224.6338396828, -80439.25678005896, -62519.99736070602, -69911.31692067588, 0.386, -0.904, 0.24, 192.0, 0.0, 0.0, 0.0, 0.0, 0.0, 0.0, 0.0, 0.0, 0.0, 1.6635026369466655E9, 0.0, 2022-09-18 17:03:56.946
13.0, -56360.37067894587, -47272.26314214029, -36817.547597592784, -60934.96810614683, -55182.83607755138, -80138.04467177924, -62327.6605996681, -69660.93267928752, 0.386, -0.904, 0.24, 192.0, 0.0, 0.0, 0.0, 0.0, 0.0, 0.0, 0.0, 0.0, 0.0, 1.663502636949675E9, 0.0, 2022-09-18 17:03:56.949
14.0, -64329.818109252235, -53022.38351373476, -36501.82920716157, -60593.47815435865, -54910.52477485237, -79764.70348414224, -62014.199735426875, -69325.09771884653, 0.386, -0.904, 0.24, 192.0, 0.0, 0.0, 0.0, 0.0, 0.0, 0.0, 0.0, 0.0, 0.0, 1.6635026369546807E9, 0.0, 2022-09-18 17:03:56.954
15.0, -65138.54892713415, -52607.825709322184, -36576.796958064675, -60718.91614424183, -54912.44702487553, -79915.33189002656, -62099.002253890314, -69453.21791806436, 0.386, -0.904, 0.24, 192.0, 0.0, 0.0, 0.0, 0.0, 0.0, 0.0, 0.0, 0.0, 0.0, 1.6635026369587183E9, 0.0, 2022-09-18 17:03:56.958
16.0, -61559.52054971702, -49639.15641774612, -36751.2746752828, -60927.01088512074, -55056.45931440107, -80158.85414586714, -62272.451790863495, -69659.68098159802, 0.386, -0.904, 0.24, 192.0, 0.0, 0.0, 0.0, 0.0, 0.0, 0.0, 0.0, 0.0, 0.0, 1.663502636962694E9, 0.0, 2022-09-18 17:03:56.962
17.0, -55085.44952695961, -45301.889813171605, -36987.018524052924, -61190.82852492673, -55232.68046768671, -80444.97882663952, -62507.45803206659, -69923.6103801263, 0.386, -0.904, 0.24, 192.0, 0.0, 0.0, 0.0, 0.0, 0.0, 0.0, 0.0, 0.0, 0.0, 1.6635026369666853E9, 0.0, 2022-09-18 17:03:56.966
18.0, -56518.196346544784, -47423.31623116926, -36795.30761185975, -60920.193603061874, -55176.845810037354, -80126.62293036257, -62300.9055615551, -69651.3437809162, 0.382, -0.91, 0.248, 192.0, 11.0, 240.0, 227.0, 144.0, 7.0, 192.0, 0.0, 0.0, 0.0, 1.6635026369707203E9, 0.0, 2022-09-18 17:03:56.970
19.0, -64437.709979738, -53080.006310940546, -36478.24811676122, -60575.529703561035, -54896.666693290084, -79756.09806252696, -61989.14342989248, -69305.18231453685, 0.382, -0.91, 0.248, 192.0, 0.0, 0.0, 0.0, 0.0, 0.0, 0.0, 0.0, 0.0, 0.0, 1.6635026369747307E9, 0.0, 2022-09-18 17:03:56.974
20.0, -65086.849342209025, -52546.06783939217, -36558.3791206335, -60700.85593472194, -54902.67931254856, -79913.34258477004, -62081.43378274844, -69434.73302539981, 0.382, -0.91, 0.248, 192.0, 0.0, 0.0, 0.0, 0.0, 0.0, 0.0, 0.0, 0.0, 0.0, 1.6635026369777205E9, 0.0, 2022-09-18 17:03:56.977
21.0, -61435.848347645806, -49549.32475678024, -36744.81502113522, -60918.13724257198, -55056.52636963444, -80166.56549770421, -62267.17677917204, -69652.55077511678, 0.382, -0.91, 0.248, 192.0, 0.0, 0.0, 0.0, 0.0, 0.0, 0.0, 0.0, 0.0, 0.0, 1.6635026369817157E9, 0.0, 2022-09-18 17:03:56.981
22.0, -54976.88710414018, -45244.3787746881, -36982.816396095324, -61180.323205032735, -55233.10515083136, -80447.86220167426, -62504.59700877631, -69912.88154278774, 0.382, -0.91, 0.248, 192.0, 0.0, 0.0, 0.0, 0.0, 0.0, 0.0, 0.0, 0.0, 0.0, 1.6635026369868195E9, 0.0, 2022-09-18 17:03:56.986
23.0, -56663.43798201537, -47554.05158448835, -36781.04719889727, -60904.033291820684, -55169.42503087819, -80113.50245636732, -62287.87449453765, -69634.64702780808, 0.382, -0.91, 0.248, 192.0, 0.0, 0.0, 0.0, 0.0, 0.0, 0.0, 0.0, 0.0, 0.0, 1.6635026369907432E9, 0.0, 2022-09-18 17:03:56.990
24.0, -64530.380312249705, -53144.33463148292, -36474.381264970456, -60568.6453662688, -54895.70556827851, -79759.96491431772, -61988.182304880895, -69303.97532033626, 0.382, -0.91, 0.248, 192.0, 0.0, 0.0, 0.0, 0.0, 0.0, 0.0, 0.0, 0.0, 0.0, 1.663502636994736E9, 0.0, 2022-09-18 17:03:56.994
25.0, -65042.54818469861, -52512.51787096475, -36564.14587070297, -60706.08624292449, -54914.548088854324, -79926.10543085402, -62090.86621890858, -69450.24513605179, 0.382, -0.91, 0.248, 192.0, 0.0, 0.0, 0.0, 0.0, 0.0, 0.0, 0.0, 0.0, 0.0, 1.6635026369986875E9, 0.0, 2022-09-18 17:03:56.998
26.0, -61320.13336660068, -49477.26273265633, -36747.229009536386, -60925.379207775506, -55063.99185228251, -80177.54020423177, -62272.60825307468, -69662.16202523257, 0.382, -0.91, 0.248, 192.0, 0.0, 0.0, 0.0, 0.0, 0.0, 0.0, 0.0, 0.0, 0.0, 1.6635026370028315E9, 0.0, 2022-09-18 17:03:57.002
27.0, -54876.304254091294, -45204.32444862419, -36981.54234666137, -61183.810077167764, -55239.52010149004, -80452.0866813763, -62504.28408435394, -69907.56182760738, 0.382, -0.91, 0.248, 192.0, 0.0, 0.0, 0.0, 0.0, 0.0, 0.0, 0.0, 0.0, 0.0, 1.6635026370057597E9, 0.0, 2022-09-18 17:03:57.005
28.0, -56834.92056547649, -47705.52935666196, -36771.23478308139, -60892.7233091263, -55168.10627795533, -80107.40043013102, -62278.08443046623, -69617.6373502776, 0.382, -0.9, 0.242, 192.0, 11.0, 240.0, 227.0, 224.0, 7.0, 144.0, 0.0, 0.0, 0.0, 1.6635026370097775E9, 0.0, 2022-09-18 17:03:57.009
29.0, -64633.01952278847, -53192.077957639456, -36474.98476207075, -60576.98256695063, -54895.750271767414, -79767.11747254342, -61989.50105780376, -69307.79746863812, 0.382, -0.9, 0.242, 192.0, 0.0, 0.0, 0.0, 0.0, 0.0, 0.0, 0.0, 0.0, 0.0, 1.6635026370147643E9, 0.0, 2022-09-18 17:03:57.014
30.0, -64999.92340802234, -52454.53744584769, -36569.84556553907, -60718.089129696986, -54915.5092138659, -79936.23077109228, -62098.48816376784, -69452.56971747514, 0.382, -0.9, 0.242, 192.0, 0.0, 0.0, 0.0, 0.0, 0.0, 0.0, 0.0, 0.0, 0.0, 1.6635026370187492E9, 0.0, 2022-09-18 17:03:57.018
31.0, -61201.33384482072, -49377.90922855249, -36751.98993110537, -60932.57646949011, -55060.57203538085, -80188.26904157031, -62281.14661945661, -69667.3923334351, 0.382, -0.9, 0.242, 192.0, 0.0, 0.0, 0.0, 0.0, 0.0, 0.0, 0.0, 0.0, 0.0, 1.6635026370227442E9, 0.0, 2022-09-18 17:03:57.022
32.0, -54782.65044482356, -45150.83672414264, -36980.91649781662, -61181.61960621114, -55232.41224675325, -80454.94770466659, -62507.86036346679, -69905.5501706064, 0.382, -0.9, 0.242, 192.0, 0.0, 0.0, 0.0, 0.0, 0.0, 0.0, 0.0, 0.0, 0.0, 1.6635026370267644E9, 0.0, 2022-09-18 17:03:57.026
33.0, -57000.32347444576, -47840.019803049545, -36761.288256798776, -60882.86618982151, -55154.47171383759, -80096.49277883682, -62270.52954084034, -69609.70248099595, 0.382, -0.9, 0.242, 192.0, 0.0, 0.0, 0.0, 0.0, 0.0, 0.0, 0.0, 0.0, 0.0, 1.6635026370307949E9, 0.0, 2022-09-18 17:03:57.030
34.0, -64716.391529606764, -53234.993306993645, -36472.43666320285, -60577.071973928454, -54886.63076002965, -79764.9270015868, -61987.33293859159, -69310.50202971722, 0.382, -0.9, 0.242, 192.0, 0.0, 0.0, 0.0, 0.0, 0.0, 0.0, 0.0, 0.0, 0.0, 1.6635026370337706E9, 0.0, 2022-09-18 17:03:57.033
35.0, -64948.51439577513, -52407.50937551372, -36575.96994351983, -60730.06966472503, -54915.97860049947, -79940.05291939413, -62099.561047501695, -69460.48223501233, 0.382, -0.9, 0.242, 192.0, 0.0, 0.0, 0.0, 0.0, 0.0, 0.0, 0.0, 0.0, 0.0, 1.6635026370377672E9, 0.0, 2022-09-18 17:03:57.037
36.0, -61080.90264569553, -49291.56443972164, -36765.80330917875, -60945.071094640625, -55066.472895917046, -80198.37203006411, -62285.21463694747, -69670.16394974756, 0.382, -0.9, 0.242, 192.0, 0.0, 0.0, 0.0, 0.0, 0.0, 0.0, 0.0, 0.0, 0.0, 1.6635026370428462E9, 0.0, 2022-09-18 17:03:57.042
37.0, -54707.52623170927, -45114.58219463613, -36989.0301810539, -61188.48159175892, -55236.97200262213, -80456.98171341202, -62506.38514833274, -69917.73187133454, 0.382, -0.9, 0.242, 192.0, 0.0, 0.0, 0.0, 0.0, 0.0, 0.0, 0.0, 0.0, 0.0, 1.663502637046842E9, 0.0, 2022-09-18 17:03:57.046
38.0, -57174.734136430525, -47977.3712727274, -36757.913143386024, -60870.25980594871, -55143.07232416538, -80085.76394149828, -62259.91246222406, -69596.98433840089, 0.382, -0.892, 0.246, 192.0, 11.0, 240.0, 228.0, 32.0, 7.0, 176.0, 0.0, 0.0, 0.0, 1.6635026370508053E9, 0.0, 2022-09-18 17:03:57.050
39.0, -64802.959835882175, -53270.19730451075, -36479.544517939634, -60570.58996803642, -54880.99812042691, -79768.77150163312, -61988.22700836981, -69298.2532737557, 0.382, -0.892, 0.246, 192.0, 0.0, 0.0, 0.0, 0.0, 0.0, 0.0, 0.0, 0.0, 0.0, 1.663502637054814E9, 0.0, 2022-09-18 17:03:57.054
40.0, -64909.152973789336, -52352.63584287594, -36584.77653083522, -60716.882135496395, -54916.33622841075, -79948.94891368735, -62105.707777226904, -69445.32775227162, 0.382, -0.892, 0.246, 192.0, 0.0, 0.0, 0.0, 0.0, 0.0, 0.0, 0.0, 0.0, 0.0, 1.6635026370588725E9, 0.0, 2022-09-18 17:03:57.058
41.0, -60963.71244951635, -49194.69197925234, -36772.73234995989, -60938.96906840433, -55064.05890751588, -80207.24567261287, -62294.04357600732, -69673.71787711595, 0.382, -0.892, 0.246, 192.0, 0.0, 0.0, 0.0, 0.0, 0.0, 0.0, 0.0, 0.0, 0.0, 1.6635026370619397E9, 0.0, 2022-09-18 17:03:57.061
42.0, -54627.35052434809, -45066.6377027795, -36995.93687009059, -61181.95488237797, -55238.246052056085, -80462.56964952585, -62515.79523274842, -69907.248903185, 0.382, -0.892, 0.246, 192.0, 0.0, 0.0, 0.0, 0.0, 0.0, 0.0, 0.0, 0.0, 0.0, 1.663502637065843E9, 0.0, 2022-09-18 17:03:57.065
43.0, -57355.42563860722, -48116.175605794866, -36752.548724716755, -60849.51738709419, -55141.82062647589, -80081.76297924078, -62255.79974124429, -69576.48778873537, 0.382, -0.892, 0.246, 192.0, 0.0, 0.0, 0.0, 0.0, 0.0, 0.0, 0.0, 0.0, 0.0, 1.6635026370699124E9, 0.0, 2022-09-18 17:03:57.069
44.0, -64886.10832525591, -53299.92512463631, -36478.426930716865, -60563.996203422095, -54883.12153615017, -79778.67332442681, -61988.182304880895, -69299.95200633431, 0.382, -0.892, 0.246, 192.0, 0.0, 0.0, 0.0, 0.0, 0.0, 0.0, 0.0, 0.0, 0.0, 1.6635026370749688E9, 0.0, 2022-09-18 17:03:57.074
45.0, -64841.471891578665, -52278.76332745115, -36588.0845890146, -60722.06774021003, -54923.13115872516, -79962.53877431617, -62109.73109122886, -69459.63286872303, 0.382, -0.892, 0.246, 192.0, 0.0, 0.0, 0.0, 0.0, 0.0, 0.0, 0.0, 0.0, 0.0, 1.66350263707893E9, 0.0, 2022-09-18 17:03:57.078
46.0, -60836.19574739883, -49095.025550726124, -36780.60016400816, -60951.8883766995, -55074.94420706561, -80225.06001294375, -62301.464355166485, -69692.11336280267, 0.382, -0.892, 0.246, 192.0, 0.0, 0.0, 0.0, 0.0, 0.0, 0.0, 0.0, 0.0, 0.0, 1.663502637081897E9, 0.0, 2022-09-18 17:03:57.081
47.0, -54551.60046238905, -45030.47258025081, -36991.93590783309, -61177.05985034226, -55239.09541834539, -80467.21881237255, -62510.54257280142, -69906.31012991788, 0.382, -0.892, 0.246, 192.0, 0.0, 0.0, 0.0, 0.0, 0.0, 0.0, 0.0, 0.0, 0.0, 1.6635026370859876E9, 0.0, 2022-09-18 17:03:57.085
48.0, -57535.20071926126, -48260.1431918315, -36738.89180885456, -60836.62043054348, -55135.137454883756, -80074.65512450399, -62242.1428253821, -69566.60831768613, 0.378, -0.898, 0.25, 192.0, 11.0, 208.0, 227.0, 240.0, 7.0, 208.0, 0.0, 0.0, 0.0, 1.6635026370898993E9, 0.0, 2022-09-18 17:03:57.089
49.0, -64964.20532038276, -53331.61989827394, -36471.83316610255, -60555.30137482898, -54876.14779188011, -79782.49547272867, -61985.4330403129, -69292.64298589743, 0.378, -0.898, 0.25, 192.0, 0.0, 0.0, 0.0, 0.0, 0.0, 0.0, 0.0, 0.0, 0.0, 1.6635026370939236E9, 0.0, 2022-09-18 17:03:57.093
50.0, -64791.31457702096, -52221.922841301304, -36584.75417909076, -60711.40595810485, -54922.12533022468, -79970.89832674245, -62108.94878017292, -69445.32775227162, 0.378, -0.898, 0.25, 192.0, 0.0, 0.0, 0.0, 0.0, 0.0, 0.0, 0.0, 0.0, 0.0, 1.6635026370989356E9, 0.0, 2022-09-18 17:03:57.098
51.0, -60705.66155977984, -48988.54184014104, -36774.341675560674, -60936.24215558078, -55069.93741630762, -80229.61976881264, -62298.69273885402, -69672.60028989319, 0.378, -0.898, 0.25, 192.0, 0.0, 0.0, 0.0, 0.0, 0.0, 0.0, 0.0, 0.0, 0.0, 1.6635026371029553E9, 0.0, 2022-09-18 17:03:57.102
52.0, -54479.672548731876, -44988.116024508, -36985.16332926313, -61167.00156533737, -55239.34128753439, -80468.42580657314, -62505.17815413215, -69898.28585365842, 0.378, -0.898, 0.25, 192.0, 0.0, 0.0, 0.0, 0.0, 0.0, 0.0, 0.0, 0.0, 0.0, 1.6635026371069572E9, 0.0, 2022-09-18 17:03:57.106
53.0, -57722.84361396356, -48399.86394642162, -36726.50894242632, -60830.25018337372, -55134.645716505736, -80070.6988657354, -62229.62584848712, -69555.74536988084, 0.378, -0.898, 0.25, 192.0, 0.0, 0.0, 0.0, 0.0, 0.0, 0.0, 0.0, 0.0, 0.0, 1.66350263710994E9, 0.0, 2022-09-18 17:03:57.109
54.0, -65040.49182420872, -53360.02896547663, -36466.73696836674, -60557.38008706333, -54876.728937235945, -79788.59749896497, -61979.44277279887, -69294.76640162068, 0.378, -0.898, 0.25, 192.0, 0.0, 0.0, 0.0, 0.0, 0.0, 0.0, 0.0, 0.0, 0.0, 1.6635026371140232E9, 0.0, 2022-09-18 17:03:57.114
55.0, -64738.40799789524, -52171.94434069924, -36582.22843196731, -60721.10661519845, -54924.47226339248, -79979.05671346864, -62104.72430047087, -69457.73297044433, 0.378, -0.898, 0.25, 192.0, 0.0, 0.0, 0.0, 0.0, 0.0, 0.0, 0.0, 0.0, 0.0, 1.66350263711787E9, 0.0, 2022-09-18 17:03:57.117
56.0, -60586.68322404424, -48907.941449635204, -36777.71678897343, -60951.6872109994, -55073.49134367602, -80243.20962944147, -62298.33511094274, -69688.47002845646, 0.378, -0.898, 0.25, 192.0, 0.0, 0.0, 0.0, 0.0, 0.0, 0.0, 0.0, 0.0, 0.0, 1.6635026371219616E9, 0.0, 2022-09-18 17:03:57.121
57.0, -54427.05654228408, -44971.866306289, -36986.727951375, -61174.77997240782, -55239.96713637914, -80473.92433570915, -62504.86522970978, -69902.21976068256, 0.378, -0.898, 0.25, 192.0, 0.0, 0.0, 0.0, 0.0, 0.0, 0.0, 0.0, 0.0, 0.0, 1.663502637125981E9, 0.0, 2022-09-18 17:03:57.125
58.0, -57909.07834876518, -48541.75282022391, -36717.12120975509, -60819.878973946456, -55123.42514078917, -80065.87088893306, -62221.10983384965, -69549.4645296889, 0.382, -0.9, 0.248, 192.0, 11.0, 240.0, 227.0, 224.0, 7.0, 192.0, 0.0, 0.0, 0.0, 1.6635026371309812E9, 0.0, 2022-09-18 17:03:57.130
59.0, -65109.424604108885, -53380.41375641987, -36472.146090524926, -60567.88540695732, -54876.751288980406, -79800.332164804, -61986.572979280114, -69299.39321272293, 0.382, -0.9, 0.248, 192.0, 0.0, 0.0, 0.0, 0.0, 0.0, 0.0, 0.0, 0.0, 0.0, 1.6635026371349902E9, 0.0, 2022-09-18 17:03:57.134
60.0, -64686.417840292204, -52110.25352600259, -36595.728885618315, -60733.48948162669, -54932.85416756322, -79993.33947817558, -62120.50463205631, -69468.28299382723, 0.382, -0.9, 0.248, 192.0, 0.0, 0.0, 0.0, 0.0, 0.0, 0.0, 0.0, 0.0, 0.0, 1.6635026371380265E9, 0.0, 2022-09-18 17:03:57.138
61.0, -60457.82541725939, -48804.47522455159, -36792.29012635829, -60962.77367624923, -55081.001529813, -80258.4982226489, -62316.484727440446, -69691.77808663584, 0.382, -0.9, 0.248, 192.0, 0.0, 0.0, 0.0, 0.0, 0.0, 0.0, 0.0, 0.0, 0.0, 1.6635026371420076E9, 0.0, 2022-09-18 17:03:57.142
62.0, -54370.84190497898, -44947.659367043896, -36990.930079332604, -61170.10845781666, -55237.35198227787, -80471.95738219707, -62510.699035012614, -69893.83785651182, 0.382, -0.9, 0.248, 192.0, 0.0, 0.0, 0.0, 0.0, 0.0, 0.0, 0.0, 0.0, 0.0, 1.6635026371459737E9, 0.0, 2022-09-18 17:03:57.145
63.0, -58098.33056906827, -48688.11204291726, -36713.388468431054, -60805.260933072685, -55110.9081638942, -80049.35294978059, -62216.661836703046, -69530.0632155017, 0.382, -0.9, 0.248, 192.0, 0.0, 0.0, 0.0, 0.0, 0.0, 0.0, 0.0, 0.0, 0.0, 1.6635026371500075E9, 0.0, 2022-09-18 17:03:57.150
64.0, -65170.869549616524, -53396.350550216506, -36474.94005858184, -60562.40922956577, -54865.083678374736, -79795.57124323503, -61990.48453455979, -69296.01809931018, 0.382, -0.9, 0.248, 192.0, 0.0, 0.0, 0.0, 0.0, 0.0, 0.0, 0.0, 0.0, 0.0, 1.66350263715407E9, 0.0, 2022-09-18 17:03:57.154
65.0, -64625.107005251295, -52044.20412113716, -36592.35377220557, -60723.610010577446, -54918.81727204529, -79987.41626589492, -62118.91765819999, -69452.10033084158, 0.382, -0.9, 0.248, 192.0, 0.0, 0.0, 0.0, 0.0, 0.0, 0.0, 0.0, 0.0, 0.0, 1.6635026371590776E9, 0.0, 2022-09-18 17:03:57.159
66.0, -60326.8888982402, -48708.295668160405, -36788.982068178906, -60963.667746027444, -55070.96559655257, -80260.01814127185, -62314.85305009521, -69694.01326108137, 0.382, -0.9, 0.248, 192.0, 0.0, 0.0, 0.0, 0.0, 0.0, 0.0, 0.0, 0.0, 0.0, 1.6635026371630082E9, 0.0, 2022-09-18 17:03:57.163
67.0, -54316.616572930405, -44930.15795113539, -36981.45293968355, -61168.81205663825, -55232.8369298979, -80470.68333276312, -62501.78068897494, -69898.46466761407, 0.382, -0.9, 0.248, 192.0, 0.0, 0.0, 0.0, 0.0, 0.0, 0.0, 0.0, 0.0, 0.0, 1.6635026371660497E9, 0.0, 2022-09-18 17:03:57.166
68.0, -58276.96571075508, -48823.72007652761, -36696.624660089576, -60795.4485172568, -55103.15210856821, -80041.73100492133, -62199.674510917015, -69528.38683466754, 0.376, -0.894, 0.242, 192.0, 11.0, 192.0, 228.0, 16.0, 7.0, 144.0, 0.0, 0.0, 0.0, 1.6635026371700013E9, 0.0, 2022-09-18 17:03:57.170
69.0, -65219.126965895535, -53409.73924514523, -36470.22384050177, -60565.13614238932, -54864.61429174117, -79801.5838624935, -61983.35432807855, -69296.46513419929, 0.376, -0.894, 0.242, 192.0, 0.0, 0.0, 0.0, 0.0, 0.0, 0.0, 0.0, 0.0, 0.0, 1.663502637174095E9, 0.0, 2022-09-18 17:03:57.174
70.0, -64556.19657709558, -51989.129422799284, -36598.92518507543, -60732.21543219274, -54928.85320530572, -79999.17328347842, -62119.49880355583, -69459.38699953402, 0.376, -0.894, 0.242, 192.0, 0.0, 0.0, 0.0, 0.0, 0.0, 0.0, 0.0, 0.0, 0.0, 1.663502637178033E9, 0.0, 2022-09-18 17:03:57.178
71.0, -60184.66474827108, -48610.61854489071, -36800.38145785111, -60970.86500774205, -55081.42621295765, -80272.26689723336, -62319.72573038647, -69699.95882510649, 0.376, -0.894, 0.242, 192.0, 0.0, 0.0, 0.0, 0.0, 0.0, 0.0, 0.0, 0.0, 0.0, 1.6635026371821249E9, 0.0, 2022-09-18 17:03:57.182
72.0, -54270.57197935248, -44920.122017874965, -36988.002000808956, -61169.05792582726, -55244.035153870005, -80474.95251595408, -62502.31713084187, -69895.17896117913, 0.376, -0.894, 0.242, 192.0, 0.0, 0.0, 0.0, 0.0, 0.0, 0.0, 0.0, 0.0, 0.0, 1.6635026371870868E9, 0.0, 2022-09-18 17:03:57.187
73.0, -58473.929282895246, -48980.852840048414, -36692.46723562089, -60787.06661308606, -55105.342579524826, -80035.20429554037, -62192.85722885814, -69513.94760774942, 0.376, -0.894, 0.242, 192.0, 0.0, 0.0, 0.0, 0.0, 0.0, 0.0, 0.0, 0.0, 0.0, 1.6635026371910825E9, 0.0, 2022-09-18 17:03:57.191
74.0, -65280.370745703076, -53431.95687913381, -36474.82829985956, -60575.1497239053, -54873.95732092349, -79811.12805737591, -61987.46704905833, -69302.67891915786, 0.376, -0.894, 0.242, 192.0, 0.0, 0.0, 0.0, 0.0, 0.0, 0.0, 0.0, 0.0, 0.0, 1.6635026371941109E9, 0.0, 2022-09-18 17:03:57.194
75.0, -64505.703986371045, -51936.66987856268, -36605.586004923105, -60749.29216495659, -54946.376972958686, -80013.94778656338, -62127.36661760409, -69477.35780207608, 0.376, -0.894, 0.242, 192.0, 0.0, 0.0, 0.0, 0.0, 0.0, 0.0, 0.0, 0.0, 0.0, 1.663502637198112E9, 0.0, 2022-09-18 17:03:57.198
76.0, -60061.30547062224, -48518.194081568014, -36804.09184743069, -60986.91356026096, -55094.926666608655, -80284.76152238388, -62326.967695589985, -69715.44858401401, 0.376, -0.894, 0.242, 192.0, 0.0, 0.0, 0.0, 0.0, 0.0, 0.0, 0.0, 0.0, 0.0, 1.6635026372021208E9, 0.0, 2022-09-18 17:03:57.202
77.0, -54242.27467087206, -44919.22794809675, -36982.481119928496, -61172.23187353992, -55250.22658708413, -80478.37233285575, -62500.976026174554, -69900.67749031514, 0.376, -0.894, 0.242, 192.0, 0.0, 0.0, 0.0, 0.0, 0.0, 0.0, 0.0, 0.0, 0.0, 1.663502637206153E9, 0.0, 2022-09-18 17:03:57.206
78.0, -58669.43999164581, -49128.12848426444, -36683.43713086094, -60785.14436306291, -55105.81196615839, -80034.62315018453, -62185.548208421256, -69517.70270081791, 0.374, -0.898, 0.25, 192.0, 11.0, 176.0, 227.0, 240.0, 7.0, 208.0, 0.0, 0.0, 0.0, 1.6635026372101536E9, 0.0, 2022-09-18 17:03:57.210
79.0, -65330.72922596088, -53442.864530428, -36475.6106109155, -60578.256616384584, -54876.170143624564, -79821.96865343675, -61989.81398222614, -69307.57395119357, 0.374, -0.898, 0.25, 192.0, 0.0, 0.0, 0.0, 0.0, 0.0, 0.0, 0.0, 0.0, 0.0, 1.6635026372141907E9, 0.0, 2022-09-18 17:03:57.214
80.0, -64441.867404206685, -51879.76233717947, -36611.956252092874, -60754.924804559334, -54950.37793521619, -80025.7942111247, -62133.24512639584, -69483.97391843486, 0.374, -0.898, 0.25, 192.0, 0.0, 0.0, 0.0, 0.0, 0.0, 0.0, 0.0, 0.0, 0.0, 1.6635026372191043E9, 0.0, 2022-09-18 17:03:57.219
81.0, -59920.93651544291, -48414.41493206203, -36819.40279238258, -60998.558819122176, -55103.174460312664, -80307.40383951711, -62339.23880329595, -69726.95973240849, 0.374, -0.898, 0.25, 192.0, 0.0, 0.0, 0.0, 0.0, 0.0, 0.0, 0.0, 0.0, 0.0, 1.6635026372222455E9, 0.0, 2022-09-18 17:03:57.222
82.0, -54202.175641319234, -44912.27655557115, -36997.635602669194, -61175.9422631195, -55256.59683425389, -80487.55889982688, -62512.37541584676, -69898.62112982526, 0.374, -0.898, 0.25, 192.0, 0.0, 0.0, 0.0, 0.0, 0.0, 0.0, 0.0, 0.0, 0.0, 1.663502637226143E9, 0.0, 2022-09-18 17:03:57.226
83.0, -58855.98765086981, -49270.41968946692, -36689.472101863874, -60778.50589495968, -55102.59331495682, -80033.81848738414, -62189.86209510113, -69500.96124422089, 0.374, -0.898, 0.25, 192.0, 0.0, 0.0, 0.0, 0.0, 0.0, 0.0, 0.0, 0.0, 0.0, 1.6635026372301185E9, 0.0, 2022-09-18 17:03:57.230
84.0, -65379.72424980692, -53450.06179214261, -36489.08871282205, -60587.17496242225, -54881.33339659374, -79836.58669431052, -62002.55447656566, -69316.64875944243, 0.374, -0.898, 0.25, 192.0, 0.0, 0.0, 0.0, 0.0, 0.0, 0.0, 0.0, 0.0, 0.0, 1.6635026372341733E9, 0.0, 2022-09-18 17:03:57.234
85.0, -64386.300967490795, -51819.882013783696, -36621.455743486375, -60761.78679010711, -54957.32932774178, -80037.640635686, -62142.58815557816, -69488.24310162582, 0.374, -0.898, 0.25, 192.0, 0.0, 0.0, 0.0, 0.0, 0.0, 0.0, 0.0, 0.0, 0.0, 1.6635026372381957E9, 0.0, 2022-09-18 17:03:57.238
86.0, -59784.47911554326, -48317.05073321471, -36829.170504709546, -61009.55587739419, -55110.88581214975, -80318.33384255574, -62349.29708830084, -69736.77214822438, 0.374, -0.898, 0.25, 192.0, 0.0, 0.0, 0.0, 0.0, 0.0, 0.0, 0.0, 0.0, 0.0, 1.6635026372421963E9, 0.0, 2022-09-18 17:03:57.242
87.0, -54174.638292150295, -44919.96555566377, -36997.27797475791, -61174.668213685545, -55260.530741278024, -80484.85433874778, -62509.11206115629, -69896.65417631318, 0.374, -0.898, 0.25, 192.0, 0.0, 0.0, 0.0, 0.0, 0.0, 0.0, 0.0, 0.0, 0.0, 1.663502637247203E9, 0.0, 2022-09-18 17:03:57.247
88.0, -59047.1397694516, -49418.83527265016, -36683.481834349855, -60770.21339776676, -55101.09574807832, -80021.70384188936, -62179.87086532961, -69492.55698830569, 0.374, -0.898, 0.25, 192.0, 0.0, 0.0, 0.0, 0.0, 0.0, 0.0, 0.0, 0.0, 0.0, 1.6635026372502277E9, 0.0, 2022-09-18 17:03:57.250
89.0, -65420.47147994894, -53456.5661497791, -36494.34137276904, -60593.008767725085, -54885.96020769599, -79836.9890257107, -62004.36496786654, -69317.76634666519, 0.374, -0.9, 0.256, 192.0, 11.0, 176.0, 227.0, 224.0, 8.0, 0.0, 0.0, 0.0, 0.0, 1.6635026372542124E9, 0.0, 2022-09-18 17:03:57.254
90.0, -64328.901687729565, -51767.444821291545, -36638.28660706122, -60776.65070016989, -54973.422583749605, -80051.36460678156, -62153.69697257245, -69518.48501187385, 0.374, -0.9, 0.256, 192.0, 0.0, 0.0, 0.0, 0.0, 0.0, 0.0, 0.0, 0.0, 0.0, 1.6635026372582486E9, 0.0, 2022-09-18 17:03:57.258
91.0, -59653.989631413184, -48220.06651402313, -36847.45423167398, -61016.7531391088, -55121.279373321464, -80328.68270023855, -62362.66343148511, -69739.1637848811, 0.374, -0.9, 0.256, 192.0, 0.0, 0.0, 0.0, 0.0, 0.0, 0.0, 0.0, 0.0, 0.0, 1.6635026372622569E9, 0.0, 2022-09-18 17:03:57.262
92.0, -54152.66652735073, -44922.781875465145, -37010.39844875318, -61173.90825437406, -55268.8455902154, -80485.70370503709, -62518.6562560387, -69882.997260451, 0.374, -0.9, 0.256, 192.0, 0.0, 0.0, 0.0, 0.0, 0.0, 0.0, 0.0, 0.0, 0.0, 1.663502637266244E9, 0.0, 2022-09-18 17:03:57.266
93.0, -59241.15291132366, -49560.701794707995, -36692.69075306544, -60773.36499373496, -55110.9081638942, -80024.40840296846, -62186.41992645502, -69494.18866565093, 0.374, -0.9, 0.256, 192.0, 0.0, 0.0, 0.0, 0.0, 0.0, 0.0, 0.0, 0.0, 0.0, 1.663502637270177E9, 0.0, 2022-09-18 17:03:57.270
94.0, -65469.5559107728, -53463.450487071335, -36515.24025383476, -60611.672474345265, -54904.78037652736, -79856.12211896446, -62022.35812215306, -69334.84307942905, 0.374, -0.9, 0.256, 192.0, 0.0, 0.0, 0.0, 0.0, 0.0, 0.0, 0.0, 0.0, 0.0, 1.6635026372752364E9, 0.0, 2022-09-18 17:03:57.275
95.0, -64276.263329537316, -51715.164091010585, -36649.95421766689, -60790.24056079872, -54988.62176997922, -80065.6473714885, -62162.9729465214, -69513.18764843795, 0.374, -0.9, 0.256, 192.0, 0.0, 0.0, 0.0, 0.0, 0.0, 0.0, 0.0, 0.0, 0.0, 1.6635026372784624E9, 0.0, 2022-09-18 17:03:57.278
96.0, -59521.35437981539, -48129.653707701415, -36858.56304866827, -61037.83083413015, -55138.44551306314, -80346.89937196963, -62371.89470194515, -69753.62536354367, 0.374, -0.9, 0.256, 192.0, 0.0, 0.0, 0.0, 0.0, 0.0, 0.0, 0.0, 0.0, 0.0, 1.6635026372822387E9, 0.0, 2022-09-18 17:03:57.282
97.0, -54143.09998072386, -44944.39601235343, -37011.89601563168, -61189.889751659604, -55280.31203512097, -80489.07881844984, -62519.66208453919, -69901.01276648197, 0.374, -0.9, 0.256, 192.0, 0.0, 0.0, 0.0, 0.0, 0.0, 0.0, 0.0, 0.0, 0.0, 1.663502637286203E9, 0.0, 2022-09-18 17:03:57.286
98.0, -59436.95419275215, -49712.91717444863, -36684.26414540579, -60774.92961584683, -55106.61662895878, -80015.22183599733, -62178.753278106844, -69496.2003226519, 0.374, -0.9, 0.256, 192.0, 0.0, 0.0, 0.0, 0.0, 0.0, 0.0, 0.0, 0.0, 0.0, 1.6635026372902415E9, 0.0, 2022-09-18 17:03:57.290
99.0, -65505.45281236802, -53477.643844800456, -36515.77669570169, -60620.52376514957, -54900.17591716957, -79857.39616839841, -62023.22984018682, -69342.91205917741, 0.38, -0.902, 0.25, 192.0, 11.0, 224.0, 227.0, 208.0, 7.0, 208.0, 0.0, 0.0, 0.0, 1.6635026372943344E9, 0.0, 2022-09-18 17:03:57.294
100.0, -64215.712453807886, -51669.63358755512, -36653.01640665727, -60800.54471499261, -54986.34189204477, -80065.31209532167, -62169.2761384578, -69518.44030838493, 0.38, -0.902, 0.25, 192.0, 0.0, 0.0, 0.0, 0.0, 0.0, 0.0, 0.0, 0.0, 0.0, 1.6635026372982423E9, 0.0, 2022-09-18 17:03:57.298
101.0, -59388.74147996205, -48042.43720083681, -36866.09558654971, -61053.09707559313, -55140.83714971985, -80352.93434297257, -62383.24938812845, -69771.21618643, 0.38, -0.902, 0.25, 192.0, 0.0, 0.0, 0.0, 0.0, 0.0, 0.0, 0.0, 0.0, 0.0, 1.6635026373023524E9, 0.0, 2022-09-18 17:03:57.302
102.0, -54138.45081787716, -44973.386224911956, -37007.448018485076, -61184.45827775697, -55281.51902932156, -80483.66969629166, -62518.54449731643, -69901.52685660444, 0.38, -0.902, 0.25, 192.0, 0.0, 0.0, 0.0, 0.0, 0.0, 0.0, 0.0, 0.0, 0.0, 1.6635026373054984E9, 0.0, 2022-09-18 17:03:57.305
103.0, -59625.98289561068, -49856.50478082953, -36668.61792428707, -60761.58562440701, -55099.754643411005, -80004.87297831452, -62166.951557034445, -69483.21395912337, 0.38, -0.902, 0.25, 192.0, 0.0, 0.0, 0.0, 0.0, 0.0, 0.0, 0.0, 0.0, 0.0, 1.6635026373093336E9, 0.0, 2022-09-18 17:03:57.309
104.0, -65534.80065283784, -53464.67983301638, -36508.914710153906, -60620.47906166066, -54903.34986488222, -79862.47001438976, -62022.62634308653, -69340.00633239822, 0.38, -0.902, 0.25, 192.0, 0.0, 0.0, 0.0, 0.0, 0.0, 0.0, 0.0, 0.0, 0.0, 1.663502637314315E9, 0.0, 2022-09-18 17:03:57.314
105.0, -64158.64845021349, -51608.56862170323, -36650.401252555996, -60802.399909782405, -54994.14265085968, -80075.37038032657, -62169.611414624625, -69517.99327349583, 0.38, -0.902, 0.25, 192.0, 0.0, 0.0, 0.0, 0.0, 0.0, 0.0, 0.0, 0.0, 0.0, 1.663502637318365E9, 0.0, 2022-09-18 17:03:57.318
106.0, -59252.0382108734, -47945.25181594513, -36870.610638929684, -61057.38861052855, -55149.53197831297, -80367.5747355908, -62388.77026900891, -69775.28420392088, 0.38, -0.902, 0.25, 192.0, 0.0, 0.0, 0.0, 0.0, 0.0, 0.0, 0.0, 0.0, 0.0, 1.6635026373222773E9, 0.0, 2022-09-18 17:03:57.322
107.0, -54134.04752421946, -44994.10629202203, -37006.79981789587, -61180.27850154383, -55283.3518723669, -80484.74258002552, -62516.97987520455, -69892.47440010005, 0.38, -0.902, 0.25, 192.0, 0.0, 0.0, 0.0, 0.0, 0.0, 0.0, 0.0, 0.0, 0.0, 1.663502637326381E9, 0.0, 2022-09-18 17:03:57.326
108.0, -59815.972723480794, -49993.051587707, -36663.767595740275, -60753.00255453617, -55090.99275958452, -79997.31808868863, -62160.178978464486, -69475.68142124194, 0.38, -0.902, 0.25, 192.0, 0.0, 0.0, 0.0, 0.0, 0.0, 0.0, 0.0, 0.0, 0.0, 1.663502637329338E9, 0.0, 2022-09-18 17:03:57.329
109.0, -65553.06202805782, -53450.12884737598, -36512.78156194467, -60624.27885821806, -54897.76192876839, -79866.31451443608, -62024.74975880978, -69350.84692845904, 0.376, -0.896, 0.25, 192.0, 11.0, 192.0, 228.0, 0.0, 7.0, 208.0, 0.0, 0.0, 0.0, 1.6635026373333406E9, 0.0, 2022-09-18 17:03:57.333
110.0, -64088.08399296809, -51547.19073142895, -36654.603380513596, -60800.589418481526, -54991.37103454722, -80076.86794720507, -62173.031231526285, -69516.33924440613, 0.376, -0.896, 0.25, 192.0, 0.0, 0.0, 0.0, 0.0, 0.0, 0.0, 0.0, 0.0, 0.0, 1.6635026373373563E9, 0.0, 2022-09-18 17:03:57.337
111.0, -59111.4010347606, -47844.66896589625, -36873.628124431154, -61061.613090230596, -55144.636946277256, -80368.78172979137, -62392.03362369938, -69776.714715566, 0.376, -0.896, 0.25, 192.0, 0.0, 0.0, 0.0, 0.0, 0.0, 0.0, 0.0, 0.0, 0.0, 1.6635026373423705E9, 0.0, 2022-09-18 17:03:57.342
112.0, -54142.04944873446, -45022.26949003572, -37003.91644286113, -61177.88686488711, -55279.26150313157, -80477.81353924437, -62514.007093192, -69885.21008315207, 0.376, -0.896, 0.25, 192.0, 0.0, 0.0, 0.0, 0.0, 0.0, 0.0, 0.0, 0.0, 0.0, 1.6635026373463485E9, 0.0, 2022-09-18 17:03:57.346
113.0, -60013.62919969907, -50146.85394130396, -36656.99501717032, -60746.69936259978, -55085.47187870406, -79989.27146068471, -62154.63574583957, -69459.40935127847, 0.376, -0.896, 0.25, 192.0, 0.0, 0.0, 0.0, 0.0, 0.0, 0.0, 0.0, 0.0, 0.0, 1.6635026373503032E9, 0.0, 2022-09-18 17:03:57.350
114.0, -65591.37291805421, -53462.06467891511, -36512.84861717804, -60625.95523905221, -54896.82315550127, -79871.03073251614, -62023.94509600939, -69346.30952433462, 0.376, -0.896, 0.25, 192.0, 0.0, 0.0, 0.0, 0.0, 0.0, 0.0, 0.0, 0.0, 0.0, 1.6635026373544166E9, 0.0, 2022-09-18 17:03:57.354
115.0, -64033.14340509694, -51494.44061451443, -36653.86577294657, -60806.378520295446, -54994.90261017116, -80087.86500547708, -62168.44912391295, -69529.6608841015, 0.376, -0.896, 0.25, 192.0, 0.0, 0.0, 0.0, 0.0, 0.0, 0.0, 0.0, 0.0, 0.0, 1.6635026373584864E9, 0.0, 2022-09-18 17:03:57.358
116.0, -58967.61226267961, -47735.25717678752, -36869.13542379563, -61059.7131919519, -55146.11216141131, -80378.88471828518, -62383.58466429528, -69777.67584057759, 0.376, -0.896, 0.25, 192.0, 0.0, 0.0, 0.0, 0.0, 0.0, 0.0, 0.0, 0.0, 0.0, 1.663502637361358E9, 0.0, 2022-09-18 17:03:57.361
117.0, -54139.18842544418, -45029.42204826141, -36983.1293205177, -61159.80430362276, -55271.46074431667, -80468.85048971779, -62489.21900859106, -69872.80486497938, 0.376, -0.896, 0.25, 192.0, 0.0, 0.0, 0.0, 0.0, 0.0, 0.0, 0.0, 0.0, 0.0, 1.663502637365366E9, 0.0, 2022-09-18 17:03:57.365
118.0, -60188.933931462045, -50253.24824491123, -36634.598569226095, -60732.21543219274, -55075.45829718808, -79984.01880073771, -62129.53473681626, -69451.9438686304, 0.376, -0.896, 0.25, 192.0, 0.0, 0.0, 0.0, 0.0, 0.0, 0.0, 0.0, 0.0, 0.0, 1.6635026373703718E9, 0.0, 2022-09-18 17:03:57.370
119.0, -65598.74899372447, -53431.17456807788, -36504.48906475175, -60626.58108789696, -54897.6054665572, -79882.608936144, -62015.56319183865, -69349.23760285827, 0.378, -0.9, 0.252, 192.0, 11.0, 208.0, 227.0, 224.0, 7.0, 224.0, 0.0, 0.0, 0.0, 1.663502637374397E9, 0.0, 2022-09-18 17:03:57.374
120.0, -63955.0464099701, -51420.45634036736, -36648.90368567749, -60807.83138368504, -54999.015331150935, -80098.57149107117, -62165.87867330059, -69538.4674714169, 0.378, -0.9, 0.252, 192.0, 0.0, 0.0, 0.0, 0.0, 0.0, 0.0, 0.0, 0.0, 0.0, 1.663502637378429E9, 0.0, 2022-09-18 17:03:57.378
121.0, -58817.56500215114, -47620.03393412041, -36873.96340059798, -61072.386631058056, -55153.75645801502, -80395.58147139329, -62392.30184463285, -69801.41339318913, 0.378, -0.9, 0.252, 192.0, 0.0, 0.0, 0.0, 0.0, 0.0, 0.0, 0.0, 0.0, 0.0, 1.6635026373824189E9, 0.0, 2022-09-18 17:03:57.382
122.0, -54152.66652735073, -45056.9817491748, -36990.14776827666, -61167.314489759745, -55281.876657232846, -80478.12646366673, -62500.66310175218, -69885.43360059662, 0.378, -0.9, 0.252, 192.0, 0.0, 0.0, 0.0, 0.0, 0.0, 0.0, 0.0, 0.0, 0.0, 1.663502637385422E9, 0.0, 2022-09-18 17:03:57.385
123.0, -60376.576826164346, -50386.397586631494, -36641.63936872952, -60731.52252811463, -55077.29114023342, -79991.55133861916, -62144.17512943449, -69448.3452377731, 0.378, -0.9, 0.252, 192.0, 0.0, 0.0, 0.0, 0.0, 0.0, 0.0, 0.0, 0.0, 0.0, 1.6635026373894715E9, 0.0, 2022-09-18 17:03:57.389
124.0, -65611.10950840825, -53406.475890454756, -36518.45890503632, -60634.5606606675, -54899.48301309145, -79897.91988109588, -62038.540785138706, -69361.1734343974, 0.378, -0.9, 0.252, 192.0, 0.0, 0.0, 0.0, 0.0, 0.0, 0.0, 0.0, 0.0, 0.0, 1.6635026373933868E9, 0.0, 2022-09-18 17:03:57.393
125.0, -63892.26035979514, -51364.50992399573, -36664.77342424076, -60815.34156982203, -55001.74224397448, -80117.63752909155, -62190.80086836826, -69539.71916910639, 0.378, -0.9, 0.252, 192.0, 0.0, 0.0, 0.0, 0.0, 0.0, 0.0, 0.0, 0.0, 0.0, 1.663502637398494E9, 0.0, 2022-09-18 17:03:57.398
126.0, -58683.96862554177, -47535.723154035, -36890.28017405036, -61085.26123586432, -55163.03243196398, -80424.19170429608, -62418.475737390014, -69808.05186129235, 0.378, -0.9, 0.252, 192.0, 0.0, 0.0, 0.0, 0.0, 0.0, 0.0, 0.0, 0.0, 0.0, 1.6635026374024749E9, 0.0, 2022-09-18 17:03:57.402
127.0, -54173.453649694166, -45104.41215090897, -36987.309096730845, -61166.01808858134, -55284.245942145106, -80494.93497549713, -62506.58631403284, -69888.47343784255, 0.378, -0.9, 0.252, 192.0, 0.0, 0.0, 0.0, 0.0, 0.0, 0.0, 0.0, 0.0, 0.0, 1.6635026374064665E9, 0.0, 2022-09-18 17:03:57.406
128.0, -60560.50933128707, -50525.40308539905, -36628.16126682297, -60725.64401932288, -55073.71486112057, -80006.43760042639, -62135.65911479702, -69442.8467086371, 0.378, -0.9, 0.252, 192.0, 0.0, 0.0, 0.0, 0.0, 0.0, 0.0, 0.0, 0.0, 0.0, 1.663502637410409E9, 0.0, 2022-09-18 17:03:57.410
129.0, -65629.12501443923, -53395.501183927205, -36517.34131781355, -60641.33323923746, -54910.32360915228, -79935.11318386951, -62038.33961943861, -69371.7234577803, 0.376, -0.9, 0.244, 192.0, 11.0, 192.0, 227.0, 224.0, 7.0, 160.0, 0.0, 0.0, 0.0, 1.6635026374144604E9, 0.0, 2022-09-18 17:03:57.414
130.0, -63832.469443377195, -51304.67430408887, -36669.847270232116, -60829.870203717976, -55018.97543894952, -80156.19428827695, -62193.930112592, -69567.43533223098, 0.376, -0.9, 0.244, 192.0, 0.0, 0.0, 0.0, 0.0, 0.0, 0.0, 0.0, 0.0, 0.0, 1.6635026374175491E9, 0.0, 2022-09-18 17:03:57.417
131.0, -58547.622984364396, -47436.25789120888, -36899.86907242168, -61100.79569826075, -55175.86233328132, -80466.5929635278, -62423.54958338137, -69834.56103021634, 0.376, -0.9, 0.244, 192.0, 0.0, 0.0, 0.0, 0.0, 0.0, 0.0, 0.0, 0.0, 0.0, 1.6635026374214747E9, 0.0, 2022-09-18 17:03:57.421
132.0, -54204.276705298034, -45148.020404341274, -36990.88537584369, -61165.571053692234, -55291.77848002654, -80525.89214156773, -62504.46289830958, -69887.28879538641, 0.376, -0.9, 0.244, 192.0, 0.0, 0.0, 0.0, 0.0, 0.0, 0.0, 0.0, 0.0, 0.0, 1.663502637425543E9, 0.0, 2022-09-18 17:03:57.425
133.0, -60757.383496449416, -50661.97224402097, -36632.721022691854, -60727.70037981277, -55082.29793099141, -80040.389900254, -62135.547356074734, -69458.64939196699, 0.376, -0.9, 0.244, 192.0, 0.0, 0.0, 0.0, 0.0, 0.0, 0.0, 0.0, 0.0, 0.0, 1.6635026374304285E9, 0.0, 2022-09-18 17:03:57.430
134.0, -65653.08608449533, -53384.66058786638, -36531.199399375844, -60655.97363185569, -54927.64621110514, -79992.66892584192, -62049.157863754976, -69391.25888243424, 0.376, -0.9, 0.244, 192.0, 0.0, 0.0, 0.0, 0.0, 0.0, 0.0, 0.0, 0.0, 0.0, 1.6635026374345696E9, 0.0, 2022-09-18 17:03:57.434
135.0, -63770.800980425, -51245.777457449134, -36686.342857640135, -60847.4610266043, -55043.87528227273, -80227.80927751175, -62207.02823484281, -69588.15539934103, 0.376, -0.9, 0.244, 192.0, 0.0, 0.0, 0.0, 0.0, 0.0, 0.0, 0.0, 0.0, 0.0, 1.6635026374384828E9, 0.0, 2022-09-18 17:03:57.438
136.0, -58407.3881396518, -47330.310622490724, -36918.13044764167, -61120.1746607035, -55205.791319106975, -80542.49948769802, -62436.73711261, -69853.11297811425, 0.376, -0.9, 0.244, 192.0, 0.0, 0.0, 0.0, 0.0, 0.0, 0.0, 0.0, 0.0, 0.0, 1.6635026374415088E9, 0.0, 2022-09-18 17:03:57.441
137.0, -54244.59925229541, -45191.74041649585, -37000.451922470565, -61173.55062646278, -55317.237116961136, -80592.81326446692, -62507.413328577684, -69902.97971999404, 0.376, -0.9, 0.244, 192.0, 0.0, 0.0, 0.0, 0.0, 0.0, 0.0, 0.0, 0.0, 0.0, 1.6635026374455175E9, 0.0, 2022-09-18 17:03:57.445
138.0, -60938.61144049304, -50781.39761464568, -36639.62771172854, -60734.62942059391, -55098.54764921041, -80107.84746502012, -62136.15085317503, -69469.80291245019, 0.376, -0.9, 0.244, 192.0, 0.0, 0.0, 0.0, 0.0, 0.0, 0.0, 0.0, 0.0, 0.0, 1.6635026374495344E9, 0.0, 2022-09-18 17:03:57.449
139.0, -65656.997639775, -53356.497389852695, -36552.254742652745, -60681.81224844602, -54953.10484803973, -80063.85923193207, -62063.5970906731, -69425.65821715095, 0.376, -0.904, 0.25, 192.0, 11.0, 192.0, 227.0, 192.0, 7.0, 208.0, 0.0, 0.0, 0.0, 1.6635026374535208E9, 0.0, 2022-09-18 17:03:57.453
140.0, -63696.72729930012, -51177.15760197135, -36707.84523580614, -60873.210236216815, -55068.484552918024, -80290.59532768671, -62222.1380140946, -69621.0348154348, 0.376, -0.904, 0.25, 192.0, 0.0, 0.0, 0.0, 0.0, 0.0, 0.0, 0.0, 0.0, 0.0, 1.6635026374585383E9, 0.0, 2022-09-18 17:03:57.458
141.0, -58269.41082112918, -47230.44302826441, -36940.817468263805, -61147.309678472244, -55231.249956041574, -80601.86572097131, -62456.89838610869, -69892.80967626687, 0.376, -0.904, 0.25, 192.0, 0.0, 0.0, 0.0, 0.0, 0.0, 0.0, 0.0, 0.0, 0.0, 1.6635026374625623E9, 0.0, 2022-09-18 17:03:57.462
142.0, -54289.74977609513, -45250.70431836895, -37013.63945169919, -61190.71676620445, -55337.35368697091, -80626.56439859443, -62519.37151186127, -69922.49279290352, 0.376, -0.904, 0.25, 192.0, 0.0, 0.0, 0.0, 0.0, 0.0, 0.0, 0.0, 0.0, 0.0, 1.6635026374665618E9, 0.0, 2022-09-18 17:03:57.466
143.0, -61112.73152979989, -50903.19227018265, -36646.37793855404, -60746.11821724394, -55108.695341193124, -80128.16520073, -62143.43752186746, -69486.03027892474, 0.376, -0.904, 0.25, 192.0, 0.0, 0.0, 0.0, 0.0, 0.0, 0.0, 0.0, 0.0, 0.0, 1.6635026374695375E9, 0.0, 2022-09-18 17:03:57.469
144.0, -65666.96651780207, -53342.25932863466, -36558.334417144586, -60691.378795072895, -54963.02902257789, -80084.78046474225, -62071.8001808882, -69437.95167660137, 0.376, -0.904, 0.25, 192.0, 0.0, 0.0, 0.0, 0.0, 0.0, 0.0, 0.0, 0.0, 0.0, 1.663502637473522E9, 0.0, 2022-09-18 17:03:57.473
145.0, -63643.708961452125, -51133.77286598359, -36708.04640150624, -60874.327823439584, -55068.775125595945, -80294.05984807729, -62225.200203084976, -69613.54698104227, 0.376, -0.904, 0.25, 192.0, 0.0, 0.0, 0.0, 0.0, 0.0, 0.0, 0.0, 0.0, 0.0, 1.6635026374776716E9, 0.0, 2022-09-18 17:03:57.477
146.0, -58134.49569159695, -47137.638585285975, -36938.783459518374, -61144.7839313488, -55222.30925825945, -80590.60044176584, -62455.78079888592, -69884.11484767376, 0.376, -0.904, 0.25, 192.0, 0.0, 0.0, 0.0, 0.0, 0.0, 0.0, 0.0, 0.0, 0.0, 1.6635026374815905E9, 0.0, 2022-09-18 17:03:57.481
147.0, -54331.25696554864, -45294.93842064601, -36994.573413678816, -61168.297966515776, -55318.93584953974, -80594.37788657879, -62501.71363374158, -69897.10121120229, 0.376, -0.904, 0.25, 192.0, 0.0, 0.0, 0.0, 0.0, 0.0, 0.0, 0.0, 0.0, 0.0, 1.6635026374865518E9, 0.0, 2022-09-18 17:03:57.486
148.0, -61292.70777615402, -51026.99858272059, -36625.590816210606, -60722.91710649933, -55088.46701246107, -80092.8047410017, -62124.48324256936, -69456.7941971772, 0.376, -0.904, 0.25, 192.0, 0.0, 0.0, 0.0, 0.0, 0.0, 0.0, 0.0, 0.0, 0.0, 1.6635026374906378E9, 0.0, 2022-09-18 17:03:57.490
149.0, -65659.79160783191, -53311.749197453166, -36553.41703336442, -60684.516809525114, -54951.54022592786, -80061.8028714422, -62069.0509163202, -69425.99349331779, 0.37, -0.896, 0.242, 192.0, 11.0, 144.0, 228.0, 0.0, 7.0, 144.0, 0.0, 0.0, 0.0, 1.663502637494625E9, 0.0, 2022-09-18 17:03:57.494
150.0, -63559.86756800027, -51063.36487094938, -36703.397238659534, -60869.96923327079, -55065.10943950528, -80274.45736818998, -62223.05443561726, -69600.65002449155, 0.37, -0.896, 0.242, 192.0, 0.0, 0.0, 0.0, 0.0, 0.0, 0.0, 0.0, 0.0, 0.0, 1.6635026374976175E9, 0.0, 2022-09-18 17:03:57.497
151.0, -57983.777878734814, -47035.69227882532, -36933.754317015926, -61147.175568005514, -55222.711589659644, -80575.84829042535, -62453.07623780683, -69877.90106271519, 0.37, -0.896, 0.242, 192.0, 0.0, 0.0, 0.0, 0.0, 0.0, 0.0, 0.0, 0.0, 0.0, 1.6635026375015569E9, 0.0, 2022-09-18 17:03:57.501
152.0, -54371.89243696838, -45350.01311898388, -36978.480157670994, -61151.28828898529, -55311.98445701414, -80562.28078154098, -62485.08393586683, -69874.54830104689, 0.37, -0.896, 0.242, 192.0, 0.0, 0.0, 0.0, 0.0, 0.0, 0.0, 0.0, 0.0, 0.0, 1.6635026375058572E9, 0.0, 2022-09-18 17:03:57.505
153.0, -61469.1077433953, -51143.071191677, -36611.956252092874, -60706.3768156024, -55078.81105885638, -80061.73581620882, -62108.25587609481, -69428.9886270748, 0.37, -0.896, 0.242, 192.0, 0.0, 0.0, 0.0, 0.0, 0.0, 0.0, 0.0, 0.0, 0.0, 1.6635026375096147E9, 0.0, 2022-09-18 17:03:57.509
154.0, -65659.45633166509, -53276.00875806913, -36549.14785017346, -60677.23014083268, -54945.48290318047, -80036.43364148542, -62059.931404582436, -69403.55234188466, 0.37, -0.896, 0.242, 192.0, 0.0, 0.0, 0.0, 0.0, 0.0, 0.0, 0.0, 0.0, 0.0, 1.6635026375136125E9, 0.0, 2022-09-18 17:03:57.513
155.0, -63487.71613689854, -50991.81693694794, -36705.565357871696, -60866.795285558146, -55061.95784353708, -80251.30096093428, -62217.06416810324, -69593.98920464388, 0.37, -0.896, 0.242, 192.0, 0.0, 0.0, 0.0, 0.0, 0.0, 0.0, 0.0, 0.0, 0.0, 1.6635026375186553E9, 0.0, 2022-09-18 17:03:57.518
156.0, -57842.33603982163, -46929.09680951796, -36941.577427575285, -61139.86654756863, -55216.22958376761, -80553.07186282538, -62452.182168028616, -69856.0857601268, 0.37, -0.896, 0.242, 192.0, 0.0, 0.0, 0.0, 0.0, 0.0, 0.0, 0.0, 0.0, 0.0, 1.6635026375216756E9, 0.0, 2022-09-18 17:03:57.521
157.0, -54426.72126611725, -45405.847776633236, -36984.783349607394, -61144.247489481866, -55307.53645986754, -80527.72498461306, -62485.28510156693, -69854.45408278157, 0.37, -0.896, 0.242, 192.0, 0.0, 0.0, 0.0, 0.0, 0.0, 0.0, 0.0, 0.0, 0.0, 1.663502637525667E9, 0.0, 2022-09-18 17:03:57.525
158.0, -61639.58449835593, -51261.4013268234, -36615.53253120572, -60701.70530101124, -55069.6468436297, -80029.86222861556, -62111.87685869657, -69418.66212113644, 0.37, -0.896, 0.242, 192.0, 0.0, 0.0, 0.0, 0.0, 0.0, 0.0, 0.0, 0.0, 0.0, 1.6635026375296366E9, 0.0, 2022-09-18 17:03:57.529
159.0, -65660.50686365449, -53262.64241488486, -36557.082719455095, -60681.67813797929, -54945.92993806958, -80020.63095815551, -62071.464904721375, -69402.25594070625, 0.378, -0.906, 0.248, 192.0, 11.0, 208.0, 227.0, 176.0, 7.0, 192.0, 0.0, 0.0, 0.0, 1.663502637533651E9, 0.0, 2022-09-18 17:03:57.533
160.0, -63420.705607021526, -50942.91132007973, -36712.09206725265, -60870.59508211554, -55065.37766043874, -80236.05707121576, -62230.586973498706, -69593.74333545487, 0.378, -0.906, 0.248, 192.0, 0.0, 0.0, 0.0, 0.0, 0.0, 0.0, 0.0, 0.0, 0.0, 1.663502637537708E9, 0.0, 2022-09-18 17:03:57.537
161.0, -57708.762014956716, -46847.557645745, -36953.6250178367, -61150.08129478471, -55225.46085422765, -80541.73952838655, -62473.41632526116, -69863.37242881923, 0.378, -0.906, 0.248, 192.0, 0.0, 0.0, 0.0, 0.0, 0.0, 0.0, 0.0, 0.0, 0.0, 1.663502637541704E9, 0.0, 2022-09-18 17:03:57.541
162.0, -54491.63073201546, -45486.71638807254, -36986.21386125253, -61143.17460574801, -55315.27016344907, -80505.68616458013, -62493.5999505043, -69853.71647521455, 0.378, -0.906, 0.248, 192.0, 0.0, 0.0, 0.0, 0.0, 0.0, 0.0, 0.0, 0.0, 0.0, 1.6635026375466936E9, 0.0, 2022-09-18 17:03:57.546
163.0, -61812.22937252872, -51390.95203768636, -36614.414943982956, -60698.10667015394, -55072.1502390087, -80008.11398126054, -62114.313198842196, -69409.7884785877, 0.378, -0.906, 0.248, 192.0, 0.0, 0.0, 0.0, 0.0, 0.0, 0.0, 0.0, 0.0, 0.0, 1.6635026375497265E9, 0.0, 2022-09-18 17:03:57.549
164.0, -65653.6448781067, -53239.55306286253, -36564.95053350336, -60688.40601306034, -54953.73069688448, -80008.94099580539, -62081.36672751507, -69403.21706571784, 0.378, -0.906, 0.248, 192.0, 0.0, 0.0, 0.0, 0.0, 0.0, 0.0, 0.0, 0.0, 0.0, 1.663502637553707E9, 0.0, 2022-09-18 17:03:57.553
165.0, -63348.129492775144, -50887.143717663734, -36718.79759058924, -60878.14997174144, -55076.17355301065, -80229.10567869016, -62236.711351479455, -69594.12331511061, 0.378, -0.906, 0.248, 192.0, 0.0, 0.0, 0.0, 0.0, 0.0, 0.0, 0.0, 0.0, 0.0, 1.6635026375577238E9, 0.0, 2022-09-18 17:03:57.557
166.0, -57566.58256847651, -46757.614226056845, -36954.56379110382, -61153.411704708546, -55233.08279908691, -80537.67151089567, -62471.78464791592, -69863.88651894171, 0.378, -0.906, 0.248, 192.0, 0.0, 0.0, 0.0, 0.0, 0.0, 0.0, 0.0, 0.0, 0.0, 1.6635026375617473E9, 0.0, 2022-09-18 17:03:57.561
167.0, -54552.427476933895, -45564.34399656582, -36971.439358167576, -61129.920021286016, -55311.76093956959, -80486.17309167064, -62476.12088634025, -69839.50076574097, 0.378, -0.906, 0.248, 192.0, 0.0, 0.0, 0.0, 0.0, 0.0, 0.0, 0.0, 0.0, 0.0, 1.6635026375657456E9, 0.0, 2022-09-18 17:03:57.565
168.0, -61975.262996585734, -51510.71268447789, -36598.43344669741, -60685.63439674788, -55063.678927860135, -79993.3841816645, -62096.25298932231, -69400.62426336101, 0.378, -0.906, 0.248, 192.0, 0.0, 0.0, 0.0, 0.0, 0.0, 0.0, 0.0, 0.0, 0.0, 1.6635026375697167E9, 0.0, 2022-09-18 17:03:57.569
169.0, -65642.08902622332, -53208.975876447665, -36555.58515257658, -60680.6723094788, -54950.80261836084, -80004.35888819204, -62067.57570118615, -69395.55041736965, 0.378, -0.906, 0.242, 192.0, 11.0, 208.0, 227.0, 176.0, 7.0, 144.0, 0.0, 0.0, 0.0, 1.6635026375748096E9, 0.0, 2022-09-18 17:03:57.574
170.0, -63262.634070233595, -50807.63856263621, -36711.421514918984, -60865.49888437973, -55073.33488146483, -80222.40015535356, -62225.71429320745, -69583.1262568386, 0.378, -0.906, 0.242, 192.0, 0.0, 0.0, 0.0, 0.0, 0.0, 0.0, 0.0, 0.0, 0.0, 1.6635026375777936E9, 0.0, 2022-09-18 17:03:57.577
171.0, -57410.58974392292, -46637.56300658739, -36949.15466894563, -61143.66634412603, -55233.418075253736, -80530.98833930354, -62465.54851121289, -69858.49974852797, 0.378, -0.906, 0.242, 192.0, 0.0, 0.0, 0.0, 0.0, 0.0, 0.0, 0.0, 0.0, 0.0, 1.6635026375818038E9, 0.0, 2022-09-18 17:03:57.581
172.0, -54601.444852524386, -45609.53922385445, -36956.12841321569, -61104.886067496074, -55304.51897436607, -80462.94962918159, -62460.20644428807, -69816.8808003522, 0.378, -0.906, 0.242, 192.0, 0.0, 0.0, 0.0, 0.0, 0.0, 0.0, 0.0, 0.0, 0.0, 1.663502637585706E9, 0.0, 2022-09-18 17:03:57.585
173.0, -62126.94193445944, -51600.365531488125, -36590.40917043795, -60668.98234712867, -55055.162913222666, -79974.94399248887, -62089.65922470799, -69383.86045501953, 0.378, -0.906, 0.242, 192.0, 0.0, 0.0, 0.0, 0.0, 0.0, 0.0, 0.0, 0.0, 0.0, 1.6635026375898788E9, 0.0, 2022-09-18 17:03:57.589
174.0, -65625.81695625985, -53163.333614269926, -36563.87764976951, -60681.27580657909, -54953.90951084012, -80002.6825073579, -62079.71269842538, -69398.16557147093, 0.378, -0.906, 0.242, 192.0, 0.0, 0.0, 0.0, 0.0, 0.0, 0.0, 0.0, 0.0, 0.0, 1.6635026375937953E9, 0.0, 2022-09-18 17:03:57.593
175.0, -63185.967586751896, -50744.74075373897, -36724.60904414762, -60874.05960250612, -55080.37568096825, -80226.9822629669, -62243.26041260486, -69590.77055344231, 0.378, -0.906, 0.242, 192.0, 0.0, 0.0, 0.0, 0.0, 0.0, 0.0, 0.0, 0.0, 0.0, 1.6635026375977955E9, 0.0, 2022-09-18 17:03:57.597
176.0, -57277.23923650256, -46557.49905794848, -36971.50641340094, -61158.15027453307, -55243.43165676972, -80541.87363885327, -62491.32007256986, -69868.06629515484, 0.378, -0.906, 0.242, 192.0, 0.0, 0.0, 0.0, 0.0, 0.0, 0.0, 0.0, 0.0, 0.0, 1.6635026376028187E9, 0.0, 2022-09-18 17:03:57.602
177.0, -54690.00246405631, -45703.438902311194, -36967.371340676706, -61104.9754744739, -55309.23519244614, -80462.9943326705, -62475.8973688957, -69816.36671022972, 0.378, -0.906, 0.242, 192.0, 0.0, 0.0, 0.0, 0.0, 0.0, 0.0, 0.0, 0.0, 0.0, 1.6635026376057584E9, 0.0, 2022-09-18 17:03:57.605
178.0, -62306.78407034685, -51725.088265548744, -36596.39943795198, -60663.90850113732, -55052.30188993239, -79975.54748958915, -62102.13149811405, -69376.90906249393, 0.378, -0.906, 0.242, 192.0, 0.0, 0.0, 0.0, 0.0, 0.0, 0.0, 0.0, 0.0, 0.0, 1.6635026376088395E9, 0.0, 2022-09-18 17:03:57.608
179.0, -65625.6381423042, -53144.580500671924, -36574.33826617459, -60679.30885306703, -54953.998917817946, -80006.79522833768, -62094.06251836569, -69394.81280980264, 0.376, -0.906, 0.252, 192.0, 11.0, 192.0, 227.0, 176.0, 7.0, 224.0, 0.0, 0.0, 0.0, 1.6635026376138396E9, 0.0, 2022-09-18 17:03:57.613
180.0, -63115.67135043995, -50689.9119245901, -36733.46033495192, -60873.61256761701, -55081.60502691329, -80228.3904228676, -62252.46933132045, -69590.90466390904, 0.376, -0.906, 0.252, 192.0, 0.0, 0.0, 0.0, 0.0, 0.0, 0.0, 0.0, 0.0, 0.0, 1.6635026376178253E9, 0.0, 2022-09-18 17:03:57.617
181.0, -57139.08310402431, -46465.78985044835, -36975.59678263626, -61159.401972222564, -55244.77276143703, -80541.09132779735, -62496.304511583396, -69875.62118478074, 0.376, -0.906, 0.252, 192.0, 0.0, 0.0, 0.0, 0.0, 0.0, 0.0, 0.0, 0.0, 0.0, 1.6635026376218448E9, 0.0, 2022-09-18 17:03:57.621
182.0, -54779.007110477345, -45786.0062463291, -36957.20129694954, -61092.48084932338, -55303.49079412113, -80441.69312020458, -62464.87795887923, -69803.98384380148, 0.376, -0.906, 0.252, 192.0, 0.0, 0.0, 0.0, 0.0, 0.0, 0.0, 0.0, 0.0, 0.0, 1.6635026376258602E9, 0.0, 2022-09-18 17:03:57.625
183.0, -62475.45033400659, -51828.68860109909, -36581.893155800484, -60654.00667834362, -55039.51669210395, -79956.14617540195, -62084.67478569446, -69363.98975419876, 0.376, -0.906, 0.252, 192.0, 0.0, 0.0, 0.0, 0.0, 0.0, 0.0, 0.0, 0.0, 0.0, 1.6635026376309674E9, 0.0, 2022-09-18 17:03:57.630
184.0, -65616.5409823109, -53112.75161656757, -36565.28580967019, -60682.61691124641, -54947.38280145917, -80000.67085035692, -62083.37838451605, -69396.10921098104, 0.376, -0.906, 0.252, 192.0, 0.0, 0.0, 0.0, 0.0, 0.0, 0.0, 0.0, 0.0, 0.0, 1.663502637633968E9, 0.0, 2022-09-18 17:03:57.633
185.0, -63034.75803551174, -50626.72354301495, -36723.960843558416, -60870.19275071535, -55074.07248903185, -80227.02696645581, -62241.807549215264, -69584.75793418383, 0.376, -0.906, 0.252, 192.0, 0.0, 0.0, 0.0, 0.0, 0.0, 0.0, 0.0, 0.0, 0.0, 1.6635026376369407E9, 0.0, 2022-09-18 17:03:57.636
186.0, -57000.099957001206, -46375.04176795981, -36967.997189521455, -61155.69158264298, -55236.16733982174, -80541.06897605288, -62485.28510156693, -69869.31799284434, 0.376, -0.906, 0.252, 192.0, 0.0, 0.0, 0.0, 0.0, 0.0, 0.0, 0.0, 0.0, 0.0, 1.6635026376419065E9, 0.0, 2022-09-18 17:03:57.641
187.0, -54868.65995748758, -45872.641607837875, -36941.510372341916, -61076.94638692694, -55287.75516602459, -80429.64552994318, -62445.76721736995, -69784.13549472517, 0.376, -0.906, 0.252, 192.0, 0.0, 0.0, 0.0, 0.0, 0.0, 0.0, 0.0, 0.0, 0.0, 1.663502637645942E9, 0.0, 2022-09-18 17:03:57.645
188.0, -62636.87463246282, -51933.54063433893, -36572.95245801836, -60642.87550960488, -55025.21157565255, -79951.56406778861, -62073.342451255616, -69355.54079479467, 0.376, -0.906, 0.252, 192.0, 0.0, 0.0, 0.0, 0.0, 0.0, 0.0, 0.0, 0.0, 0.0, 1.6635026376499E9, 0.0, 2022-09-18 17:03:57.649
189.0, -65607.95791244006, -53090.37752036781, -36567.61039109354, -60682.54985601304, -54943.359487457215, -80005.96821379283, -62084.36186127208, -69397.20444645935, 0.376, -0.906, 0.252, 192.0, 0.0, 0.0, 0.0, 0.0, 0.0, 0.0, 0.0, 0.0, 0.0, 1.6635026376539304E9, 0.0, 2022-09-18 17:03:57.653
190.0, -62955.78932235114, -50571.58178944371, -36726.665404637504, -60874.79721007314, -55072.552570408894, -80231.85494325816, -62246.791988228804, -69590.81525693122, 0.37, -0.904, 0.248, 192.0, 11.0, 144.0, 227.0, 192.0, 7.0, 192.0, 0.0, 0.0, 0.0, 1.663502637657966E9, 0.0, 2022-09-18 17:03:57.657
191.0, -56863.44139140146, -46286.10417677214, -36970.16530873362, -61154.77516112032, -55234.55801422096, -80544.19822027662, -62492.169438859164, -69868.24510911049, 0.37, -0.904, 0.248, 192.0, 0.0, 0.0, 0.0, 0.0, 0.0, 0.0, 0.0, 0.0, 0.0, 1.6635026376619148E9, 0.0, 2022-09-18 17:03:57.661
192.0, -54963.87838886719, -45957.13120187893, -36933.463744338005, -61060.09317160764, -55281.11669792137, -80415.72039314752, -62442.36975221274, -69770.54563409634, 0.37, -0.904, 0.248, 192.0, 0.0, 0.0, 0.0, 0.0, 0.0, 0.0, 0.0, 0.0, 0.0, 1.663502637664884E9, 0.0, 2022-09-18 17:03:57.664
193.0, -62794.745003550655, -52031.30716458645, -36568.66092308294, -60630.64910538783, -55017.85785172676, -79941.72930022828, -62076.494047223816, -69344.20846035582, 0.37, -0.904, 0.248, 192.0, 0.0, 0.0, 0.0, 0.0, 0.0, 0.0, 0.0, 0.0, 0.0, 1.663502637669963E9, 0.0, 2022-09-18 17:03:57.669
194.0, -65586.41083078514, -53048.11037160282, -36569.06325448314, -60674.190303586765, -54939.179711244076, -80004.15772249195, -62093.749593943314, -69394.18696095789, 0.37, -0.904, 0.248, 192.0, 0.0, 0.0, 0.0, 0.0, 0.0, 0.0, 0.0, 0.0, 0.0, 1.6635026376739895E9, 0.0, 2022-09-18 17:03:57.673
195.0, -62868.841036419995, -50495.07176817319, -36729.07939303868, -60870.840951304555, -55068.350442451294, -80229.99974846837, -62255.28565112182, -69592.46928602092, 0.37, -0.904, 0.248, 192.0, 0.0, 0.0, 0.0, 0.0, 0.0, 0.0, 0.0, 0.0, 0.0, 1.6635026376779416E9, 0.0, 2022-09-18 17:03:57.677
196.0, -56722.960677499854, -46194.37261752756, -36972.10991050123, -61155.31160298725, -55228.76891240703, -80539.97374057457, -62500.841915707824, -69870.68144925612, 0.37, -0.904, 0.248, 192.0, 0.0, 0.0, 0.0, 0.0, 0.0, 0.0, 0.0, 0.0, 0.0, 1.663502637681944E9, 0.0, 2022-09-18 17:03:57.681
197.0, -55062.762506337465, -46052.14846755844, -36920.43267732056, -61046.54801446772, -55268.24209311511, -80397.34725920526, -62435.77598759842, -69760.21912815799, 0.37, -0.904, 0.248, 192.0, 0.0, 0.0, 0.0, 0.0, 0.0, 0.0, 0.0, 0.0, 0.0, 1.6635026376850128E9, 0.0, 2022-09-18 17:03:57.685
198.0, -62950.20138623731, -52134.549872225514, -36550.935989729885, -60619.920268049274, -55001.518726529925, -79928.38530878846, -62063.57473892865, -69333.7701956952, 0.37, -0.904, 0.248, 192.0, 0.0, 0.0, 0.0, 0.0, 0.0, 0.0, 0.0, 0.0, 0.0, 1.663502637688945E9, 0.0, 2022-09-18 17:03:57.688
199.0, -65566.78599915338, -53020.95300208962, -36559.60846657854, -60676.850161176946, -54934.39643793064, -80001.67667885742, -62089.32394854116, -69392.71174582384, 0.37, -0.904, 0.248, 192.0, 0.0, 0.0, 0.0, 0.0, 0.0, 0.0, 0.0, 0.0, 0.0, 1.663502637692946E9, 0.0, 2022-09-18 17:03:57.692
200.0, -62776.39422135285, -50432.956270331895, -36720.27280572329, -60872.942015283355, -55067.255206972986, -80229.2397891569, -62251.41879933105, -69590.03294587528, 0.37, -0.904, 0.25, 192.0, 11.0, 144.0, 227.0, 192.0, 7.0, 208.0, 0.0, 0.0, 0.0, 1.663502637696966E9, 0.0, 2022-09-18 17:03:57.696
201.0, -56589.29724565712, -46116.43208461191, -36966.16434647612, -61159.29021350029, -55234.91564213224, -80544.22057202108, -62497.26563659497, -69874.81652198035, 0.37, -0.904, 0.25, 192.0, 0.0, 0.0, 0.0, 0.0, 0.0, 0.0, 0.0, 0.0, 0.0, 1.6635026377020352E9, 0.0, 2022-09-18 17:03:57.702
202.0, -55177.20343794864, -46160.800297355694, -36904.89821492413, -61039.12723530856, -55269.560846037966, -80389.0771137568, -62419.190993212585, -69751.97133445399, 0.37, -0.904, 0.25, 192.0, 0.0, 0.0, 0.0, 0.0, 0.0, 0.0, 0.0, 0.0, 0.0, 1.6635026377059252E9, 0.0, 2022-09-18 17:03:57.705
203.0, -63106.55183870219, -52236.49617868617, -36544.96807396031, -60622.53542215055, -55005.02795040941, -79931.55925650112, -62053.94113706841, -69343.40379755542, 0.37, -0.904, 0.25, 192.0, 0.0, 0.0, 0.0, 0.0, 0.0, 0.0, 0.0, 0.0, 0.0, 1.663502637709946E9, 0.0, 2022-09-18 17:03:57.709
204.0, -65540.18742325157, -52981.256303937, -36561.79893753516, -60681.34286181246, -54945.035868291365, -80018.2840249877, -62083.57955021615, -69406.45806866385, 0.37, -0.904, 0.25, 192.0, 0.0, 0.0, 0.0, 0.0, 0.0, 0.0, 0.0, 0.0, 0.0, 1.6635026377130191E9, 0.0, 2022-09-18 17:03:57.713
205.0, -62674.559673614465, -50354.792219971685, -36724.98902380336, -60876.96532928531, -55080.42038445716, -80249.9375045225, -62244.37799982763, -69602.25935009234, 0.37, -0.904, 0.25, 192.0, 0.0, 0.0, 0.0, 0.0, 0.0, 0.0, 0.0, 0.0, 0.0, 1.663502637717103E9, 0.0, 2022-09-18 17:03:57.717
206.0, -56434.84669147095, -46019.090237509045, -36967.594858121265, -61158.73141988891, -55242.425828269224, -80558.07865358338, -62491.118906869764, -69874.12361790224, 0.37, -0.904, 0.25, 192.0, 0.0, 0.0, 0.0, 0.0, 0.0, 0.0, 0.0, 0.0, 0.0, 1.6635026377210536E9, 0.0, 2022-09-18 17:03:57.721
207.0, -55268.42090707075, -46252.62126357809, -36893.92350839657, -61024.59860141261, -55267.77270648155, -80383.37741892069, -62405.01998722792, -69738.20265986952, 0.37, -0.904, 0.25, 192.0, 0.0, 0.0, 0.0, 0.0, 0.0, 0.0, 0.0, 0.0, 0.0, 1.6635026377249908E9, 0.0, 2022-09-18 17:03:57.724
208.0, -63240.550546711755, -52325.85845301848, -36533.21105637682, -60610.68899758923, -54999.50706952895, -79926.50776225422, -62044.17342474144, -69328.13755609245, 0.37, -0.904, 0.25, 192.0, 0.0, 0.0, 0.0, 0.0, 0.0, 0.0, 0.0, 0.0, 0.0, 1.6635026377300203E9, 0.0, 2022-09-18 17:03:57.730
209.0, -65512.20303919352, -52947.28165236493, -36554.489917098275, -60671.731611696676, -54937.23510947647, -80012.80784759615, -62082.216093804374, -69395.5280656252, 0.37, -0.904, 0.25, 192.0, 0.0, 0.0, 0.0, 0.0, 0.0, 0.0, 0.0, 0.0, 0.0, 1.6635026377340088E9, 0.0, 2022-09-18 17:03:57.734
210.0, -62584.10216380384, -50288.943980806354, -36721.993890046346, -60870.19275071535, -55071.166762252666, -80242.78494629682, -62251.30704060877, -69600.29239658028, 0.37, -0.906, 0.246, 192.0, 11.0, 144.0, 227.0, 176.0, 7.0, 176.0, 0.0, 0.0, 0.0, 1.6635026377380743E9, 0.0, 2022-09-18 17:03:57.738
211.0, -56316.69537028019, -45944.502466261685, -36973.29455295736, -61154.90927158705, -55239.90008114577, -80550.70257791312, -62505.20050587661, -69870.99437367849, 0.37, -0.906, 0.246, 192.0, 0.0, 0.0, 0.0, 0.0, 0.0, 0.0, 0.0, 0.0, 0.0, 1.6635026377410653E9, 0.0, 2022-09-18 17:03:57.741
212.0, -55401.9278767023, -46361.787183497814, -36892.94003164054, -61011.344016950614, -55263.43646805722, -80365.04898846734, -62409.1327082077, -69724.14341260713, 0.37, -0.906, 0.246, 192.0, 0.0, 0.0, 0.0, 0.0, 0.0, 0.0, 0.0, 0.0, 0.0, 1.6635026377450936E9, 0.0, 2022-09-18 17:03:57.745
213.0, -63394.66582473109, -52412.40440754943, -36532.540504043165, -60601.256561429094, -54994.187354348585, -79928.40766053292, -62045.447474175395, -69323.73426243475, 0.37, -0.906, 0.246, 192.0, 0.0, 0.0, 0.0, 0.0, 0.0, 0.0, 0.0, 0.0, 0.0, 1.6635026377490692E9, 0.0, 2022-09-18 17:03:57.749
214.0, -65484.06219292429, -52900.410044242155, -36559.92139100091, -60677.051326877045, -54944.410019446615, -80035.91955136294, -62087.267588051276, -69414.01295828974, 0.37, -0.906, 0.246, 192.0, 0.0, 0.0, 0.0, 0.0, 0.0, 0.0, 0.0, 0.0, 0.0, 1.6635026377530367E9, 0.0, 2022-09-18 17:03:57.753
215.0, -62490.24718883601, -50216.300811326604, -36730.75577387283, -60876.67475660739, -55085.8518583598, -80270.72462686595, -62257.900805223086, -69599.91241692453, 0.37, -0.906, 0.246, 192.0, 0.0, 0.0, 0.0, 0.0, 0.0, 0.0, 0.0, 0.0, 0.0, 1.6635026377580662E9, 0.0, 2022-09-18 17:03:57.758
216.0, -56181.243798881034, -45862.69508155526, -36983.46459668453, -61163.69350715799, -55259.50256103308, -80582.55381376193, -62509.916723956674, -69880.40445809418, 0.37, -0.906, 0.246, 192.0, 0.0, 0.0, 0.0, 0.0, 0.0, 0.0, 0.0, 0.0, 0.0, 1.6635026377621162E9, 0.0, 2022-09-18 17:03:57.762
217.0, -55514.98300015724, -46467.846210938245, -36885.76512167038, -61001.24102845682, -55272.06424141696, -80383.84680555425, -62394.26879814492, -69719.49424976042, 0.37, -0.906, 0.246, 192.0, 0.0, 0.0, 0.0, 0.0, 0.0, 0.0, 0.0, 0.0, 0.0, 1.6635026377660708E9, 0.0, 2022-09-18 17:03:57.766
218.0, -63529.80447170788, -52498.25745800227, -36532.33933834307, -60604.0058259971, -55005.20676436505, -79946.60198051954, -62038.741950838805, -69334.32898930657, 0.37, -0.906, 0.246, 192.0, 0.0, 0.0, 0.0, 0.0, 0.0, 0.0, 0.0, 0.0, 0.0, 1.663502637769108E9, 0.0, 2022-09-18 17:03:57.769
219.0, -65452.45682626448, -52863.216741468525, -36572.4830713848, -60692.96576892922, -54968.61695869172, -80060.32765630815, -62093.34726254312, -69424.384167717, 0.37, -0.906, 0.246, 192.0, 0.0, 0.0, 0.0, 0.0, 0.0, 0.0, 0.0, 0.0, 0.0, 1.6635026377730603E9, 0.0, 2022-09-18 17:03:57.773
220.0, -62383.20468463954, -50146.45160990377, -36740.14350654406, -60894.24322774926, -55106.035483602944, -80295.78093240035, -62261.7453052694, -69620.81129799024, 0.374, -0.902, 0.242, 192.0, 11.0, 176.0, 227.0, 208.0, 7.0, 144.0, 0.0, 0.0, 0.0, 1.6635026377771685E9, 0.0, 2022-09-18 17:03:57.777
221.0, -56042.79709372486, -45790.767167898084, -36989.85719559875, -61181.06081259976, -55277.249846130595, -80607.25249138505, -62514.32001761437, -69904.72315606155, 0.374, -0.902, 0.242, 192.0, 0.0, 0.0, 0.0, 0.0, 0.0, 0.0, 0.0, 0.0, 0.0, 1.663502637781118E9, 0.0, 2022-09-18 17:03:57.781
222.0, -55641.02448714072, -46590.57963974233, -36882.14413906862, -61006.113708748075, -55282.1001746774, -80393.1227795032, -62392.3241963773, -69729.03844464284, 0.374, -0.902, 0.242, 192.0, 0.0, 0.0, 0.0, 0.0, 0.0, 0.0, 0.0, 0.0, 0.0, 1.663502637785112E9, 0.0, 2022-09-18 17:03:57.785
223.0, -63667.5806245304, -52592.090081225644, -36530.730012742286, -60608.4538231437, -55007.10666264375, -79959.20836439233, -62039.725427594836, -69339.60400099802, 0.374, -0.902, 0.242, 192.0, 0.0, 0.0, 0.0, 0.0, 0.0, 0.0, 0.0, 0.0, 0.0, 1.663502637790194E9, 0.0, 2022-09-18 17:03:57.790
224.0, -65418.66098864806, -52828.3703718627, -36568.10212947156, -60692.74225148467, -54967.007633090936, -80069.69303723492, -62094.174277087965, -69429.636827664, 0.374, -0.902, 0.242, 192.0, 0.0, 0.0, 0.0, 0.0, 0.0, 0.0, 0.0, 0.0, 0.0, 1.663502637794109E9, 0.0, 2022-09-18 17:03:57.794
225.0, -62286.24281719242, -50078.234085826174, -36733.43798320746, -60893.43856494887, -55103.889716135236, -80300.34068826922, -62262.66172679207, -69622.75589975786, 0.374, -0.902, 0.242, 192.0, 0.0, 0.0, 0.0, 0.0, 0.0, 0.0, 0.0, 0.0, 0.0, 1.6635026377971509E9, 0.0, 2022-09-18 17:03:57.797
226.0, -55914.319266595754, -45714.41360883875, -36975.41796868062, -61169.281443271815, -55267.45978205917, -80600.09993315935, -62508.19563963362, -69889.59102506531, 0.374, -0.902, 0.242, 192.0, 0.0, 0.0, 0.0, 0.0, 0.0, 0.0, 0.0, 0.0, 0.0, 1.6635026378011672E9, 0.0, 2022-09-18 17:03:57.801
227.0, -55753.36435477309, -46690.31312350192, -36855.25499048889, -60980.85623751357, -55261.245997100596, -80367.19475593505, -62372.34173683426, -69702.9539588635, 0.374, -0.902, 0.242, 192.0, 0.0, 0.0, 0.0, 0.0, 0.0, 0.0, 0.0, 0.0, 0.0, 1.6635026378052003E9, 0.0, 2022-09-18 17:03:57.805
228.0, -63782.58034975295, -52652.95388137745, -36515.26260557921, -60597.45676487169, -54991.54984850286, -79945.12676538549, -62032.6399246025, -69329.23279157076, 0.374, -0.902, 0.242, 192.0, 0.0, 0.0, 0.0, 0.0, 0.0, 0.0, 0.0, 0.0, 0.0, 1.6635026378092194E9, 0.0, 2022-09-18 17:03:57.809
229.0, -65394.69991859197, -52794.61923773518, -36568.817385294125, -60693.5245625406, -54969.35456625874, -80065.66972323296, -62100.38806204654, -69423.66891189443, 0.374, -0.902, 0.242, 192.0, 0.0, 0.0, 0.0, 0.0, 0.0, 0.0, 0.0, 0.0, 0.0, 1.6635026378132048E9, 0.0, 2022-09-18 17:03:57.813
230.0, -62193.32661549171, -50003.33339015644, -36743.33980600117, -60897.126602783996, -55105.901373136214, -80301.68179293655, -62274.84342752021, -69625.14753641457, 0.368, -0.9, 0.23800000000000002, 192.0, 11.0, 128.0, 227.0, 224.0, 7.0, 112.0, 0.0, 0.0, 0.0, 1.6635026378182364E9, 0.0, 2022-09-18 17:03:57.818
231.0, -55803.05228269724, -45638.03769803497, -36989.83484385429, -61177.14925732008, -55277.2945496195, -80604.61498553932, -62522.6572182962, -69900.25280717049, 0.368, -0.9, 0.23800000000000002, 192.0, 0.0, 0.0, 0.0, 0.0, 0.0, 0.0, 0.0, 0.0, 0.0, 1.6635026378221347E9, 0.0, 2022-09-18 17:03:57.822
232.0, -55906.83143220323, -46810.4984534381, -36860.95468532499, -60980.20803692437, -55268.89029370431, -80359.88573549816, -62377.61674852571, -69702.12694431865, 0.368, -0.9, 0.23800000000000002, 192.0, 0.0, 0.0, 0.0, 0.0, 0.0, 0.0, 0.0, 0.0, 0.0, 1.6635026378252451E9, 0.0, 2022-09-18 17:03:57.825
233.0, -63929.65482826887, -52737.95756554098, -36525.812628962114, -60603.04470098552, -55001.541078274386, -79946.28905609716, -62043.39111368551, -69332.45144277233, 0.368, -0.9, 0.23800000000000002, 192.0, 0.0, 0.0, 0.0, 0.0, 0.0, 0.0, 0.0, 0.0, 0.0, 1.663502637829266E9, 0.0, 2022-09-18 17:03:57.829
234.0, -65354.73499950588, -52741.15386499809, -36586.11763550254, -60708.41082434784, -54983.52557224341, -80077.98553442783, -62115.38608257605, -69438.06343532365, 0.368, -0.9, 0.23800000000000002, 192.0, 0.0, 0.0, 0.0, 0.0, 0.0, 0.0, 0.0, 0.0, 0.0, 1.6635026378332253E9, 0.0, 2022-09-18 17:03:57.833
235.0, -62079.17625655845, -49914.06052280194, -36760.05891085374, -60915.14210881497, -55127.82843444687, -80318.11032511119, -62288.36623291567, -69641.6878273115, 0.368, -0.9, 0.23800000000000002, 192.0, 0.0, 0.0, 0.0, 0.0, 0.0, 0.0, 0.0, 0.0, 0.0, 1.6635026378371725E9, 0.0, 2022-09-18 17:03:57.837
236.0, -55664.09148741859, -45549.54714173641, -37005.45871322855, -61192.72842320543, -55297.99226498512, -80616.528465334, -62533.90014575722, -69917.46365040109, 0.368, -0.9, 0.23800000000000002, 192.0, 0.0, 0.0, 0.0, 0.0, 0.0, 0.0, 0.0, 0.0, 0.0, 1.663502637841292E9, 0.0, 2022-09-18 17:03:57.841
237.0, -56039.62314601221, -46922.458341414735, -36870.118900551664, -60982.95730149237, -55285.58704681243, -80359.70692154251, -62379.896626460155, -69705.01031935339, 0.368, -0.9, 0.23800000000000002, 192.0, 0.0, 0.0, 0.0, 0.0, 0.0, 0.0, 0.0, 0.0, 0.0, 1.6635026378461907E9, 0.0, 2022-09-18 17:03:57.846
238.0, -64060.34547809905, -52810.24310710945, -36540.11774541351, -60610.46548014468, -55018.90838371615, -79958.35899810302, -62050.543671911204, -69334.79837594014, 0.368, -0.9, 0.23800000000000002, 192.0, 0.0, 0.0, 0.0, 0.0, 0.0, 0.0, 0.0, 0.0, 0.0, 1.6635026378502135E9, 0.0, 2022-09-18 17:03:57.850
239.0, -65329.65634222703, -52702.19477441249, -36603.641403155496, -60723.833528022, -55004.22328760902, -80097.18568291493, -62130.20528914992, -69448.9934383623, 0.368, -0.9, 0.23800000000000002, 192.0, 0.0, 0.0, 0.0, 0.0, 0.0, 0.0, 0.0, 0.0, 0.0, 1.6635026378532586E9, 0.0, 2022-09-18 17:03:57.853
240.0, -61987.1317728915, -49847.117048158296, -36775.36985580562, -60930.38599853349, -55143.362896843304, -80336.68462475356, -62304.727709856954, -69660.93267928752, 0.37, -0.902, 0.246, 192.0, 11.0, 144.0, 227.0, 208.0, 7.0, 176.0, 0.0, 0.0, 0.0, 1.6635026378572314E9, 0.0, 2022-09-18 17:03:57.857
241.0, -55561.496980368735, -45493.4889666425, -37015.42759125562, -61197.01995814085, -55309.190488957225, -80629.91716026273, -62546.81945405239, -69920.48113590255, 0.37, -0.902, 0.246, 192.0, 0.0, 0.0, 0.0, 0.0, 0.0, 0.0, 0.0, 0.0, 0.0, 1.663502637861256E9, 0.0, 2022-09-18 17:03:57.861
242.0, -56191.525601330475, -47049.72917434325, -36858.78656611282, -60962.77367624923, -55275.75227925209, -80351.57088656079, -62375.068649657806, -69682.0997812867, 0.37, -0.902, 0.246, 192.0, 0.0, 0.0, 0.0, 0.0, 0.0, 0.0, 0.0, 0.0, 0.0, 1.6635026378652952E9, 0.0, 2022-09-18 17:03:57.865
243.0, -64184.688232503926, -52881.2322474995, -36528.71835574131, -60600.764823051075, -55005.81026146535, -79956.10147191305, -62046.922689309446, -69327.53405899215, 0.37, -0.902, 0.246, 192.0, 0.0, 0.0, 0.0, 0.0, 0.0, 0.0, 0.0, 0.0, 0.0, 1.6635026378692684E9, 0.0, 2022-09-18 17:03:57.869
244.0, -65302.163696547, -52664.68854721649, -36596.086513529604, -60717.038597707586, -54997.16013636114, -80098.77265677127, -62127.590135048646, -69444.12075807105, 0.37, -0.902, 0.246, 192.0, 0.0, 0.0, 0.0, 0.0, 0.0, 0.0, 0.0, 0.0, 0.0, 1.6635026378742626E9, 0.0, 2022-09-18 17:03:57.874
245.0, -61893.187390945845, -49772.462221677575, -36771.79357669277, -60924.01575136373, -55137.998478174035, -80340.55147654432, -62303.90069531211, -69652.99781000588, 0.37, -0.902, 0.246, 192.0, 0.0, 0.0, 0.0, 0.0, 0.0, 0.0, 0.0, 0.0, 0.0, 1.6635026378773868E9, 0.0, 2022-09-18 17:03:57.877
246.0, -55463.6410431434, -45434.592120002766, -37015.338184277796, -61196.93055116303, -55310.93392502474, -80633.11345971984, -62547.825282552876, -69920.74935683601, 0.37, -0.902, 0.246, 192.0, 0.0, 0.0, 0.0, 0.0, 0.0, 0.0, 0.0, 0.0, 0.0, 1.663502637880287E9, 0.0, 2022-09-18 17:03:57.880
247.0, -56358.046097522514, -47189.00289404427, -36852.639836387614, -60955.03997266769, -55279.84264848741, -80343.36779634569, -62367.46905654301, -69670.67803987004, 0.37, -0.902, 0.246, 192.0, 0.0, 0.0, 0.0, 0.0, 0.0, 0.0, 0.0, 0.0, 0.0, 1.663502637885266E9, 0.0, 2022-09-18 17:03:57.885
248.0, -64323.04553068228, -52964.17957117315, -36531.75819298723, -60602.172982951764, -55013.43220632461, -79959.18601264787, -62049.80606434418, -69328.38342528146, 0.37, -0.902, 0.246, 192.0, 0.0, 0.0, 0.0, 0.0, 0.0, 0.0, 0.0, 0.0, 0.0, 1.6635026378892632E9, 0.0, 2022-09-18 17:03:57.889
249.0, -65288.17150451798, -52637.978212592396, -36606.32361249013, -60727.34275190148, -55012.918116202134, -80107.42278187547, -62138.7660072763, -69450.64746745198, 0.37, -0.902, 0.246, 192.0, 0.0, 0.0, 0.0, 0.0, 0.0, 0.0, 0.0, 0.0, 0.0, 1.6635026378933291E9, 0.0, 2022-09-18 17:03:57.893
250.0, -61810.59769518348, -49717.588689039796, -36783.21531810943, -60938.58908874859, -55154.9187487267, -80349.3133603708, -62316.37296871817, -69658.96572577546, 0.374, -0.896, 0.244, 192.0, 11.0, 176.0, 228.0, 0.0, 7.0, 160.0, 0.0, 0.0, 0.0, 1.6635026378973653E9, 0.0, 2022-09-18 17:03:57.897
251.0, -55375.30694905603, -45395.40951197261, -37019.875588402225, -61206.98883616792, -55324.009695531095, -80636.82384929941, -62554.68726810066, -69926.8066795834, 0.374, -0.896, 0.244, 192.0, 0.0, 0.0, 0.0, 0.0, 0.0, 0.0, 0.0, 0.0, 0.0, 1.6635026379023814E9, 0.0, 2022-09-18 17:03:57.902
252.0, -56520.453872734775, -47328.61188991212, -36839.720528092446, -60947.0827516416, -55279.7979449985, -80330.58259851726, -62358.95304190553, -69662.94433628849, 0.374, -0.896, 0.244, 192.0, 0.0, 0.0, 0.0, 0.0, 0.0, 0.0, 0.0, 0.0, 0.0, 1.6635026379053876E9, 0.0, 2022-09-18 17:03:57.905
253.0, -64434.02194190287, -53025.468054469595, -36519.64354749245, -60596.31682590447, -55007.464290555035, -79955.3191608571, -62044.128721252535, -69318.48160248777, 0.374, -0.896, 0.244, 192.0, 0.0, 0.0, 0.0, 0.0, 0.0, 0.0, 0.0, 0.0, 0.0, 1.6635026379084215E9, 0.0, 2022-09-18 17:03:57.908
254.0, -65233.43208234693, -52576.62267406257, -36598.47815018632, -60722.693589054776, -55006.86079345475, -80108.6074243316, -62136.37437061958, -69444.67955168242, 0.374, -0.896, 0.244, 192.0, 0.0, 0.0, 0.0, 0.0, 0.0, 0.0, 0.0, 0.0, 0.0, 1.6635026379134483E9, 0.0, 2022-09-18 17:03:57.913
255.0, -61674.76614412858, -49613.78718778935, -36775.32515231671, -60932.79998693467, -55144.413428832704, -80349.02278769288, -62314.40601520611, -69654.11539722866, 0.374, -0.896, 0.244, 192.0, 0.0, 0.0, 0.0, 0.0, 0.0, 0.0, 0.0, 0.0, 0.0, 1.663502637917369E9, 0.0, 2022-09-18 17:03:57.917
0.0, -55243.833988169914, -45315.43497031152, -37010.733724920006, -61195.902370918084, -55310.531593624546, -80632.06292773044, -62552.13916923275, -69916.7483945785, 0.374, -0.896, 0.244, 192.0, 0.0, 0.0, 0.0, 0.0, 0.0, 0.0, 0.0, 0.0, 0.0, 1.6635026379213092E9, 0.0, 2022-09-18 17:03:57.921
1.0, -56658.34178427956, -47442.85165582319, -36823.068478473244, -60928.7319694438, -55259.23434009962, -80314.89167390963, -62346.30195454383, -69650.85204253817, 0.374, -0.896, 0.244, 192.0, 0.0, 0.0, 0.0, 0.0, 0.0, 0.0, 0.0, 0.0, 0.0, 1.6635026379253893E9, 0.0, 2022-09-18 17:03:57.925
2.0, -64530.87205062772, -53077.45821207264, -36511.39575378844, -60590.17009617926, -54991.683958969596, -79949.50770729873, -62038.42902641643, -69318.88393388796, 0.374, -0.896, 0.244, 192.0, 0.0, 0.0, 0.0, 0.0, 0.0, 0.0, 0.0, 0.0, 0.0, 1.6635026379293857E9, 0.0, 2022-09-18 17:03:57.929
3.0, -65183.76650616724, -52532.76855144126, -36594.276022228725, -60723.319437899525, -54999.17179336212, -80109.18856968744, -62133.7145130294, -69451.83210990812, 0.374, -0.896, 0.244, 192.0, 0.0, 0.0, 0.0, 0.0, 0.0, 0.0, 0.0, 0.0, 0.0, 1.663502637933406E9, 0.0, 2022-09-18 17:03:57.933
4.0, -61554.670221170214, -49535.57843394023, -36771.88298367059, -60936.420969536426, -55141.93238519817, -80356.2200494075, -62311.07560528226, -69668.46521716895, 0.374, -0.896, 0.24, 192.0, 11.0, 176.0, 228.0, 0.0, 7.0, 128.0, 0.0, 0.0, 0.0, 1.6635026379363863E9, 0.0, 2022-09-18 17:03:57.936
5.0, -55134.288088594454, -45261.00847256285, -37008.23032954101, -61198.20460059698, -55315.560736126994, -80637.40499465525, -62547.02061975248, -69927.92426680616, 0.374, -0.896, 0.24, 192.0, 0.0, 0.0, 0.0, 0.0, 0.0, 0.0, 0.0, 0.0, 0.0, 1.6635026379413807E9, 0.0, 2022-09-18 17:03:57.941
6.0, -56812.63587625455, -47571.75416609695, -36813.5913388242, -60916.01382684873, -55259.12258137734, -80306.73328718344, -62335.72957941647, -69630.17667891702, 0.374, -0.896, 0.24, 192.0, 0.0, 0.0, 0.0, 0.0, 0.0, 0.0, 0.0, 0.0, 0.0, 1.6635026379453592E9, 0.0, 2022-09-18 17:03:57.945
7.0, -64629.867926820276, -53127.392009185794, -36513.586224745064, -60590.52772409055, -54998.814165450836, -79955.40856783492, -62039.770131083744, -69313.18423905186, 0.374, -0.896, 0.24, 192.0, 0.0, 0.0, 0.0, 0.0, 0.0, 0.0, 0.0, 0.0, 0.0, 1.6635026379494257E9, 0.0, 2022-09-18 17:03:57.949
8.0, -65139.06301725662, -52480.26430371575, -36604.15549327797, -60730.382589147404, -55015.39915983667, -80122.35374717161, -62144.242184667855, -69455.52014774324, 0.374, -0.896, 0.24, 192.0, 0.0, 0.0, 0.0, 0.0, 0.0, 0.0, 0.0, 0.0, 0.0, 1.6635026379533875E9, 0.0, 2022-09-18 17:03:57.953
9.0, -61442.79974017141, -49449.30070034274, -36787.03746641129, -60949.04970515367, -55158.38326911727, -80372.53682285987, -62329.13581480215, -69674.45548468299, 0.374, -0.896, 0.24, 192.0, 0.0, 0.0, 0.0, 0.0, 0.0, 0.0, 0.0, 0.0, 0.0, 1.6635026379574156E9, 0.0, 2022-09-18 17:03:57.957
10.0, -55037.1921106806, -45215.9250039965, -37017.66276570115, -61205.93830417852, -55323.115625752886, -80643.61877961383, -62560.00698328102, -69925.24205747152, 0.374, -0.896, 0.24, 192.0, 0.0, 0.0, 0.0, 0.0, 0.0, 0.0, 0.0, 0.0, 0.0, 1.6635026379614308E9, 0.0, 2022-09-18 17:03:57.961
11.0, -56974.08252645523, -47720.79559812494, -36809.97035622244, -60915.16446055943, -55258.92141567724, -80301.36886851417, -62335.68487592756, -69634.28939989679, 0.374, -0.896, 0.24, 192.0, 0.0, 0.0, 0.0, 0.0, 0.0, 0.0, 0.0, 0.0, 0.0, 1.6635026379645107E9, 0.0, 2022-09-18 17:03:57.964
12.0, -64735.546974604964, -53196.749472230615, -36520.2693963372, -60603.46938413017, -55006.41375856564, -79964.52807957269, -62050.14134051101, -69327.7128729478, 0.374, -0.896, 0.24, 192.0, 0.0, 0.0, 0.0, 0.0, 0.0, 0.0, 0.0, 0.0, 0.0, 1.6635026379694347E9, 0.0, 2022-09-18 17:03:57.969
13.0, -65102.517915072196, -52453.46456211383, -36617.544188206695, -60749.761551590156, -55032.61000306726, -80137.61998863459, -62157.76499006331, -69474.38502006352, 0.374, -0.896, 0.24, 192.0, 0.0, 0.0, 0.0, 0.0, 0.0, 0.0, 0.0, 0.0, 0.0, 1.6635026379735227E9, 0.0, 2022-09-18 17:03:57.973
14.0, -61330.81750045032, -49379.65266462001, -36798.548614805775, -60966.461714084355, -55176.4211268927, -80389.1218172457, -62340.69166668555, -69690.951072091, 0.376, -0.896, 0.23600000000000002, 192.0, 11.0, 192.0, 228.0, 0.0, 7.0, 96.0, 0.0, 0.0, 0.0, 1.6635026379775383E9, 0.0, 2022-09-18 17:03:57.977
15.0, -54948.63449914867, -45177.390596555546, -37024.01066112646, -61217.225935128445, -55341.44405620624, -80653.94528555218, -62566.91367231771, -69935.52385992097, 0.376, -0.896, 0.23600000000000002, 192.0, 0.0, 0.0, 0.0, 0.0, 0.0, 0.0, 0.0, 0.0, 0.0, 1.663502637981596E9, 0.0, 2022-09-18 17:03:57.981
16.0, -57149.5884239183, -47869.25588479709, -36807.37755386562, -60915.29857102616, -55271.34898559439, -80300.07246733576, -62332.75679740391, -69633.52944058532, 0.376, -0.896, 0.23600000000000002, 192.0, 0.0, 0.0, 0.0, 0.0, 0.0, 0.0, 0.0, 0.0, 0.0, 1.6635026379854255E9, 0.0, 2022-09-18 17:03:57.985
17.0, -64829.69252225072, -53250.77363857909, -36519.44238179235, -60609.10202373291, -55014.683904014106, -79971.56887907612, -62050.25309923328, -69337.43588178586, 0.376, -0.896, 0.23600000000000002, 192.0, 0.0, 0.0, 0.0, 0.0, 0.0, 0.0, 0.0, 0.0, 0.0, 1.6635026379894872E9, 0.0, 2022-09-18 17:03:57.989
18.0, -65050.88538538044, -52405.3189045571, -36618.326499262635, -60752.28729871361, -55040.969555493546, -80143.45379393743, -62162.749429076845, -69476.86606369806, 0.376, -0.896, 0.23600000000000002, 192.0, 0.0, 0.0, 0.0, 0.0, 0.0, 0.0, 0.0, 0.0, 0.0, 1.6635026379924643E9, 0.0, 2022-09-18 17:03:57.992
19.0, -61201.53501052082, -49293.352579278064, -36799.71090551745, -60968.65218504098, -55180.355033916836, -80393.48040741449, -62345.02790510988, -69690.63814766862, 0.376, -0.896, 0.23600000000000002, 192.0, 0.0, 0.0, 0.0, 0.0, 0.0, 0.0, 0.0, 0.0, 0.0, 1.663502637997544E9, 0.0, 2022-09-18 17:03:57.997
20.0, -54855.964166636964, -45134.29643324571, -37022.669556459135, -61213.91787694906, -55344.10391379642, -80654.83935533039, -62568.70181187413, -69935.18858375413, 0.376, -0.896, 0.23600000000000002, 192.0, 0.0, 0.0, 0.0, 0.0, 0.0, 0.0, 0.0, 0.0, 0.0, 1.6635026380015616E9, 0.0, 2022-09-18 17:03:58.001
21.0, -57323.44029229168, -48002.293467795076, -36792.401885080566, -60898.15478302894, -55263.72704073513, -80288.2483945189, -62323.90550659961, -69622.84530673567, 0.376, -0.896, 0.23600000000000002, 192.0, 0.0, 0.0, 0.0, 0.0, 0.0, 0.0, 0.0, 0.0, 0.0, 1.6635026380055213E9, 0.0, 2022-09-18 17:03:58.005
22.0, -64923.92747687429, -53289.39745299786, -36510.14405609895, -60597.054433471494, -55006.92784868811, -79968.93137323039, -62047.66029687647, -69323.60015196803, 0.376, -0.896, 0.23600000000000002, 192.0, 0.0, 0.0, 0.0, 0.0, 0.0, 0.0, 0.0, 0.0, 0.0, 1.6635026380095997E9, 0.0, 2022-09-18 17:03:58.009
23.0, -65011.85923956147, -52353.3063952096, -36613.431467226925, -60747.369914933435, -55037.77325603644, -80148.57234341769, -62161.31891743171, -69474.92146193045, 0.376, -0.896, 0.23600000000000002, 192.0, 0.0, 0.0, 0.0, 0.0, 0.0, 0.0, 0.0, 0.0, 0.0, 1.6635026380135791E9, 0.0, 2022-09-18 17:03:58.013
24.0, -61093.26316037931, -49201.64337177794, -36799.107408417156, -60967.53459781821, -55177.29284492646, -80403.225767997, -62345.966678377, -69692.42628722504, 0.38, -0.904, 0.23600000000000002, 192.0, 11.0, 224.0, 227.0, 192.0, 7.0, 96.0, 0.0, 0.0, 0.0, 1.663502638017584E9, 0.0, 2022-09-18 17:03:58.017
25.0, -54776.615473820624, -45085.793147777695, -37017.908634890155, -61204.46308904447, -55341.10878003941, -80655.46520417514, -62562.53273040447, -69924.99618828252, 0.38, -0.904, 0.23600000000000002, 192.0, 0.0, 0.0, 0.0, 0.0, 0.0, 0.0, 0.0, 0.0, 0.0, 1.6635026380206723E9, 0.0, 2022-09-18 17:03:58.020
26.0, -57493.49236410765, -48132.313565291595, -36779.728445974404, -60876.25007346274, -55253.10996211886, -80276.51372867987, -62306.985236046945, -69598.43720179048, 0.38, -0.904, 0.23600000000000002, 192.0, 0.0, 0.0, 0.0, 0.0, 0.0, 0.0, 0.0, 0.0, 0.0, 1.663502638024592E9, 0.0, 2022-09-18 17:03:58.024
27.0, -65010.38402442742, -53325.16024412635, -36510.94871889934, -60591.75707003559, -55001.98811316349, -79971.50182384274, -62044.66516311946, -69317.27460828717, 0.38, -0.904, 0.23600000000000002, 192.0, 0.0, 0.0, 0.0, 0.0, 0.0, 0.0, 0.0, 0.0, 0.0, 1.6635026380295577E9, 0.0, 2022-09-18 17:03:58.029
28.0, -64968.496855318175, -52303.3949498409, -36619.801714396686, -60747.61578412245, -55039.47198861504, -80149.8687445961, -62163.08470524367, -69468.81943569415, 0.38, -0.904, 0.23600000000000002, 192.0, 0.0, 0.0, 0.0, 0.0, 0.0, 0.0, 0.0, 0.0, 0.0, 1.6635026380335853E9, 0.0, 2022-09-18 17:03:58.033
29.0, -60975.73768803331, -49112.28109744562, -36801.76726600734, -60977.07879270063, -55184.31129268543, -80412.07705880131, -62345.430236510074, -69706.08320308724, 0.38, -0.904, 0.23600000000000002, 192.0, 0.0, 0.0, 0.0, 0.0, 0.0, 0.0, 0.0, 0.0, 0.0, 1.6635026380376236E9, 0.0, 2022-09-18 17:03:58.037
30.0, -54704.19582178543, -45050.03035664921, -37016.74634417848, -61216.48832756142, -55351.39058248885, -80668.49627119259, -62558.71058210261, -69939.81539485638, 0.38, -0.904, 0.23600000000000002, 192.0, 0.0, 0.0, 0.0, 0.0, 0.0, 0.0, 0.0, 0.0, 0.0, 1.6635026380416481E9, 0.0, 2022-09-18 17:03:58.041
31.0, -57674.04975581763, -48276.7952414507, -36774.52048951632, -60880.76512584271, -55258.854360443875, -80280.35822872618, -62298.22335222046, -69600.60532100264, 0.38, -0.904, 0.23600000000000002, 192.0, 0.0, 0.0, 0.0, 0.0, 0.0, 0.0, 0.0, 0.0, 0.0, 1.6635026380456548E9, 0.0, 2022-09-18 17:03:58.045
32.0, -65097.30995861411, -53368.34381441401, -36510.99342238825, -60604.206991697196, -55008.246601610976, -79989.04794324016, -62041.22299447334, -69327.7575764367, 0.38, -0.904, 0.23600000000000002, 192.0, 0.0, 0.0, 0.0, 0.0, 0.0, 0.0, 0.0, 0.0, 0.0, 1.6635026380486143E9, 0.0, 2022-09-18 17:03:58.048
33.0, -64924.55332571904, -52260.948987120275, -36622.48392373132, -60766.83828435401, -55052.81598005486, -80184.46924501291, -62161.94476627646, -69497.63083429704, 0.38, -0.904, 0.23600000000000002, 192.0, 0.0, 0.0, 0.0, 0.0, 0.0, 0.0, 0.0, 0.0, 0.0, 1.6635026380526671E9, 0.0, 2022-09-18 17:03:58.052
34.0, -60857.5640150981, -49028.01502084912, -36816.027678969826, -60999.02820575574, -55203.153813261255, -80445.80584118437, -62356.80727443782, -69729.53018302086, 0.38, -0.904, 0.23600000000000002, 192.0, 0.0, 0.0, 0.0, 0.0, 0.0, 0.0, 0.0, 0.0, 0.0, 1.663502638056697E9, 0.0, 2022-09-18 17:03:58.056
35.0, -54638.61580355356, -45022.29184178017, -37024.43534427111, -61228.06653118927, -55366.20978906272, -80681.32617250993, -62565.013774039006, -69956.08746481985, 0.382, -0.904, 0.224, 192.0, 11.0, 240.0, 227.0, 192.0, 7.0, 0.0, 0.0, 0.0, 0.0, 1.663502638061685E9, 0.0, 2022-09-18 17:03:58.061
36.0, -57868.152304667514, -48432.92217647102, -36765.959771389935, -60886.062489278615, -55264.82227621345, -80286.97434508495, -62291.674291095056, -69616.51976305482, 0.382, -0.904, 0.224, 192.0, 0.0, 0.0, 0.0, 0.0, 0.0, 0.0, 0.0, 0.0, 0.0, 1.6635026380656605E9, 0.0, 2022-09-18 17:03:58.065
37.0, -65192.2378173158, -53419.19403304983, -36512.71450671131, -60625.865832074385, -55021.456482584064, -80008.49396091628, -62047.9955730433, -69362.80511174264, 0.382, -0.904, 0.224, 192.0, 0.0, 0.0, 0.0, 0.0, 0.0, 0.0, 0.0, 0.0, 0.0, 1.6635026380697148E9, 0.0, 2022-09-18 17:03:58.069
38.0, -64895.69722362724, -52227.7789983486, -36630.619958713054, -60788.832400898034, -55071.81496284187, -80201.05423939876, -62176.942786805965, -69529.32560793468, 0.382, -0.904, 0.224, 192.0, 0.0, 0.0, 0.0, 0.0, 0.0, 0.0, 0.0, 0.0, 0.0, 1.663502638072634E9, 0.0, 2022-09-18 17:03:58.072
39.0, -60752.51081615816, -48956.48943859213, -36825.14719070759, -61018.6530373875, -55219.89526985828, -80464.64836176019, -62372.34173683426, -69757.5145670789, 0.382, -0.904, 0.224, 192.0, 0.0, 0.0, 0.0, 0.0, 0.0, 0.0, 0.0, 0.0, 0.0, 1.663502638076697E9, 0.0, 2022-09-18 17:03:58.076
40.0, -54589.352558774066, -45010.24425151876, -37027.60929198376, -61236.64960106011, -55377.787992690566, -80693.06083834897, -62573.127457276285, -69969.20793881512, 0.382, -0.904, 0.224, 192.0, 0.0, 0.0, 0.0, 0.0, 0.0, 0.0, 0.0, 0.0, 0.0, 1.6635026380807023E9, 0.0, 2022-09-18 17:03:58.080
41.0, -58059.080905804745, -48580.37663464268, -36757.868439897116, -60879.20050373084, -55262.81061921247, -80277.38544671363, -62287.76273581538, -69614.97749268741, 0.382, -0.904, 0.224, 192.0, 0.0, 0.0, 0.0, 0.0, 0.0, 0.0, 0.0, 0.0, 0.0, 1.6635026380856564E9, 0.0, 2022-09-18 17:03:58.085
42.0, -65269.41839091998, -53456.744963734745, -36510.32287005459, -60625.95523905221, -55019.020142438436, -80006.90698705995, -62050.543671911204, -69366.8731292335, 0.382, -0.904, 0.224, 192.0, 0.0, 0.0, 0.0, 0.0, 0.0, 0.0, 0.0, 0.0, 0.0, 1.6635026380896611E9, 0.0, 2022-09-18 17:03:58.089
43.0, -64847.86449049288, -52185.48949783915, -36625.791981910705, -60786.75368866369, -55071.0997070193, -80198.23791959738, -62178.64151938457, -69529.68323584595, 0.382, -0.904, 0.224, 192.0, 0.0, 0.0, 0.0, 0.0, 0.0, 0.0, 0.0, 0.0, 0.0, 1.6635026380936947E9, 0.0, 2022-09-18 17:03:58.093
44.0, -60626.849308830424, -48866.74718460407, -36818.77694353783, -61016.41786294197, -55216.58721167889, -80463.26255360396, -62375.0239461689, -69762.58841307026, 0.382, -0.904, 0.224, 192.0, 0.0, 0.0, 0.0, 0.0, 0.0, 0.0, 0.0, 0.0, 0.0, 1.6635026380967596E9, 0.0, 2022-09-18 17:03:58.096
45.0, -54530.634526089976, -44984.159765739416, -37017.86393140125, -61224.93728696553, -55373.74232694416, -80683.22607078863, -62572.635718898266, -69964.3129067794, 0.38, -0.908, 0.232, 192.0, 11.0, 224.0, 227.0, 160.0, 7.0, 64.0, 0.0, 0.0, 0.0, 1.66350263810071E9, 0.0, 2022-09-18 17:03:58.100
46.0, -58247.50611156299, -48723.15957822318, -36747.34076825866, -60860.67090757739, -55257.08857263191, -80268.51180416487, -62284.02999449134, -69603.42164080401, 0.38, -0.908, 0.232, 192.0, 0.0, 0.0, 0.0, 0.0, 0.0, 0.0, 0.0, 0.0, 0.0, 1.6635026381047108E9, 0.0, 2022-09-18 17:03:58.104
47.0, -65338.30646733123, -53471.5194668197, -36513.29565206714, -60621.41783492778, -55022.75288376247, -80017.50171393176, -62058.97027957086, -69373.35513512554, 0.38, -0.908, 0.232, 192.0, 0.0, 0.0, 0.0, 0.0, 0.0, 0.0, 0.0, 0.0, 0.0, 1.6635026381087904E9, 0.0, 2022-09-18 17:03:58.108
48.0, -64799.00357711358, -52123.41870348677, -36638.733641950326, -60790.7993544101, -55085.89656184871, -80216.05225992826, -62192.63371141359, -69541.79788134074, 0.38, -0.908, 0.232, 192.0, 0.0, 0.0, 0.0, 0.0, 0.0, 0.0, 0.0, 0.0, 0.0, 1.66350263811282E9, 0.0, 2022-09-18 17:03:58.112
49.0, -60504.92054282672, -48769.29357877893, -36837.01596701336, -61027.95136308091, -55231.92050837523, -80484.80963525888, -62390.2231323985, -69775.84299753225, 0.38, -0.908, 0.232, 192.0, 0.0, 0.0, 0.0, 0.0, 0.0, 0.0, 0.0, 0.0, 0.0, 1.663502638117731E9, 0.0, 2022-09-18 17:03:58.117
50.0, -54481.885371432945, -44965.764280052696, -37032.57137925284, -61236.42608361556, -55387.86862943991, -80695.0948470944, -62582.80576262543, -69977.67924996368, 0.38, -0.908, 0.232, 192.0, 0.0, 0.0, 0.0, 0.0, 0.0, 0.0, 0.0, 0.0, 0.0, 1.6635026381217587E9, 0.0, 2022-09-18 17:03:58.121
51.0, -58438.65823014477, -48866.16603924824, -36746.49140196936, -60861.810846544606, -55255.18867435321, -80260.66634186106, -62279.8502182782, -69599.89006518008, 0.38, -0.908, 0.232, 192.0, 0.0, 0.0, 0.0, 0.0, 0.0, 0.0, 0.0, 0.0, 0.0, 1.6635026381247833E9, 0.0, 2022-09-18 17:03:58.124
52.0, -65406.03225303081, -53494.96644675332, -36514.90497766793, -60632.25843098861, -55014.885069714204, -80016.71940287584, -62058.165616770464, -69377.71372529432, 0.38, -0.908, 0.232, 192.0, 0.0, 0.0, 0.0, 0.0, 0.0, 0.0, 0.0, 0.0, 0.0, 1.6635026381287816E9, 0.0, 2022-09-18 17:03:58.128
53.0, -64743.37008516432, -52072.9931679956, -36640.92411290695, -60802.64577897141, -55074.00543379849, -80212.02894592631, -62194.22068526992, -69545.77649185377, 0.38, -0.908, 0.232, 192.0, 0.0, 0.0, 0.0, 0.0, 0.0, 0.0, 0.0, 0.0, 0.0, 1.6635026381327832E9, 0.0, 2022-09-18 17:03:58.132
54.0, -60370.40774469468, -48677.09263290079, -36839.787583325815, -61036.51208120729, -55217.99537157958, -80482.46270209107, -62393.955873722545, -69779.77690455639, 0.38, -0.908, 0.232, 192.0, 0.0, 0.0, 0.0, 0.0, 0.0, 0.0, 0.0, 0.0, 0.0, 1.6635026381367934E9, 0.0, 2022-09-18 17:03:58.136
55.0, -54429.53758591862, -44950.676852545366, -37026.17878033862, -61230.45816784599, -55373.00471937713, -80692.23382380413, -62577.15077127824, -69977.54513949694, 0.376, -0.908, 0.232, 192.0, 11.0, 192.0, 227.0, 160.0, 7.0, 64.0, 0.0, 0.0, 0.0, 1.6635026381408331E9, 0.0, 2022-09-18 17:03:58.140
56.0, -58625.85408995797, -49014.84984336494, -36737.237779764866, -60846.85752950401, -55241.08472360191, -80254.85488830268, -62270.66365130707, -69597.20785584544, 0.376, -0.908, 0.232, 192.0, 0.0, 0.0, 0.0, 0.0, 0.0, 0.0, 0.0, 0.0, 0.0, 1.6635026381457963E9, 0.0, 2022-09-18 17:03:58.145
57.0, -65465.264375837374, -53522.97318255582, -36523.242178349756, -60631.47611993267, -55016.71791275954, -80030.48807746031, -62064.893491851515, -69382.51935035222, 0.376, -0.908, 0.232, 192.0, 0.0, 0.0, 0.0, 0.0, 0.0, 0.0, 0.0, 0.0, 0.0, 1.663502638149862E9, 0.0, 2022-09-18 17:03:58.149
58.0, -64688.451849037636, -52028.87082444082, -36653.150517124, -60805.327988306046, -55088.6011229278, -80236.32529214922, -62204.92717086401, -69555.58890766966, 0.376, -0.908, 0.232, 192.0, 0.0, 0.0, 0.0, 0.0, 0.0, 0.0, 0.0, 0.0, 0.0, 1.6635026381528468E9, 0.0, 2022-09-18 17:03:58.152
59.0, -60235.850243073735, -48582.745919554945, -36854.539734666316, -61045.832758645156, -55237.486092744606, -80515.05154550691, -62408.75272855195, -69795.33371869728, 0.376, -0.908, 0.232, 192.0, 0.0, 0.0, 0.0, 0.0, 0.0, 0.0, 0.0, 0.0, 0.0, 1.663502638156856E9, 0.0, 2022-09-18 17:03:58.156
60.0, -54381.88366673991, -44937.19875063882, -37037.71228047756, -61234.5038335924, -55393.367158575915, -80709.31055656797, -62590.13713480677, -69982.12724711029, 0.376, -0.908, 0.232, 192.0, 0.0, 0.0, 0.0, 0.0, 0.0, 0.0, 0.0, 0.0, 0.0, 1.663502638160854E9, 0.0, 2022-09-18 17:03:58.160
61.0, -58812.558211393145, -49161.857266647494, -36736.72368964239, -60841.06842769009, -55251.43358128471, -80264.22026922945, -62275.46927636496, -69593.85509417714, 0.376, -0.908, 0.232, 192.0, 0.0, 0.0, 0.0, 0.0, 0.0, 0.0, 0.0, 0.0, 0.0, 1.663502638164837E9, 0.0, 2022-09-18 17:03:58.164
62.0, -65521.07668174228, -53546.30840376716, -36526.237312106765, -60633.04074204454, -55026.6867907866, -80050.47053700335, -62077.49987572431, -69392.75644931274, 0.376, -0.908, 0.232, 192.0, 0.0, 0.0, 0.0, 0.0, 0.0, 0.0, 0.0, 0.0, 0.0, 1.663502638168858E9, 0.0, 2022-09-18 17:03:58.168
63.0, -64639.81445310289, -51981.55218142893, -36654.55867702469, -60803.428090027344, -55096.468936976074, -80251.47977488993, -62214.53842097979, -69562.78616938427, 0.376, -0.908, 0.232, 192.0, 0.0, 0.0, 0.0, 0.0, 0.0, 0.0, 0.0, 0.0, 0.0, 1.6635026381738856E9, 0.0, 2022-09-18 17:03:58.173
64.0, -60106.56775314424, -48487.728653875434, -36856.283170733834, -61045.542185967235, -55243.141084091796, -80528.1049642688, -62417.291094933884, -69807.31425372533, 0.376, -0.908, 0.232, 192.0, 0.0, 0.0, 0.0, 0.0, 0.0, 0.0, 0.0, 0.0, 0.0, 1.663502638177855E9, 0.0, 2022-09-18 17:03:58.177
65.0, -54350.457114035744, -44935.47766631576, -37030.71618446305, -61222.88092647564, -55395.06589115452, -80711.72454496915, -62586.44909697165, -69982.28370932146, 0.384, -0.902, 0.23600000000000002, 192.0, 12.0, 0.0, 227.0, 208.0, 7.0, 96.0, 0.0, 0.0, 0.0, 1.6635026381808133E9, 0.0, 2022-09-18 17:03:58.180
66.0, -59008.381844566095, -49313.24563184329, -36721.3680412016, -60824.5057850487, -55250.0924766174, -80258.78879532681, -62261.36532561366, -69590.79290518677, 0.384, -0.902, 0.23600000000000002, 192.0, 0.0, 0.0, 0.0, 0.0, 0.0, 0.0, 0.0, 0.0, 0.0, 1.6635026381839573E9, 0.0, 2022-09-18 17:03:58.183
67.0, -65569.40115325466, -53554.824418404634, -36518.50360852523, -60627.18458499725, -55033.45936935656, -80057.57839174014, -62070.14615179851, -69397.1820947149, 0.384, -0.902, 0.23600000000000002, 192.0, 0.0, 0.0, 0.0, 0.0, 0.0, 0.0, 0.0, 0.0, 0.0, 1.663502638188939E9, 0.0, 2022-09-18 17:03:58.188
68.0, -64584.40447859818, -51924.398770856715, -36649.12720312204, -60799.315369047574, -55112.830413917356, -80266.72366460845, -62206.84942088717, -69562.3167827507, 0.384, -0.902, 0.23600000000000002, 192.0, 0.0, 0.0, 0.0, 0.0, 0.0, 0.0, 0.0, 0.0, 0.0, 1.6635026381929424E9, 0.0, 2022-09-18 17:03:58.192
69.0, -59974.468943413376, -48389.492736994354, -36856.506688178386, -61044.335191766644, -55263.3917645683, -80549.58499069036, -62413.53600186539, -69811.09169853828, 0.384, -0.902, 0.23600000000000002, 192.0, 0.0, 0.0, 0.0, 0.0, 0.0, 0.0, 0.0, 0.0, 0.0, 1.6635026381969547E9, 0.0, 2022-09-18 17:03:58.196
70.0, -54321.15397705483, -44933.86834071497, -37027.989271639504, -61212.487365303925, -55411.80734775154, -80721.91694044077, -62578.96126257912, -69976.36049704082, 0.384, -0.902, 0.23600000000000002, 192.0, 0.0, 0.0, 0.0, 0.0, 0.0, 0.0, 0.0, 0.0, 0.0, 1.6635026382010007E9, 0.0, 2022-09-18 17:03:58.201
71.0, -59198.34932069175, -49454.93333994548, -36710.48274165187, -60804.25510457219, -55251.97002315164, -80255.07840574723, -62247.50724405137, -69567.7706083978, 0.384, -0.902, 0.23600000000000002, 192.0, 0.0, 0.0, 0.0, 0.0, 0.0, 0.0, 0.0, 0.0, 0.0, 1.663502638205902E9, 0.0, 2022-09-18 17:03:58.205
72.0, -65619.5361160679, -53565.866180165554, -36515.10614336802, -60623.563602395494, -55029.99484896599, -80062.92045866496, -62063.88766335102, -69389.94012951138, 0.384, -0.902, 0.23600000000000002, 192.0, 0.0, 0.0, 0.0, 0.0, 0.0, 0.0, 0.0, 0.0, 0.0, 1.66350263820897E9, 0.0, 2022-09-18 17:03:58.208
73.0, -64529.30742851585, -51872.05098534239, -36651.69765373441, -60804.769194694665, -55104.26969579097, -80267.5953826422, -62207.96700810993, -69569.2681752763, 0.384, -0.902, 0.23600000000000002, 192.0, 0.0, 0.0, 0.0, 0.0, 0.0, 0.0, 0.0, 0.0, 0.0, 1.6635026382129118E9, 0.0, 2022-09-18 17:03:58.212
74.0, -59844.96293603932, -48298.074102172155, -36864.93329583803, -61056.04750586123, -55252.26059582956, -80549.45088022362, -62423.25901070345, -69816.72433814101, 0.384, -0.902, 0.23600000000000002, 192.0, 0.0, 0.0, 0.0, 0.0, 0.0, 0.0, 0.0, 0.0, 0.0, 1.6635026382169852E9, 0.0, 2022-09-18 17:03:58.216
75.0, -54302.93730532376, -44944.53012282016, -37029.464486773555, -61217.33769385072, -55396.42934756629, -80704.97431814365, -62583.476314959094, -69969.31969753739, 0.38, -0.9, 0.234, 192.0, 11.0, 224.0, 227.0, 224.0, 7.0, 80.0, 0.0, 0.0, 0.0, 1.6635026382209773E9, 0.0, 2022-09-18 17:03:58.220
76.0, -59389.32262531789, -49601.98546671694, -36709.94629978494, -60808.77015695217, -55231.69699093068, -80233.2854549033, -62248.91540395206, -69560.64040191656, 0.38, -0.9, 0.234, 192.0, 0.0, 0.0, 0.0, 0.0, 0.0, 0.0, 0.0, 0.0, 0.0, 1.6635026382249265E9, 0.0, 2022-09-18 17:03:58.224
77.0, -65667.68177362463, -53584.77575597474, -36530.998233675746, -60644.99892532813, -55029.54781407688, -80061.73581620882, -62080.696175181416, -69405.31812969662, 0.38, -0.9, 0.234, 192.0, 0.0, 0.0, 0.0, 0.0, 0.0, 0.0, 0.0, 0.0, 0.0, 1.6635026382289405E9, 0.0, 2022-09-18 17:03:58.228
78.0, -64487.37555591769, -51843.19488325058, -36669.69080802093, -60828.48439556175, -55115.35616104081, -80272.75863561138, -62225.35666529616, -69584.422658017, 0.38, -0.9, 0.234, 192.0, 0.0, 0.0, 0.0, 0.0, 0.0, 0.0, 0.0, 0.0, 0.0, 1.6635026382339268E9, 0.0, 2022-09-18 17:03:58.233
79.0, -59717.53564089962, -48219.88770006749, -36879.68544717854, -61076.87933169358, -55260.262520344564, -80558.36922626129, -62435.70893236506, -69825.21800103402, 0.38, -0.9, 0.234, 192.0, 0.0, 0.0, 0.0, 0.0, 0.0, 0.0, 0.0, 0.0, 0.0, 1.6635026382369356E9, 0.0, 2022-09-18 17:03:58.236
80.0, -54297.058796532016, -44976.09078599105, -37035.07477463183, -61227.440682344524, -55404.72184475921, -80706.87421642235, -62584.70566090413, -69973.79004642845, 0.38, -0.9, 0.234, 192.0, 0.0, 0.0, 0.0, 0.0, 0.0, 0.0, 0.0, 0.0, 0.0, 1.6635026382409084E9, 0.0, 2022-09-18 17:03:58.240
81.0, -59587.1132120029, -49758.64884360419, -36702.704334581416, -60804.7021394613, -55232.79222640899, -80229.6421205571, -62238.72300848043, -69556.34886698113, 0.38, -0.9, 0.234, 192.0, 0.0, 0.0, 0.0, 0.0, 0.0, 0.0, 0.0, 0.0, 0.0, 1.6635026382450287E9, 0.0, 2022-09-18 17:03:58.245
82.0, -65709.25601831151, -53590.78837523322, -36528.22661736329, -60644.06015206101, -55031.13478793321, -80070.94473492441, -62077.410468746486, -69404.22289421831, 0.38, -0.9, 0.234, 192.0, 0.0, 0.0, 0.0, 0.0, 0.0, 0.0, 0.0, 0.0, 0.0, 1.6635026382489407E9, 0.0, 2022-09-18 17:03:58.248
83.0, -64427.27171507737, -51783.64983602164, -36667.90266846451, -60820.66128500239, -55116.13847209674, -80282.92867933854, -62224.0379123733, -69583.28271904978, 0.38, -0.9, 0.234, 192.0, 0.0, 0.0, 0.0, 0.0, 0.0, 0.0, 0.0, 0.0, 0.0, 1.6635026382529604E9, 0.0, 2022-09-18 17:03:58.252
84.0, -59575.691470586244, -48114.342762749526, -36884.5581274698, -61072.81131420271, -55266.25278785858, -80572.38377003476, -62441.52038592344, -69839.38900701869, 0.38, -0.9, 0.234, 192.0, 0.0, 0.0, 0.0, 0.0, 0.0, 0.0, 0.0, 0.0, 0.0, 1.6635026382569864E9, 0.0, 2022-09-18 17:03:58.256
85.0, -54273.12007822038, -44978.16949822539, -37034.71714672055, -61211.12390889215, -55411.002684951156, -80709.95875715719, -62585.01858532651, -69971.48781674956, 0.38, -0.902, 0.234, 192.0, 11.0, 224.0, 227.0, 208.0, 7.0, 80.0, 0.0, 0.0, 0.0, 1.6635026382621121E9, 0.0, 2022-09-18 17:03:58.262
86.0, -59782.623920753475, -49903.175223252205, -36699.59744210213, -60783.870313628955, -55234.960345621155, -80228.94921647897, -62234.342066567195, -69543.74248310835, 0.38, -0.902, 0.234, 192.0, 0.0, 0.0, 0.0, 0.0, 0.0, 0.0, 0.0, 0.0, 0.0, 1.6635026382650375E9, 0.0, 2022-09-18 17:03:58.265
87.0, -65744.83999548436, -53587.681482753935, -36535.066251166616, -60636.840538601944, -55035.96276473555, -80081.6959240074, -62084.02658510525, -69403.26176920674, 0.38, -0.902, 0.234, 192.0, 0.0, 0.0, 0.0, 0.0, 0.0, 0.0, 0.0, 0.0, 0.0, 1.6635026382690485E9, 0.0, 2022-09-18 17:03:58.269
88.0, -64357.24369969889, -51715.38760845514, -36674.54113656773, -60819.856622201994, -55125.72737046807, -80296.54089171182, -62231.056360132265, -69586.0766871067, 0.38, -0.902, 0.234, 192.0, 0.0, 0.0, 0.0, 0.0, 0.0, 0.0, 0.0, 0.0, 0.0, 1.6635026382730885E9, 0.0, 2022-09-18 17:03:58.273
89.0, -59432.930878750194, -48009.40132253186, -36894.392895030134, -61080.634424762065, -55279.68618627622, -80590.95806967713, -62450.66224940566, -69847.72620770051, 0.38, -0.902, 0.234, 192.0, 0.0, 0.0, 0.0, 0.0, 0.0, 0.0, 0.0, 0.0, 0.0, 1.663502638277042E9, 0.0, 2022-09-18 17:03:58.277
90.0, -54263.59823508242, -44994.88860307796, -37035.00771939847, -61212.621475770655, -55420.74804553367, -80714.83143744845, -62584.25862601503, -69978.52861625298, 0.38, -0.902, 0.234, 192.0, 0.0, 0.0, 0.0, 0.0, 0.0, 0.0, 0.0, 0.0, 0.0, 1.6635026382810032E9, 0.0, 2022-09-18 17:03:58.281
91.0, -59973.7089841019, -50046.986347077655, -36692.73545655435, -60779.35526124898, -55240.59298522389, -80228.72569903442, -62227.52478450833, -69549.39747445553, 0.38, -0.902, 0.234, 192.0, 0.0, 0.0, 0.0, 0.0, 0.0, 0.0, 0.0, 0.0, 0.0, 1.663502638285061E9, 0.0, 2022-09-18 17:03:58.285
92.0, -65774.97014701011, -53585.22279086385, -36538.66488202392, -60644.52953869457, -55048.926776519635, -80094.27995613575, -62087.51345724028, -69419.22091474783, 0.38, -0.902, 0.234, 192.0, 0.0, 0.0, 0.0, 0.0, 0.0, 0.0, 0.0, 0.0, 0.0, 1.6635026382890468E9, 0.0, 2022-09-18 17:03:58.289
93.0, -64296.44695478046, -51660.73759326191, -36683.66064830549, -60834.42995958686, -55144.74870499953, -80309.54960698482, -62240.33233408122, -69608.33902458419, 0.38, -0.902, 0.234, 192.0, 0.0, 0.0, 0.0, 0.0, 0.0, 0.0, 0.0, 0.0, 0.0, 1.6635026382920172E9, 0.0, 2022-09-18 17:03:58.292
94.0, -59292.67368229314, -47914.00407719661, -36901.098418366724, -61096.75003251434, -55294.237171916626, -80599.13880814778, -62459.60294718778, -69863.41713230814, 0.38, -0.902, 0.234, 192.0, 0.0, 0.0, 0.0, 0.0, 0.0, 0.0, 0.0, 0.0, 0.0, 1.6635026382960649E9, 0.0, 2022-09-18 17:03:58.296
95.0, -54265.095801960924, -45025.84576914857, -37031.49849551899, -61215.840126972216, -55423.854938012955, -80705.8013326885, -62584.86212311532, -69968.96206962611, 0.388, -0.904, 0.234, 192.0, 12.0, 32.0, 227.0, 192.0, 7.0, 80.0, 0.0, 0.0, 0.0, 1.6635026383011208E9, 0.0, 2022-09-18 17:03:58.301
96.0, -60165.3528410617, -50191.37861625894, -36684.241793661335, -60779.042336826606, -55226.60079319487, -80209.8831784586, -62226.295438563284, -69532.94659053643, 0.388, -0.904, 0.234, 192.0, 0.0, 0.0, 0.0, 0.0, 0.0, 0.0, 0.0, 0.0, 0.0, 1.6635026383050938E9, 0.0, 2022-09-18 17:03:58.305
97.0, -65812.36461548384, -53584.44047980791, -36539.49189656877, -60656.37596325588, -55036.29804090239, -80087.61913628806, -62097.99642538982, -69415.10819376806, 0.388, -0.904, 0.234, 192.0, 0.0, 0.0, 0.0, 0.0, 0.0, 0.0, 0.0, 0.0, 0.0, 1.6635026383090937E9, 0.0, 2022-09-18 17:03:58.309
98.0, -64251.34113446965, -51608.479214725405, -36689.09212220814, -60843.97415446927, -55136.54561478444, -80306.24154880542, -62253.139883654105, -69603.04166114828, 0.388, -0.904, 0.234, 192.0, 0.0, 0.0, 0.0, 0.0, 0.0, 0.0, 0.0, 0.0, 0.0, 1.6635026383131075E9, 0.0, 2022-09-18 17:03:58.313
99.0, -59165.0675731978, -47816.394009160285, -36914.28594759535, -61108.7752710313, -55292.4490323602, -80602.78214249399, -62479.026613119444, -69869.36269633326, 0.388, -0.904, 0.234, 192.0, 0.0, 0.0, 0.0, 0.0, 0.0, 0.0, 0.0, 0.0, 0.0, 1.6635026383161783E9, 0.0, 2022-09-18 17:03:58.316
100.0, -54280.18322946826, -45055.953568929865, -37036.594693254796, -61216.71184500597, -55422.42442636781, -80701.01805937506, -62592.841695885865, -69971.33135453837, 0.388, -0.904, 0.234, 192.0, 0.0, 0.0, 0.0, 0.0, 0.0, 0.0, 0.0, 0.0, 0.0, 1.6635026383200626E9, 0.0, 2022-09-18 17:03:58.320
101.0, -60367.971404549055, -50336.262623818235, -36684.55471808371, -60778.192970537304, -55227.42780773972, -80207.93857669098, -62225.84840367418, -69534.86884055959, 0.388, -0.904, 0.234, 192.0, 0.0, 0.0, 0.0, 0.0, 0.0, 0.0, 0.0, 0.0, 0.0, 1.6635026383241303E9, 0.0, 2022-09-18 17:03:58.324
102.0, -65842.13713909831, -53579.12076462755, -36550.086623440584, -60669.7199546957, -55051.653689343184, -80100.89607249452, -62105.03722489324, -69438.35400800157, 0.388, -0.904, 0.234, 192.0, 0.0, 0.0, 0.0, 0.0, 0.0, 0.0, 0.0, 0.0, 0.0, 1.663502638329188E9, 0.0, 2022-09-18 17:03:58.329
103.0, -64185.13526739303, -51555.349118155136, -36698.703372323915, -60857.5640150981, -55156.19279816065, -80323.47474378046, -62257.16319765606, -69626.62275154862, 0.388, -0.904, 0.234, 192.0, 0.0, 0.0, 0.0, 0.0, 0.0, 0.0, 0.0, 0.0, 0.0, 1.6635026383331442E9, 0.0, 2022-09-18 17:03:58.333
104.0, -59017.92603944851, -47716.10173178932, -36924.00895643341, -61122.298076426756, -55312.0068087586, -80625.35740439384, -62482.75935444348, -69889.36750762076, 0.388, -0.904, 0.234, 192.0, 0.0, 0.0, 0.0, 0.0, 0.0, 0.0, 0.0, 0.0, 0.0, 1.6635026383371398E9, 0.0, 2022-09-18 17:03:58.337
105.0, -54289.68272086176, -45089.41413037946, -37039.65688224517, -61218.008246184385, -55442.18336846631, -80713.57973975895, -62590.33830050687, -69980.58497674286, 0.382, -0.906, 0.23800000000000002, 192.0, 11.0, 240.0, 227.0, 176.0, 7.0, 112.0, 0.0, 0.0, 0.0, 1.6635026383411567E9, 0.0, 2022-09-18 17:03:58.341
106.0, -60557.26832834105, -50473.412927796, -36685.426436117465, -60773.87908385743, -55243.141084091796, -80218.84622798518, -62224.26142981785, -69541.50730866281, 0.382, -0.906, 0.23800000000000002, 192.0, 0.0, 0.0, 0.0, 0.0, 0.0, 0.0, 0.0, 0.0, 0.0, 1.663502638344282E9, 0.0, 2022-09-18 17:03:58.344
107.0, -65864.89121495381, -53563.22867431983, -36561.217792179326, -60670.546969240546, -55069.60214014079, -80125.59475011764, -62115.207268620405, -69441.75147315877, 0.382, -0.906, 0.23800000000000002, 192.0, 0.0, 0.0, 0.0, 0.0, 0.0, 0.0, 0.0, 0.0, 0.0, 1.663502638348133E9, 0.0, 2022-09-18 17:03:58.348
108.0, -64123.9361910744, -51492.47366100236, -36714.05902076471, -60860.3132796661, -55177.426955393195, -80346.96642720299, -62272.34003214122, -69632.76948127383, 0.382, -0.906, 0.23800000000000002, 192.0, 0.0, 0.0, 0.0, 0.0, 0.0, 0.0, 0.0, 0.0, 0.0, 1.6635026383531458E9, 0.0, 2022-09-18 17:03:58.353
109.0, -58883.27913084974, -47624.504283011476, -36947.031253222376, -61136.60319287815, -55336.16904451478, -80648.536163394, -62506.787479732935, -69907.09244097382, 0.382, -0.906, 0.23800000000000002, 192.0, 0.0, 0.0, 0.0, 0.0, 0.0, 0.0, 0.0, 0.0, 0.0, 1.6635026383571575E9, 0.0, 2022-09-18 17:03:58.357
110.0, -54308.52524143759, -45137.202160024906, -37047.05530965988, -61219.10348166269, -55453.60510988297, -80713.78090545905, -62599.7260331781, -69983.20013084414, 0.382, -0.906, 0.23800000000000002, 192.0, 0.0, 0.0, 0.0, 0.0, 0.0, 0.0, 0.0, 0.0, 0.0, 1.6635026383602047E9, 0.0, 2022-09-18 17:03:58.360
111.0, -60743.25719395366, -50619.97331618945, -36679.52557558126, -60767.33002273203, -55240.59298522389, -80210.48667555889, -62220.59574372718, -69537.14871849403, 0.382, -0.906, 0.23800000000000002, 192.0, 0.0, 0.0, 0.0, 0.0, 0.0, 0.0, 0.0, 0.0, 0.0, 1.663502638364174E9, 0.0, 2022-09-18 17:03:58.364
112.0, -65882.43733435123, -53559.69709869589, -36562.93887650238, -60673.9220826533, -55069.35627095179, -80124.90184603952, -62118.358864588605, -69449.73104592932, 0.382, -0.906, 0.23800000000000002, 192.0, 0.0, 0.0, 0.0, 0.0, 0.0, 0.0, 0.0, 0.0, 0.0, 1.6635026383681858E9, 0.0, 2022-09-18 17:03:58.368
113.0, -64060.70310601033, -51442.025773766734, -36713.00848877531, -60859.28509942116, -55174.521228614, -80344.01599693489, -62273.32350889725, -69636.65868480905, 0.382, -0.906, 0.23800000000000002, 192.0, 0.0, 0.0, 0.0, 0.0, 0.0, 0.0, 0.0, 0.0, 0.0, 1.6635026383732052E9, 0.0, 2022-09-18 17:03:58.373
114.0, -58738.752751201726, -47528.90587197612, -36942.53855258686, -61129.54004163028, -55331.4081229458, -80648.67027386073, -62503.88175295374, -69903.78438279443, 0.382, -0.906, 0.23800000000000002, 192.0, 0.0, 0.0, 0.0, 0.0, 0.0, 0.0, 0.0, 0.0, 0.0, 1.663502638377211E9, 0.0, 2022-09-18 17:03:58.377
115.0, -54332.46395974922, -45187.940619938454, -37033.13017286422, -61196.259998829366, -55446.67606910182, -80703.14147509831, -62585.286806259974, -69966.07869459137, 0.38, -0.91, 0.23800000000000002, 192.0, 11.0, 224.0, 227.0, 144.0, 7.0, 112.0, 0.0, 0.0, 0.0, 1.6635026383812127E9, 0.0, 2022-09-18 17:03:58.381
116.0, -60931.57064098962, -50762.80096325886, -36668.90849696499, -60748.64396436739, -55233.44042699819, -80199.73548647588, -62208.905781377056, -69524.56468636569, 0.38, -0.91, 0.23800000000000002, 192.0, 0.0, 0.0, 0.0, 0.0, 0.0, 0.0, 0.0, 0.0, 0.0, 1.663502638384271E9, 0.0, 2022-09-18 17:03:58.384
117.0, -65900.22932293765, -53551.15873231396, -36565.397568392465, -60673.02801287509, -55071.61379714177, -80128.52282864127, -62121.7116262569, -69446.37828426102, 0.38, -0.91, 0.23800000000000002, 192.0, 0.0, 0.0, 0.0, 0.0, 0.0, 0.0, 0.0, 0.0, 0.0, 1.6635026383882551E9, 0.0, 2022-09-18 17:03:58.388
118.0, -63997.89470409092, -51385.16293587243, -36717.03180277727, -60863.53193086767, -55176.28701642597, -80346.49704056943, -62280.25254967839, -69632.27774289582, 0.38, -0.91, 0.23800000000000002, 192.0, 0.0, 0.0, 0.0, 0.0, 0.0, 0.0, 0.0, 0.0, 0.0, 1.6635026383922443E9, 0.0, 2022-09-18 17:03:58.392
119.0, -58600.12723208991, -47428.255966693876, -36949.31113115682, -61141.47587316941, -55331.67634387927, -80653.56530589644, -62514.49883157001, -69908.52295261895, 0.38, -0.91, 0.23800000000000002, 192.0, 0.0, 0.0, 0.0, 0.0, 0.0, 0.0, 0.0, 0.0, 0.0, 1.6635026383962116E9, 0.0, 2022-09-18 17:03:58.396
120.0, -54359.59897751796, -45227.99494600236, -37034.0912978758, -61202.71965297695, -55441.177539965815, -80693.68668719372, -62591.299425518446, -69962.32360152288, 0.38, -0.91, 0.23800000000000002, 192.0, 0.0, 0.0, 0.0, 0.0, 0.0, 0.0, 0.0, 0.0, 0.0, 1.6635026384012847E9, 0.0, 2022-09-18 17:03:58.401
121.0, -61118.0735967247, -50892.821060755385, -36666.628619030555, -60757.47290342724, -55219.13531054679, -80188.24668982586, -62211.18565931149, -69519.26732292978, 0.38, -0.91, 0.23800000000000002, 192.0, 0.0, 0.0, 0.0, 0.0, 0.0, 0.0, 0.0, 0.0, 0.0, 1.6635026384052627E9, 0.0, 2022-09-18 17:03:58.405
122.0, -65910.35466317591, -53530.61747915953, -36570.8290422951, -60695.849143963955, -55061.644919114704, -80127.919331541, -62130.1158821721, -69460.32577280114, 0.38, -0.91, 0.23800000000000002, 192.0, 0.0, 0.0, 0.0, 0.0, 0.0, 0.0, 0.0, 0.0, 0.0, 1.663502638409295E9, 0.0, 2022-09-18 17:03:58.409
123.0, -63930.057159669064, -51323.44976943133, -36723.33499471367, -60888.81175384662, -55173.73891755807, -80349.40276734863, -62285.795782303314, -69654.60713560667, 0.38, -0.91, 0.23800000000000002, 192.0, 0.0, 0.0, 0.0, 0.0, 0.0, 0.0, 0.0, 0.0, 0.0, 1.6635026384123037E9, 0.0, 2022-09-18 17:03:58.412
124.0, -58449.744695394606, -47329.394200968054, -36952.95446550303, -61162.73238214641, -55329.66468687829, -80659.66733213274, -62517.00222694901, -69924.92913304915, 0.38, -0.91, 0.23800000000000002, 192.0, 0.0, 0.0, 0.0, 0.0, 0.0, 0.0, 0.0, 0.0, 0.0, 1.6635026384163022E9, 0.0, 2022-09-18 17:03:58.416
125.0, -54384.90115224137, -45286.17653681953, -37024.770620437936, -61204.708958233474, -55436.081342230005, -80686.80234990148, -62578.55893117892, -69961.49658697803, 0.378, -0.902, 0.23800000000000002, 192.0, 11.0, 208.0, 227.0, 208.0, 7.0, 112.0, 0.0, 0.0, 0.0, 1.663502638420226E9, 0.0, 2022-09-18 17:03:58.420
126.0, -61289.93615984156, -51024.42813210823, -36650.44595604491, -60746.945231788784, -55206.66303714074, -80177.33903853167, -62193.97481608091, -69509.43255536945, 0.378, -0.902, 0.23800000000000002, 192.0, 0.0, 0.0, 0.0, 0.0, 0.0, 0.0, 0.0, 0.0, 0.0, 1.663502638424326E9, 0.0, 2022-09-18 17:03:58.424
127.0, -65911.40519516531, -53504.33182768009, -36564.12351895851, -60693.43515556278, -55058.26980570195, -80133.0155292768, -62123.96915244689, -69461.644525724, 0.378, -0.902, 0.23800000000000002, 192.0, 0.0, 0.0, 0.0, 0.0, 0.0, 0.0, 0.0, 0.0, 0.0, 1.6635026384293344E9, 0.0, 2022-09-18 17:03:58.429
128.0, -63854.1729872433, -51258.87557969995, -36718.52936965578, -60884.16259099991, -55174.63298733628, -80358.43287210856, -62281.70541306799, -69654.13774897311, 0.378, -0.902, 0.23800000000000002, 192.0, 0.0, 0.0, 0.0, 0.0, 0.0, 0.0, 0.0, 0.0, 0.0, 1.6635026384333146E9, 0.0, 2022-09-18 17:03:58.433
129.0, -58300.99383604454, -47227.62670846304, -36954.96612250401, -61158.373791977625, -55334.9620503142, -80671.20083227169, -62520.31028512839, -69928.55011565091, 0.378, -0.902, 0.23800000000000002, 192.0, 0.0, 0.0, 0.0, 0.0, 0.0, 0.0, 0.0, 0.0, 0.0, 1.6635026384373455E9, 0.0, 2022-09-18 17:03:58.437
130.0, -54420.798053836595, -45332.73522051993, -37019.5403122354, -61185.0394231128, -55439.50115913167, -80684.96950685616, -62575.76496312201, -69950.2089560281, 0.378, -0.902, 0.23800000000000002, 192.0, 0.0, 0.0, 0.0, 0.0, 0.0, 0.0, 0.0, 0.0, 0.0, 1.6635026384403486E9, 0.0, 2022-09-18 17:03:58.440
131.0, -61470.31473759589, -51153.97884297119, -36646.93673216543, -60731.67899032581, -55212.027455810006, -80181.94349788947, -62195.047699814764, -69502.43645935494, 0.378, -0.902, 0.23800000000000002, 192.0, 0.0, 0.0, 0.0, 0.0, 0.0, 0.0, 0.0, 0.0, 0.0, 1.6635026384443717E9, 0.0, 2022-09-18 17:03:58.444
132.0, -65923.76570984909, -53494.4747083753, -36567.85626028255, -60687.86957119341, -55073.37958495374, -80150.49459344085, -62133.69216128495, -69465.3996187925, 0.378, -0.902, 0.23800000000000002, 192.0, 0.0, 0.0, 0.0, 0.0, 0.0, 0.0, 0.0, 0.0, 0.0, 1.6635026384483664E9, 0.0, 2022-09-18 17:03:58.448
133.0, -63797.82423947147, -51211.42282622133, -36723.02207029129, -60879.71459385331, -55191.3744439333, -80374.39201764966, -62291.406070161596, -69654.71889432895, 0.378, -0.902, 0.23800000000000002, 192.0, 0.0, 0.0, 0.0, 0.0, 0.0, 0.0, 0.0, 0.0, 0.0, 1.663502638452371E9, 0.0, 2022-09-18 17:03:58.452
134.0, -58164.49173265597, -47141.3266231211, -36964.80089006435, -61165.03461182531, -55355.257434279614, -80692.18912031522, -62533.833090523854, -69939.86009834529, 0.378, -0.902, 0.23800000000000002, 192.0, 0.0, 0.0, 0.0, 0.0, 0.0, 0.0, 0.0, 0.0, 0.0, 1.6635026384564288E9, 0.0, 2022-09-18 17:03:58.456
135.0, -54471.8047346836, -45412.57565171429, -37025.64233847169, -61187.00637662487, -55455.81793258405, -80690.40098075879, -62583.18574228117, -69958.05441833191, 0.378, -0.902, 0.23800000000000002, 192.0, 0.0, 0.0, 0.0, 0.0, 0.0, 0.0, 0.0, 0.0, 0.0, 1.6635026384613612E9, 0.0, 2022-09-18 17:03:58.461
136.0, -61660.05869627699, -51301.992094754234, -36653.97753166885, -60729.60027809147, -55218.9341448467, -80182.7705124343, -62203.02727258531, -69509.87959025856, 0.374, -0.9, 0.23600000000000002, 192.0, 11.0, 176.0, 227.0, 224.0, 7.0, 96.0, 0.0, 0.0, 0.0, 1.663502638465358E9, 0.0, 2022-09-18 17:03:58.465
137.0, -65944.37401823688, -53488.37268213901, -36585.55884189115, -60693.189286373774, -55083.28140774744, -80163.23508778037, -62150.5677283487, -69479.1012381436, 0.374, -0.9, 0.23600000000000002, 192.0, 0.0, 0.0, 0.0, 0.0, 0.0, 0.0, 0.0, 0.0, 0.0, 1.6635026384684088E9, 0.0, 2022-09-18 17:03:58.468
138.0, -63740.29084924351, -51156.325776139, -36736.969558831406, -60881.726250854284, -55200.695121371165, -80384.74087533247, -62304.28067496785, -69669.64985962509, 0.374, -0.9, 0.23600000000000002, 192.0, 0.0, 0.0, 0.0, 0.0, 0.0, 0.0, 0.0, 0.0, 0.0, 1.6635026384723911E9, 0.0, 2022-09-18 17:03:58.472
139.0, -58021.01588499736, -47034.90996776938, -36973.741587846474, -61167.22508278192, -55363.84050415045, -80701.8450739199, -62540.60566909381, -69961.3177730224, 0.374, -0.9, 0.23600000000000002, 192.0, 0.0, 0.0, 0.0, 0.0, 0.0, 0.0, 0.0, 0.0, 0.0, 1.6635026384764159E9, 0.0, 2022-09-18 17:03:58.476
140.0, -54511.34497062505, -45455.93803595758, -37013.66180344365, -61168.32031826024, -55455.95204305078, -80683.00255334408, -62567.58422465137, -69949.42664497216, 0.374, -0.9, 0.23600000000000002, 192.0, 0.0, 0.0, 0.0, 0.0, 0.0, 0.0, 0.0, 0.0, 0.0, 1.6635026384803722E9, 0.0, 2022-09-18 17:03:58.480
141.0, -61825.863936646456, -51406.307686127155, -36634.97854888184, -60716.21158316274, -55217.771854135026, -80175.30502978624, -62178.59681589566, -69502.34705237711, 0.374, -0.9, 0.23600000000000002, 192.0, 0.0, 0.0, 0.0, 0.0, 0.0, 0.0, 0.0, 0.0, 0.0, 1.6635026384845269E9, 0.0, 2022-09-18 17:03:58.484
142.0, -65938.78608212306, -53449.03361189766, -36574.986466763796, -60699.64894052136, -55092.065643318376, -80166.94547735996, -62133.58040256267, -69493.0040231948, 0.374, -0.9, 0.23600000000000002, 192.0, 0.0, 0.0, 0.0, 0.0, 0.0, 0.0, 0.0, 0.0, 0.0, 1.6635026384894495E9, 0.0, 2022-09-18 17:03:58.489
143.0, -63666.55244428545, -51088.287066017045, -36733.01330006281, -60896.5231056837, -55209.90404008675, -80390.44057016858, -62293.060099251285, -69685.60900516617, 0.374, -0.9, 0.23600000000000002, 192.0, 0.0, 0.0, 0.0, 0.0, 0.0, 0.0, 0.0, 0.0, 0.0, 1.6635026384934137E9, 0.0, 2022-09-18 17:03:58.493
144.0, -57867.191179655936, -46928.538015906575, -36975.3285617028, -61180.90435038857, -55367.19326581875, -80701.53214949754, -62538.19168069264, -69969.11853183729, 0.374, -0.9, 0.23600000000000002, 192.0, 0.0, 0.0, 0.0, 0.0, 0.0, 0.0, 0.0, 0.0, 0.0, 1.663502638496451E9, 0.0, 2022-09-18 17:03:58.496
145.0, -54553.545064156664, -45519.75226637749, -37007.69388767408, -61171.85189388417, -55451.79461858209, -80667.64690490329, -62562.063343770904, -69949.06901706089, 0.374, -0.9, 0.23600000000000002, 192.0, 0.0, 0.0, 0.0, 0.0, 0.0, 0.0, 0.0, 0.0, 0.0, 1.663502638500381E9, 0.0, 2022-09-18 17:03:58.500
146.0, -61996.51950556273, -51532.10330392162, -36627.28954878921, -60719.18436517529, -55203.220868494616, -80162.69864591345, -62175.892254816565, -69500.22363665386, 0.374, -0.9, 0.24, 192.0, 11.0, 176.0, 227.0, 224.0, 7.0, 128.0, 0.0, 0.0, 0.0, 1.6635026385044615E9, 0.0, 2022-09-18 17:03:58.504
