%OpenBCI Raw EEG Data
%Number of channels = 8
%Sample Rate = 250 Hz
%Board = OpenBCI_GUI$BoardCytonSerial
Sample Index, EXG Channel 0, EXG Channel 1, EXG Channel 2, EXG Channel 3, EXG Channel 4, EXG Channel 5, EXG Channel 6, EXG Channel 7, Accel Channel 0, Accel Channel 1, Accel Channel 2, Other, Other, Other, Other, Other, Other, Other, Analog Channel 0, Analog Channel 1, Analog Channel 2, Timestamp, Other, Timestamp (Formatted)
110.0, -18542.649572211456, -4638.881044254428, -58356.94025241617, -17669.053991920235, -16704.978550073927, 6314.68073304662, -38432.55054146654, -21165.917356719656, 0.654, -0.596, 0.508, 192.0, 20.0, 112.0, 237.0, 96.0, 15.0, 224.0, 0.0, 0.0, 0.0, 1.6636178704291737E9, 0.0, 2022-09-20 01:04:30.429
111.0, -18182.093582402897, -4104.2943721168485, -58439.90992783427, -17569.454618627384, -17213.570143409986, 6202.631438092165, -38385.03073275456, -21147.38776056621, 0.654, -0.596, 0.508, 192.0, 0.0, 0.0, 0.0, 0.0, 0.0, 0.0, 0.0, 0.0, 0.0, 1.6636178704292235E9, 0.0, 2022-09-20 01:04:30.429
112.0, -17745.18403353501, -3454.775029990081, -58611.928953162314, -17500.27596953821, -15666.76237186937, 6009.601772976133, -38387.04238975554, -21180.80361852689, 0.654, -0.596, 0.508, 192.0, 0.0, 0.0, 0.0, 0.0, 0.0, 0.0, 0.0, 0.0, 0.0, 1.6636178704292493E9, 0.0, 2022-09-20 01:04:30.429
113.0, -18059.203691387618, -3912.91873609051, -58647.73644777972, -17667.243500619352, -13718.405511189165, 6057.568616577222, -38521.01874602065, -21264.06386662291, 0.654, -0.596, 0.508, 192.0, 0.0, 0.0, 0.0, 0.0, 0.0, 0.0, 0.0, 0.0, 0.0, 1.6636178704292738E9, 0.0, 2022-09-20 01:04:30.429
114.0, -18635.901050078995, -4800.797081088672, -58438.7923406115, -17767.46872275695, -14722.669389566112, 6295.77115723743, -38534.85447583848, -21231.072691806876, 0.654, -0.596, 0.508, 192.0, 0.0, 0.0, 0.0, 0.0, 0.0, 0.0, 0.0, 0.0, 0.0, 1.6636178704292977E9, 0.0, 2022-09-20 01:04:30.429
115.0, -18535.89934538595, -4657.902378785894, -58370.21718862262, -17656.916994681, -16700.10586978267, 6320.223965671536, -38437.08794559097, -21143.990295409, 0.654, -0.596, 0.508, 192.0, 0.0, 0.0, 0.0, 0.0, 0.0, 0.0, 0.0, 0.0, 0.0, 1.6636178704293213E9, 0.0, 2022-09-20 01:04:30.429
116.0, -18177.22090211164, -4113.346828621248, -58452.06927681796, -17550.52269107374, -17188.40207915331, 6203.793728803841, -38388.65171535632, -21120.40920500865, 0.654, -0.596, 0.508, 192.0, 0.0, 0.0, 0.0, 0.0, 0.0, 0.0, 0.0, 0.0, 0.0, 1.6636178704293451E9, 0.0, 2022-09-20 01:04:30.429
117.0, -17738.478510198416, -3452.1375241443548, -58628.5362992926, -17483.31099549663, -15572.058030612236, 6007.053674108229, -38392.38445668035, -21160.485882817018, 0.654, -0.596, 0.508, 192.0, 0.0, 0.0, 0.0, 0.0, 0.0, 0.0, 0.0, 0.0, 0.0, 1.6636178704293692E9, 0.0, 2022-09-20 01:04:30.429
118.0, -18081.018993976, -3942.221873071417, -58657.504160106684, -17665.41065757402, -13632.284239802866, 6066.911645759541, -38538.43075495133, -21245.57897395837, 0.654, -0.596, 0.508, 192.0, 0.0, 0.0, 0.0, 0.0, 0.0, 0.0, 0.0, 0.0, 0.0, 1.6636178704293928E9, 0.0, 2022-09-20 01:04:30.429
119.0, -18660.376210257557, -4823.014715077247, -58443.1956342692, -17767.714591945958, -14722.490575610469, 6302.946067207583, -38548.57844693404, -21206.306958950398, 0.654, -0.596, 0.508, 192.0, 0.0, 0.0, 0.0, 0.0, 0.0, 0.0, 0.0, 0.0, 0.0, 1.663617870429416E9, 0.0, 2022-09-20 01:04:30.429
120.0, -18540.81672916612, -4658.885855541927, -58373.50289505755, -17658.526320281784, -16703.346872728693, 6321.140387194203, -38442.4747160047, -21117.414071251642, 0.656, -0.602, 0.508, 192.0, 20.0, 128.0, 237.0, 48.0, 15.0, 224.0, 0.0, 0.0, 0.0, 1.6636178704294393E9, 0.0, 2022-09-20 01:04:30.429
121.0, -18172.147056120284, -4101.187479637561, -58461.85934088938, -17562.257356912774, -17148.23599436712, 6190.047405963827, -38391.9597735357, -21102.30429199985, 0.656, -0.602, 0.508, 192.0, 0.0, 0.0, 0.0, 0.0, 0.0, 0.0, 0.0, 0.0, 0.0, 1.6636178704294636E9, 0.0, 2022-09-20 01:04:30.429
122.0, -17707.677806339005, -3395.9899420726233, -58646.14947392339, -17494.79979214666, -15395.85922907105, 5982.8243831186755, -38396.92186080478, -21147.18659486611, 0.656, -0.602, 0.508, 192.0, 0.0, 0.0, 0.0, 0.0, 0.0, 0.0, 0.0, 0.0, 0.0, 1.6636178704294863E9, 0.0, 2022-09-20 01:04:30.429
123.0, -18079.454371864125, -3937.639765458079, -58658.73350605172, -17680.811009503723, -13367.416068007478, 6061.681337556999, -38544.37631897644, -21221.081462035356, 0.656, -0.602, 0.508, 192.0, 0.0, 0.0, 0.0, 0.0, 0.0, 0.0, 0.0, 0.0, 0.0, 1.6636178704295075E9, 0.0, 2022-09-20 01:04:30.429
124.0, -18681.85623667911, -4856.318814315655, -58430.790416096504, -17779.8962926741, -14573.806771493766, 6302.34257010729, -38552.288836513624, -21173.449894601097, 0.656, -0.602, 0.508, 192.0, 0.0, 0.0, 0.0, 0.0, 0.0, 0.0, 0.0, 0.0, 0.0, 1.6636178704295304E9, 0.0, 2022-09-20 01:04:30.429
125.0, -18538.022761109205, -4649.989861248715, -58365.50097054255, -17657.34167782565, -16646.685200534488, 6315.887727247206, -38439.01019561412, -21084.44524818006, 0.656, -0.602, 0.508, 192.0, 0.0, 0.0, 0.0, 0.0, 0.0, 0.0, 0.0, 0.0, 0.0, 1.6636178704295533E9, 0.0, 2022-09-20 01:04:30.429
126.0, -18138.082997570396, -4048.8396941232318, -58466.82142815846, -17549.04747593969, -17068.03793526148, 6181.665501793087, -38386.90827928881, -21070.45305615104, 0.656, -0.602, 0.508, 192.0, 0.0, 0.0, 0.0, 0.0, 0.0, 0.0, 0.0, 0.0, 0.0, 1.663617870429847E9, 0.0, 2022-09-20 01:04:30.429
127.0, -17696.926617256002, -3378.1085465083775, -58662.13097120893, -17495.068013080123, -15246.840148787518, 5974.442478947935, -38407.47188418769, -21120.297446286375, 0.656, -0.602, 0.508, 192.0, 0.0, 0.0, 0.0, 0.0, 0.0, 0.0, 0.0, 0.0, 0.0, 1.6636178704298675E9, 0.0, 2022-09-20 01:04:30.429
128.0, -18113.8760583253, -3978.945789211487, -58665.50608462168, -17692.612730576126, -13300.137317197004, 6068.945654504973, -38555.507487715186, -21195.891046034223, 0.656, -0.602, 0.508, 192.0, 0.0, 0.0, 0.0, 0.0, 0.0, 0.0, 0.0, 0.0, 0.0, 1.6636178704298837E9, 0.0, 2022-09-20 01:04:30.429
129.0, -18694.708489740908, -4860.699756228895, -58437.428884199726, -17782.690260731015, -14611.827088812244, 6313.205517912569, -38539.078955540535, -21146.85131869928, 0.656, -0.602, 0.508, 192.0, 0.0, 0.0, 0.0, 0.0, 0.0, 0.0, 0.0, 0.0, 0.0, 1.6636178704298987E9, 0.0, 2022-09-20 01:04:30.429
130.0, -18528.500917971243, -4621.91607021285, -58366.685612998685, -17651.038485889254, -16647.467511590425, 6327.242413430502, -38413.35039297943, -21054.605669332228, 0.64, -0.598, 0.51, 192.0, 20.0, 0.0, 237.0, 80.0, 15.0, 240.0, 0.0, 0.0, 0.0, 1.663617870429914E9, 0.0, 2022-09-20 01:04:30.429
131.0, -18138.127701059308, -4028.5666619022686, -58464.139218823824, -17547.639316039003, -17013.544382279444, 6188.326321640769, -38369.22804942466, -21045.26264014991, 0.64, -0.598, 0.51, 192.0, 0.0, 0.0, 0.0, 0.0, 0.0, 0.0, 0.0, 0.0, 0.0, 1.6636178704299297E9, 0.0, 2022-09-20 01:04:30.429
132.0, -17700.458192879938, -3374.4428604177074, -58660.61105258597, -17497.191428803377, -15154.169816275815, 5982.42205171848, -38399.7158288617, -21106.305254257353, 0.64, -0.598, 0.51, 192.0, 0.0, 0.0, 0.0, 0.0, 0.0, 0.0, 0.0, 0.0, 0.0, 1.6636178704299512E9, 0.0, 2022-09-20 01:04:30.429
133.0, -18141.50281447206, -4021.838786821221, -58655.64896531689, -17699.29590216826, -13272.667023261432, 6078.176924965015, -38545.76212713267, -21193.365298910776, 0.64, -0.598, 0.51, 192.0, 0.0, 0.0, 0.0, 0.0, 0.0, 0.0, 0.0, 0.0, 0.0, 1.6636178704299664E9, 0.0, 2022-09-20 01:04:30.429
134.0, -18714.93681847296, -4893.78033802275, -58421.24622121409, -17785.931263677034, -14663.95135688202, 6307.192898654092, -38529.4453536803, -21145.644324498695, 0.64, -0.598, 0.51, 192.0, 0.0, 0.0, 0.0, 0.0, 0.0, 0.0, 0.0, 0.0, 0.0, 1.6636178704299817E9, 0.0, 2022-09-20 01:04:30.429
135.0, -18533.19478430686, -4633.4048668628775, -58355.420333793205, -17653.54188126825, -16678.91641603904, 6311.998523711983, -38406.48840743165, -21053.0186954759, 0.64, -0.598, 0.51, 192.0, 0.0, 0.0, 0.0, 0.0, 0.0, 0.0, 0.0, 0.0, 0.0, 1.663617870430018E9, 0.0, 2022-09-20 01:04:30.430
136.0, -18130.125776544308, -4023.1575397440843, -58452.96334659617, -17545.225327637832, -16987.862227900296, 6175.205847645503, -38356.64401729632, -21043.943887227048, 0.64, -0.598, 0.51, 192.0, 0.0, 0.0, 0.0, 0.0, 0.0, 0.0, 0.0, 0.0, 0.0, 1.6636178704300463E9, 0.0, 2022-09-20 01:04:30.430
137.0, -17698.64770157906, -3380.187258742721, -58647.42352335734, -17500.477135238307, -15069.255539090103, 5970.79914460172, -38380.73919781914, -21103.31012050034, 0.64, -0.598, 0.51, 192.0, 0.0, 0.0, 0.0, 0.0, 0.0, 0.0, 0.0, 0.0, 0.0, 1.6636178704300632E9, 0.0, 2022-09-20 01:04:30.430
138.0, -18157.12668384632, -4060.8649326401874, -58639.533357564615, -17709.197724961963, -13253.153950351949, 6076.880523786607, -38534.00510954918, -21186.9503482521, 0.64, -0.598, 0.51, 192.0, 0.0, 0.0, 0.0, 0.0, 0.0, 0.0, 0.0, 0.0, 0.0, 1.6636178704300785E9, 0.0, 2022-09-20 01:04:30.430
139.0, -18709.55004805923, -4902.005779982303, -58416.64176185629, -17787.27236834435, -14714.555706328834, 6305.941200964595, -38523.566844888555, -21139.09526337329, 0.64, -0.598, 0.51, 192.0, 0.0, 0.0, 0.0, 0.0, 0.0, 0.0, 0.0, 0.0, 0.0, 1.6636178704300935E9, 0.0, 2022-09-20 01:04:30.430
140.0, -18526.913944114916, -4633.24840465169, -58373.74876424656, -17665.83534071867, -16711.30409375478, 6293.223058369525, -38420.368840738396, -21062.83111129178, 0.642, -0.594, 0.51, 192.0, 20.0, 16.0, 237.0, 112.0, 15.0, 240.0, 0.0, 0.0, 0.0, 1.6636178704301088E9, 0.0, 2022-09-20 01:04:30.430
141.0, -18113.451375180648, -4014.485062895425, -58480.41128878728, -17560.357458634076, -16963.4541229551, 6152.295309578813, -38376.98410475065, -21056.907899011123, 0.642, -0.594, 0.51, 192.0, 0.0, 0.0, 0.0, 0.0, 0.0, 0.0, 0.0, 0.0, 0.0, 1.663617870430277E9, 0.0, 2022-09-20 01:04:30.430
142.0, -17694.40087013255, -3381.5954186434055, -58667.0483549891, -17509.261370809243, -14991.87379978583, 5963.914807309486, -38398.19591023873, -21107.28873101339, 0.642, -0.594, 0.51, 192.0, 0.0, 0.0, 0.0, 0.0, 0.0, 0.0, 0.0, 0.0, 0.0, 1.663617870430303E9, 0.0, 2022-09-20 01:04:30.430
143.0, -18169.911881674754, -4070.967921133986, -58645.65773554537, -17709.376538917608, -13235.4737204878, 6080.277988943814, -38544.331615487536, -21185.13985695122, 0.642, -0.594, 0.51, 192.0, 0.0, 0.0, 0.0, 0.0, 0.0, 0.0, 0.0, 0.0, 0.0, 1.6636178704303284E9, 0.0, 2022-09-20 01:04:30.430
144.0, -18716.99317896285, -4901.916373004481, -58426.029494527524, -17787.674699744548, -14708.498383581447, 6302.990770696494, -38535.10034502749, -21147.588926266304, 0.642, -0.594, 0.51, 192.0, 0.0, 0.0, 0.0, 0.0, 0.0, 0.0, 0.0, 0.0, 0.0, 1.6636178704303536E9, 0.0, 2022-09-20 01:04:30.430
145.0, -18540.43674951038, -4650.883931026928, -58382.354185861856, -17668.182273886476, -16705.000901818385, 6290.317331590335, -38431.00827109913, -21076.063344009322, 0.642, -0.594, 0.51, 192.0, 0.0, 0.0, 0.0, 0.0, 0.0, 0.0, 0.0, 0.0, 0.0, 1.6636178704303792E9, 0.0, 2022-09-20 01:04:30.430
146.0, -18103.21427622012, -4006.997228502897, -58487.29562607952, -17549.71802827335, -16914.92848574263, 6145.969765897962, -38374.59246809393, -21059.9700880015, 0.642, -0.594, 0.51, 192.0, 0.0, 0.0, 0.0, 0.0, 0.0, 0.0, 0.0, 0.0, 0.0, 1.663617870430405E9, 0.0, 2022-09-20 01:04:30.430
147.0, -17692.88095150959, -3402.516651453573, -58679.18535222833, -17512.2341528218, -14905.529010954979, 5952.694231592922, -38407.24836674314, -21120.85623989776, 0.642, -0.594, 0.51, 192.0, 0.0, 0.0, 0.0, 0.0, 0.0, 0.0, 0.0, 0.0, 0.0, 1.6636178704304302E9, 0.0, 2022-09-20 01:04:30.430
148.0, -18190.654300529277, -4145.041602258873, -58654.643136816405, -17729.381350205105, -13247.320145049114, 6072.432526640002, -38569.54438323312, -21206.374014183762, 0.642, -0.594, 0.51, 192.0, 0.0, 0.0, 0.0, 0.0, 0.0, 0.0, 0.0, 0.0, 0.0, 1.6636178704304557E9, 0.0, 2022-09-20 01:04:30.430
149.0, -18695.915483941495, -4919.395437168531, -58423.54845089298, -17782.287929330818, -14816.50201278949, 6299.638009028198, -38528.28306296862, -21144.683199487114, 0.642, -0.594, 0.51, 192.0, 0.0, 0.0, 0.0, 0.0, 0.0, 0.0, 0.0, 0.0, 0.0, 1.663617870430481E9, 0.0, 2022-09-20 01:04:30.430
150.0, -18495.085060010562, -4619.099750411481, -58385.59518880787, -17649.987953899858, -16757.68396349954, 6288.618599011731, -38418.98303258217, -21060.685343824072, 0.646, -0.606, 0.508, 192.0, 20.0, 48.0, 237.0, 16.0, 15.0, 224.0, 0.0, 0.0, 0.0, 1.663617870430506E9, 0.0, 2022-09-20 01:04:30.430
151.0, -18073.24058690555, -3987.484155593414, -58491.63186450385, -17541.693752013893, -16926.05965448137, 6138.593690227711, -38367.864593012884, -21053.555137342828, 0.646, -0.606, 0.508, 192.0, 0.0, 0.0, 0.0, 0.0, 0.0, 0.0, 0.0, 0.0, 0.0, 1.663617870430533E9, 0.0, 2022-09-20 01:04:30.430
152.0, -17684.141419427564, -3396.325218239453, -58687.88018082144, -17512.301208055163, -14869.945033782129, 5941.652469832, -38408.32125047699, -21120.498611986473, 0.646, -0.606, 0.508, 192.0, 0.0, 0.0, 0.0, 0.0, 0.0, 0.0, 0.0, 0.0, 0.0, 1.6636178704305563E9, 0.0, 2022-09-20 01:04:30.430
153.0, -18214.436556629724, -4169.5838176708, -58648.898738491385, -17727.41439669304, -13252.818674185119, 6080.210933710448, -38556.91564761587, -21193.968796011068, 0.646, -0.606, 0.508, 192.0, 0.0, 0.0, 0.0, 0.0, 0.0, 0.0, 0.0, 0.0, 0.0, 1.663617870430583E9, 0.0, 2022-09-20 01:04:30.430
154.0, -18709.17006840349, -4928.872576817582, -58416.75352057857, -17774.57657749374, -14885.635958389756, 6305.114186419748, -38522.359850687964, -21123.3372835323, 0.646, -0.606, 0.508, 192.0, 0.0, 0.0, 0.0, 0.0, 0.0, 0.0, 0.0, 0.0, 0.0, 1.663617870430604E9, 0.0, 2022-09-20 01:04:30.430
155.0, -18501.477658924778, -4619.636192278408, -58387.718604531125, -17652.49134927885, -16799.168801208594, 6282.33775881979, -38418.40188722633, -21053.97982048748, 0.646, -0.606, 0.508, 192.0, 0.0, 0.0, 0.0, 0.0, 0.0, 0.0, 0.0, 0.0, 0.0, 1.663617870430626E9, 0.0, 2022-09-20 01:04:30.430
156.0, -18077.10743869632, -3982.879696235621, -58500.86313496389, -17551.461464340864, -16906.09954668278, 6126.233175543925, -38371.32911340346, -21056.438512377565, 0.646, -0.606, 0.508, 192.0, 0.0, 0.0, 0.0, 0.0, 0.0, 0.0, 0.0, 0.0, 0.0, 1.663617870430679E9, 0.0, 2022-09-20 01:04:30.430
157.0, -17706.537867371782, -3418.0734655944666, -58690.294169222616, -17528.99796116328, -14795.156096834673, 5937.6291558300445, -38410.735238878166, -21124.298408543877, 0.646, -0.606, 0.508, 192.0, 0.0, 0.0, 0.0, 0.0, 0.0, 0.0, 0.0, 0.0, 0.0, 1.6636178704307015E9, 0.0, 2022-09-20 01:04:30.430
158.0, -18241.236298231637, -4209.436978034613, -58640.00274419818, -17743.641763167594, -13237.597136211054, 6077.349910420169, -38560.179002306344, -21203.647101360217, 0.646, -0.606, 0.508, 192.0, 0.0, 0.0, 0.0, 0.0, 0.0, 0.0, 0.0, 0.0, 0.0, 1.6636178704307237E9, 0.0, 2022-09-20 01:04:30.430
159.0, -18711.98638820486, -4948.855036360626, -58405.354130906366, -17787.160609622075, -14883.37843219977, 6292.284285102402, -38516.503693640676, -21140.592830251793, 0.646, -0.606, 0.508, 192.0, 0.0, 0.0, 0.0, 0.0, 0.0, 0.0, 0.0, 0.0, 0.0, 1.6636178704307537E9, 0.0, 2022-09-20 01:04:30.430
160.0, -18486.971376773283, -4628.129855171425, -58369.23371186659, -17658.88394819307, -16792.485629616454, 6267.876180157206, -38401.213395740204, -21063.725181069993, 0.652, -0.602, 0.512, 192.0, 20.0, 96.0, 237.0, 48.0, 16.0, 0.0, 0.0, 0.0, 0.0, 1.6636178704307773E9, 0.0, 2022-09-20 01:04:30.430
161.0, -18054.04043841844, -3974.9895304428974, -58490.71544298118, -17551.886147485515, -16862.021906616916, 6104.239058999903, -38359.08035744195, -21065.513320626418, 0.652, -0.602, 0.512, 192.0, 0.0, 0.0, 0.0, 0.0, 0.0, 0.0, 0.0, 0.0, 0.0, 1.6636178704308016E9, 0.0, 2022-09-20 01:04:30.430
162.0, -17695.69727131096, -3423.77316043057, -58678.6489103614, -17532.2389641093, -14718.422558119602, 5925.179234168439, -38399.58171839496, -21130.914524902648, 0.652, -0.602, 0.512, 192.0, 0.0, 0.0, 0.0, 0.0, 0.0, 0.0, 0.0, 0.0, 0.0, 1.663617870430823E9, 0.0, 2022-09-20 01:04:30.430
163.0, -18257.262499006094, -4244.953899974096, -58620.377912566415, -17750.347286504184, -13261.178226611404, 6078.936884276496, -38543.86222885397, -21198.305034435398, 0.652, -0.602, 0.512, 192.0, 0.0, 0.0, 0.0, 0.0, 0.0, 0.0, 0.0, 0.0, 0.0, 1.663617870430845E9, 0.0, 2022-09-20 01:04:30.430
164.0, -18708.18659164746, -4942.484789190864, -58396.92752324671, -17784.47840028744, -15002.289712702002, 6292.887782202695, -38495.42599861932, -21127.829984167813, 0.652, -0.602, 0.512, 192.0, 0.0, 0.0, 0.0, 0.0, 0.0, 0.0, 0.0, 0.0, 0.0, 1.6636178704308608E9, 0.0, 2022-09-20 01:04:30.430
165.0, -18474.253234178213, -4592.881154165406, -58376.542732303475, -17655.620593502594, -16845.28045001989, 6268.457325513044, -38383.28729668704, -21051.16350068611, 0.652, -0.602, 0.512, 192.0, 0.0, 0.0, 0.0, 0.0, 0.0, 0.0, 0.0, 0.0, 0.0, 1.663617870430876E9, 0.0, 2022-09-20 01:04:30.430
166.0, -18046.32908658136, -3924.4298844849927, -58502.69597800922, -17552.19907190789, -16851.337772767278, 6106.451881700979, -38347.368043347364, -21052.92928849808, 0.652, -0.602, 0.512, 192.0, 0.0, 0.0, 0.0, 0.0, 0.0, 0.0, 0.0, 0.0, 0.0, 1.6636178704308913E9, 0.0, 2022-09-20 01:04:30.430
167.0, -17725.447443180972, -3387.317465223964, -58691.03177678964, -17539.972667690836, -14663.549025481823, 5924.978068468341, -38402.42038994079, -21122.487917242994, 0.652, -0.602, 0.512, 192.0, 0.0, 0.0, 0.0, 0.0, 0.0, 0.0, 0.0, 0.0, 0.0, 1.6636178704309063E9, 0.0, 2022-09-20 01:04:30.430
168.0, -18322.462537582225, -4232.2581091234815, -58623.61891551244, -17757.388086007606, -13268.084915648094, 6084.994207023884, -38554.21108653678, -21192.180656454642, 0.652, -0.602, 0.512, 192.0, 0.0, 0.0, 0.0, 0.0, 0.0, 0.0, 0.0, 0.0, 0.0, 1.663617870430922E9, 0.0, 2022-09-20 01:04:30.430
169.0, -18747.212737466423, -4879.207000637889, -58407.589305351896, -17783.025536897843, -14989.772735807031, 6287.165735622137, -38495.3365916415, -21125.393644022184, 0.652, -0.602, 0.512, 192.0, 0.0, 0.0, 0.0, 0.0, 0.0, 0.0, 0.0, 0.0, 0.0, 1.6636178704309375E9, 0.0, 2022-09-20 01:04:30.430
170.0, -18517.79443237715, -4533.984307525672, -58385.86340974134, -17657.40873305902, -16711.035872821318, 6267.071517356815, -38385.92480253277, -21051.051741963835, 0.65, -0.594, 0.51, 192.0, 20.0, 80.0, 237.0, 112.0, 15.0, 240.0, 0.0, 0.0, 0.0, 1.6636178704309533E9, 0.0, 2022-09-20 01:04:30.430
171.0, -18111.663235624223, -3924.4522362294483, -58500.974893686165, -17559.686906300416, -16694.24971273538, 6120.35466675218, -38349.44675558171, -21054.180986187577, 0.65, -0.594, 0.51, 192.0, 0.0, 0.0, 0.0, 0.0, 0.0, 0.0, 0.0, 0.0, 0.0, 1.6636178704309704E9, 0.0, 2022-09-20 01:04:30.430
172.0, -17839.30722943631, -3500.640809612371, -58675.94434928231, -17561.922080745946, -14736.326305428303, 5970.352109712614, -38407.80716035452, -21124.90190564417, 0.65, -0.594, 0.51, 192.0, 0.0, 0.0, 0.0, 0.0, 0.0, 0.0, 0.0, 0.0, 0.0, 1.663617870431133E9, 0.0, 2022-09-20 01:04:30.431
173.0, -18384.622738912432, -4291.80315635242, -58606.11749960393, -17751.733094660412, -13659.79923722735, 6127.417818000057, -38539.414231707364, -21179.931900493135, 0.65, -0.594, 0.51, 192.0, 0.0, 0.0, 0.0, 0.0, 0.0, 0.0, 0.0, 0.0, 0.0, 1.6636178704311705E9, 0.0, 2022-09-20 01:04:30.431
174.0, -18749.514967145322, -4837.453941995375, -58415.50182288907, -17762.305469787774, -15339.488129554766, 6305.4941660754885, -38495.42599861932, -21110.79795489287, 0.65, -0.594, 0.51, 192.0, 0.0, 0.0, 0.0, 0.0, 0.0, 0.0, 0.0, 0.0, 0.0, 1.6636178704313176E9, 0.0, 2022-09-20 01:04:30.431
175.0, -18519.694330655853, -4489.750205248619, -58409.17627920822, -17642.813043929702, -16912.24627640799, 6274.313482560335, -38403.247404485635, -21047.386055873165, 0.65, -0.594, 0.51, 192.0, 0.0, 0.0, 0.0, 0.0, 0.0, 0.0, 0.0, 0.0, 0.0, 1.6636178704313476E9, 0.0, 2022-09-20 01:04:30.431
176.0, -18109.115136756318, -3883.1015089871303, -58521.471443351686, -17543.10191191458, -16781.153295177613, 6125.517919721356, -38363.21543016618, -21054.382151887676, 0.65, -0.594, 0.51, 192.0, 0.0, 0.0, 0.0, 0.0, 0.0, 0.0, 0.0, 0.0, 0.0, 1.6636178704313755E9, 0.0, 2022-09-20 01:04:30.431
177.0, -17849.924308052578, -3486.4251001387956, -58686.89670406541, -17552.13201667452, -14767.35052673227, 5974.978920814863, -38425.08505881847, -21124.56662947734, 0.65, -0.594, 0.51, 192.0, 0.0, 0.0, 0.0, 0.0, 0.0, 0.0, 0.0, 0.0, 0.0, 1.6636178704314048E9, 0.0, 2022-09-20 01:04:30.431
178.0, -18409.969617124752, -4303.962505336107, -58611.90660141785, -17752.023667338333, -13751.955479616581, 6132.961050624973, -38557.40738599389, -21184.782229039934, 0.65, -0.594, 0.51, 192.0, 0.0, 0.0, 0.0, 0.0, 0.0, 0.0, 0.0, 0.0, 0.0, 1.6636178704314437E9, 0.0, 2022-09-20 01:04:30.431
179.0, -18755.773455592807, -4835.665802438951, -58415.837099055905, -17759.8914813866, -15471.072849163158, 6304.0860061748035, -38506.04307723559, -21118.062271840845, 0.65, -0.594, 0.51, 192.0, 0.0, 0.0, 0.0, 0.0, 0.0, 0.0, 0.0, 0.0, 0.0, 1.6636178704314663E9, 0.0, 2022-09-20 01:04:30.431
180.0, -18517.883839354974, -4485.4810220576555, -58402.02372098252, -17638.946192138934, -17004.916608919695, 6270.200761580559, -38412.72454413468, -21052.526957097885, 0.648, -0.598, 0.514, 192.0, 20.0, 64.0, 237.0, 80.0, 16.0, 16.0, 0.0, 0.0, 0.0, 1.6636178704314892E9, 0.0, 2022-09-20 01:04:30.431
181.0, -18105.158877987727, -3875.725433316879, -58512.88837348085, -17543.727760759328, -16817.5195834064, 6116.174890539038, -38368.66925581327, -21058.40546588963, 0.648, -0.598, 0.514, 192.0, 0.0, 0.0, 0.0, 0.0, 0.0, 0.0, 0.0, 0.0, 0.0, 1.6636178704315147E9, 0.0, 2022-09-20 01:04:30.431
182.0, -17855.10991276621, -3505.088806758977, -58671.40694515788, -17556.870586499048, -14760.935576073596, 5972.94491206943, -38431.09767807695, -21129.349902790775, 0.648, -0.598, 0.514, 192.0, 0.0, 0.0, 0.0, 0.0, 0.0, 0.0, 0.0, 0.0, 0.0, 1.663617870431542E9, 0.0, 2022-09-20 01:04:30.431
183.0, -18422.17366959735, -4345.559101767433, -58584.90569411584, -17751.263708026854, -13812.171079179177, 6140.4935885064115, -38559.419042994865, -21180.088362704322, 0.648, -0.598, 0.514, 192.0, 0.0, 0.0, 0.0, 0.0, 0.0, 0.0, 0.0, 0.0, 0.0, 1.6636178704315667E9, 0.0, 2022-09-20 01:04:30.431
184.0, -18750.18551947898, -4853.167218347457, -58395.3852528793, -17754.70587667297, -15568.593510221663, 6302.253163129469, -38495.940088741794, -21112.697853171572, 0.648, -0.598, 0.514, 192.0, 0.0, 0.0, 0.0, 0.0, 0.0, 0.0, 0.0, 0.0, 0.0, 1.663617870431589E9, 0.0, 2022-09-20 01:04:30.431
185.0, -18503.04228103665, -4484.944580190728, -58387.36097661984, -17634.677008947972, -17059.61132760183, 6256.968528863016, -38400.07345677298, -21055.298573410342, 0.648, -0.598, 0.514, 192.0, 0.0, 0.0, 0.0, 0.0, 0.0, 0.0, 0.0, 0.0, 0.0, 1.6636178704316092E9, 0.0, 2022-09-20 01:04:30.431
186.0, -18083.500037610538, -3861.9344069879544, -58501.24311461963, -17534.09415889909, -16806.544876878845, 6102.719140376943, -38362.2543051546, -21062.182910702577, 0.648, -0.598, 0.514, 192.0, 0.0, 0.0, 0.0, 0.0, 0.0, 0.0, 0.0, 0.0, 0.0, 1.6636178704317515E9, 0.0, 2022-09-20 01:04:30.431
187.0, -17850.907784808613, -3505.0217515256113, -58650.21749141425, -17549.382752106518, -14716.857936007731, 5970.083888779151, -38417.03843081456, -21128.41112952365, 0.648, -0.598, 0.514, 192.0, 0.0, 0.0, 0.0, 0.0, 0.0, 0.0, 0.0, 0.0, 0.0, 1.663617870431855E9, 0.0, 2022-09-20 01:04:30.431
188.0, -18429.527393523145, -4348.733049480087, -58555.714315857214, -17742.188899777997, -13843.552928394429, 6138.593690227711, -38538.85543809598, -21175.193330668608, 0.648, -0.598, 0.514, 192.0, 0.0, 0.0, 0.0, 0.0, 0.0, 0.0, 0.0, 0.0, 0.0, 1.6636178704318776E9, 0.0, 2022-09-20 01:04:30.431
189.0, -18745.08932174317, -4830.055514580669, -58375.46984856962, -17739.394931721083, -15638.219194199944, 6296.262895615447, -38481.612620545944, -21107.534600202394, 0.648, -0.598, 0.514, 192.0, 0.0, 0.0, 0.0, 0.0, 0.0, 0.0, 0.0, 0.0, 0.0, 1.6636178704319146E9, 0.0, 2022-09-20 01:04:30.431
190.0, -18504.942179315352, -4467.197295093214, -58383.69529052917, -17625.222221043376, -17096.111726297346, 6249.927729359595, -38409.28237548857, -21055.03035247688, 0.648, -0.598, 0.514, 192.0, 0.0, 0.0, 0.0, 0.0, 0.0, 0.0, 0.0, 0.0, 0.0, 1.6636178704319391E9, 0.0, 2022-09-20 01:04:30.431
191.0, -18084.550569599935, -3848.0539736812084, -58504.86409722139, -17526.718083228836, -16787.389431880645, 6096.617114140644, -38374.61481983839, -21059.523053112396, 0.652, -0.602, 0.52, 192.0, 20.0, 96.0, 237.0, 48.0, 16.0, 64.0, 0.0, 0.0, 0.0, 1.663617870431964E9, 0.0, 2022-09-20 01:04:30.431
192.0, -17883.29546252435, -3531.3968099828735, -58666.08722997752, -17558.368153377553, -14679.888150678653, 5966.306443966204, -38433.13168682238, -21136.99419939449, 0.652, -0.602, 0.52, 192.0, 0.0, 0.0, 0.0, 0.0, 0.0, 0.0, 0.0, 0.0, 0.0, 1.6636178704319875E9, 0.0, 2022-09-20 01:04:30.431
193.0, -18468.955870742306, -4395.291733180491, -58566.51020842913, -17751.95661210497, -13893.866705163326, 6149.613100244177, -38553.138202802926, -21179.44016211512, 0.652, -0.602, 0.52, 192.0, 0.0, 0.0, 0.0, 0.0, 0.0, 0.0, 0.0, 0.0, 0.0, 1.6636178704320369E9, 0.0, 2022-09-20 01:04:30.432
194.0, -18753.918260803017, -4835.3305262721215, -58383.27060738452, -17734.32108572973, -15718.461956794496, 6309.62923879972, -38486.66411479284, -21098.191571020077, 0.652, -0.602, 0.52, 192.0, 0.0, 0.0, 0.0, 0.0, 0.0, 0.0, 0.0, 0.0, 0.0, 1.6636178704321127E9, 0.0, 2022-09-20 01:04:30.432
195.0, -18470.095809709528, -4441.090457569416, -58380.00725269404, -17607.139659779034, -17112.49555498309, 6271.7430319479745, -38390.730427590664, -21028.92351495308, 0.652, -0.602, 0.52, 192.0, 0.0, 0.0, 0.0, 0.0, 0.0, 0.0, 0.0, 0.0, 0.0, 1.6636178704321368E9, 0.0, 2022-09-20 01:04:30.432
196.0, -18036.829595187857, -3800.332999269128, -58509.647370534825, -17512.144745843976, -16733.342913787714, 6106.518936934345, -38360.84614525392, -21041.06051219231, 0.652, -0.602, 0.52, 192.0, 0.0, 0.0, 0.0, 0.0, 0.0, 0.0, 0.0, 0.0, 0.0, 1.6636178704321823E9, 0.0, 2022-09-20 01:04:30.432
197.0, -17809.177077910554, -3434.479646024662, -58680.302939451096, -17538.22923162332, -14399.820792653656, 5963.780696842754, -38428.817800142504, -21120.967998620035, 0.652, -0.602, 0.52, 192.0, 0.0, 0.0, 0.0, 0.0, 0.0, 0.0, 0.0, 0.0, 0.0, 1.6636178704322095E9, 0.0, 2022-09-20 01:04:30.432
198.0, -18472.353335899512, -4412.882556066818, -58560.9222723153, -17755.08585632871, -13488.897799122073, 6166.8462952192185, -38556.02157783766, -21172.824045756348, 0.652, -0.602, 0.52, 192.0, 0.0, 0.0, 0.0, 0.0, 0.0, 0.0, 0.0, 0.0, 0.0, 1.6636178704322314E9, 0.0, 2022-09-20 01:04:30.432
199.0, -18795.224284556425, -4908.376027152065, -58358.63898499477, -17743.731170145413, -15517.139794485545, 6331.5563001103765, -38484.51834732513, -21099.04093730938, 0.652, -0.602, 0.52, 192.0, 0.0, 0.0, 0.0, 0.0, 0.0, 0.0, 0.0, 0.0, 0.0, 1.6636178704322524E9, 0.0, 2022-09-20 01:04:30.432
200.0, -18517.459156210323, -4486.151574391315, -58373.56995029092, -17624.797537898725, -17067.90382479475, 6271.7430319479745, -38388.58466012295, -21043.809776760314, 0.652, -0.602, 0.52, 192.0, 0.0, 0.0, 0.0, 0.0, 0.0, 0.0, 0.0, 0.0, 0.0, 1.6636178704322731E9, 0.0, 2022-09-20 01:04:30.432
201.0, -18048.184281371152, -3795.460318977871, -58522.54432708554, -17522.89593492698, -16638.66092427503, 6090.939771048996, -38359.281523142046, -21057.48904436696, 0.65, -0.594, 0.52, 192.0, 20.0, 80.0, 237.0, 112.0, 16.0, 64.0, 0.0, 0.0, 0.0, 1.6636178704322934E9, 0.0, 2022-09-20 01:04:30.432
202.0, -17830.23242118745, -3465.2803498840753, -58693.021082046165, -17562.48087435733, -14209.76390955018, 5957.5892636286335, -38444.79929742805, -21142.403321552672, 0.65, -0.594, 0.52, 192.0, 0.0, 0.0, 0.0, 0.0, 0.0, 0.0, 0.0, 0.0, 0.0, 1.6636178704323716E9, 0.0, 2022-09-20 01:04:30.432
203.0, -18503.958702559317, -4468.940731160728, -58556.60838563542, -17776.81175193927, -13424.435368112967, 6173.574170300266, -38559.73196741724, -21184.93869125112, 0.65, -0.594, 0.52, 192.0, 0.0, 0.0, 0.0, 0.0, 0.0, 0.0, 0.0, 0.0, 0.0, 1.6636178704323943E9, 0.0, 2022-09-20 01:04:30.432
204.0, -18793.167924066536, -4916.176785966967, -58358.54957801695, -17749.140292303597, -15522.68302711046, 6338.01595425796, -38478.9304112113, -21101.432573966096, 0.65, -0.594, 0.52, 192.0, 0.0, 0.0, 0.0, 0.0, 0.0, 0.0, 0.0, 0.0, 0.0, 1.6636178704324136E9, 0.0, 2022-09-20 01:04:30.432
205.0, -18487.932501784864, -4457.742507188619, -58371.51358980103, -17618.069662817677, -17042.914574493716, 6276.660415728142, -38382.72850307566, -21042.289858137352, 0.65, -0.594, 0.52, 192.0, 0.0, 0.0, 0.0, 0.0, 0.0, 0.0, 0.0, 0.0, 0.0, 1.6636178704324348E9, 0.0, 2022-09-20 01:04:30.432
206.0, -18005.715966906067, -3737.2563764162514, -58514.900030481826, -17513.0835191111, -16553.076094755663, 6091.6550268715655, -38346.898656713805, -21056.863195522215, 0.65, -0.594, 0.52, 192.0, 0.0, 0.0, 0.0, 0.0, 0.0, 0.0, 0.0, 0.0, 0.0, 1.663617870432459E9, 0.0, 2022-09-20 01:04:30.432
207.0, -17825.940886252032, -3455.020899179089, -58681.73345109623, -17560.916252245457, -14111.349178713463, 5963.244254975826, -38429.376593753885, -21143.118577375244, 0.65, -0.594, 0.52, 192.0, 0.0, 0.0, 0.0, 0.0, 0.0, 0.0, 0.0, 0.0, 0.0, 1.6636178704324808E9, 0.0, 2022-09-20 01:04:30.432
208.0, -18528.791490649164, -4489.504336059611, -58544.65020235183, -17783.696089231504, -13439.120464220103, 6179.430327347556, -38552.8029266361, -21192.71709832157, 0.65, -0.594, 0.52, 192.0, 0.0, 0.0, 0.0, 0.0, 0.0, 0.0, 0.0, 0.0, 0.0, 1.6636178704325025E9, 0.0, 2022-09-20 01:04:30.432
209.0, -18785.657737929552, -4897.468375857875, -58344.13270284328, -17748.04505682529, -15577.198931836956, 6337.412457157667, -38466.435786060785, -21102.79603037787, 0.65, -0.594, 0.52, 192.0, 0.0, 0.0, 0.0, 0.0, 0.0, 0.0, 0.0, 0.0, 0.0, 1.6636178704325244E9, 0.0, 2022-09-20 01:04:30.432
210.0, -18465.80427477411, -4433.870844110352, -58359.42129605071, -17613.644017415525, -17045.395618128256, 6273.777040693408, -38376.3582559059, -21041.12756742568, 0.65, -0.594, 0.52, 192.0, 0.0, 0.0, 0.0, 0.0, 0.0, 0.0, 0.0, 0.0, 0.0, 1.663617870432545E9, 0.0, 2022-09-20 01:04:30.432
211.0, -17986.582873652325, -3710.568393536615, -58514.117719425885, -17509.954274887357, -16488.92658816893, 6080.166230221538, -38353.894752728316, -21061.177082202088, 0.648, -0.592, 0.51, 192.0, 20.0, 64.0, 237.0, 128.0, 15.0, 240.0, 0.0, 0.0, 0.0, 1.6636178704325645E9, 0.0, 2022-09-20 01:04:30.432
212.0, -17838.346104424727, -3458.2395503806533, -58681.50993365168, -17567.889996515514, -14001.915037860279, 5956.583435128145, -38434.87512288989, -21149.13119663372, 0.648, -0.592, 0.51, 192.0, 0.0, 0.0, 0.0, 0.0, 0.0, 0.0, 0.0, 0.0, 0.0, 1.6636178704327106E9, 0.0, 2022-09-20 01:04:30.432
213.0, -18553.311354316636, -4523.501339376133, -58534.949545258234, -17789.239321856418, -13414.868821486096, 6187.387548373646, -38554.63576968143, -21190.616034342773, 0.648, -0.592, 0.51, 192.0, 0.0, 0.0, 0.0, 0.0, 0.0, 0.0, 0.0, 0.0, 0.0, 1.663617870432734E9, 0.0, 2022-09-20 01:04:30.432
214.0, -18805.662549217053, -4920.490672646842, -58347.48546451157, -17750.727266159924, -15636.207537198967, 6340.027611258938, -38471.73314949669, -21101.52198094392, 0.648, -0.592, 0.51, 192.0, 0.0, 0.0, 0.0, 0.0, 0.0, 0.0, 0.0, 0.0, 0.0, 1.6636178704327564E9, 0.0, 2022-09-20 01:04:30.432
215.0, -18477.7624580577, -4433.379105732334, -58376.4309735812, -17612.302912748208, -17093.80949661845, 6271.072479614316, -38382.16970946428, -21039.361779613708, 0.648, -0.592, 0.51, 192.0, 0.0, 0.0, 0.0, 0.0, 0.0, 0.0, 0.0, 0.0, 0.0, 1.6636178704328525E9, 0.0, 2022-09-20 01:04:30.432
216.0, -17974.579986879824, -3686.1602885914194, -58529.7639405446, -17496.65498693645, -16439.68569513389, 6076.2770266863145, -38352.86657248337, -21055.70090481054, 0.648, -0.592, 0.51, 192.0, 0.0, 0.0, 0.0, 0.0, 0.0, 0.0, 0.0, 0.0, 0.0, 1.663617870432871E9, 0.0, 2022-09-20 01:04:30.432
217.0, -17832.199374699518, -3462.9781202051786, -58684.14743949741, -17554.9930399648, -13860.897882091747, 5972.587284158145, -38445.55925673953, -21139.072911628835, 0.648, -0.592, 0.51, 192.0, 0.0, 0.0, 0.0, 0.0, 0.0, 0.0, 0.0, 0.0, 0.0, 1.6636178704328966E9, 0.0, 2022-09-20 01:04:30.432
218.0, -18573.450276070867, -4580.252418548157, -58524.7124462977, -17781.75148746389, -13371.528788987254, 6211.683894596565, -38565.498717486706, -21180.42363887115, 0.648, -0.592, 0.51, 192.0, 0.0, 0.0, 0.0, 0.0, 0.0, 0.0, 0.0, 0.0, 0.0, 1.6636178704329596E9, 0.0, 2022-09-20 01:04:30.432
219.0, -18805.550790494777, -4946.239882259355, -58336.488406239565, -17737.159757275553, -15666.896482336102, 6356.836123089329, -38481.94789671277, -21093.832980851294, 0.648, -0.592, 0.51, 192.0, 0.0, 0.0, 0.0, 0.0, 0.0, 0.0, 0.0, 0.0, 0.0, 1.6636178704329755E9, 0.0, 2022-09-20 01:04:30.432
220.0, -18464.55257708461, -4428.126445785338, -58361.50000828505, -17599.29419747522, -17099.375080987822, 6281.823668697318, -38385.92480253277, -21036.433701090064, 0.648, -0.592, 0.51, 192.0, 0.0, 0.0, 0.0, 0.0, 0.0, 0.0, 0.0, 0.0, 0.0, 1.6636178704330194E9, 0.0, 2022-09-20 01:04:30.433
221.0, -17956.184501193107, -3657.237131266252, -58523.19252767474, -17494.196295046368, -16383.515761317703, 6075.315901674736, -38355.97346496266, -21058.450169378542, 0.65, -0.594, 0.512, 192.0, 20.0, 80.0, 237.0, 112.0, 16.0, 0.0, 0.0, 0.0, 0.0, 1.6636178704330502E9, 0.0, 2022-09-20 01:04:30.433
222.0, -17843.01761901589, -3478.870210512902, -58680.97349178475, -17565.967746492355, -13785.594855021818, 5970.955606812908, -38457.15981211184, -21148.639458255704, 0.65, -0.594, 0.512, 192.0, 0.0, 0.0, 0.0, 0.0, 0.0, 0.0, 0.0, 0.0, 0.0, 1.6636178704330711E9, 0.0, 2022-09-20 01:04:30.433
223.0, -18590.795229768184, -4608.862651450951, -58515.0117892041, -17787.384127066627, -13398.283827100257, 6213.89671729764, -38570.12552858896, -21186.927996507646, 0.65, -0.594, 0.512, 192.0, 0.0, 0.0, 0.0, 0.0, 0.0, 0.0, 0.0, 0.0, 0.0, 1.6636178704330869E9, 0.0, 2022-09-20 01:04:30.433
224.0, -18789.81516239824, -4922.502329647819, -58326.29601076794, -17730.387178705594, -15725.59216327574, 6350.488227664021, -38471.44257681878, -21090.23434999399, 0.65, -0.594, 0.512, 192.0, 0.0, 0.0, 0.0, 0.0, 0.0, 0.0, 0.0, 0.0, 0.0, 1.6636178704331021E9, 0.0, 2022-09-20 01:04:30.433
225.0, -18440.435044817335, -4391.357826156357, -58358.5272262725, -17594.756793350793, -17115.78126141802, 6274.000558137961, -38376.604125094906, -21031.225744631978, 0.65, -0.594, 0.512, 192.0, 0.0, 0.0, 0.0, 0.0, 0.0, 0.0, 0.0, 0.0, 0.0, 1.6636178704331179E9, 0.0, 2022-09-20 01:04:30.433
226.0, -17935.576192805314, -3622.994258760722, -58529.04868472203, -17489.41302173293, -16333.514908971181, 6067.6492533265655, -38354.945284717716, -21056.840843777758, 0.65, -0.594, 0.512, 192.0, 0.0, 0.0, 0.0, 0.0, 0.0, 0.0, 0.0, 0.0, 0.0, 1.663617870433147E9, 0.0, 2022-09-20 01:04:30.433
227.0, -17861.413104702606, -3498.0703590000107, -58686.449669176305, -17576.830694297638, -13719.836022834304, 5963.199551486916, -38470.16852738483, -21159.927089205634, 0.65, -0.594, 0.512, 192.0, 0.0, 0.0, 0.0, 0.0, 0.0, 0.0, 0.0, 0.0, 0.0, 1.6636178704331632E9, 0.0, 2022-09-20 01:04:30.433
228.0, -18604.139221208003, -4631.370858117444, -58505.311132110495, -17796.1013074042, -13422.043731456248, 6210.879231796173, -38570.63961871143, -21194.684051833636, 0.65, -0.594, 0.512, 192.0, 0.0, 0.0, 0.0, 0.0, 0.0, 0.0, 0.0, 0.0, 0.0, 1.6636178704331796E9, 0.0, 2022-09-20 01:04:30.433
229.0, -18763.86478708563, -4897.736596791339, -58317.9141065972, -17728.21905949343, -15773.201378965543, 6345.749657839497, -38458.746785968164, -21091.106068027744, 0.65, -0.594, 0.512, 192.0, 0.0, 0.0, 0.0, 0.0, 0.0, 0.0, 0.0, 0.0, 0.0, 1.6636178704331956E9, 0.0, 2022-09-20 01:04:30.433
230.0, -18410.32724503604, -4360.28890136348, -58362.32702282989, -17592.119287505066, -17127.96296214616, 6261.081249842793, -38381.87913678636, -21035.092596422746, 0.65, -0.594, 0.512, 192.0, 0.0, 0.0, 0.0, 0.0, 0.0, 0.0, 0.0, 0.0, 0.0, 1.6636178704332118E9, 0.0, 2022-09-20 01:04:30.433
231.0, -17895.34305278576, -3584.862182719968, -58527.752283543625, -17481.299338495654, -16274.394544886894, 6049.901968229052, -38335.96865367516, -21059.79127404586, 0.648, -0.6, 0.504, 192.0, 20.0, 64.0, 237.0, 64.0, 15.0, 192.0, 0.0, 0.0, 0.0, 1.6636178704332304E9, 0.0, 2022-09-20 01:04:30.433
232.0, -17853.210014487508, -3490.3590071629296, -58671.8986835359, -17571.309813417174, -13649.808007455827, 5966.41820268848, -38442.98880612717, -21155.970830437047, 0.648, -0.6, 0.504, 192.0, 0.0, 0.0, 0.0, 0.0, 0.0, 0.0, 0.0, 0.0, 0.0, 1.6636178704332488E9, 0.0, 2022-09-20 01:04:30.433
0.0, 0.0, 0.0, 0.0, 0.0, 0.0, 0.0, 0.0, 0.0, 0.648, -0.6, 0.502, 192.0, 20.0, 64.0, 237.0, 64.0, 15.0, 176.0, 0.0, 0.0, 0.0, 1.6636178705219429E9, 0.0, 2022-09-20 01:04:30.521
1.0, -16076.447495990695, -2511.5761174650333, -56385.27052226908, -18068.90434848122, -14595.398556637592, 7093.303751147241, -36761.55647773224, -19597.718965735312, 0.648, -0.6, 0.502, 192.0, 0.0, 0.0, 0.0, 0.0, 0.0, 0.0, 0.0, 0.0, 0.0, 1.663617870538022E9, 0.0, 2022-09-20 01:04:30.538
2.0, -15749.955564732023, -1915.2539271418964, -56527.60643096047, -18012.399138498204, -13209.61275215301, 6926.760903210748, -36752.615779950116, -19622.015311958232, 0.648, -0.6, 0.502, 192.0, 0.0, 0.0, 0.0, 0.0, 0.0, 0.0, 0.0, 0.0, 0.0, 1.6636178710176244E9, 0.0, 2022-09-20 01:04:31.017
3.0, -16007.112384690332, -2286.114071144351, -56566.0514314236, -18157.21609082414, -11485.376833126169, 6963.976557728834, -36873.09168256422, -19702.548647230702, 0.648, -0.6, 0.502, 192.0, 0.0, 0.0, 0.0, 0.0, 0.0, 0.0, 0.0, 0.0, 0.0, 1.6636178710178378E9, 0.0, 2022-09-20 01:04:31.017
4.0, -16453.856701118555, -3100.2987146733662, -56395.61937995188, -18249.55114716901, -12375.311538614218, 7162.348289769685, -36902.707743967505, -19696.491324483315, 0.648, -0.6, 0.502, 192.0, 0.0, 0.0, 0.0, 0.0, 0.0, 0.0, 0.0, 0.0, 0.0, 1.663617871017872E9, 0.0, 2022-09-20 01:04:31.017
5.0, -16363.645060496934, -3017.1949287885345, -56320.83044300443, -18155.07032335643, -14146.664934952849, 7188.253961593386, -36804.85180674217, -19624.429300359407, 0.648, -0.6, 0.502, 192.0, 0.0, 0.0, 0.0, 0.0, 0.0, 0.0, 0.0, 0.0, 0.0, 1.6636178710179086E9, 0.0, 2022-09-20 01:04:31.017
6.0, -16063.282318506519, -2507.8657278854525, -56373.11117328539, -18065.931566468666, -14582.948634975986, 7087.492297588861, -36735.80726811973, -19598.54598028016, 0.648, -0.6, 0.502, 192.0, 0.0, 0.0, 0.0, 0.0, 0.0, 0.0, 0.0, 0.0, 0.0, 1.663617871017936E9, 0.0, 2022-09-20 01:04:31.017
7.0, -15727.760282487903, -1894.4444530540054, -56516.16233779935, -18012.287379775928, -13153.08519042554, 6920.837690930091, -36732.49920994034, -19624.69752129287, 0.648, -0.6, 0.502, 192.0, 0.0, 0.0, 0.0, 0.0, 0.0, 0.0, 0.0, 0.0, 0.0, 1.6636178710179584E9, 0.0, 2022-09-20 01:04:31.017
8.0, -16009.973407980611, -2299.569821306446, -56550.38285856043, -18161.14999784827, -11468.70243176251, 6972.3137584106635, -36862.921638837055, -19701.207542563385, 0.644, -0.604, 0.506, 192.0, 20.0, 32.0, 237.0, 32.0, 15.0, 208.0, 0.0, 0.0, 0.0, 1.6636178710179799E9, 0.0, 2022-09-20 01:04:31.017
9.0, -16459.176416298917, -3114.42501716912, -56379.39201347733, -18248.880594835355, -12430.520347418827, 7170.238455562408, -36893.72234269647, -19691.439830236417, 0.644, -0.604, 0.506, 192.0, 0.0, 0.0, 0.0, 0.0, 0.0, 0.0, 0.0, 0.0, 0.0, 1.6636178710180109E9, 0.0, 2022-09-20 01:04:31.018
10.0, -16348.04354286713, -2994.597315144219, -56310.57099229944, -18150.756436676555, -14170.558949775572, 7191.539668028316, -36799.26387062835, -19617.969646211823, 0.644, -0.604, 0.506, 192.0, 0.0, 0.0, 0.0, 0.0, 0.0, 0.0, 0.0, 0.0, 0.0, 1.6636178710180323E9, 0.0, 2022-09-20 01:04:31.018
11.0, -16047.12200726533, -2488.240896253693, -56370.563074417485, -18052.922851195675, -14560.351021331671, 7096.790623282269, -36736.23195126438, -19586.02900338519, 0.644, -0.604, 0.506, 192.0, 0.0, 0.0, 0.0, 0.0, 0.0, 0.0, 0.0, 0.0, 0.0, 1.6636178710180557E9, 0.0, 2022-09-20 01:04:31.018
12.0, -15727.53676504335, -1898.9371536895221, -56515.87176512144, -18003.056109315887, -13103.21844854575, 6926.850310188569, -36730.33109072818, -19616.248561888762, 0.644, -0.604, 0.506, 192.0, 0.0, 0.0, 0.0, 0.0, 0.0, 0.0, 0.0, 0.0, 0.0, 1.663617871018078E9, 0.0, 2022-09-20 01:04:31.018
13.0, -16026.31253317744, -2343.9380340502303, -56548.57236725955, -18163.07224787143, -11462.287481103836, 6974.057194478178, -36869.31423775128, -19700.782859418734, 0.644, -0.604, 0.506, 192.0, 0.0, 0.0, 0.0, 0.0, 0.0, 0.0, 0.0, 0.0, 0.0, 1.6636178710181053E9, 0.0, 2022-09-20 01:04:31.018
14.0, -16457.768256398234, -3147.9302821076253, -56377.33565298744, -18251.115769280885, -12466.730173436425, 7173.032423619321, -36896.136331097645, -19693.362080259572, 0.644, -0.604, 0.506, 192.0, 0.0, 0.0, 0.0, 0.0, 0.0, 0.0, 0.0, 0.0, 0.0, 1.663617871018134E9, 0.0, 2022-09-20 01:04:31.018
15.0, -16349.8093306791, -3020.1677108010904, -56312.42618708923, -18151.225823310117, -14193.804764009092, 7193.037234906821, -36804.91886197554, -19615.84623048857, 0.644, -0.604, 0.506, 192.0, 0.0, 0.0, 0.0, 0.0, 0.0, 0.0, 0.0, 0.0, 0.0, 1.6636178710182126E9, 0.0, 2022-09-20 01:04:31.018
16.0, -16061.047144060987, -2525.4789025162345, -56376.9556733317, -18062.04236293344, -14558.227605608417, 7085.25712314333, -36748.74892815935, -19590.521704020706, 0.644, -0.604, 0.506, 192.0, 0.0, 0.0, 0.0, 0.0, 0.0, 0.0, 0.0, 0.0, 0.0, 1.663617871018244E9, 0.0, 2022-09-20 01:04:31.018
17.0, -15743.1159309287, -1941.3384129212395, -56514.016570331645, -18008.46523147407, -13062.180645725804, 6922.223499086321, -36735.22612276389, -19617.522611322715, 0.644, -0.604, 0.506, 192.0, 0.0, 0.0, 0.0, 0.0, 0.0, 0.0, 0.0, 0.0, 0.0, 1.6636178710182724E9, 0.0, 2022-09-20 01:04:31.018
18.0, -16036.84020481589, -2385.311113037004, -56529.23810830571, -18156.67964895721, -11448.541158263823, 6984.3389969276195, -36858.00425505689, -19698.570036717658, 0.648, -0.604, 0.502, 192.0, 20.0, 64.0, 237.0, 32.0, 15.0, 176.0, 0.0, 0.0, 0.0, 1.6636178710183024E9, 0.0, 2022-09-20 01:04:31.018
19.0, -16468.564148970145, -3166.191657327611, -56359.61071963439, -18240.252821475606, -12496.56975228426, 7174.127659097631, -36886.838005404235, -19693.876170382046, 0.648, -0.604, 0.502, 192.0, 0.0, 0.0, 0.0, 0.0, 0.0, 0.0, 0.0, 0.0, 0.0, 1.663617871018329E9, 0.0, 2022-09-20 01:04:31.018
20.0, -16351.776284191166, -3035.6127662197073, -56298.25518110456, -18148.342448275384, -14205.67354031486, 7189.952694171989, -36799.26387062835, -19625.63629455999, 0.648, -0.604, 0.502, 192.0, 0.0, 0.0, 0.0, 0.0, 0.0, 0.0, 0.0, 0.0, 0.0, 1.6636178710183609E9, 0.0, 2022-09-20 01:04:31.018
21.0, -16048.753684610569, -2527.1329316059273, -56362.27057722457, -18058.555490798415, -14535.138253586085, 7089.749823778847, -36741.26109376682, -19596.55667502364, 0.648, -0.604, 0.502, 192.0, 0.0, 0.0, 0.0, 0.0, 0.0, 0.0, 0.0, 0.0, 0.0, 1.6636178710183885E9, 0.0, 2022-09-20 01:04:31.018
22.0, -15740.143148916144, -1948.1780467245635, -56511.647285419385, -18015.79660365541, -13012.358607334925, 6927.27499333322, -36745.060890324225, -19630.106643451054, 0.648, -0.604, 0.502, 192.0, 0.0, 0.0, 0.0, 0.0, 0.0, 0.0, 0.0, 0.0, 0.0, 1.6636178710184162E9, 0.0, 2022-09-20 01:04:31.018
23.0, -16057.51556843705, -2423.5549478000344, -56526.71236118226, -18171.163579364253, -11442.439132027523, 6997.303008711697, -36872.3540749972, -19707.778955433245, 0.648, -0.604, 0.502, 192.0, 0.0, 0.0, 0.0, 0.0, 0.0, 0.0, 0.0, 0.0, 0.0, 1.663617871018468E9, 0.0, 2022-09-20 01:04:31.018
24.0, -16476.946053140888, -3198.802852487904, -56352.659327108784, -18246.980696556653, -12536.937002770544, 7186.599932503693, -36888.71555193848, -19691.08220232513, 0.648, -0.604, 0.502, 192.0, 0.0, 0.0, 0.0, 0.0, 0.0, 0.0, 0.0, 0.0, 0.0, 1.6636178710184908E9, 0.0, 2022-09-20 01:04:31.018
25.0, -16351.463359768792, -3048.4426675370537, -56289.113317622345, -18146.129625574307, -14231.042770271633, 7201.262676866374, -36792.82656822522, -19616.941465966876, 0.648, -0.604, 0.502, 192.0, 0.0, 0.0, 0.0, 0.0, 0.0, 0.0, 0.0, 0.0, 0.0, 1.663617871018524E9, 0.0, 2022-09-20 01:04:31.018
26.0, -16050.117141022343, -2533.7266962202425, -56357.82258007796, -18055.426246574672, -14527.44925349346, 7090.532134834783, -36741.59636993365, -19594.343852322563, 0.648, -0.604, 0.502, 192.0, 0.0, 0.0, 0.0, 0.0, 0.0, 0.0, 0.0, 0.0, 0.0, 1.6636178710185828E9, 0.0, 2022-09-20 01:04:31.018
27.0, -15750.492006598952, -1977.0117970719098, -56504.85235510497, -18012.309731520385, -12965.062316067495, 6926.269164832732, -36741.10463155564, -19628.11733819453, 0.648, -0.604, 0.502, 192.0, 0.0, 0.0, 0.0, 0.0, 0.0, 0.0, 0.0, 0.0, 0.0, 1.663617871018627E9, 0.0, 2022-09-20 01:04:31.018
28.0, -16087.712775196169, -2479.0543292825614, -56519.090416323, -18172.907015431763, -11430.145672577104, 6997.951209300901, -36864.955647582494, -19708.293045555718, 0.646, -0.602, 0.506, 192.0, 20.0, 48.0, 237.0, 48.0, 15.0, 208.0, 0.0, 0.0, 0.0, 1.663617871018658E9, 0.0, 2022-09-20 01:04:31.018
29.0, -16501.376509830538, -3230.87760578127, -56348.546606129006, -18248.232394246148, -12565.234311250962, 7187.158726115075, -36882.30060127981, -19693.27267328175, 0.646, -0.602, 0.506, 192.0, 0.0, 0.0, 0.0, 0.0, 0.0, 0.0, 0.0, 0.0, 0.0, 1.6636178710186918E9, 0.0, 2022-09-20 01:04:31.018
30.0, -16363.66741224139, -3058.8362287087716, -56290.56618101194, -18147.35897151935, -14239.312915720096, 7191.830240706235, -36800.157940406556, -19623.40112011446, 0.646, -0.602, 0.506, 192.0, 0.0, 0.0, 0.0, 0.0, 0.0, 0.0, 0.0, 0.0, 0.0, 1.6636178710187252E9, 0.0, 2022-09-20 01:04:31.018
31.0, -16040.215318228642, -2531.7150392192652, -56361.22004523517, -18053.794569229434, -14500.873029336099, 7079.0209864403, -36740.255265266336, -19600.98232042579, 0.646, -0.602, 0.506, 192.0, 0.0, 0.0, 0.0, 0.0, 0.0, 0.0, 0.0, 0.0, 0.0, 1.6636178710187883E9, 0.0, 2022-09-20 01:04:31.018
32.0, -15735.784558747358, -1964.2042474990187, -56504.47237544923, -18015.48367923304, -12912.781585786532, 6917.216708328332, -36739.13767804357, -19637.728588310314, 0.646, -0.602, 0.506, 192.0, 0.0, 0.0, 0.0, 0.0, 0.0, 0.0, 0.0, 0.0, 0.0, 1.663617871018804E9, 0.0, 2022-09-20 01:04:31.018
33.0, -16083.08596409392, -2487.0562537975616, -56512.11667205294, -18181.288919602506, -11428.670457443055, 6997.168898244965, -36868.86720286217, -19718.910124171987, 0.646, -0.602, 0.506, 192.0, 0.0, 0.0, 0.0, 0.0, 0.0, 0.0, 0.0, 0.0, 0.0, 1.6636178710188189E9, 0.0, 2022-09-20 01:04:31.018
34.0, -16481.50580900977, -3229.424742391675, -56341.7963793035, -18246.824234345466, -12611.994160651466, 7187.784574959824, -36881.4065315016, -19695.932530871934, 0.646, -0.602, 0.506, 192.0, 0.0, 0.0, 0.0, 0.0, 0.0, 0.0, 0.0, 0.0, 0.0, 1.663617871018834E9, 0.0, 2022-09-20 01:04:31.018
35.0, -16343.752007931711, -3048.5767780037854, -56294.05305314697, -18147.381323263806, -14277.042660360654, 7191.1373366281205, -36791.91014670255, -19625.591591071083, 0.646, -0.602, 0.506, 192.0, 0.0, 0.0, 0.0, 0.0, 0.0, 0.0, 0.0, 0.0, 0.0, 1.663617871018849E9, 0.0, 2022-09-20 01:04:31.018
36.0, -16032.727483836114, -2515.7335419337205, -56366.24918773761, -18053.369886084784, -14505.812764860722, 7080.943236463456, -36737.41659372051, -19597.98718666878, 0.646, -0.602, 0.506, 192.0, 0.0, 0.0, 0.0, 0.0, 0.0, 0.0, 0.0, 0.0, 0.0, 1.6636178710188642E9, 0.0, 2022-09-20 01:04:31.018
37.0, -15744.099407684733, -1970.1051080352197, -56520.20800354576, -18019.79756591291, -12881.913826693753, 6917.261411817242, -36751.94522761646, -19634.867565020035, 0.646, -0.602, 0.506, 192.0, 0.0, 0.0, 0.0, 0.0, 0.0, 0.0, 0.0, 0.0, 0.0, 1.6636178710188792E9, 0.0, 2022-09-20 01:04:31.018
38.0, -16110.37744407385, -2527.35644905048, -56521.504404724175, -18180.797181224487, -11436.605326724688, 7002.175689002954, -36884.87105189217, -19709.455336267394, 0.646, -0.604, 0.506, 192.0, 20.0, 48.0, 237.0, 32.0, 15.0, 208.0, 0.0, 0.0, 0.0, 1.6636178710188942E9, 0.0, 2022-09-20 01:04:31.018
39.0, -16495.40859406097, -3252.938777558658, -56347.67488809525, -18239.22464123066, -12662.754972309467, 7188.298665082296, -36893.208252574, -19685.22604527784, 0.646, -0.604, 0.506, 192.0, 0.0, 0.0, 0.0, 0.0, 0.0, 0.0, 0.0, 0.0, 0.0, 1.66361787101891E9, 0.0, 2022-09-20 01:04:31.018
40.0, -16346.545975988625, -3062.0995833992465, -56306.90530620877, -18141.771035405523, -14305.876410708, 7188.678644738036, -36808.9868794664, -19621.233000902295, 0.646, -0.604, 0.506, 192.0, 0.0, 0.0, 0.0, 0.0, 0.0, 0.0, 0.0, 0.0, 0.0, 1.663617871018925E9, 0.0, 2022-09-20 01:04:31.018
41.0, -16038.807158327958, -2529.3457543070026, -56380.710766400196, -18047.37961857076, -14500.001311302341, 7077.54577130625, -36751.922875872006, -19598.613035513525, 0.646, -0.604, 0.506, 192.0, 0.0, 0.0, 0.0, 0.0, 0.0, 0.0, 0.0, 0.0, 0.0, 1.66361787101894E9, 0.0, 2022-09-20 01:04:31.018
42.0, -15770.69798358655, -2000.2352595609736, -56527.69583793829, -18012.42149024266, -12841.211300040639, 6922.737589208793, -36759.522468986805, -19634.420530130927, 0.646, -0.604, 0.506, 192.0, 0.0, 0.0, 0.0, 0.0, 0.0, 0.0, 0.0, 0.0, 0.0, 1.6636178710189552E9, 0.0, 2022-09-20 01:04:31.018
43.0, -16152.443427138738, -2575.6585688183986, -56528.94753562779, -18183.54644579249, -11437.521748247356, 7011.161090273988, -36898.43856077654, -19711.869324668565, 0.646, -0.604, 0.506, 192.0, 0.0, 0.0, 0.0, 0.0, 0.0, 0.0, 0.0, 0.0, 0.0, 1.6636178710189703E9, 0.0, 2022-09-20 01:04:31.018
44.0, -16525.672856053454, -3282.1748593062, -56356.19090273272, -18243.806748844, -12697.735452382023, 7194.04306340731, -36897.83506367625, -19689.092897068607, 0.646, -0.604, 0.506, 192.0, 0.0, 0.0, 0.0, 0.0, 0.0, 0.0, 0.0, 0.0, 0.0, 1.6636178710189853E9, 0.0, 2022-09-20 01:04:31.018
45.0, -16367.154284376418, -3077.566990562319, -56311.17448939973, -18142.553346461456, -14319.801547503657, 7188.9468656715, -36805.879986987115, -19619.64602704597, 0.646, -0.604, 0.506, 192.0, 0.0, 0.0, 0.0, 0.0, 0.0, 0.0, 0.0, 0.0, 0.0, 1.663617871019E9, 0.0, 2022-09-20 01:04:31.019
46.0, -16047.881966576811, -2533.9278619203405, -56384.86819086888, -18051.537043039447, -14481.382308171073, 7069.92382644699, -36751.162916560526, -19604.11156464953, 0.646, -0.604, 0.506, 192.0, 0.0, 0.0, 0.0, 0.0, 0.0, 0.0, 0.0, 0.0, 0.0, 1.663617871019033E9, 0.0, 2022-09-20 01:04:31.019
47.0, -15774.676594099594, -2008.0583701203311, -56529.841605406, -18021.339836280327, -12795.993721007553, 6917.551984495161, -36763.76930043332, -19643.249469190774, 0.646, -0.604, 0.506, 192.0, 0.0, 0.0, 0.0, 0.0, 0.0, 0.0, 0.0, 0.0, 0.0, 1.663617871019048E9, 0.0, 2022-09-20 01:04:31.019
48.0, -16165.943880789744, -2607.710970367309, -56518.419863989344, -18190.050803428985, -11441.478007015945, 7017.643096166026, -36893.92350839657, -19716.116156115077, 0.646, -0.608, 0.504, 192.0, 20.0, 48.0, 237.0, 0.0, 15.0, 192.0, 0.0, 0.0, 0.0, 1.6636178710190668E9, 0.0, 2022-09-20 01:04:31.019
49.0, -16533.183042190438, -3302.1573188492443, -56346.66905959476, -18241.906850565298, -12753.972441431575, 7195.339464585718, -36892.984735129445, -19690.568112202658, 0.646, -0.608, 0.504, 192.0, 0.0, 0.0, 0.0, 0.0, 0.0, 0.0, 0.0, 0.0, 0.0, 1.6636178710190823E9, 0.0, 2022-09-20 01:04:31.019
50.0, -16366.260214598205, -3082.551429575852, -56305.63125677482, -18135.713712658133, -14352.8374258086, 7188.857458693678, -36804.31536487524, -19623.02114045872, 0.646, -0.608, 0.504, 192.0, 0.0, 0.0, 0.0, 0.0, 0.0, 0.0, 0.0, 0.0, 0.0, 1.6636178710190973E9, 0.0, 2022-09-20 01:04:31.019
51.0, -16051.234728245108, -2545.617824270466, -56386.67868216976, -18044.295077835926, -14476.53197962427, 7069.745012491348, -36756.75085267435, -19605.54207629467, 0.646, -0.608, 0.504, 192.0, 0.0, 0.0, 0.0, 0.0, 0.0, 0.0, 0.0, 0.0, 0.0, 1.6636178710191123E9, 0.0, 2022-09-20 01:04:31.019
52.0, -15781.180951736087, -2043.2623676374399, -56529.93101238382, -18017.450632745105, -12764.209540392107, 6918.110778106544, -36771.279486570296, -19641.528384867714, 0.646, -0.608, 0.504, 192.0, 0.0, 0.0, 0.0, 0.0, 0.0, 0.0, 0.0, 0.0, 0.0, 1.6636178710191271E9, 0.0, 2022-09-20 01:04:31.019
53.0, -16184.205256009729, -2672.3969188209676, -56516.1399860549, -18191.7942394965, -11465.148504394116, 7014.96088683139, -36903.28888932335, -19724.453356796905, 0.646, -0.608, 0.504, 192.0, 0.0, 0.0, 0.0, 0.0, 0.0, 0.0, 0.0, 0.0, 0.0, 1.6636178710191422E9, 0.0, 2022-09-20 01:04:31.019
54.0, -16530.053797966695, -3341.675203046227, -56345.596175860905, -18236.162452240285, -12813.696302616156, 7190.712653483469, -36894.169377585575, -19695.887827383023, 0.646, -0.608, 0.504, 192.0, 0.0, 0.0, 0.0, 0.0, 0.0, 0.0, 0.0, 0.0, 0.0, 1.6636178710191572E9, 0.0, 2022-09-20 01:04:31.019
55.0, -16349.228185323262, -3098.085891972291, -56306.36886434184, -18128.427043965705, -14382.453487211882, 7182.151935357087, -36798.59331829468, -19622.283532891695, 0.646, -0.608, 0.504, 192.0, 0.0, 0.0, 0.0, 0.0, 0.0, 0.0, 0.0, 0.0, 0.0, 1.663617871019172E9, 0.0, 2022-09-20 01:04:31.019
56.0, -16024.658504087747, -2548.2553301161925, -56382.789478634535, -18039.556508011403, -14467.881854520067, 7067.085154901166, -36745.03853857977, -19602.234018115287, 0.646, -0.608, 0.504, 192.0, 0.0, 0.0, 0.0, 0.0, 0.0, 0.0, 0.0, 0.0, 0.0, 1.6636178710191867E9, 0.0, 2022-09-20 01:04:31.019
57.0, -15761.846692782246, -2052.8512660087667, -56525.23714604821, -18019.61875195727, -12727.910307396687, 6921.865871175036, -36763.05404461075, -19644.54587036918, 0.646, -0.608, 0.504, 192.0, 0.0, 0.0, 0.0, 0.0, 0.0, 0.0, 0.0, 0.0, 0.0, 1.6636178710192015E9, 0.0, 2022-09-20 01:04:31.019
58.0, -16184.942863576754, -2704.5387273476995, -56511.44611971929, -18203.50655359108, -11478.045460944828, 7022.292259012731, -36899.7573136994, -19728.47667079886, 0.64, -0.608, 0.498, 192.0, 20.0, 0.0, 237.0, 0.0, 15.0, 144.0, 0.0, 0.0, 0.0, 1.6636178710192168E9, 0.0, 2022-09-20 01:04:31.019
59.0, -16532.311324156683, -3359.646005588294, -56347.74194332862, -18252.121597781374, -12868.011041642552, 7191.897295939601, -36895.17520608607, -19705.23085656534, 0.64, -0.608, 0.498, 192.0, 0.0, 0.0, 0.0, 0.0, 0.0, 0.0, 0.0, 0.0, 0.0, 1.6636178710192323E9, 0.0, 2022-09-20 01:04:31.019
60.0, -16347.350638789016, -3107.1159967322346, -56309.90043996578, -18147.40367500826, -14410.773147436757, 7185.817621447757, -36789.56321353474, -19638.17562319942, 0.64, -0.608, 0.498, 192.0, 0.0, 0.0, 0.0, 0.0, 0.0, 0.0, 0.0, 0.0, 0.0, 1.6636178710192473E9, 0.0, 2022-09-20 01:04:31.019
61.0, -16032.168690224731, -2563.9015512349074, -56392.087804327944, -18060.745961755034, -14458.829398015667, 7065.274663600286, -36738.80240187674, -19618.819012501124, 0.64, -0.608, 0.498, 192.0, 0.0, 0.0, 0.0, 0.0, 0.0, 0.0, 0.0, 0.0, 0.0, 1.6636178710192752E9, 0.0, 2022-09-20 01:04:31.019
62.0, -15793.273245486409, -2087.2729524699394, -56541.10688461148, -18046.9102319372, -12704.37392048525, 6917.551984495161, -36766.585620234684, -19660.907347310465, 0.64, -0.608, 0.498, 192.0, 0.0, 0.0, 0.0, 0.0, 0.0, 0.0, 0.0, 0.0, 0.0, 1.6636178710192904E9, 0.0, 2022-09-20 01:04:31.019
63.0, -16216.838802914477, -2741.0838295321264, -56519.20217504528, -18214.928295007743, -11513.361217184212, 7033.132855073554, -36904.49588352393, -19727.828470209657, 0.64, -0.608, 0.498, 192.0, 0.0, 0.0, 0.0, 0.0, 0.0, 0.0, 0.0, 0.0, 0.0, 1.6636178710193055E9, 0.0, 2022-09-20 01:04:31.019
64.0, -16537.854556781596, -3365.256293446576, -56344.277422938045, -18241.415112187282, -12925.477376637147, 7208.169365903064, -36890.63780196164, -19688.288234268217, 0.64, -0.608, 0.498, 192.0, 0.0, 0.0, 0.0, 0.0, 0.0, 0.0, 0.0, 0.0, 0.0, 1.6636178710193205E9, 0.0, 2022-09-20 01:04:31.019
65.0, -16344.400208520916, -3101.304543173855, -56314.66136153476, -18135.512546958034, -14443.674915274969, 7194.1324703851315, -36807.66812654354, -19622.685864291892, 0.64, -0.608, 0.498, 192.0, 0.0, 0.0, 0.0, 0.0, 0.0, 0.0, 0.0, 0.0, 0.0, 1.6636178710193355E9, 0.0, 2022-09-20 01:04:31.019
66.0, -16014.35434989385, -2540.4098678123796, -56398.50275498662, -18043.959801669098, -14445.641868787035, 7073.164829393009, -36748.61481769262, -19599.752974480747, 0.64, -0.608, 0.498, 192.0, 0.0, 0.0, 0.0, 0.0, 0.0, 0.0, 0.0, 0.0, 0.0, 1.6636178710193503E9, 0.0, 2022-09-20 01:04:31.019
67.0, -15775.995347022457, -2077.8405163098, -56546.158378858374, -18033.70035096411, -12652.204948926563, 6925.777426454714, -36764.3280940447, -19645.618754103038, 0.64, -0.608, 0.498, 192.0, 0.0, 0.0, 0.0, 0.0, 0.0, 0.0, 0.0, 0.0, 0.0, 1.6636178710193653E9, 0.0, 2022-09-20 01:04:31.019
68.0, -16211.295570289562, -2758.1382105515254, -56516.18468954381, -18213.073100217953, -11511.528374138878, 7042.6323464670595, -36904.76410445739, -19721.994664906822, 0.642, -0.606, 0.504, 192.0, 20.0, 16.0, 237.0, 16.0, 15.0, 192.0, 0.0, 0.0, 0.0, 1.6636178710193803E9, 0.0, 2022-09-20 01:04:31.019
69.0, -16523.817661263663, -3358.2378456876095, -56340.81290254747, -18238.956420297196, -12974.897083627831, 7213.198508405508, -36886.36861877068, -19682.141504543008, 0.642, -0.606, 0.504, 192.0, 0.0, 0.0, 0.0, 0.0, 0.0, 0.0, 0.0, 0.0, 0.0, 1.6636178710193985E9, 0.0, 2022-09-20 01:04:31.019
70.0, -16331.793824648123, -3085.9265429886036, -56308.134652153814, -18130.14812828876, -14470.944043510442, 7195.562982030271, -36794.94998394847, -19614.907457221445, 0.642, -0.606, 0.504, 192.0, 0.0, 0.0, 0.0, 0.0, 0.0, 0.0, 0.0, 0.0, 0.0, 1.6636178710194135E9, 0.0, 2022-09-20 01:04:31.019
71.0, -16005.480707345094, -2529.2786990736367, -56395.01588285159, -18040.227060345063, -14436.947040193922, 7069.096811902144, -36745.41851823551, -19598.814201213623, 0.642, -0.606, 0.504, 192.0, 0.0, 0.0, 0.0, 0.0, 0.0, 0.0, 0.0, 0.0, 0.0, 1.6636178710194337E9, 0.0, 2022-09-20 01:04:31.019
72.0, -15779.1245912462, -2086.9823797920203, -56542.44798927879, -18032.26983931897, -12623.393550323672, 6927.61026950005, -36774.67695172751, -19645.97638201432, 0.642, -0.606, 0.504, 192.0, 0.0, 0.0, 0.0, 0.0, 0.0, 0.0, 0.0, 0.0, 0.0, 1.6636178710194488E9, 0.0, 2022-09-20 01:04:31.019
73.0, -16214.715387191223, -2786.793146943229, -56501.32077948103, -18203.014815213064, -11532.449606949045, 7053.674108227981, -36901.54545325583, -19716.652597982003, 0.642, -0.606, 0.504, 192.0, 0.0, 0.0, 0.0, 0.0, 0.0, 0.0, 0.0, 0.0, 0.0, 1.6636178710194638E9, 0.0, 2022-09-20 01:04:31.019
74.0, -16522.498908340804, -3382.355377954886, -56338.35421065739, -18229.568687625968, -13034.799758768053, 7212.550307816304, -36885.519252481376, -19682.454428965382, 0.642, -0.606, 0.504, 192.0, 0.0, 0.0, 0.0, 0.0, 0.0, 0.0, 0.0, 0.0, 0.0, 1.6636178710194788E9, 0.0, 2022-09-20 01:04:31.019
75.0, -16335.638324694435, -3107.8312525548045, -56315.2425068906, -18125.25309625305, -14508.91965734001, 7188.432775549028, -36798.32509736122, -19617.50025957826, 0.642, -0.606, 0.504, 192.0, 0.0, 0.0, 0.0, 0.0, 0.0, 0.0, 0.0, 0.0, 0.0, 1.6636178710194936E9, 0.0, 2022-09-20 01:04:31.019
76.0, -16003.603160810848, -2544.7684579811644, -56395.48526948515, -18029.162946839686, -14431.537918035738, 7059.932596675468, -36738.422422220996, -19602.725756493302, 0.642, -0.606, 0.504, 192.0, 0.0, 0.0, 0.0, 0.0, 0.0, 0.0, 0.0, 0.0, 0.0, 1.663617871019517E9, 0.0, 2022-09-20 01:04:31.019
77.0, -15790.680443129593, -2131.3952960247157, -56545.21960559126, -18028.313580550384, -12588.591884206759, 6917.350818795064, -36776.50979477284, -19656.79462633069, 0.642, -0.606, 0.504, 192.0, 0.0, 0.0, 0.0, 0.0, 0.0, 0.0, 0.0, 0.0, 0.0, 1.6636178710195725E9, 0.0, 2022-09-20 01:04:31.019
78.0, -16250.656992275357, -2868.1311450160915, -56502.0360353036, -18208.155716437785, -11566.826589921307, 7041.5147592442945, -36910.30733708231, -19733.304647601206, 0.642, -0.602, 0.506, 192.0, 20.0, 16.0, 237.0, 48.0, 15.0, 208.0, 0.0, 0.0, 0.0, 1.6636178710196002E9, 0.0, 2022-09-20 01:04:31.019
79.0, -16537.429873636946, -3427.9082331548016, -56333.1462541993, -18224.584248612435, -13100.647997933389, 7196.054720408288, -36889.16258682759, -19693.451487237395, 0.642, -0.602, 0.506, 192.0, 0.0, 0.0, 0.0, 0.0, 0.0, 0.0, 0.0, 0.0, 0.0, 1.66361787101963E9, 0.0, 2022-09-20 01:04:31.019
80.0, -16336.465339239281, -3131.747619121983, -56311.17448939973, -18117.00530254904, -14542.871957167621, 7167.243321805397, -36794.36883859263, -19623.289361392184, 0.642, -0.602, 0.506, 192.0, 0.0, 0.0, 0.0, 0.0, 0.0, 0.0, 0.0, 0.0, 0.0, 1.6636178710196579E9, 0.0, 2022-09-20 01:04:31.019
81.0, -16006.441832356673, -2565.9132082358847, -56393.20539155071, -18023.46325200358, -14426.32996157765, 7040.978317377368, -36732.27569249579, -19604.40213732745, 0.642, -0.602, 0.506, 192.0, 0.0, 0.0, 0.0, 0.0, 0.0, 0.0, 0.0, 0.0, 0.0, 1.6636178710196853E9, 0.0, 2022-09-20 01:04:31.019
82.0, -15801.923370590614, -2154.127020135763, -56535.85422466448, -18024.826708415356, -12564.29553798384, 6904.967952366824, -36775.4816145279, -19655.431169918917, 0.642, -0.602, 0.506, 192.0, 0.0, 0.0, 0.0, 0.0, 0.0, 0.0, 0.0, 0.0, 0.0, 1.6636178710197127E9, 0.0, 2022-09-20 01:04:31.019
83.0, -16266.12439943843, -2899.0436075977814, -56483.50643915015, -18203.640664057813, -11588.4854302985, 7040.955965632912, -36899.9584793995, -19726.912048686987, 0.642, -0.602, 0.506, 192.0, 0.0, 0.0, 0.0, 0.0, 0.0, 0.0, 0.0, 0.0, 0.0, 1.6636178710197403E9, 0.0, 2022-09-20 01:04:31.019
84.0, -16553.456074411402, -3460.0723934259886, -56323.53500408352, -18226.059463746486, -13158.382553861447, 7191.293798839307, -36874.43278723154, -19692.691527925912, 0.642, -0.602, 0.506, 192.0, 0.0, 0.0, 0.0, 0.0, 0.0, 0.0, 0.0, 0.0, 0.0, 1.663617871019768E9, 0.0, 2022-09-20 01:04:31.019
85.0, -16371.736391989756, -3170.6396544742174, -56314.41549234575, -18130.282238755495, -14578.612396551658, 7158.548493212283, -36798.16863515003, -19640.477852878317, 0.642, -0.602, 0.506, 192.0, 0.0, 0.0, 0.0, 0.0, 0.0, 0.0, 0.0, 0.0, 0.0, 1.6636178710197957E9, 0.0, 2022-09-20 01:04:31.019
86.0, -16047.814911343447, -2611.8907465804514, -56401.83316491046, -18042.305772579406, -14423.938324920933, 7027.231994537354, -36749.03950083727, -19629.45844286185, 0.642, -0.602, 0.506, 192.0, 0.0, 0.0, 0.0, 0.0, 0.0, 0.0, 0.0, 0.0, 0.0, 1.6636178710198233E9, 0.0, 2022-09-20 01:04:31.019
87.0, -15829.974809882024, -2200.7751108139887, -56535.45189326428, -18041.34464756783, -12535.439435892038, 6899.938809864379, -36778.834376196195, -19674.206635261373, 0.642, -0.602, 0.506, 192.0, 0.0, 0.0, 0.0, 0.0, 0.0, 0.0, 0.0, 0.0, 0.0, 1.6636178710198505E9, 0.0, 2022-09-20 01:04:31.019
88.0, -16295.762812586167, -2949.402087855588, -56481.785354827094, -18223.243143945117, -11612.357093376768, 7039.972488876879, -36904.89821492413, -19741.306572116206, 0.644, -0.6, 0.508, 192.0, 20.0, 32.0, 237.0, 64.0, 15.0, 224.0, 0.0, 0.0, 0.0, 1.6636178710198784E9, 0.0, 2022-09-20 01:04:31.019
89.0, -16570.555158919713, -3481.5524198475387, -56322.57387907194, -18234.731940595146, -13197.453403169324, 7194.6018570186925, -36877.405569244096, -19696.156048316487, 0.644, -0.6, 0.508, 192.0, 0.0, 0.0, 0.0, 0.0, 0.0, 0.0, 0.0, 0.0, 0.0, 1.663617871019908E9, 0.0, 2022-09-20 01:04:31.019
90.0, -16358.258290083206, -3172.3160353083654, -56310.5933440439, -18128.561154432435, -14592.246960669394, 7164.404650259573, -36793.921803703524, -19638.39914064397, 0.644, -0.6, 0.508, 192.0, 0.0, 0.0, 0.0, 0.0, 0.0, 0.0, 0.0, 0.0, 0.0, 1.6636178710199356E9, 0.0, 2022-09-20 01:04:31.019
91.0, -16014.846088271868, -2592.6011911155215, -56402.48136549966, -18041.32229582337, -14406.056929356686, 7029.1318928160545, -36750.96175086043, -19627.826765516613, 0.644, -0.6, 0.508, 192.0, 0.0, 0.0, 0.0, 0.0, 0.0, 0.0, 0.0, 0.0, 0.0, 1.6636178710199668E9, 0.0, 2022-09-20 01:04:31.019
92.0, -15838.759045452958, -2206.161881227718, -56546.22543409174, -18050.061827905396, -12505.28693262183, 6901.950466865357, -36797.05104792727, -19675.65949865097, 0.644, -0.6, 0.508, 192.0, 0.0, 0.0, 0.0, 0.0, 0.0, 0.0, 0.0, 0.0, 0.0, 1.6636178710200176E9, 0.0, 2022-09-20 01:04:31.020
93.0, -16315.834679107033, -2969.697471821007, -56488.31206420804, -18227.266457947073, -11644.744771092508, 7048.332041303163, -36920.87971220967, -19738.37849359256, 0.644, -0.6, 0.508, 192.0, 0.0, 0.0, 0.0, 0.0, 0.0, 0.0, 0.0, 0.0, 0.0, 1.6636178710200443E9, 0.0, 2022-09-20 01:04:31.020
94.0, -16572.969147320884, -3483.608780337427, -56328.45238786368, -18235.51425165108, -13275.39393608498, 7194.4230430630505, -36892.31418279579, -19698.502981484293, 0.644, -0.6, 0.508, 192.0, 0.0, 0.0, 0.0, 0.0, 0.0, 0.0, 0.0, 0.0, 0.0, 1.6636178710200715E9, 0.0, 2022-09-20 01:04:31.020
95.0, -16356.112522615496, -3156.9380351231143, -56311.57682079993, -18124.806061363943, -14634.268240245372, 7165.701051437981, -36802.035486940804, -19632.811204530146, 0.644, -0.6, 0.508, 192.0, 0.0, 0.0, 0.0, 0.0, 0.0, 0.0, 0.0, 0.0, 0.0, 1.6636178710200973E9, 0.0, 2022-09-20 01:04:31.020
96.0, -16015.002550483056, -2570.607074571499, -56404.85065041193, -18033.230964330553, -14398.457336241883, 7032.596413206627, -36754.33686427318, -19624.161079425943, 0.644, -0.6, 0.508, 192.0, 0.0, 0.0, 0.0, 0.0, 0.0, 0.0, 0.0, 0.0, 0.0, 1.6636178710201223E9, 0.0, 2022-09-20 01:04:31.020
97.0, -15846.023362400934, -2221.0034395460416, -56547.47713178124, -18046.66436274819, -12478.107211364177, 6908.879507646502, -36801.63315554061, -19679.459295208373, 0.644, -0.6, 0.508, 192.0, 0.0, 0.0, 0.0, 0.0, 0.0, 0.0, 0.0, 0.0, 0.0, 1.663617871020148E9, 0.0, 2022-09-20 01:04:31.020
98.0, -16335.034827594141, -3016.054989821314, -56486.21100022925, -18224.51719337907, -11666.73888763653, 7058.166808863499, -36924.00895643341, -19747.475653585872, 0.644, -0.6, 0.508, 192.0, 0.0, 0.0, 0.0, 0.0, 0.0, 0.0, 0.0, 0.0, 0.0, 1.6636178710201752E9, 0.0, 2022-09-20 01:04:31.020
99.0, -16574.734935132856, -3511.0120190396333, -56318.751730770084, -18222.058501488984, -13307.02165448924, 7206.738854257925, -36876.355037254696, -19691.976272103344, 0.634, -0.6, 0.502, 192.0, 19.0, 208.0, 237.0, 64.0, 15.0, 176.0, 0.0, 0.0, 0.0, 1.663617871020202E9, 0.0, 2022-09-20 01:04:31.020
100.0, -16362.996859907731, -3189.660989005684, -56311.33095161092, -18119.48634618358, -14655.211824799995, 7170.350214284685, -36791.418408324535, -19629.681960306403, 0.634, -0.6, 0.502, 192.0, 0.0, 0.0, 0.0, 0.0, 0.0, 0.0, 0.0, 0.0, 0.0, 1.663617871020229E9, 0.0, 2022-09-20 01:04:31.020
101.0, -16027.608934355849, -2608.359170956513, -56411.9138016598, -18036.00258064301, -14394.791650151212, 7026.986125348345, -36748.68187292598, -19630.79954752917, 0.634, -0.6, 0.502, 192.0, 0.0, 0.0, 0.0, 0.0, 0.0, 0.0, 0.0, 0.0, 0.0, 1.6636178710202568E9, 0.0, 2022-09-20 01:04:31.020
102.0, -15872.577234813838, -2275.318178572438, -56553.310937084076, -18050.732380239057, -12453.855568630168, 6907.292533790176, -36806.95287072097, -19685.449562722395, 0.634, -0.6, 0.502, 192.0, 0.0, 0.0, 0.0, 0.0, 0.0, 0.0, 0.0, 0.0, 0.0, 1.663617871020282E9, 0.0, 2022-09-20 01:04:31.020
103.0, -16366.103752387018, -3073.409566093632, -56480.667767604325, -18224.98658001263, -11697.69605370713, 7062.100715887633, -36927.048793679336, -19746.983915207853, 0.634, -0.6, 0.502, 192.0, 0.0, 0.0, 0.0, 0.0, 0.0, 0.0, 0.0, 0.0, 0.0, 1.6636178710203075E9, 0.0, 2022-09-20 01:04:31.020
104.0, -16580.792257880243, -3527.865234358935, -56316.91888772475, -18215.978826997143, -13366.432591251445, 7206.157708902087, -36873.985752342436, -19692.020975592255, 0.634, -0.6, 0.502, 192.0, 0.0, 0.0, 0.0, 0.0, 0.0, 0.0, 0.0, 0.0, 0.0, 1.6636178710203333E9, 0.0, 2022-09-20 01:04:31.020
105.0, -16354.994935392731, -3187.8057942158935, -56306.882954464316, -18105.695319854658, -14679.57522625628, 7175.08878410921, -36779.527280274306, -19625.904515493457, 0.634, -0.6, 0.502, 192.0, 0.0, 0.0, 0.0, 0.0, 0.0, 0.0, 0.0, 0.0, 0.0, 1.6636178710203583E9, 0.0, 2022-09-20 01:04:31.020
106.0, -16006.866515501324, -2592.1541562264156, -56409.566868491995, -18020.535173479937, -14379.681870899425, 7035.5244917302725, -36734.84614310815, -19618.953122967854, 0.634, -0.6, 0.502, 192.0, 0.0, 0.0, 0.0, 0.0, 0.0, 0.0, 0.0, 0.0, 0.0, 1.663617871020384E9, 0.0, 2022-09-20 01:04:31.020
107.0, -15857.847435217791, -2271.0042918925633, -56551.075762638546, -18048.72072323808, -12420.015027524832, 6918.043722873178, -36792.08896065819, -19677.000603318287, 0.634, -0.6, 0.502, 192.0, 0.0, 0.0, 0.0, 0.0, 0.0, 0.0, 0.0, 0.0, 0.0, 1.6636178710204775E9, 0.0, 2022-09-20 01:04:31.020
108.0, -16356.7607232047, -3083.9595894765366, -56475.0798314905, -18225.5006701351, -11719.220783617591, 7073.969492193401, -36911.71549698299, -19740.36779884908, 0.634, -0.6, 0.502, 192.0, 0.0, 0.0, 0.0, 0.0, 0.0, 0.0, 0.0, 0.0, 0.0, 1.663617871020508E9, 0.0, 2022-09-20 01:04:31.020
109.0, -16571.069249042182, -3524.668934901826, -56314.370788856846, -18215.017701985562, -13407.60450453812, 7209.778691503846, -36862.720473136964, -19686.56714994516, 0.64, -0.604, 0.502, 192.0, 20.0, 0.0, 237.0, 32.0, 15.0, 176.0, 0.0, 0.0, 0.0, 1.663617871020543E9, 0.0, 2022-09-20 01:04:31.020
110.0, -16350.457531268303, -3172.8077736863825, -56304.916000952246, -18107.68462511118, -14690.169953128096, 7172.451278263483, -36776.599201750665, -19627.647951560968, 0.64, -0.604, 0.502, 192.0, 0.0, 0.0, 0.0, 0.0, 0.0, 0.0, 0.0, 0.0, 0.0, 1.6636178710205748E9, 0.0, 2022-09-20 01:04:31.020
111.0, -16015.78486153899, -2580.017158987184, -56406.50467950162, -18020.401063013203, -14354.312640942651, 7027.656677682005, -36735.58375067518, -19623.758748025746, 0.64, -0.604, 0.502, 192.0, 0.0, 0.0, 0.0, 0.0, 0.0, 0.0, 0.0, 0.0, 0.0, 1.663617871020606E9, 0.0, 2022-09-20 01:04:31.020
112.0, -15880.914435495668, -2291.925524702731, -56543.81144569057, -18046.932583681653, -12386.867390497613, 6914.17687108241, -36795.128797904115, -19684.868417366557, 0.64, -0.604, 0.502, 192.0, 0.0, 0.0, 0.0, 0.0, 0.0, 0.0, 0.0, 0.0, 0.0, 1.6636178710206366E9, 0.0, 2022-09-20 01:04:31.020
113.0, -16380.386517093959, -3123.298659717877, -56467.41318314233, -18224.22662070115, -11744.65706880773, 7075.243541627353, -36916.85639820772, -19748.19090940844, 0.64, -0.604, 0.502, 192.0, 0.0, 0.0, 0.0, 0.0, 0.0, 0.0, 0.0, 0.0, 0.0, 1.6636178710206592E9, 0.0, 2022-09-20 01:04:31.020
114.0, -16587.14015330555, -3551.2004555702756, -56315.95776271317, -18218.03518748703, -13453.291470204767, 7203.587258289726, -36877.22675528846, -19703.532123986737, 0.64, -0.604, 0.502, 192.0, 0.0, 0.0, 0.0, 0.0, 0.0, 0.0, 0.0, 0.0, 0.0, 1.663617871020682E9, 0.0, 2022-09-20 01:04:31.020
115.0, -16355.844301682033, -3198.2887623654324, -56313.1414429118, -18113.563133902924, -14710.845316749253, 7161.588330458204, -36787.37274257812, -19644.65762909146, 0.64, -0.604, 0.502, 192.0, 0.0, 0.0, 0.0, 0.0, 0.0, 0.0, 0.0, 0.0, 0.0, 1.6636178710207043E9, 0.0, 2022-09-20 01:04:31.020
116.0, -16004.8772102448, -2596.624505117477, -56419.93807791926, -18022.27860954745, -14332.854966265557, 7016.033770565245, -36747.452526980946, -19636.096910965076, 0.64, -0.604, 0.502, 192.0, 0.0, 0.0, 0.0, 0.0, 0.0, 0.0, 0.0, 0.0, 0.0, 1.6636178710207264E9, 0.0, 2022-09-20 01:04:31.020
117.0, -15885.362432642274, -2317.0265337260407, -56553.936785928825, -18048.787778471444, -12350.92578541348, 6910.84646115857, -36811.065591700746, -19691.015147091766, 0.64, -0.604, 0.502, 192.0, 0.0, 0.0, 0.0, 0.0, 0.0, 0.0, 0.0, 0.0, 0.0, 1.6636178710207481E9, 0.0, 2022-09-20 01:04:31.020
118.0, -16391.361223621516, -3154.4793432330302, -56469.26837793212, -18224.003103256597, -11780.62102563632, 7072.002538681333, -36927.674642524085, -19748.794406508732, 0.64, -0.604, 0.502, 192.0, 0.0, 0.0, 0.0, 0.0, 0.0, 0.0, 0.0, 0.0, 0.0, 1.6636178710207708E9, 0.0, 2022-09-20 01:04:31.020
119.0, -16571.22571125337, -3550.8875311479014, -56312.895573722795, -18202.299559390493, -13502.510011495355, 7202.134394900131, -36868.88955460663, -19691.685699425423, 0.638, -0.604, 0.504, 192.0, 19.0, 240.0, 237.0, 32.0, 15.0, 192.0, 0.0, 0.0, 0.0, 1.663617871020795E9, 0.0, 2022-09-20 01:04:31.020
120.0, -16343.707304442802, -3196.4782710645522, -56316.69537028019, -18102.499020397547, -14726.469186123513, 7156.089801322199, -36788.691495500985, -19631.157175440454, 0.638, -0.604, 0.504, 192.0, 0.0, 0.0, 0.0, 0.0, 0.0, 0.0, 0.0, 0.0, 0.0, 1.6636178710208197E9, 0.0, 2022-09-20 01:04:31.020
121.0, -15995.891808973767, -2611.1084355245157, -56421.14507211984, -18016.26599028897, -14304.177678129397, 7008.2330117503425, -36746.58080894718, -19619.31075087914, 0.638, -0.604, 0.504, 192.0, 0.0, 0.0, 0.0, 0.0, 0.0, 0.0, 0.0, 0.0, 0.0, 1.6636178710208411E9, 0.0, 2022-09-20 01:04:31.020
122.0, -15895.890104280723, -2379.9466943677303, -56552.28275683913, -18058.175511142672, -12311.877287850057, 6903.783309910693, -36810.2385771559, -19677.067658551652, 0.638, -0.604, 0.504, 192.0, 0.0, 0.0, 0.0, 0.0, 0.0, 0.0, 0.0, 0.0, 0.0, 1.663617871498835E9, 0.0, 2022-09-20 01:04:31.498
123.0, -16404.72756680579, -3233.917443027192, -56462.562854595526, -18233.860222561387, -11798.502421200565, 7069.320329346697, -36929.753354758424, -19728.0072841653, 0.638, -0.604, 0.504, 192.0, 0.0, 0.0, 0.0, 0.0, 0.0, 0.0, 0.0, 0.0, 0.0, 1.663617871499255E9, 0.0, 2022-09-20 01:04:31.499
124.0, -16581.440458469446, -3611.6172208329704, -56311.77798650003, -18210.390890883315, -13551.572090574753, 7191.293798839307, -36875.080987820744, -19661.28732696621, 0.638, -0.604, 0.504, 192.0, 0.0, 0.0, 0.0, 0.0, 0.0, 0.0, 0.0, 0.0, 0.0, 1.6636178714992907E9, 0.0, 2022-09-20 01:04:31.499
125.0, -16354.458493525803, -3244.132190243267, -56311.80033824448, -18104.6224361208, -14748.172729989617, 7145.4727227059275, -36785.80812046625, -19593.516837777715, 0.638, -0.604, 0.504, 192.0, 0.0, 0.0, 0.0, 0.0, 0.0, 0.0, 0.0, 0.0, 0.0, 1.663617871499328E9, 0.0, 2022-09-20 01:04:31.499
126.0, -16003.759623022035, -2630.8226741340964, -56416.60766799542, -18018.009426356486, -14279.791924928657, 6997.280656967242, -36744.926779857495, -19585.58196849608, 0.638, -0.604, 0.504, 192.0, 0.0, 0.0, 0.0, 0.0, 0.0, 0.0, 0.0, 0.0, 0.0, 1.6636178714993653E9, 0.0, 2022-09-20 01:04:31.499
127.0, -15893.252598434998, -2400.107967866417, -56540.32457355554, -18056.677944264167, -12273.05230773119, 6903.738606421782, -36805.96939396494, -19640.94723951188, 0.638, -0.604, 0.504, 192.0, 0.0, 0.0, 0.0, 0.0, 0.0, 0.0, 0.0, 0.0, 0.0, 1.6636178714993925E9, 0.0, 2022-09-20 01:04:31.499
128.0, -16414.115299477016, -3269.099088799845, -56449.95647072273, -18234.307257450495, -11822.776415679029, 7073.611864282116, -36925.64063377865, -19690.03167033573, 0.638, -0.604, 0.504, 192.0, 0.0, 0.0, 0.0, 0.0, 0.0, 0.0, 0.0, 0.0, 0.0, 1.6636178714994185E9, 0.0, 2022-09-20 01:04:31.499
129.0, -16582.20041778093, -3628.1351599854424, -56307.97818994262, -18214.570667096457, -13585.92672180256, 7194.937133185522, -36863.569839426265, -19625.658646304448, 0.644, -0.604, 0.5, 192.0, 20.0, 32.0, 237.0, 32.0, 15.0, 160.0, 0.0, 0.0, 0.0, 1.663617871499444E9, 0.0, 2022-09-20 01:04:31.499
130.0, -16348.267060311684, -3255.26335898201, -56324.227908161636, -18115.507735670537, -14748.48565441199, 7142.70110639347, -36779.43787329648, -19571.857997400522, 0.644, -0.604, 0.5, 192.0, 0.0, 0.0, 0.0, 0.0, 0.0, 0.0, 0.0, 0.0, 0.0, 1.6636178714994748E9, 0.0, 2022-09-20 01:04:31.499
131.0, -16004.117250933321, -2657.8235814361074, -56440.16640665131, -18038.46127253309, -14250.645250158937, 6985.769508572759, -36742.490439711866, -19572.036811356167, 0.644, -0.604, 0.5, 192.0, 0.0, 0.0, 0.0, 0.0, 0.0, 0.0, 0.0, 0.0, 0.0, 1.6636178714995005E9, 0.0, 2022-09-20 01:04:31.499
132.0, -15933.48573845455, -2464.592750619978, -56565.8502657235, -18085.601101589335, -12250.991135953802, 6892.518030705218, -36817.25702491486, -19635.962800498342, 0.644, -0.604, 0.5, 192.0, 0.0, 0.0, 0.0, 0.0, 0.0, 0.0, 0.0, 0.0, 0.0, 1.6636178714995239E9, 0.0, 2022-09-20 01:04:31.499
133.0, -16453.633183674, -3328.3088598619534, -56467.70375582025, -18254.93791758274, -11852.638346271318, 7067.934521190467, -36925.66298552311, -19680.778048131233, 0.644, -0.604, 0.5, 192.0, 0.0, 0.0, 0.0, 0.0, 0.0, 0.0, 0.0, 0.0, 0.0, 1.663617871499559E9, 0.0, 2022-09-20 01:04:31.499
134.0, -16582.62510092558, -3651.090401541043, -56319.55639357047, -18220.270361932562, -13617.755605906917, 7188.656292993581, -36856.774909111846, -19612.40406184245, 0.644, -0.604, 0.5, 192.0, 0.0, 0.0, 0.0, 0.0, 0.0, 0.0, 0.0, 0.0, 0.0, 1.6636178714995823E9, 0.0, 2022-09-20 01:04:31.499
135.0, -16340.555708474603, -3273.0553475684346, -56334.1967861887, -18116.737081615578, -14753.581852147801, 7136.532024923805, -36779.84020469668, -19556.904680359923, 0.644, -0.604, 0.5, 192.0, 0.0, 0.0, 0.0, 0.0, 0.0, 0.0, 0.0, 0.0, 0.0, 1.6636178714996076E9, 0.0, 2022-09-20 01:04:31.499
136.0, -15994.148372906253, -2665.8255059511075, -56452.48221784618, -18034.482662020047, -14217.877592787456, 6983.646092849504, -36746.84902988065, -19557.575232693584, 0.644, -0.604, 0.5, 192.0, 0.0, 0.0, 0.0, 0.0, 0.0, 0.0, 0.0, 0.0, 0.0, 1.6636178714996312E9, 0.0, 2022-09-20 01:04:31.499
137.0, -15938.224308279076, -2485.2234107522263, -56575.64032979493, -18087.38924114576, -12206.22059180982, 6898.284780774687, -36820.65449007208, -19620.629503802003, 0.644, -0.604, 0.5, 192.0, 0.0, 0.0, 0.0, 0.0, 0.0, 0.0, 0.0, 0.0, 0.0, 1.6636178714996693E9, 0.0, 2022-09-20 01:04:31.499
138.0, -16462.439770989393, -3351.3535083953752, -56466.11678196392, -18246.13133026735, -11868.597491812408, 7082.418451597507, -36925.283005867364, -19661.42143743294, 0.644, -0.604, 0.5, 192.0, 0.0, 0.0, 0.0, 0.0, 0.0, 0.0, 0.0, 0.0, 0.0, 1.6636178714997442E9, 0.0, 2022-09-20 01:04:31.499
139.0, -16604.686272702966, -3670.2234947947854, -56329.458216364175, -18213.520135107057, -13664.984841940981, 7188.768051715858, -36868.19665052851, -19604.625654772004, 0.636, -0.602, 0.504, 192.0, 19.0, 224.0, 237.0, 48.0, 15.0, 192.0, 0.0, 0.0, 0.0, 1.663617871499771E9, 0.0, 2022-09-20 01:04:31.499
140.0, -16369.322403588583, -3293.216621067121, -56342.86926303736, -18119.73221537259, -14775.821837880832, 7129.938260309489, -36789.89848970157, -19557.48582571576, 0.636, -0.602, 0.504, 192.0, 0.0, 0.0, 0.0, 0.0, 0.0, 0.0, 0.0, 0.0, 0.0, 1.663617871499795E9, 0.0, 2022-09-20 01:04:31.499
141.0, -16015.628399327803, -2682.2763898702133, -56455.41029636983, -18039.7576737115, -14191.48018258574, 6974.101897967089, -36751.09586132716, -19563.118465318497, 0.636, -0.602, 0.504, 192.0, 0.0, 0.0, 0.0, 0.0, 0.0, 0.0, 0.0, 0.0, 0.0, 1.6636178714998176E9, 0.0, 2022-09-20 01:04:31.499
142.0, -15964.040573124956, -2526.4176757833575, -56571.549960559605, -18097.894561039753, -12175.956329817334, 6892.808603383137, -36826.66710933055, -19625.613942815537, 0.636, -0.602, 0.504, 192.0, 0.0, 0.0, 0.0, 0.0, 0.0, 0.0, 0.0, 0.0, 0.0, 1.66361787149984E9, 0.0, 2022-09-20 01:04:31.499
143.0, -16485.037384633706, -3398.158061284788, -56464.306290663044, -18264.772685143078, -11913.278628978567, 7076.428184083484, -36932.03323269287, -19663.857777578567, 0.636, -0.602, 0.504, 192.0, 0.0, 0.0, 0.0, 0.0, 0.0, 0.0, 0.0, 0.0, 0.0, 1.6636178714998684E9, 0.0, 2022-09-20 01:04:31.499
144.0, -16600.439441256458, -3683.209858323319, -56322.48447209412, -18222.639646844822, -13713.309313453356, 7185.549400514294, -36865.29092374932, -19598.41186981343, 0.636, -0.602, 0.504, 192.0, 0.0, 0.0, 0.0, 0.0, 0.0, 0.0, 0.0, 0.0, 0.0, 1.663617871499891E9, 0.0, 2022-09-20 01:04:31.499
145.0, -16362.57217676308, -3294.133042589789, -56336.029629234035, -18123.844936352365, -14779.599282693778, 7123.366847439629, -36792.1336641471, -19550.19915702333, 0.636, -0.602, 0.504, 192.0, 0.0, 0.0, 0.0, 0.0, 0.0, 0.0, 0.0, 0.0, 0.0, 1.6636178714999127E9, 0.0, 2022-09-20 01:04:31.499
146.0, -16010.487498103083, -2681.717596258831, -56450.24704340065, -18037.947182410622, -14143.602745962471, 6964.512999595761, -36740.81405887772, -19554.244822769742, 0.636, -0.602, 0.504, 192.0, 0.0, 0.0, 0.0, 0.0, 0.0, 0.0, 0.0, 0.0, 0.0, 1.6636178714999356E9, 0.0, 2022-09-20 01:04:31.499
147.0, -15969.919081916702, -2542.935614935829, -56568.73364075824, -18094.76531681601, -12123.228564647266, 6892.786251638681, -36814.6418708136, -19624.31754163713, 0.636, -0.602, 0.504, 192.0, 0.0, 0.0, 0.0, 0.0, 0.0, 0.0, 0.0, 0.0, 0.0, 1.6636178714999652E9, 0.0, 2022-09-20 01:04:31.499
148.0, -16501.152992385985, -3422.5885179744387, -56460.75236329465, -18263.364525242392, -11923.225155261178, 7077.501067817339, -36921.75143024343, -19673.51373118326, 0.636, -0.602, 0.504, 192.0, 0.0, 0.0, 0.0, 0.0, 0.0, 0.0, 0.0, 0.0, 0.0, 1.6636178714999883E9, 0.0, 2022-09-20 01:04:31.499
149.0, -16610.609484983623, -3686.7414339472575, -56323.646762805794, -18221.902039277797, -13747.1945580476, 7175.401708531584, -36856.43963294502, -19613.521649065216, 0.642, -0.604, 0.504, 192.0, 20.0, 16.0, 237.0, 32.0, 15.0, 192.0, 0.0, 0.0, 0.0, 1.66361787150001E9, 0.0, 2022-09-20 01:04:31.500
150.0, -16363.533301774658, -3287.449870997652, -56338.44361763521, -18117.742910116067, -14788.674090942633, 7114.426149657506, -36783.61764950963, -19562.15734030692, 0.642, -0.604, 0.504, 192.0, 0.0, 0.0, 0.0, 0.0, 0.0, 0.0, 0.0, 0.0, 0.0, 1.663617871500036E9, 0.0, 2022-09-20 01:04:31.500
151.0, -16014.533163849494, -2668.418308307923, -56454.18095042479, -18030.392292784727, -14113.807870603547, 6961.026127460734, -36748.59246594816, -19560.659773428415, 0.642, -0.604, 0.504, 192.0, 0.0, 0.0, 0.0, 0.0, 0.0, 0.0, 0.0, 0.0, 0.0, 1.663617871500064E9, 0.0, 2022-09-20 01:04:31.500
152.0, -15994.818925239913, -2569.1542111819044, -56571.3040913706, -18098.7215755846, -12106.174183627867, 6886.103080046544, -36831.91976927755, -19630.777195784714, 0.642, -0.604, 0.504, 192.0, 0.0, 0.0, 0.0, 0.0, 0.0, 0.0, 0.0, 0.0, 0.0, 1.6636178715000846E9, 0.0, 2022-09-20 01:04:31.500
153.0, -16524.51056534178, -3463.3133963720084, -56450.4258573563, -18260.6599641633, -11975.260016353133, 7071.577855536682, -36929.351023358235, -19669.13278927002, 0.642, -0.604, 0.504, 192.0, 0.0, 0.0, 0.0, 0.0, 0.0, 0.0, 0.0, 0.0, 0.0, 1.6636178715001414E9, 0.0, 2022-09-20 01:04:31.500
154.0, -16619.885458932575, -3710.054303414143, -56310.794509743995, -18208.625103071347, -13793.261503369988, 7175.267598064852, -36857.73603412343, -19600.892913447966, 0.642, -0.604, 0.504, 192.0, 0.0, 0.0, 0.0, 0.0, 0.0, 0.0, 0.0, 0.0, 0.0, 1.6636178715001683E9, 0.0, 2022-09-20 01:04:31.500
155.0, -16376.273796114183, -3317.4459120566744, -56331.80514953198, -18111.529125157493, -14797.279512557927, 7112.593306612171, -36785.49519604388, -19555.295354759142, 0.642, -0.604, 0.504, 192.0, 0.0, 0.0, 0.0, 0.0, 0.0, 0.0, 0.0, 0.0, 0.0, 1.6636178715002117E9, 0.0, 2022-09-20 01:04:31.500
156.0, -16025.954905266155, -2703.644657569487, -56452.03518295708, -18027.017179371975, -14095.278274450098, 6950.341993611097, -36750.4253089935, -19560.10097981703, 0.642, -0.604, 0.504, 192.0, 0.0, 0.0, 0.0, 0.0, 0.0, 0.0, 0.0, 0.0, 0.0, 1.6636178715002754E9, 0.0, 2022-09-20 01:04:31.500
157.0, -16017.9306290067, -2629.593328189055, -56563.43627732233, -18097.402822661737, -12086.750517696204, 6886.706577146838, -36829.170504709546, -19624.518707337225, 0.642, -0.604, 0.504, 192.0, 0.0, 0.0, 0.0, 0.0, 0.0, 0.0, 0.0, 0.0, 0.0, 1.6636178715003095E9, 0.0, 2022-09-20 01:04:31.500
158.0, -16541.386132405536, -3529.273394259619, -56440.41227584032, -18258.022458317573, -12009.212316180745, 7078.2610271288195, -36926.55705530132, -19661.22027173284, 0.642, -0.604, 0.504, 192.0, 0.0, 0.0, 0.0, 0.0, 0.0, 0.0, 0.0, 0.0, 0.0, 1.663617871500341E9, 0.0, 2022-09-20 01:04:31.500
159.0, -16620.511307777324, -3754.914254535944, -56308.87225972084, -18207.46281235967, -13838.747303336539, 7171.13252534062, -36847.67774911854, -19596.042584901166, 0.644, -0.608, 0.5, 192.0, 20.0, 32.0, 237.0, 0.0, 15.0, 160.0, 0.0, 0.0, 0.0, 1.6636178715003712E9, 0.0, 2022-09-20 01:04:31.500
160.0, -16368.897720443932, -3345.989089726101, -56334.33089665543, -18110.791517590467, -14822.022893669951, 7104.367864652618, -36778.16382386253, -19551.9649448353, 0.644, -0.608, 0.5, 192.0, 0.0, 0.0, 0.0, 0.0, 0.0, 0.0, 0.0, 0.0, 0.0, 1.6636178715004044E9, 0.0, 2022-09-20 01:04:31.500
161.0, -16007.291198645975, -2720.2967071886906, -56456.84080801497, -18032.225135830064, -14073.038288717067, 6944.217615630343, -36745.21735253541, -19560.92799436188, 0.644, -0.608, 0.5, 192.0, 0.0, 0.0, 0.0, 0.0, 0.0, 0.0, 0.0, 0.0, 0.0, 1.6636178715004473E9, 0.0, 2022-09-20 01:04:31.500
162.0, -16019.092919718376, -2668.552418774655, -56563.68214651134, -18109.450412923146, -12061.247177272699, 6887.444184713863, -36830.10927797667, -19627.469137605327, 0.644, -0.608, 0.5, 192.0, 0.0, 0.0, 0.0, 0.0, 0.0, 0.0, 0.0, 0.0, 0.0, 1.6636178715004704E9, 0.0, 2022-09-20 01:04:31.500
163.0, -16548.47163539787, -3561.929292908823, -56433.28206935908, -18265.264423521094, -12045.28803173161, 7077.411660839518, -36924.41128783361, -19664.818902590145, 0.644, -0.608, 0.5, 192.0, 0.0, 0.0, 0.0, 0.0, 0.0, 0.0, 0.0, 0.0, 0.0, 1.6636178715004916E9, 0.0, 2022-09-20 01:04:31.500
164.0, -16622.67942698949, -3761.3068534501617, -56309.16283239875, -18209.586228082924, -13877.326414266397, 7165.097554337687, -36856.841964345214, -19598.97066342481, 0.644, -0.608, 0.5, 192.0, 0.0, 0.0, 0.0, 0.0, 0.0, 0.0, 0.0, 0.0, 0.0, 1.6636178715005126E9, 0.0, 2022-09-20 01:04:31.500
165.0, -16376.251444369727, -3349.543017094495, -56338.756542057585, -18110.81386933492, -14824.705103004588, 7102.579725096193, -36788.87030945663, -19554.088360558555, 0.644, -0.608, 0.5, 192.0, 0.0, 0.0, 0.0, 0.0, 0.0, 0.0, 0.0, 0.0, 0.0, 1.6636178715005329E9, 0.0, 2022-09-20 01:04:31.500
166.0, -16006.21831491212, -2707.4668058713446, -56457.57841558199, -18021.742167680524, -14026.703122461215, 6947.793894743192, -36751.565247960716, -19553.95425009182, 0.644, -0.608, 0.5, 192.0, 0.0, 0.0, 0.0, 0.0, 0.0, 0.0, 0.0, 0.0, 0.0, 1.663617871500555E9, 0.0, 2022-09-20 01:04:31.500
167.0, -16034.381512925806, -2681.024692180716, -56561.983413932736, -18104.041290764962, -12028.725389090228, 6894.574391195106, -36841.1957432265, -19621.076538691108, 0.644, -0.608, 0.5, 192.0, 0.0, 0.0, 0.0, 0.0, 0.0, 0.0, 0.0, 0.0, 0.0, 1.6636178715005777E9, 0.0, 2022-09-20 01:04:31.500
168.0, -16571.382173464557, -3588.3714065994513, -56429.50462454613, -18255.787283872043, -12074.501761734697, 7088.788698767269, -36925.05948842281, -19649.284440193707, 0.644, -0.608, 0.5, 192.0, 0.0, 0.0, 0.0, 0.0, 0.0, 0.0, 0.0, 0.0, 0.0, 1.6636178715006003E9, 0.0, 2022-09-20 01:04:31.500
169.0, -16626.81449971372, -3763.8996558069775, -56301.78675672851, -18189.581416795423, -13908.685911737193, 7177.32395855474, -36842.29097870481, -19576.01542186921, 0.652, -0.606, 0.5, 192.0, 20.0, 96.0, 237.0, 16.0, 15.0, 160.0, 0.0, 0.0, 0.0, 1.6636178715006547E9, 0.0, 2022-09-20 01:04:31.500
170.0, -16377.14551414794, -3352.6052060848724, -56338.04128623501, -18102.275502952994, -14830.918887963164, 7101.7974140402575, -36777.98500990689, -19543.225412753276, 0.652, -0.606, 0.5, 192.0, 0.0, 0.0, 0.0, 0.0, 0.0, 0.0, 0.0, 0.0, 0.0, 1.6636178715006807E9, 0.0, 2022-09-20 01:04:31.500
171.0, -16019.428195885206, -2719.4026374104783, -56464.35099415195, -18026.033702615943, -14004.172564050266, 6937.802664971669, -36749.01714909281, -19553.14958729143, 0.652, -0.606, 0.5, 192.0, 0.0, 0.0, 0.0, 0.0, 0.0, 0.0, 0.0, 0.0, 0.0, 1.6636178715007048E9, 0.0, 2022-09-20 01:04:31.500
172.0, -16062.27649000603, -2721.3025356891794, -56565.42558257885, -18116.40180544875, -12012.408615637853, 6889.567600437117, -36843.18504848302, -19628.56437308364, 0.652, -0.606, 0.5, 192.0, 0.0, 0.0, 0.0, 0.0, 0.0, 0.0, 0.0, 0.0, 0.0, 1.6636178715007281E9, 0.0, 2022-09-20 01:04:31.500
173.0, -16579.920539846487, -3613.539470856127, -56425.28014484407, -18263.543339198033, -12104.341340582532, 7089.146326678554, -36919.73977324245, -19653.0395332622, 0.652, -0.606, 0.5, 192.0, 0.0, 0.0, 0.0, 0.0, 0.0, 0.0, 0.0, 0.0, 0.0, 1.663617871500752E9, 0.0, 2022-09-20 01:04:31.500
174.0, -16627.86503170312, -3767.677100619924, -56300.937390439205, -18202.612483812867, -13937.117330684345, 7173.613568975159, -36837.99944376939, -19583.79382893966, 0.652, -0.606, 0.5, 192.0, 0.0, 0.0, 0.0, 0.0, 0.0, 0.0, 0.0, 0.0, 0.0, 1.6636178715007758E9, 0.0, 2022-09-20 01:04:31.500
175.0, -16361.745162218234, -3346.1008484483777, -56330.5981553314, -18105.762375088023, -14829.22015538456, 7104.434919885984, -36764.66337021153, -19543.44893019783, 0.652, -0.606, 0.5, 192.0, 0.0, 0.0, 0.0, 0.0, 0.0, 0.0, 0.0, 0.0, 0.0, 1.6636178715007975E9, 0.0, 2022-09-20 01:04:31.500
176.0, -15995.914160718223, -2725.549367135688, -56452.19164516826, -18024.312618292883, -13966.845150809902, 6941.535406295706, -36729.83935235016, -19549.841529112047, 0.652, -0.606, 0.5, 192.0, 0.0, 0.0, 0.0, 0.0, 0.0, 0.0, 0.0, 0.0, 0.0, 1.6636178715008256E9, 0.0, 2022-09-20 01:04:31.500
177.0, -16066.545673196993, -2759.5240187077547, -56556.171960374355, -18123.15203227425, -11987.173496147812, 6894.976722595302, -36834.57962686773, -19626.664474804937, 0.652, -0.606, 0.5, 192.0, 0.0, 0.0, 0.0, 0.0, 0.0, 0.0, 0.0, 0.0, 0.0, 1.663617871500847E9, 0.0, 2022-09-20 01:04:31.500
178.0, -16599.299502289236, -3650.2857387406516, -56418.239345340655, -18274.272176536582, -12144.529777113174, 7091.537963335271, -36911.380220816165, -19656.571108886135, 0.652, -0.606, 0.5, 192.0, 0.0, 0.0, 0.0, 0.0, 0.0, 0.0, 0.0, 0.0, 0.0, 1.6636178715008729E9, 0.0, 2022-09-20 01:04:31.500
179.0, -16634.727017250898, -3775.3213972236395, -56295.4388613032, -18206.568742581458, -13976.657566625783, 7169.523199739838, -36826.62240584164, -19587.191294096865, 0.646, -0.602, 0.502, 192.0, 20.0, 48.0, 237.0, 48.0, 15.0, 176.0, 0.0, 0.0, 0.0, 1.6636178715008988E9, 0.0, 2022-09-20 01:04:31.500
180.0, -16383.314595617605, -3353.2981101629866, -56331.849853020896, -18113.16080250273, -14843.03353345794, 7095.427166870495, -36759.120137586615, -19551.763779135203, 0.646, -0.602, 0.502, 192.0, 0.0, 0.0, 0.0, 0.0, 0.0, 0.0, 0.0, 0.0, 0.0, 1.6636178715009224E9, 0.0, 2022-09-20 01:04:31.500
181.0, -16018.131794706798, -2714.127625719026, -56457.44430511526, -18032.8062811859, -13935.105673683367, 6932.281784091209, -36725.88309358157, -19560.279793772675, 0.646, -0.602, 0.502, 192.0, 0.0, 0.0, 0.0, 0.0, 0.0, 0.0, 0.0, 0.0, 0.0, 1.6636178715009458E9, 0.0, 2022-09-20 01:04:31.500
182.0, -16083.287129794018, -2755.6571669169866, -56545.756047458184, -18122.190907262673, -11954.785818432072, 6901.950466865357, -36819.22397842693, -19631.82772777411, 0.646, -0.602, 0.502, 192.0, 0.0, 0.0, 0.0, 0.0, 0.0, 0.0, 0.0, 0.0, 0.0, 1.6636178715009675E9, 0.0, 2022-09-20 01:04:31.500
183.0, -16610.408319283524, -3659.3605469895065, -56410.14801384784, -18265.107961309906, -12172.022422793201, 7101.149213451054, -36904.76410445739, -19661.51084441076, 0.646, -0.602, 0.502, 192.0, 0.0, 0.0, 0.0, 0.0, 0.0, 0.0, 0.0, 0.0, 0.0, 1.6636178715009935E9, 0.0, 2022-09-20 01:04:31.500
184.0, -16636.738674251876, -3784.396205472494, -56297.159945626256, -18194.69996627569, -14004.619598939373, 7173.770031186346, -36825.41541164105, -19592.242788343763, 0.646, -0.602, 0.502, 192.0, 0.0, 0.0, 0.0, 0.0, 0.0, 0.0, 0.0, 0.0, 0.0, 1.6636178715010471E9, 0.0, 2022-09-20 01:04:31.501
185.0, -16370.171769877885, -3355.421525886241, -56332.92273675475, -18092.016052248007, -14835.478643832046, 7099.964570994923, -36754.292160784265, -19548.83570061156, 0.646, -0.602, 0.502, 192.0, 0.0, 0.0, 0.0, 0.0, 0.0, 0.0, 0.0, 0.0, 0.0, 1.6636178715010693E9, 0.0, 2022-09-20 01:04:31.501
186.0, -16010.26398065853, -2727.87394855904, -56464.75332555215, -18009.068728574362, -13890.580998728396, 6936.550967282173, -36731.20280876193, -19556.122369303986, 0.646, -0.602, 0.502, 192.0, 0.0, 0.0, 0.0, 0.0, 0.0, 0.0, 0.0, 0.0, 0.0, 1.6636178715010936E9, 0.0, 2022-09-20 01:04:31.501
187.0, -16105.772984716057, -2813.6599437785085, -56550.651079493895, -18107.014072777518, -11931.718818154195, 6910.242964058276, -36837.50770539138, -19628.251448661264, 0.646, -0.602, 0.502, 192.0, 0.0, 0.0, 0.0, 0.0, 0.0, 0.0, 0.0, 0.0, 0.0, 1.6636178715011203E9, 0.0, 2022-09-20 01:04:31.501
188.0, -16621.29361883326, -3708.1320533909866, -56405.18592657876, -18246.04192328953, -12208.65693195545, 7109.866393788624, -36912.855435950216, -19648.569184371136, 0.646, -0.602, 0.502, 192.0, 0.0, 0.0, 0.0, 0.0, 0.0, 0.0, 0.0, 0.0, 0.0, 1.6636178715011473E9, 0.0, 2022-09-20 01:04:31.501
189.0, -16627.5744590252, -3804.6468859490024, -56290.67793973422, -18178.427896312227, -14041.947012179735, 7178.240380077408, -36819.96158599396, -19579.21172132632, 0.642, -0.606, 0.5, 192.0, 20.0, 16.0, 237.0, 16.0, 15.0, 160.0, 0.0, 0.0, 0.0, 1.6636178715011709E9, 0.0, 2022-09-20 01:04:31.501
190.0, -16367.310746587606, -3375.4263371737406, -56323.91498373926, -18083.34357539935, -14840.731303779043, 7099.4504808724505, -36742.825715878695, -19541.8619563415, 0.642, -0.606, 0.5, 192.0, 0.0, 0.0, 0.0, 0.0, 0.0, 0.0, 0.0, 0.0, 0.0, 1.6636178715011995E9, 0.0, 2022-09-20 01:04:31.501
191.0, -16011.985064981589, -2753.5561029381875, -56457.51136034863, -18006.78885063992, -13857.209844256622, 6929.912499178947, -36720.49632316784, -19554.177767536374, 0.642, -0.606, 0.5, 192.0, 0.0, 0.0, 0.0, 0.0, 0.0, 0.0, 0.0, 0.0, 0.0, 1.6636178715012228E9, 0.0, 2022-09-20 01:04:31.501
192.0, -16124.257877380596, -2869.248732238857, -56550.62872774944, -18117.117061271318, -11911.289323722045, 6908.32071403512, -36829.55048436528, -19630.710140551346, 0.642, -0.606, 0.5, 192.0, 0.0, 0.0, 0.0, 0.0, 0.0, 0.0, 0.0, 0.0, 0.0, 1.6636178715012453E9, 0.0, 2022-09-20 01:04:31.501
193.0, -16634.972886439908, -3760.591597627592, -56397.94396137523, -18256.52489143907, -12246.498435318284, 7113.822652557213, -36887.73207518245, -19651.273745450228, 0.642, -0.606, 0.5, 192.0, 0.0, 0.0, 0.0, 0.0, 0.0, 0.0, 0.0, 0.0, 0.0, 1.6636178715012665E9, 0.0, 2022-09-20 01:04:31.501
194.0, -16623.797014212254, -3836.1181421420747, -56284.575913497916, -18179.389021323805, -14073.30650965053, 7175.222894575942, -36796.91693746053, -19575.9707183803, 0.642, -0.606, 0.5, 192.0, 0.0, 0.0, 0.0, 0.0, 0.0, 0.0, 0.0, 0.0, 0.0, 1.6636178715012877E9, 0.0, 2022-09-20 01:04:31.501
195.0, -16352.71505745829, -3397.286343251031, -56320.45046334869, -18075.542816584446, -14833.645800786711, 7096.6341610710815, -36720.02693653428, -19527.62389512347, 0.642, -0.606, 0.5, 192.0, 0.0, 0.0, 0.0, 0.0, 0.0, 0.0, 0.0, 0.0, 0.0, 1.6636178715013106E9, 0.0, 2022-09-20 01:04:31.501
196.0, -16001.077413687399, -2772.1080508360924, -56455.38794462538, -18005.38069073924, -13817.043759470434, 6935.053400403667, -36700.40210490252, -19543.940668575844, 0.642, -0.606, 0.5, 192.0, 0.0, 0.0, 0.0, 0.0, 0.0, 0.0, 0.0, 0.0, 0.0, 1.6636178715013323E9, 0.0, 2022-09-20 01:04:31.501
197.0, -16133.958534474199, -2909.727741447418, -56540.27987006663, -18122.9285148297, -11891.35156766791, 6922.134092108499, -36812.1384754346, -19629.391387628482, 0.642, -0.606, 0.5, 192.0, 0.0, 0.0, 0.0, 0.0, 0.0, 0.0, 0.0, 0.0, 0.0, 1.663617871501361E9, 0.0, 2022-09-20 01:04:31.501
198.0, -16651.043790703272, -3791.9063916094774, -56394.948827618224, -18259.18474902925, -12283.781145069737, 7121.846928816668, -36879.52898496735, -19655.162948985453, 0.642, -0.606, 0.5, 192.0, 0.0, 0.0, 0.0, 0.0, 0.0, 0.0, 0.0, 0.0, 0.0, 1.6636178715013847E9, 0.0, 2022-09-20 01:04:31.501
199.0, -16641.790168498777, -3839.04622066572, -56290.61088450085, -18183.479390559125, -14112.355007213951, 7185.035310391821, -36792.75951299185, -19584.77730569569, 0.64, -0.606, 0.504, 192.0, 20.0, 0.0, 237.0, 16.0, 15.0, 192.0, 0.0, 0.0, 0.0, 1.6636178715014346E9, 0.0, 2022-09-20 01:04:31.501
200.0, -16375.066801913597, -3390.580819914439, -56330.24052742011, -18090.42907839168, -14847.056847459895, 7108.145309465565, -36726.30777672622, -19545.192366265343, 0.64, -0.606, 0.504, 192.0, 0.0, 0.0, 0.0, 0.0, 0.0, 0.0, 0.0, 0.0, 0.0, 1.66361787150146E9, 0.0, 2022-09-20 01:04:31.501
201.0, -16020.523431363516, -2772.3539200251007, -56468.9778052542, -18023.597362470315, -13794.87082897077, 6934.248737603276, -36710.8627213076, -19564.526625219183, 0.64, -0.606, 0.504, 192.0, 0.0, 0.0, 0.0, 0.0, 0.0, 0.0, 0.0, 0.0, 0.0, 1.663617871501484E9, 0.0, 2022-09-20 01:04:31.501
202.0, -16163.172264477285, -2938.695602261496, -56542.13506485642, -18134.774939391013, -11887.797640299517, 6927.252641588765, -36822.50968486186, -19640.231983689308, 0.64, -0.606, 0.504, 192.0, 0.0, 0.0, 0.0, 0.0, 0.0, 0.0, 0.0, 0.0, 0.0, 1.6636178715015078E9, 0.0, 2022-09-20 01:04:31.501
203.0, -16670.758029312852, -3820.069589623164, -56393.04892933952, -18266.583176443957, -12339.593450974638, 7125.199690484964, -36888.670848449576, -19660.750885099278, 0.64, -0.606, 0.504, 192.0, 0.0, 0.0, 0.0, 0.0, 0.0, 0.0, 0.0, 0.0, 0.0, 1.6636178715015316E9, 0.0, 2022-09-20 01:04:31.501
204.0, -16635.308162606736, -3841.907243955999, -56290.67793973422, -18184.015832426052, -14155.024487379133, 7183.47068827995, -36800.60497529566, -19585.179637095887, 0.64, -0.606, 0.504, 192.0, 0.0, 0.0, 0.0, 0.0, 0.0, 0.0, 0.0, 0.0, 0.0, 1.6636178715015552E9, 0.0, 2022-09-20 01:04:31.501
205.0, -16356.671316226879, -3378.9579127976795, -56336.029629234035, -18086.606930089823, -14854.455274874601, 7103.898478019057, -36738.17655303199, -19544.49946218723, 0.64, -0.606, 0.504, 192.0, 0.0, 0.0, 0.0, 0.0, 0.0, 0.0, 0.0, 0.0, 0.0, 1.663617871501578E9, 0.0, 2022-09-20 01:04:31.501
206.0, -16008.11821319082, -2754.0701930606597, -56481.33831993799, -18020.579876968848, -13755.420000007154, 6928.213766600343, -36730.308738983724, -19567.365296765005, 0.64, -0.606, 0.504, 192.0, 0.0, 0.0, 0.0, 0.0, 0.0, 0.0, 0.0, 0.0, 0.0, 1.6636178715016012E9, 0.0, 2022-09-20 01:04:31.501
207.0, -16168.983718035666, -2936.7062970049737, -56542.962079401266, -18134.462014968638, -11860.327346363943, 6933.42172305843, -36830.221036698946, -19638.108567966054, 0.64, -0.606, 0.504, 192.0, 0.0, 0.0, 0.0, 0.0, 0.0, 0.0, 0.0, 0.0, 0.0, 1.663617871501629E9, 0.0, 2022-09-20 01:04:31.501
208.0, -16672.993203758386, -3814.235784320329, -56387.57275194798, -18259.47532170717, -12376.920864215, 7138.901309836067, -36892.94003164054, -19649.642068104993, 0.64, -0.606, 0.504, 192.0, 0.0, 0.0, 0.0, 0.0, 0.0, 0.0, 0.0, 0.0, 0.0, 1.6636178715016513E9, 0.0, 2022-09-20 01:04:31.501
209.0, -16635.3752178401, -3820.114293112075, -56286.96755015464, -18174.583396265913, -14188.306234873085, 7194.221877362952, -36808.1375131771, -19576.77538118069, 0.64, -0.606, 0.504, 192.0, 0.0, 0.0, 0.0, 0.0, 0.0, 0.0, 0.0, 0.0, 0.0, 1.663617871501675E9, 0.0, 2022-09-20 01:04:31.501
210.0, -16368.160112876907, -3366.6644533472604, -56331.58163208743, -18084.818790533398, -14838.429074100146, 7106.111300720132, -36746.31258801372, -19550.53443319016, 0.638, -0.598, 0.498, 192.0, 19.0, 240.0, 237.0, 80.0, 15.0, 144.0, 0.0, 0.0, 0.0, 1.6636178715016973E9, 0.0, 2022-09-20 01:04:31.501
211.0, -16023.943248265177, -2763.2791117762463, -56464.48510461868, -18019.32817927935, -13698.355996412754, 6939.188473127899, -36725.50311392583, -19571.925052633887, 0.638, -0.598, 0.498, 192.0, 0.0, 0.0, 0.0, 0.0, 0.0, 0.0, 0.0, 0.0, 0.0, 1.6636178715017273E9, 0.0, 2022-09-20 01:04:31.501
212.0, -16195.716404404213, -2986.103652251202, -56529.1934048168, -18140.38522724929, -11848.480921802631, 6943.502359807773, -36830.17633321003, -19649.396198915983, 0.638, -0.598, 0.498, 192.0, 0.0, 0.0, 0.0, 0.0, 0.0, 0.0, 0.0, 0.0, 0.0, 1.66361787150175E9, 0.0, 2022-09-20 01:04:31.501
213.0, -16679.475209650423, -3850.6020725491135, -56368.90904532779, -18256.32372573897, -12428.151062506566, 7142.052905804266, -36881.13831056813, -19657.867510064545, 0.638, -0.598, 0.498, 192.0, 0.0, 0.0, 0.0, 0.0, 0.0, 0.0, 0.0, 0.0, 0.0, 1.6636178715017729E9, 0.0, 2022-09-20 01:04:31.501
214.0, -16632.469491060914, -3848.5680638036806, -56271.90247439176, -18169.286032830005, -14224.851337057513, 7189.639769749614, -36792.29012635829, -19581.82687542759, 0.638, -0.598, 0.498, 192.0, 0.0, 0.0, 0.0, 0.0, 0.0, 0.0, 0.0, 0.0, 0.0, 1.6636178715017977E9, 0.0, 2022-09-20 01:04:31.501
215.0, -16365.075572142074, -3396.0122938170784, -56324.205556417175, -18078.359136385818, -14841.290097390425, 7102.490318118373, -36736.65663440903, -19549.081569800564, 0.638, -0.598, 0.498, 192.0, 0.0, 0.0, 0.0, 0.0, 0.0, 0.0, 0.0, 0.0, 0.0, 1.6636178715018697E9, 0.0, 2022-09-20 01:04:31.501
216.0, -16029.330018678907, -2786.12259460957, -56468.709584320735, -18020.13284207974, -13660.425086072099, 6930.270127090232, -36723.33499471367, -19576.440105013862, 0.638, -0.598, 0.498, 192.0, 0.0, 0.0, 0.0, 0.0, 0.0, 0.0, 0.0, 0.0, 0.0, 1.6636178715018983E9, 0.0, 2022-09-20 01:04:31.501
217.0, -16212.770785423612, -3022.2017195465232, -56526.19827105979, -18143.581526706403, -11825.726845947129, 6938.3838103275075, -36837.060670502266, -19655.833501319114, 0.638, -0.598, 0.498, 192.0, 0.0, 0.0, 0.0, 0.0, 0.0, 0.0, 0.0, 0.0, 0.0, 1.6636178715019248E9, 0.0, 2022-09-20 01:04:31.501
218.0, -16687.119506254137, -3867.1647151904963, -56364.21517899218, -18258.871824606875, -12454.213196541454, 7137.381391213106, -36890.95072638401, -19661.66730662195, 0.638, -0.598, 0.498, 192.0, 0.0, 0.0, 0.0, 0.0, 0.0, 0.0, 0.0, 0.0, 0.0, 1.6636178715019543E9, 0.0, 2022-09-20 01:04:31.501
219.0, -16622.81353745622, -3843.516569556781, -56271.67895694721, -18170.537730519503, -14240.38579945395, 7181.66019697907, -36796.313440360245, -19586.16311385192, 0.638, -0.598, 0.498, 192.0, 0.0, 0.0, 0.0, 0.0, 0.0, 0.0, 0.0, 0.0, 0.0, 1.6636178715019877E9, 0.0, 2022-09-20 01:04:31.501
220.0, -16336.934725872843, -3378.28736046402, -56326.77600702954, -18074.38052587277, -14825.621524527256, 7089.727472034392, -36737.19307627596, -19556.837625126558, 0.64, -0.6, 0.502, 192.0, 20.0, 0.0, 237.0, 64.0, 15.0, 176.0, 0.0, 0.0, 0.0, 1.6636178715020096E9, 0.0, 2022-09-20 01:04:31.502
221.0, -15998.395204352762, -2769.939931623928, -56470.40831689934, -18013.896705376712, -13614.380492494165, 6916.926135650413, -36730.93458782847, -19580.709288204824, 0.64, -0.6, 0.502, 192.0, 0.0, 0.0, 0.0, 0.0, 0.0, 0.0, 0.0, 0.0, 0.0, 1.663617871502034E9, 0.0, 2022-09-20 01:04:31.502
222.0, -16211.697901689757, -3054.857618195727, -56524.85716639247, -18143.514471473038, -11810.348845761877, 6936.282746348709, -36852.930409065535, -19655.587632130104, 0.64, -0.6, 0.502, 192.0, 0.0, 0.0, 0.0, 0.0, 0.0, 0.0, 0.0, 0.0, 0.0, 1.663617871502056E9, 0.0, 2022-09-20 01:04:31.502
223.0, -16696.551942414277, -3919.423093727004, -56362.98583304713, -18252.90390883731, -12490.75829872588, 7138.677792391514, -36904.048848634826, -19657.84515832009, 0.64, -0.6, 0.502, 192.0, 0.0, 0.0, 0.0, 0.0, 0.0, 0.0, 0.0, 0.0, 0.0, 1.6636178715020788E9, 0.0, 2022-09-20 01:04:31.502
224.0, -16622.567668267213, -3877.2230001953844, -56274.3835180263, -18169.084867129906, -14265.598567199537, 7171.691318952003, -36796.939289204995, -19590.87933193199, 0.64, -0.6, 0.502, 192.0, 0.0, 0.0, 0.0, 0.0, 0.0, 0.0, 0.0, 0.0, 0.0, 1.6636178715021024E9, 0.0, 2022-09-20 01:04:31.502
225.0, -16343.349676531516, -3403.231907276143, -56327.11128319637, -18081.44367712065, -14818.334855834826, 7078.283378873275, -36735.695509397454, -19562.939651362856, 0.64, -0.6, 0.502, 192.0, 0.0, 0.0, 0.0, 0.0, 0.0, 0.0, 0.0, 0.0, 0.0, 1.6636178715021262E9, 0.0, 2022-09-20 01:04:31.502
226.0, -16008.811117268935, -2791.285847578746, -56462.45109587325, -18021.362188024785, -13562.144465702113, 6911.539365236684, -36725.5701691592, -19585.693727218357, 0.64, -0.6, 0.502, 192.0, 0.0, 0.0, 0.0, 0.0, 0.0, 0.0, 0.0, 0.0, 0.0, 1.6636178715021524E9, 0.0, 2022-09-20 01:04:31.502
227.0, -16232.932058922299, -3087.6029238227516, -56507.311046995055, -18153.93038438921, -11779.257569224546, 6934.606365514561, -36846.783679340326, -19664.57303340114, 0.64, -0.6, 0.502, 192.0, 0.0, 0.0, 0.0, 0.0, 0.0, 0.0, 0.0, 0.0, 0.0, 1.663617871502175E9, 0.0, 2022-09-20 01:04:31.502
228.0, -16706.49846869689, -3927.0226868418085, -56337.52719611254, -18254.602641415913, -12507.745624511914, 7137.6049086576595, -36879.59604020072, -19663.52250141174, 0.64, -0.6, 0.502, 192.0, 0.0, 0.0, 0.0, 0.0, 0.0, 0.0, 0.0, 0.0, 0.0, 1.663617871502199E9, 0.0, 2022-09-20 01:04:31.502
229.0, -16630.27902010429, -3872.7302995598675, -56259.0278695855, -18164.12277986083, -14273.689898692359, 7170.774897429335, -36790.434931568496, -19590.11937262051, 0.64, -0.6, 0.502, 192.0, 0.0, 0.0, 0.0, 0.0, 0.0, 0.0, 0.0, 0.0, 0.0, 1.6636178715022256E9, 0.0, 2022-09-20 01:04:31.502
230.0, -16339.32636252956, -3391.229020503643, -56311.28624812201, -18070.29015663745, -14800.07348061484, 7080.585608552171, -36732.74507912935, -19558.603412938526, 0.642, -0.602, 0.502, 192.0, 20.0, 16.0, 237.0, 48.0, 15.0, 176.0, 0.0, 0.0, 0.0, 1.6636178715022745E9, 0.0, 2022-09-20 01:04:31.502
231.0, -16004.743099778068, -2785.7426149538296, -56452.772790524104, -18008.018196584966, -13508.634389476108, 6915.22740307181, -36727.29125348225, -19582.408020783427, 0.642, -0.602, 0.502, 192.0, 0.0, 0.0, 0.0, 0.0, 0.0, 0.0, 0.0, 0.0, 0.0, 1.6636178715023065E9, 0.0, 2022-09-20 01:04:31.502
232.0, -16242.833881716, -3109.3288194333104, -56501.09726203648, -18144.028561595507, -11758.291632925468, 6944.75405749727, -36849.801164841796, -19662.404914188974, 0.642, -0.602, 0.502, 192.0, 0.0, 0.0, 0.0, 0.0, 0.0, 0.0, 0.0, 0.0, 0.0, 1.6636178715023303E9, 0.0, 2022-09-20 01:04:31.502
233.0, -16707.54900068629, -3943.3394602941826, -56337.12486471234, -18249.61820240238, -12540.759151072401, 7139.1918825139865, -36891.82244441777, -19666.674097379935, 0.642, -0.602, 0.502, 192.0, 0.0, 0.0, 0.0, 0.0, 0.0, 0.0, 0.0, 0.0, 0.0, 1.6636178715023532E9, 0.0, 2022-09-20 01:04:31.502
234.0, -16620.19838335495, -3870.361014647605, -56260.50308471955, -18157.819587924434, -14294.20880010233, 7175.4687637649495, -36803.2871846303, -19595.30497733414, 0.642, -0.602, 0.502, 192.0, 0.0, 0.0, 0.0, 0.0, 0.0, 0.0, 0.0, 0.0, 0.0, 1.6636178715023758E9, 0.0, 2022-09-20 01:04:31.502
235.0, -16337.270002039671, -3399.745035141115, -56324.563184328465, -18074.984022973065, -14792.429184011125, 7074.952968949434, -36748.23483803688, -19570.494540988748, 0.642, -0.602, 0.502, 192.0, 0.0, 0.0, 0.0, 0.0, 0.0, 0.0, 0.0, 0.0, 0.0, 1.6636178715024045E9, 0.0, 2022-09-20 01:04:31.502
236.0, -16000.809192753935, -2801.2323738613577, -56460.73001155019, -18014.79077515492, -13466.009612799837, 6910.242964058276, -36730.800477361736, -19590.231131342785, 0.642, -0.602, 0.502, 192.0, 0.0, 0.0, 0.0, 0.0, 0.0, 0.0, 0.0, 0.0, 0.0, 1.663617871502426E9, 0.0, 2022-09-20 01:04:31.502
237.0, -16251.685172520301, -3152.266520531955, -56500.717282380734, -18152.566927977434, -11743.51712984051, 6949.626737788527, -36851.186972998024, -19666.00354504628, 0.642, -0.602, 0.502, 192.0, 0.0, 0.0, 0.0, 0.0, 0.0, 0.0, 0.0, 0.0, 0.0, 1.6636178715024512E9, 0.0, 2022-09-20 01:04:31.502
238.0, -16709.02421582034, -3978.699920022478, -56336.96840250116, -18252.970964070675, -12585.283826027373, 7145.249205261374, -36894.61641247469, -19668.439885191907, 0.642, -0.602, 0.502, 192.0, 0.0, 0.0, 0.0, 0.0, 0.0, 0.0, 0.0, 0.0, 0.0, 1.6636178715024738E9, 0.0, 2022-09-20 01:04:31.502
239.0, -16606.541467492756, -3889.5835148791693, -56258.96081435214, -18158.91482340274, -14323.914268483433, 7173.099478852687, -36796.04521942678, -19599.440050058372, 0.642, -0.602, 0.502, 192.0, 0.0, 0.0, 0.0, 0.0, 0.0, 0.0, 0.0, 0.0, 0.0, 1.6636178715025024E9, 0.0, 2022-09-20 01:04:31.502
240.0, -16327.792862390623, -3413.58076495895, -56321.74686452709, -18075.67692705118, -14790.506933987968, 7071.73431774787, -36741.3728524891, -19581.29043356066, 0.648, -0.604, 0.498, 192.0, 20.0, 64.0, 237.0, 32.0, 15.0, 144.0, 0.0, 0.0, 0.0, 1.66361787150253E9, 0.0, 2022-09-20 01:04:31.502
241.0, -16012.968541737622, -2835.631708578075, -56467.61434884243, -18028.358284039296, -13432.99608623935, 6900.072920331111, -36743.00452983434, -19612.56052405364, 0.648, -0.604, 0.498, 192.0, 0.0, 0.0, 0.0, 0.0, 0.0, 0.0, 0.0, 0.0, 0.0, 1.6636178715025542E9, 0.0, 2022-09-20 01:04:31.502
242.0, -16281.860027534965, -3224.172082444678, -56502.684235892804, -18170.26950958604, -11743.003039718038, 6945.536368553206, -36865.55914468278, -19689.741097657814, 0.648, -0.604, 0.498, 192.0, 0.0, 0.0, 0.0, 0.0, 0.0, 0.0, 0.0, 0.0, 0.0, 1.6636178719783597E9, 0.0, 2022-09-20 01:04:31.978
243.0, -16712.824012377743, -4022.5987461327013, -56336.99075424561, -18259.207100773707, -12614.45285254155, 7142.254071504363, -36894.035267118845, -19684.42138247745, 0.648, -0.604, 0.498, 192.0, 0.0, 0.0, 0.0, 0.0, 0.0, 0.0, 0.0, 0.0, 0.0, 1.6636178719784176E9, 0.0, 2022-09-20 01:04:31.978
244.0, -16604.708624447423, -3918.5737274377025, -56265.196951055164, -18164.860387427856, -14337.92881225691, 7170.171400329042, -36797.65454502756, -19612.337006609083, 0.648, -0.604, 0.498, 192.0, 0.0, 0.0, 0.0, 0.0, 0.0, 0.0, 0.0, 0.0, 0.0, 1.6636178719784498E9, 0.0, 2022-09-20 01:04:31.978
245.0, -16322.115519298974, -3422.7002766967153, -56325.21138491767, -18079.09674395284, -14769.96568083354, 7066.6381200120595, -36739.31649199921, -19593.472134288804, 0.648, -0.604, 0.498, 192.0, 0.0, 0.0, 0.0, 0.0, 0.0, 0.0, 0.0, 0.0, 0.0, 1.663617871978536E9, 0.0, 2022-09-20 01:04:31.978
246.0, -15997.389375852274, -2829.0379439637595, -56467.815514542526, -18028.961781139587, -13377.161428589992, 6899.625885442006, -36734.60027391914, -19623.870506748022, 0.648, -0.604, 0.498, 192.0, 0.0, 0.0, 0.0, 0.0, 0.0, 0.0, 0.0, 0.0, 0.0, 1.6636178719785614E9, 0.0, 2022-09-20 01:04:31.978
247.0, -16274.79687628709, -3221.0428382209348, -56498.25859049065, -18172.772904965033, -11737.772731515495, 6949.783199999714, -36861.804051614294, -19696.647786694502, 0.648, -0.604, 0.498, 192.0, 0.0, 0.0, 0.0, 0.0, 0.0, 0.0, 0.0, 0.0, 0.0, 1.6636178719785862E9, 0.0, 2022-09-20 01:04:31.978
248.0, -16721.4964892264, -4011.1770047160394, -56340.67879208074, -18264.973850843173, -12671.025117757932, 7142.455237204461, -36896.85158692022, -19690.456353480382, 0.648, -0.604, 0.498, 192.0, 0.0, 0.0, 0.0, 0.0, 0.0, 0.0, 0.0, 0.0, 0.0, 1.663617871978603E9, 0.0, 2022-09-20 01:04:31.978
249.0, -16616.756214708832, -3890.9916747798534, -56279.50206750656, -18173.59991950988, -14373.132809774019, 7157.788533900802, -36808.897472488585, -19622.35058812506, 0.648, -0.604, 0.498, 192.0, 0.0, 0.0, 0.0, 0.0, 0.0, 0.0, 0.0, 0.0, 0.0, 1.6636178719786184E9, 0.0, 2022-09-20 01:04:31.978
250.0, -16319.947400086809, -3395.6099624168833, -56335.113207711365, -18079.63318581977, -14762.231977252004, 7056.244558840342, -36742.333977500675, -19591.72869822129, 0.648, -0.604, 0.506, 192.0, 20.0, 64.0, 237.0, 32.0, 15.0, 208.0, 0.0, 0.0, 0.0, 1.663617871978634E9, 0.0, 2022-09-20 01:04:31.978
251.0, -15995.780050251491, -2821.4159991045, -56475.52686637961, -18027.821842172365, -13333.30730596868, 6898.307132519142, -36736.388413475564, -19615.153326410455, 0.648, -0.604, 0.506, 192.0, 0.0, 0.0, 0.0, 0.0, 0.0, 0.0, 0.0, 0.0, 0.0, 1.6636178719786508E9, 0.0, 2022-09-20 01:04:31.978
252.0, -16295.718109097257, -3266.0145480650126, -56508.16041328436, -18188.061498172465, -11720.807757473918, 6948.732668010315, -36869.850679618205, -19701.967501874864, 0.648, -0.604, 0.506, 192.0, 0.0, 0.0, 0.0, 0.0, 0.0, 0.0, 0.0, 0.0, 0.0, 1.663617871978666E9, 0.0, 2022-09-20 01:04:31.978
253.0, -16725.296285783803, -4049.130266801151, -56339.15887345778, -18274.205121303217, -12697.400176215193, 7141.024725559321, -36884.24520304742, -19692.780934903734, 0.648, -0.604, 0.506, 192.0, 0.0, 0.0, 0.0, 0.0, 0.0, 0.0, 0.0, 0.0, 0.0, 1.663617871978681E9, 0.0, 2022-09-20 01:04:31.978
254.0, -16604.306293047226, -3917.1208640481073, -56274.8305529154, -18178.852579456878, -14380.710051144368, 7161.230702546919, -36791.485463557896, -19621.74709102477, 0.648, -0.604, 0.506, 192.0, 0.0, 0.0, 0.0, 0.0, 0.0, 0.0, 0.0, 0.0, 0.0, 1.663617871978696E9, 0.0, 2022-09-20 01:04:31.978
255.0, -16314.359463972982, -3422.6332214633494, -56335.76140830057, -18087.858627779322, -14737.555651373346, 7058.971471663889, -36735.74021288636, -19597.8754279465, 0.648, -0.604, 0.506, 192.0, 0.0, 0.0, 0.0, 0.0, 0.0, 0.0, 0.0, 0.0, 0.0, 1.663617871978711E9, 0.0, 2022-09-20 01:04:31.978
0.0, -16000.742137520569, -2853.3342901866786, -56482.54531413857, -18040.830557445355, -13276.91385470794, 6893.590914439073, -36738.26596000981, -19629.8831260065, 0.648, -0.604, 0.506, 192.0, 0.0, 0.0, 0.0, 0.0, 0.0, 0.0, 0.0, 0.0, 0.0, 1.663617871978726E9, 0.0, 2022-09-20 01:04:31.978
1.0, -16305.955208057787, -3312.5061765320515, -56502.08073879251, -18191.54837030749, -11697.874867662773, 6956.622833803039, -36860.95468532499, -19705.543780987715, 0.648, -0.604, 0.506, 192.0, 0.0, 0.0, 0.0, 0.0, 0.0, 0.0, 0.0, 0.0, 0.0, 1.6636178719787407E9, 0.0, 2022-09-20 01:04:31.978
2.0, -16725.139823572616, -4083.261380584405, -56337.23662343462, -18270.85235963492, -12715.303923523894, 7146.903234351067, -36882.2558977909, -19694.546722715702, 0.648, -0.604, 0.506, 192.0, 0.0, 0.0, 0.0, 0.0, 0.0, 0.0, 0.0, 0.0, 0.0, 1.6636178719787562E9, 0.0, 2022-09-20 01:04:31.978
3.0, -16597.04197609925, -3930.6883729324786, -56273.42239301472, -18169.442495041192, -14387.057946569676, 7164.359946770662, -36783.21531810943, -19620.338931124083, 0.648, -0.604, 0.506, 192.0, 0.0, 0.0, 0.0, 0.0, 0.0, 0.0, 0.0, 0.0, 0.0, 1.6636178719787712E9, 0.0, 2022-09-20 01:04:31.978
4.0, -16299.696719610301, -3432.0656576234887, -56335.35907690038, -18078.806171274922, -14720.791843031866, 7058.435029796962, -36729.325262227685, -19596.422564556906, 0.642, -0.602, 0.506, 192.0, 20.0, 16.0, 237.0, 48.0, 15.0, 208.0, 0.0, 0.0, 0.0, 1.6636178719788036E9, 0.0, 2022-09-20 01:04:31.978
5.0, -15997.456431085639, -2878.8152788657285, -56481.07009900452, -18039.824728944866, -13232.545641964156, 6892.853306872047, -36737.70716639843, -19631.47009986283, 0.642, -0.602, 0.506, 192.0, 0.0, 0.0, 0.0, 0.0, 0.0, 0.0, 0.0, 0.0, 0.0, 1.6636178719788263E9, 0.0, 2022-09-20 01:04:31.978
6.0, -16318.427481463848, -3363.7587265680704, -56498.10212827947, -18194.588207553414, -11699.372434541277, 6959.193284415399, -36864.37450222665, -19707.26486531077, 0.642, -0.602, 0.506, 192.0, 0.0, 0.0, 0.0, 0.0, 0.0, 0.0, 0.0, 0.0, 0.0, 1.6636178719788413E9, 0.0, 2022-09-20 01:04:31.978
7.0, -16724.245753794403, -4117.9736397234965, -56329.793492531004, -18264.079781064964, -12770.020993950486, 7149.317222752241, -36879.953668112, -19690.27753952474, 0.642, -0.602, 0.506, 192.0, 0.0, 0.0, 0.0, 0.0, 0.0, 0.0, 0.0, 0.0, 0.0, 1.6636178719788563E9, 0.0, 2022-09-20 01:04:31.978
8.0, -16592.012833596807, -3956.482286033903, -56277.04337561648, -18166.02267813953, -14424.497118532316, 7153.519350709838, -36791.95485019146, -19623.423471858918, 0.642, -0.602, 0.506, 192.0, 0.0, 0.0, 0.0, 0.0, 0.0, 0.0, 0.0, 0.0, 0.0, 1.6636178719788716E9, 0.0, 2022-09-20 01:04:31.978
9.0, -16288.431440404827, -3448.9412246872457, -56342.75750431508, -18072.05594444942, -14717.170860430106, 7053.182369849965, -36732.052175051234, -19596.713137234823, 0.642, -0.602, 0.506, 192.0, 0.0, 0.0, 0.0, 0.0, 0.0, 0.0, 0.0, 0.0, 0.0, 1.6636178719788864E9, 0.0, 2022-09-20 01:04:31.978
10.0, -15991.287349615974, -2898.3730552641223, -56489.22848573071, -18031.84515617432, -13199.465060170302, 6893.970894094813, -36742.31162575622, -19625.435128859895, 0.642, -0.602, 0.506, 192.0, 0.0, 0.0, 0.0, 0.0, 0.0, 0.0, 0.0, 0.0, 0.0, 1.6636178719789016E9, 0.0, 2022-09-20 01:04:31.978
11.0, -16337.47116773977, -3405.19886078821, -56500.65022714737, -18191.570722051947, -11704.356873554812, 6965.541179840706, -36879.417226245074, -19706.348443788105, 0.642, -0.602, 0.506, 192.0, 0.0, 0.0, 0.0, 0.0, 0.0, 0.0, 0.0, 0.0, 0.0, 1.6636178719789212E9, 0.0, 2022-09-20 01:04:31.978
12.0, -16740.674285969053, -4129.931823007086, -56331.35811464288, -18260.592908929935, -12801.313436187917, 7150.859493119657, -36891.08483685074, -19695.284330282728, 0.642, -0.602, 0.506, 192.0, 0.0, 0.0, 0.0, 0.0, 0.0, 0.0, 0.0, 0.0, 0.0, 1.6636178719789364E9, 0.0, 2022-09-20 01:04:31.978
13.0, -16607.010854126318, -3958.739812223889, -56277.24454131658, -18164.30159381647, -14432.81196746969, 7159.2637490348525, -36799.06270492825, -19626.30684689365, 0.642, -0.602, 0.506, 192.0, 0.0, 0.0, 0.0, 0.0, 0.0, 0.0, 0.0, 0.0, 0.0, 1.6636178719789515E9, 0.0, 2022-09-20 01:04:31.978
14.0, -16298.400318431894, -3452.808076478014, -56345.886748538825, -18073.039421205453, -14694.461488063514, 7054.881102428568, -36745.552628702244, -19603.820991971614, 0.644, -0.602, 0.508, 192.0, 20.0, 32.0, 237.0, 48.0, 15.0, 224.0, 0.0, 0.0, 0.0, 1.6636178719789665E9, 0.0, 2022-09-20 01:04:31.978
15.0, -15999.401032853251, -2900.563526220742, -56487.14977349636, -18030.213478829086, -13146.066742666573, 6899.916458119925, -36747.05019558075, -19635.426358631415, 0.644, -0.602, 0.508, 192.0, 0.0, 0.0, 0.0, 0.0, 0.0, 0.0, 0.0, 0.0, 0.0, 1.6636178719789822E9, 0.0, 2022-09-20 01:04:31.978
16.0, -16361.85692094051, -3430.2104628336983, -56497.94566606828, -18193.06828893045, -11696.869039162284, 6975.8900375235135, -36882.18884255753, -19713.769222947267, 0.644, -0.602, 0.508, 192.0, 0.0, 0.0, 0.0, 0.0, 0.0, 0.0, 0.0, 0.0, 0.0, 1.6636178719789972E9, 0.0, 2022-09-20 01:04:31.978
17.0, -16762.757809490897, -4156.999785542463, -56334.57676584444, -18261.017592074586, -12839.73608490659, 7158.816714145746, -36896.40455203111, -19695.820772149655, 0.644, -0.602, 0.508, 192.0, 0.0, 0.0, 0.0, 0.0, 0.0, 0.0, 0.0, 0.0, 0.0, 1.6636178719790125E9, 0.0, 2022-09-20 01:04:31.979
18.0, -16611.637665228565, -3979.035196189308, -56280.70906170715, -18161.73114320411, -14444.211357141896, 7164.047022348288, -36810.99853646738, -19622.328236380607, 0.644, -0.602, 0.508, 192.0, 0.0, 0.0, 0.0, 0.0, 0.0, 0.0, 0.0, 0.0, 0.0, 1.6636178719790273E9, 0.0, 2022-09-20 01:04:31.979
19.0, -16298.757946343178, -3461.6593672823155, -56346.87022529486, -18072.838255505354, -14673.115572108696, 7052.3777070495735, -36746.29023626927, -19604.245675116264, 0.644, -0.602, 0.508, 192.0, 0.0, 0.0, 0.0, 0.0, 0.0, 0.0, 0.0, 0.0, 0.0, 1.663617871979042E9, 0.0, 2022-09-20 01:04:31.979
20.0, -16014.55551559395, -2936.281613860323, -56493.14004101039, -18044.652705747212, -13112.002684116684, 6893.568562694617, -36756.48263174089, -19644.300001180174, 0.644, -0.602, 0.508, 192.0, 0.0, 0.0, 0.0, 0.0, 0.0, 0.0, 0.0, 0.0, 0.0, 1.66361787197907E9, 0.0, 2022-09-20 01:04:31.979
21.0, -16359.420580794882, -3476.500925600639, -56480.31013969304, -18197.963320966162, -11716.248001605034, 6983.690796338416, -36872.1529092971, -19711.712862457378, 0.644, -0.602, 0.508, 192.0, 0.0, 0.0, 0.0, 0.0, 0.0, 0.0, 0.0, 0.0, 0.0, 1.6636178719790847E9, 0.0, 2022-09-20 01:04:31.979
22.0, -16732.627657965142, -4178.479811964013, -56305.07246316344, -18254.066199548986, -12895.704853022678, 7169.2996822952855, -36864.82153711576, -19687.438867978915, 0.644, -0.602, 0.508, 192.0, 0.0, 0.0, 0.0, 0.0, 0.0, 0.0, 0.0, 0.0, 0.0, 1.6636178719791E9, 0.0, 2022-09-20 01:04:31.979
23.0, -16586.648414927535, -3986.187754415006, -56263.07353533191, -18162.40169553777, -14467.971261497887, 7167.288025294308, -36777.67208548452, -19626.351550382562, 0.644, -0.602, 0.508, 192.0, 0.0, 0.0, 0.0, 0.0, 0.0, 0.0, 0.0, 0.0, 0.0, 1.663617871979115E9, 0.0, 2022-09-20 01:04:31.979
24.0, -16284.519885125148, -3472.276445898586, -56336.38725714532, -18077.15214218523, -14643.521862449868, 7053.830570439169, -36725.50311392583, -19609.766555996724, 0.648, -0.594, 0.514, 192.0, 20.0, 64.0, 237.0, 112.0, 16.0, 16.0, 0.0, 0.0, 0.0, 1.66361787197913E9, 0.0, 2022-09-20 01:04:31.979
25.0, -16012.365044637329, -2972.6031986001967, -56482.56766588303, -18047.51372903749, -13068.640299873388, 6901.4587284873405, -36738.84710536565, -19643.60709710206, 0.648, -0.594, 0.514, 192.0, 0.0, 0.0, 0.0, 0.0, 0.0, 0.0, 0.0, 0.0, 0.0, 1.6636178719791455E9, 0.0, 2022-09-20 01:04:31.979
26.0, -16383.471057828792, -3550.2616823031526, -56473.44815414526, -18205.294693147505, -11718.147899883736, 6997.012436033779, -36864.84388886022, -19708.583618233635, 0.648, -0.594, 0.514, 192.0, 0.0, 0.0, 0.0, 0.0, 0.0, 0.0, 0.0, 0.0, 0.0, 1.6636178719791608E9, 0.0, 2022-09-20 01:04:31.979
27.0, -16754.107684386694, -4231.766370745465, -56309.94514345469, -18261.24110951914, -12931.98173427364, 7171.333691040718, -36873.33755175323, -19687.684737167925, 0.648, -0.594, 0.514, 192.0, 0.0, 0.0, 0.0, 0.0, 0.0, 0.0, 0.0, 0.0, 0.0, 1.6636178719791782E9, 0.0, 2022-09-20 01:04:31.979
