%OpenBCI Raw EEG Data
%Number of channels = 8
%Sample Rate = 250 Hz
%Board = OpenBCI_GUI$BoardCytonSerial
Sample Index, EXG Channel 0, EXG Channel 1, EXG Channel 2, EXG Channel 3, EXG Channel 4, EXG Channel 5, EXG Channel 6, EXG Channel 7, Accel Channel 0, Accel Channel 1, Accel Channel 2, Other, Other, Other, Other, Other, Other, Other, Analog Channel 0, Analog Channel 1, Analog Channel 2, Timestamp, Other, Timestamp (Formatted)
110.0, -43705.6176311514, 10951.483065066705, -34383.62144036549, -13135.583774517034, -8893.692063533314, 2799.22071686038, -29466.93056427605, -2825.8416445066505, 0.6980000000000001, -0.6980000000000001, 0.272, 192.0, 21.0, 208.0, 234.0, 48.0, 8.0, 128.0, 0.0, 0.0, 0.0, 1.6636184521890612E9, 0.0, 2022-09-20 01:14:12.189
111.0, -44101.77994987726, 10672.510942520017, -34449.24616208627, -13754.011840106468, -6929.174891611921, 2980.918047537571, -29748.584896157372, -3591.0089124451774, 0.6980000000000001, -0.6980000000000001, 0.272, 192.0, 0.0, 0.0, 0.0, 0.0, 0.0, 0.0, 0.0, 0.0, 0.0, 1.6636184521891165E9, 0.0, 2022-09-20 01:14:12.189
112.0, -44117.850854140626, 6612.517727913586, -34307.4466952618, -14005.468965228674, -11352.763933272832, 3190.286837850432, -29887.992726325123, -3950.737887708889, 0.6980000000000001, -0.6980000000000001, 0.272, 192.0, 0.0, 0.0, 0.0, 0.0, 0.0, 0.0, 0.0, 0.0, 0.0, 1.663618452189139E9, 0.0, 2022-09-20 01:14:12.189
113.0, -43890.39950256342, 5505.033493642031, -34243.855982286455, -13676.786563013384, -14377.290234242706, 3120.95172655007, -29734.54800063944, -3550.8875311479014, 0.6980000000000001, -0.6980000000000001, 0.272, 192.0, 0.0, 0.0, 0.0, 0.0, 0.0, 0.0, 0.0, 0.0, 0.0, 1.6636184521891613E9, 0.0, 2022-09-20 01:14:12.189
114.0, -43756.22198059821, 7050.880140171068, -34279.39525597039, -13375.485047755845, -13761.72319194355, 2971.8655910331718, -29590.222786691524, -3153.518218221452, 0.6980000000000001, -0.6980000000000001, 0.272, 192.0, 0.0, 0.0, 0.0, 0.0, 0.0, 0.0, 0.0, 0.0, 0.0, 1.6636184521891851E9, 0.0, 2022-09-20 01:14:12.189
115.0, -43700.00734329312, 10854.34238366394, -34380.22397520828, -13131.873384937453, -9053.484684644305, 2798.12548138207, -29467.467006142975, -2823.6511735500308, 0.6980000000000001, -0.6980000000000001, 0.272, 192.0, 0.0, 0.0, 0.0, 0.0, 0.0, 0.0, 0.0, 0.0, 0.0, 1.6636184521892073E9, 0.0, 2022-09-20 01:14:12.189
116.0, -44094.89561258502, 10771.842094879401, -34450.05082488666, -13732.487110196009, -6873.116716518011, 2968.9375125095266, -29740.35945419782, -3572.3675575694515, 0.6980000000000001, -0.6980000000000001, 0.272, 192.0, 0.0, 0.0, 0.0, 0.0, 0.0, 0.0, 0.0, 0.0, 0.0, 1.66361845218923E9, 0.0, 2022-09-20 01:14:12.189
117.0, -44141.476648029886, 6689.2289148842, -34321.90827392438, -14020.15406133581, -11235.50668186029, 3171.9584073970805, -29903.72835442166, -3976.107117665663, 0.6980000000000001, -0.6980000000000001, 0.272, 192.0, 0.0, 0.0, 0.0, 0.0, 0.0, 0.0, 0.0, 0.0, 0.0, 1.663618452189253E9, 0.0, 2022-09-20 01:14:12.189
118.0, -43897.97674393377, 5487.420319011249, -34253.10960449095, -13694.019757988424, -14368.394239949494, 3102.8691652857265, -29750.775367113994, -3570.311197079563, 0.6980000000000001, -0.6980000000000001, 0.272, 192.0, 0.0, 0.0, 0.0, 0.0, 0.0, 0.0, 0.0, 0.0, 0.0, 1.6636184521892767E9, 0.0, 2022-09-20 01:14:12.189
119.0, -43761.586399267486, 6959.707374537871, -34287.486587463216, -13400.921332945984, -13867.245777517055, 2945.021145942348, -29602.829170564317, -3180.139145867723, 0.6980000000000001, -0.6980000000000001, 0.272, 192.0, 0.0, 0.0, 0.0, 0.0, 0.0, 0.0, 0.0, 0.0, 0.0, 1.6636184521893003E9, 0.0, 2022-09-20 01:14:12.189
120.0, -43698.57683164797, 10754.944176071189, -34382.88383279846, -13141.864614708975, -9240.63584096859, 2757.2664925177687, -29470.12686373316, -2833.9553277439272, 0.6960000000000001, -0.6940000000000001, 0.272, 192.0, 21.0, 192.0, 234.0, 80.0, 8.0, 128.0, 0.0, 0.0, 0.0, 1.6636184521893237E9, 0.0, 2022-09-20 01:14:12.189
121.0, -44079.8528885666, 10883.243189244651, -34452.21894409883, -13720.059540278859, -6829.39670436343, 2907.537270490798, -29730.100003492833, -3555.290824805597, 0.6960000000000001, -0.6940000000000001, 0.272, 192.0, 0.0, 0.0, 0.0, 0.0, 0.0, 0.0, 0.0, 0.0, 0.0, 1.663618452189349E9, 0.0, 2022-09-20 01:14:12.189
122.0, -44121.181264064464, 6799.691235982327, -34316.275634321646, -14025.116148604888, -11097.8199360156, 3127.3443254642875, -29896.173464795767, -3981.7621090128555, 0.6960000000000001, -0.6940000000000001, 0.272, 192.0, 0.0, 0.0, 0.0, 0.0, 0.0, 0.0, 0.0, 0.0, 0.0, 1.6636184521893723E9, 0.0, 2022-09-20 01:14:12.189
123.0, -43892.16529037539, 5478.65843518477, -34255.59064812549, -13706.447327905576, -14350.490492640793, 3061.697251999051, -29759.760768385026, -3593.1323281684317, 0.6960000000000001, -0.6940000000000001, 0.272, 192.0, 0.0, 0.0, 0.0, 0.0, 0.0, 0.0, 0.0, 0.0, 0.0, 1.6636184521893966E9, 0.0, 2022-09-20 01:14:12.189
124.0, -43765.09562314697, 6879.3305014765865, -34297.14254106791, -13418.109824432115, -13955.736333815616, 2902.8434041551836, -29620.375289961732, -3209.263468892988, 0.6960000000000001, -0.6940000000000001, 0.272, 192.0, 0.0, 0.0, 0.0, 0.0, 0.0, 0.0, 0.0, 0.0, 0.0, 1.6636184521894212E9, 0.0, 2022-09-20 01:14:12.189
125.0, -43691.22310772218, 10650.092142831343, -34390.237556724256, -13141.574042031056, -9425.037732724873, 2710.5960500950873, -29477.4582359145, -2842.4042871480333, 0.6960000000000001, -0.6940000000000001, 0.272, 192.0, 0.0, 0.0, 0.0, 0.0, 0.0, 0.0, 0.0, 0.0, 0.0, 1.6636184521894467E9, 0.0, 2022-09-20 01:14:12.189
126.0, -44058.66343482297, 11025.914374102877, -34464.624162271524, -13686.442516618075, -6757.915825595359, 2849.735659329374, -29718.49944812053, -3519.5950889104715, 0.6960000000000001, -0.6940000000000001, 0.272, 192.0, 0.0, 0.0, 0.0, 0.0, 0.0, 0.0, 0.0, 0.0, 0.0, 1.6636184521897905E9, 0.0, 2022-09-20 01:14:12.189
127.0, -44139.48734277336, 7017.240764765831, -34333.64293976342, -14028.647724228827, -10782.235656051118, 3077.634045795685, -29898.118066563376, -3996.8271847757323, 0.6960000000000001, -0.6940000000000001, 0.272, 192.0, 0.0, 0.0, 0.0, 0.0, 0.0, 0.0, 0.0, 0.0, 0.0, 1.6636184521898146E9, 0.0, 2022-09-20 01:14:12.189
128.0, -43907.208014393815, 5452.171618005231, -34252.953142279766, -13718.360807700254, -14271.745296924746, 3033.60110921873, -29758.93375384018, -3618.3897994029285, 0.6960000000000001, -0.6940000000000001, 0.272, 192.0, 0.0, 0.0, 0.0, 0.0, 0.0, 0.0, 0.0, 0.0, 0.0, 1.6636184521898384E9, 0.0, 2022-09-20 01:14:12.189
129.0, -43761.586399267486, 6806.9555529303025, -34285.69844790679, -13411.091376673148, -13993.711947645183, 2886.928962103005, -29606.248987465977, -3210.9174979826807, 0.6960000000000001, -0.6940000000000001, 0.272, 192.0, 0.0, 0.0, 0.0, 0.0, 0.0, 0.0, 0.0, 0.0, 0.0, 1.6636184521898615E9, 0.0, 2022-09-20 01:14:12.189
130.0, -43674.03461623605, 10537.461702521052, -34377.80998680711, -13126.710131968277, -9567.597158860823, 2697.654390055465, -29468.24931719891, -2833.1953684324467, 0.6960000000000001, -0.6940000000000001, 0.272, 192.0, 0.0, 0.0, 0.0, 0.0, 0.0, 0.0, 0.0, 0.0, 0.0, 1.6636184521898856E9, 0.0, 2022-09-20 01:14:12.189
131.0, -44056.47296386635, 11053.071743616074, -34467.14990939497, -13671.109219921735, -6763.056726820079, 2828.9708887303937, -29714.766706796494, -3503.1442049913653, 0.6960000000000001, -0.6920000000000001, 0.266, 192.0, 21.0, 192.0, 234.0, 96.0, 8.0, 80.0, 0.0, 0.0, 0.0, 1.663618452189916E9, 0.0, 2022-09-20 01:14:12.189
132.0, -44161.28029361729, 6996.945380800412, -34341.9577887008, -14035.710875476703, -10800.497031271105, 3063.016004921914, -29905.62825270036, -4003.4656528789587, 0.6960000000000001, -0.6920000000000001, 0.266, 192.0, 0.0, 0.0, 0.0, 0.0, 0.0, 0.0, 0.0, 0.0, 0.0, 1.6636184521899488E9, 0.0, 2022-09-20 01:14:12.189
133.0, -43923.435380868366, 5430.937460772689, -34262.18441273981, -13726.139214770701, -14306.16698338592, 3011.9422688415375, -29766.89097486627, -3626.212909962286, 0.6960000000000001, -0.6920000000000001, 0.266, 192.0, 0.0, 0.0, 0.0, 0.0, 0.0, 0.0, 0.0, 0.0, 0.0, 1.6636184521899688E9, 0.0, 2022-09-20 01:14:12.189
134.0, -43785.346303623475, 6685.116193904423, -34291.57695669853, -13432.526699605787, -14158.824283936536, 2864.733679858885, -29620.129420772722, -3234.364477916298, 0.6960000000000001, -0.6920000000000001, 0.266, 192.0, 0.0, 0.0, 0.0, 0.0, 0.0, 0.0, 0.0, 0.0, 0.0, 1.663618452189992E9, 0.0, 2022-09-20 01:14:12.189
135.0, -43687.60212512042, 10411.844898682226, -34379.64282985244, -13126.151338356894, -9817.243792682148, 2671.86047695404, -29467.802282309807, -2827.920356740994, 0.6960000000000001, -0.6920000000000001, 0.266, 192.0, 0.0, 0.0, 0.0, 0.0, 0.0, 0.0, 0.0, 0.0, 0.0, 1.6636184521900153E9, 0.0, 2022-09-20 01:14:12.190
136.0, -44059.55750460119, 11147.77608487321, -34473.229583886816, -13649.629193500185, -6769.9187123678585, 2790.347074311623, -29703.859055502304, -3474.1763441772873, 0.6960000000000001, -0.6920000000000001, 0.266, 192.0, 0.0, 0.0, 0.0, 0.0, 0.0, 0.0, 0.0, 0.0, 0.0, 1.6636184521900358E9, 0.0, 2022-09-20 01:14:12.190
137.0, -44173.86432574563, 7116.661324103037, -34348.149221914915, -14038.057808644511, -10679.35057632334, 3031.5447487288416, -29906.835246900948, -4006.5054901248805, 0.6960000000000001, -0.6920000000000001, 0.266, 192.0, 0.0, 0.0, 0.0, 0.0, 0.0, 0.0, 0.0, 0.0, 0.0, 1.6636184521900609E9, 0.0, 2022-09-20 01:14:12.190
138.0, -43936.19822695234, 5437.687687598192, -34261.13388075041, -13727.56972641584, -14288.263236077219, 2984.919009795071, -29770.243736534565, -3635.2653664666855, 0.6960000000000001, -0.6920000000000001, 0.266, 192.0, 0.0, 0.0, 0.0, 0.0, 0.0, 0.0, 0.0, 0.0, 0.0, 1.6636184521900814E9, 0.0, 2022-09-20 01:14:12.190
139.0, -43804.434693388306, 6634.176568290779, -34294.661497433364, -13435.36537115161, -14226.594773125027, 2832.636574821064, -29630.00889182197, -3246.2109024776105, 0.6960000000000001, -0.6920000000000001, 0.266, 192.0, 0.0, 0.0, 0.0, 0.0, 0.0, 0.0, 0.0, 0.0, 0.0, 1.663618452190103E9, 0.0, 2022-09-20 01:14:12.190
140.0, -43700.49908167113, 10310.435034088498, -34381.90035604243, -13122.239783077215, -9985.887704597439, 2631.582633445577, -29480.229852226956, -2833.664755066008, 0.6960000000000001, -0.6920000000000001, 0.266, 192.0, 0.0, 0.0, 0.0, 0.0, 0.0, 0.0, 0.0, 0.0, 0.0, 1.6636184521901228E9, 0.0, 2022-09-20 01:14:12.190
141.0, -44053.41077487598, 11253.633946613545, -34477.00702869976, -13614.760472149906, -6733.395961927887, 2733.126608506037, -29699.947500222625, -3435.1054948694104, 0.6980000000000001, -0.6960000000000001, 0.276, 192.0, 21.0, 208.0, 234.0, 64.0, 8.0, 160.0, 0.0, 0.0, 0.0, 1.6636184521903007E9, 0.0, 2022-09-20 01:14:12.190
142.0, -44189.30938116424, 7301.040864114865, -34363.99660873373, -14038.43778830025, -10428.228727367965, 2969.6751200765516, -29915.53007549406, -4009.590030859713, 0.6980000000000001, -0.6960000000000001, 0.276, 192.0, 0.0, 0.0, 0.0, 0.0, 0.0, 0.0, 0.0, 0.0, 0.0, 1.6636184521903293E9, 0.0, 2022-09-20 01:14:12.190
143.0, -43958.39350919647, 5429.305783427451, -34271.90742157787, -13748.20038654809, -14211.52969736215, 2935.253433615379, -29783.27480355201, -3663.1603435469087, 0.6980000000000001, -0.6960000000000001, 0.276, 192.0, 0.0, 0.0, 0.0, 0.0, 0.0, 0.0, 0.0, 0.0, 0.0, 1.663618452190356E9, 0.0, 2022-09-20 01:14:12.190
144.0, -43818.47158890624, 6540.321593322944, -34296.87432013444, -13445.781284067785, -14295.639311747469, 2792.4928417793326, -29632.601694178786, -3260.4489636956414, 0.6980000000000001, -0.6960000000000001, 0.276, 192.0, 0.0, 0.0, 0.0, 0.0, 0.0, 0.0, 0.0, 0.0, 0.0, 1.663618452190382E9, 0.0, 2022-09-20 01:14:12.190
145.0, -43704.45534043972, 10177.44215457942, -34381.766245575694, -13121.233954576726, -10169.86491320907, 2594.4340341608568, -29476.988849280937, -2833.08360971017, 0.6980000000000001, -0.6960000000000001, 0.276, 192.0, 0.0, 0.0, 0.0, 0.0, 0.0, 0.0, 0.0, 0.0, 0.0, 1.6636184521904066E9, 0.0, 2022-09-20 01:14:12.190
146.0, -44045.58766431662, 11306.272304805792, -34483.06435144715, -13592.364024205688, -6742.537825410107, 2684.8244887381184, -29688.190482639133, -3412.709046925193, 0.6980000000000001, -0.6960000000000001, 0.276, 192.0, 0.0, 0.0, 0.0, 0.0, 0.0, 0.0, 0.0, 0.0, 0.0, 1.6636184521904328E9, 0.0, 2022-09-20 01:14:12.190
147.0, -44194.62909634461, 7362.284643922406, -34369.85276578102, -14033.095721375434, -10358.401877689586, 2936.862759216161, -29914.568950482484, -4005.5667168577575, 0.6980000000000001, -0.6960000000000001, 0.276, 192.0, 0.0, 0.0, 0.0, 0.0, 0.0, 0.0, 0.0, 0.0, 0.0, 1.6636184521904569E9, 0.0, 2022-09-20 01:14:12.190
148.0, -43962.10389877605, 5430.870405539323, -34275.03666580161, -13749.094456326302, -14202.432537368839, 2901.926982632516, -29785.912309397736, -3668.5471139606375, 0.6980000000000001, -0.6960000000000001, 0.276, 192.0, 0.0, 0.0, 0.0, 0.0, 0.0, 0.0, 0.0, 0.0, 0.0, 1.6636184521904871E9, 0.0, 2022-09-20 01:14:12.190
149.0, -43819.27625170664, 6468.371327921311, -34298.528349224136, -13452.017420770815, -14397.697376930402, 2764.9778443548494, -29638.837830881817, -3282.3313215173866, 0.6980000000000001, -0.6960000000000001, 0.276, 192.0, 0.0, 0.0, 0.0, 0.0, 0.0, 0.0, 0.0, 0.0, 0.0, 1.6636184521905475E9, 0.0, 2022-09-20 01:14:12.190
150.0, -43687.7138838427, 10065.817542769617, -34374.2113559498, -13109.208716059771, -10391.34834901671, 2569.1318594374493, -29473.21140446799, -2838.51508361281, 0.6980000000000001, -0.6960000000000001, 0.276, 192.0, 0.0, 0.0, 0.0, 0.0, 0.0, 0.0, 0.0, 0.0, 0.0, 1.663618452190578E9, 0.0, 2022-09-20 01:14:12.190
151.0, -44023.034754161214, 11392.438279681002, -34478.8398717451, -13556.10949469918, -6764.442534976308, 2651.9897761332722, -29666.755159706496, -3382.221267488154, 0.6940000000000001, -0.6900000000000001, 0.276, 192.0, 21.0, 176.0, 234.0, 112.0, 8.0, 160.0, 0.0, 0.0, 0.0, 1.663618452190608E9, 0.0, 2022-09-20 01:14:12.190
152.0, -44182.67091306102, 7510.320247449905, -34365.51652735669, -14020.377578780364, -10212.422634651975, 2915.852119428172, -29903.52718872156, -4001.0069609888747, 0.6940000000000001, -0.6900000000000001, 0.276, 192.0, 0.0, 0.0, 0.0, 0.0, 0.0, 0.0, 0.0, 0.0, 0.0, 1.66361845219064E9, 0.0, 2022-09-20 01:14:12.190
153.0, -43943.328433433584, 5455.144400017786, -34269.1358052654, -13747.507482469975, -14164.389868305907, 2894.059168584248, -29791.94728040067, -3676.124355330987, 0.6940000000000001, -0.6900000000000001, 0.276, 192.0, 0.0, 0.0, 0.0, 0.0, 0.0, 0.0, 0.0, 0.0, 0.0, 1.663618452190684E9, 0.0, 2022-09-20 01:14:12.190
154.0, -43804.010010243655, 6427.400580334733, -34294.37092475545, -13450.832778314683, -14457.689459048446, 2759.188742540925, -29644.02343559545, -3282.3536732618422, 0.6940000000000001, -0.6900000000000001, 0.276, 192.0, 0.0, 0.0, 0.0, 0.0, 0.0, 0.0, 0.0, 0.0, 0.0, 1.6636184521907132E9, 0.0, 2022-09-20 01:14:12.190
155.0, -43677.610895348895, 9958.819742062062, -34367.4611291243, -13107.621742203444, -10578.544208829906, 2562.6275018009546, -29474.485453901943, -2832.8153887767066, 0.6940000000000001, -0.6900000000000001, 0.276, 192.0, 0.0, 0.0, 0.0, 0.0, 0.0, 0.0, 0.0, 0.0, 0.0, 1.6636184521907413E9, 0.0, 2022-09-20 01:14:12.190
156.0, -43994.22335555832, 11470.64703353012, -34474.123653665025, -13524.101796639181, -6787.688349209828, 2628.1851682883703, -29656.138081090223, -3342.345755379886, 0.6940000000000001, -0.6900000000000001, 0.276, 192.0, 0.0, 0.0, 0.0, 0.0, 0.0, 0.0, 0.0, 0.0, 0.0, 1.6636184521907654E9, 0.0, 2022-09-20 01:14:12.190
157.0, -44171.58444781118, 7672.772726151076, -34369.18221344736, -14011.01219785359, -10038.704876745329, 2896.227287796413, -29901.53788346504, -3992.625056818135, 0.6940000000000001, -0.6900000000000001, 0.276, 192.0, 0.0, 0.0, 0.0, 0.0, 0.0, 0.0, 0.0, 0.0, 0.0, 1.6636184521908228E9, 0.0, 2022-09-20 01:14:12.190
158.0, -43944.0213375117, 5471.595283936892, -34264.464290674245, -13756.135255829724, -14109.717501368226, 2893.8803546286053, -29791.544949000472, -3689.7142159598134, 0.6940000000000001, -0.6900000000000001, 0.276, 192.0, 0.0, 0.0, 0.0, 0.0, 0.0, 0.0, 0.0, 0.0, 0.0, 1.6636184521908517E9, 0.0, 2022-09-20 01:14:12.190
159.0, -43803.69708582128, 6361.060602791382, -34284.15617753937, -13457.404191184545, -14535.942916386477, 2758.808762885185, -29638.547258203896, -3292.0766820999006, 0.6940000000000001, -0.6900000000000001, 0.276, 192.0, 0.0, 0.0, 0.0, 0.0, 0.0, 0.0, 0.0, 0.0, 0.0, 1.6636184521908803E9, 0.0, 2022-09-20 01:14:12.190
160.0, -43661.4058806188, 9843.015354039117, -34352.37370161697, -13101.385605500414, -10770.970376845644, 2560.504086077701, -29464.56127936379, -2829.3508683861337, 0.6940000000000001, -0.6900000000000001, 0.276, 192.0, 0.0, 0.0, 0.0, 0.0, 0.0, 0.0, 0.0, 0.0, 0.0, 1.6636184521909091E9, 0.0, 2022-09-20 01:14:12.190
161.0, -43961.99214005377, 11534.930650583585, -34459.61737151353, -13490.395366000577, -6817.393817590931, 2622.999563574739, -29626.72318538704, -3300.100958359356, 0.6960000000000001, -0.6920000000000001, 0.274, 192.0, 21.0, 192.0, 234.0, 96.0, 8.0, 144.0, 0.0, 0.0, 0.0, 1.6636184521909375E9, 0.0, 2022-09-20 01:14:12.190
162.0, -44164.677758774495, 7783.3468059714805, -34363.28135291116, -14000.261008770587, -9931.282392893123, 2895.1320523181025, -29885.086999545932, -3980.2421903898944, 0.6960000000000001, -0.6920000000000001, 0.274, 192.0, 0.0, 0.0, 0.0, 0.0, 0.0, 0.0, 0.0, 0.0, 0.0, 1.6636184521909676E9, 0.0, 2022-09-20 01:14:12.190
163.0, -43938.81338105362, 5482.860563142367, -34259.859831316455, -13754.570633717853, -14086.203466201243, 2895.7355494183957, -29786.202882075657, -3695.68213172938, 0.6960000000000001, -0.6920000000000001, 0.274, 192.0, 0.0, 0.0, 0.0, 0.0, 0.0, 0.0, 0.0, 0.0, 0.0, 1.6636184521909966E9, 0.0, 2022-09-20 01:14:12.190
164.0, -43795.04696071708, 6294.608866525754, -34283.418569972346, -13460.712249363929, -14623.6511616291, 2756.417126228467, -29643.35288326179, -3307.7676067075263, 0.6960000000000001, -0.6920000000000001, 0.274, 192.0, 0.0, 0.0, 0.0, 0.0, 0.0, 0.0, 0.0, 0.0, 0.0, 1.6636184521910253E9, 0.0, 2022-09-20 01:14:12.191
165.0, -43654.99092996013, 9715.521003666045, -34351.725501027766, -13102.905524123375, -10987.692891084302, 2553.4409348298236, -29475.893613802626, -2838.7833045462735, 0.6960000000000001, -0.6920000000000001, 0.274, 192.0, 0.0, 0.0, 0.0, 0.0, 0.0, 0.0, 0.0, 0.0, 0.0, 1.6636184521910548E9, 0.0, 2022-09-20 01:14:12.191
166.0, -43957.186514995876, 11580.237636594491, -34467.4851855618, -13468.580063412199, -6874.815449096614, 2598.7255690962756, -29631.61821742275, -3277.391585992764, 0.6960000000000001, -0.6920000000000001, 0.274, 192.0, 0.0, 0.0, 0.0, 0.0, 0.0, 0.0, 0.0, 0.0, 0.0, 1.6636184521910837E9, 0.0, 2022-09-20 01:14:12.191
167.0, -44181.28510490479, 7906.102586520027, -34381.006286264215, -14006.519497218073, -9803.430414608767, 2870.9474648174605, -29900.66616543128, -3988.9817224719195, 0.6960000000000001, -0.6920000000000001, 0.274, 192.0, 0.0, 0.0, 0.0, 0.0, 0.0, 0.0, 0.0, 0.0, 0.0, 1.6636184521911132E9, 0.0, 2022-09-20 01:14:12.191
168.0, -43964.16025926593, 5488.269685300552, -34266.20772674176, -13772.29556707091, -14044.070427902989, 2881.2069155224463, -29800.99973690507, -3717.922117462411, 0.6960000000000001, -0.6920000000000001, 0.274, 192.0, 0.0, 0.0, 0.0, 0.0, 0.0, 0.0, 0.0, 0.0, 0.0, 1.6636184521911428E9, 0.0, 2022-09-20 01:14:12.191
169.0, -43812.414266158856, 6236.114351286215, -34280.93752633781, -13466.456647688943, -14684.112630380707, 2756.4394779729223, -29647.845583897306, -3313.8472811993697, 0.6960000000000001, -0.6920000000000001, 0.274, 192.0, 0.0, 0.0, 0.0, 0.0, 0.0, 0.0, 0.0, 0.0, 0.0, 1.663618452191172E9, 0.0, 2022-09-20 01:14:12.191
170.0, -43662.50111609711, 9585.746775358532, -34344.61764629098, -13101.832640389519, -11176.811000920654, 2566.2037809138037, -29470.752712577905, -2838.023345234793, 0.6960000000000001, -0.6920000000000001, 0.274, 192.0, 0.0, 0.0, 0.0, 0.0, 0.0, 0.0, 0.0, 0.0, 0.0, 1.663618452191203E9, 0.0, 2022-09-20 01:14:12.191
171.0, -43951.06213701512, 11628.852680784785, -34464.98179018281, -13438.248746186346, -6916.166176338933, 2599.8655080634962, -29613.62506313623, -3236.130265728267, 0.6920000000000001, -0.6940000000000001, 0.28200000000000003, 192.0, 21.0, 160.0, 234.0, 80.0, 8.0, 208.0, 0.0, 0.0, 0.0, 1.6636184521912324E9, 0.0, 2022-09-20 01:14:12.191
172.0, -44182.73796829438, 8065.939911119928, -34384.224937465784, -13992.43789821123, -9629.66795321321, 2882.9727033344157, -29889.02090657007, -3965.646501260579, 0.6920000000000001, -0.6940000000000001, 0.28200000000000003, 192.0, 0.0, 0.0, 0.0, 0.0, 0.0, 0.0, 0.0, 0.0, 0.0, 1.6636184521914523E9, 0.0, 2022-09-20 01:14:12.191
173.0, -43957.678253373895, 5519.5174240490705, -34263.413758684845, -13771.490904270519, -13967.359240932376, 2918.981363651915, -29797.1328851143, -3714.278783116196, 0.6920000000000001, -0.6940000000000001, 0.28200000000000003, 192.0, 0.0, 0.0, 0.0, 0.0, 0.0, 0.0, 0.0, 0.0, 0.0, 1.663618452191517E9, 0.0, 2022-09-20 01:14:12.191
174.0, -43813.06246674806, 6183.297179138324, -34281.00458157117, -13473.273929747813, -14733.353523415748, 2791.4870132788437, -29650.10311008729, -3315.255441100054, 0.6920000000000001, -0.6940000000000001, 0.28200000000000003, 192.0, 0.0, 0.0, 0.0, 0.0, 0.0, 0.0, 0.0, 0.0, 0.0, 1.663618452191574E9, 0.0, 2022-09-20 01:14:12.191
175.0, -43670.63715107884, 9456.687802873588, -34350.13852717144, -13116.16010858537, -11363.045735722273, 2600.0443220191387, -29478.776988837362, -2842.806618548229, 0.6920000000000001, -0.6940000000000001, 0.28200000000000003, 192.0, 0.0, 0.0, 0.0, 0.0, 0.0, 0.0, 0.0, 0.0, 0.0, 1.6636184521916409E9, 0.0, 2022-09-20 01:14:12.191
176.0, -43930.140904204956, 11667.476495203555, -34460.95847618085, -13415.762891264307, -6973.0737177221445, 2640.1209998275044, -29600.593996118787, -3196.3888640867312, 0.6920000000000001, -0.6940000000000001, 0.28200000000000003, 192.0, 0.0, 0.0, 0.0, 0.0, 0.0, 0.0, 0.0, 0.0, 0.0, 1.663618452191745E9, 0.0, 2022-09-20 01:14:12.191
177.0, -44175.00426471284, 8187.466345723432, -34376.960620517806, -13983.72071787366, -9522.625449016745, 2930.8948434465938, -29878.180310509244, -3941.4172102710263, 0.6920000000000001, -0.6940000000000001, 0.28200000000000003, 192.0, 0.0, 0.0, 0.0, 0.0, 0.0, 0.0, 0.0, 0.0, 0.0, 1.6636184521918204E9, 0.0, 2022-09-20 01:14:12.191
178.0, -43960.27105573071, 5541.466837104183, -34250.427395156315, -13775.693032228117, -13933.60810680486, 2973.2961026783114, -29792.081390867403, -3707.6179632685144, 0.6920000000000001, -0.6940000000000001, 0.28200000000000003, 192.0, 0.0, 0.0, 0.0, 0.0, 0.0, 0.0, 0.0, 0.0, 0.0, 1.6636184521920247E9, 0.0, 2022-09-20 01:14:12.192
179.0, -43803.42886488782, 6138.571338483255, -34255.41183416985, -13465.406115699545, -14802.465117271557, 2864.018424036315, -29636.557952947376, -3303.6325339832943, 0.6920000000000001, -0.6940000000000001, 0.28200000000000003, 192.0, 0.0, 0.0, 0.0, 0.0, 0.0, 0.0, 0.0, 0.0, 0.0, 1.6636184521920798E9, 0.0, 2022-09-20 01:14:12.192
180.0, -43637.66832800726, 9358.340127270238, -34302.26109054817, -13079.547951167579, -11553.370839759213, 2685.1150614160374, -29449.406796623087, -2807.1108826531035, 0.6920000000000001, -0.6940000000000001, 0.28200000000000003, 192.0, 0.0, 0.0, 0.0, 0.0, 0.0, 0.0, 0.0, 0.0, 0.0, 1.6636184521921334E9, 0.0, 2022-09-20 01:14:12.192
181.0, -43896.90386019991, 11723.020580174993, -34426.872065886506, -13357.380134747045, -7034.2951457852305, 2703.0188087247384, -29565.367646857223, -3134.586290667807, 0.6920000000000001, -0.6960000000000001, 0.28800000000000003, 192.0, 21.0, 160.0, 234.0, 64.0, 9.0, 0.0, 0.0, 0.0, 0.0, 1.6636184521921806E9, 0.0, 2022-09-20 01:14:12.192
182.0, -44165.08009017469, 8337.468902762997, -34356.84405050803, -13953.814083792458, -9385.51984852789, 2996.87719307866, -29857.10261548789, -3916.6738291590013, 0.6920000000000001, -0.6960000000000001, 0.28800000000000003, 192.0, 0.0, 0.0, 0.0, 0.0, 0.0, 0.0, 0.0, 0.0, 0.0, 1.6636184521922293E9, 0.0, 2022-09-20 01:14:12.192
183.0, -43954.01256728322, 5570.255883962618, -34222.95710122074, -13766.886444912727, -13886.311815537432, 3047.5709495032966, -29781.531367484495, -3711.1718906369083, 0.6920000000000001, -0.6960000000000001, 0.28800000000000003, 192.0, 0.0, 0.0, 0.0, 0.0, 0.0, 0.0, 0.0, 0.0, 0.0, 1.663618452192278E9, 0.0, 2022-09-20 01:14:12.192
184.0, -43796.745693295685, 6097.9358670635065, -34228.76855477912, -13457.337135951178, -14862.054867989405, 2932.012430669359, -29623.459830696564, -3309.064007885934, 0.6920000000000001, -0.6960000000000001, 0.28800000000000003, 192.0, 0.0, 0.0, 0.0, 0.0, 0.0, 0.0, 0.0, 0.0, 0.0, 1.6636184521923149E9, 0.0, 2022-09-20 01:14:12.192
185.0, -43635.0978773949, 9234.198538565463, -34283.10564554997, -13078.832695345009, -11745.70760079713, 2747.0070418127825, -29440.510802329878, -2822.153606671525, 0.6920000000000001, -0.6960000000000001, 0.28800000000000003, 192.0, 0.0, 0.0, 0.0, 0.0, 0.0, 0.0, 0.0, 0.0, 0.0, 1.6636184521923552E9, 0.0, 2022-09-20 01:14:12.192
186.0, -43871.5569819876, 11749.060362465425, -34404.83324585357, -13324.791291331208, -7116.437806658484, 2757.288844262224, -29539.104347122237, -3106.8701275432263, 0.6920000000000001, -0.6960000000000001, 0.28800000000000003, 192.0, 0.0, 0.0, 0.0, 0.0, 0.0, 0.0, 0.0, 0.0, 0.0, 1.663618452192402E9, 0.0, 2022-09-20 01:14:12.192
187.0, -44147.39986031054, 8494.311093605887, -34339.52144855517, -13928.75777825806, -9245.396762537572, 3052.7789059613833, -29830.392280863798, -3892.9362765474652, 0.6920000000000001, -0.6960000000000001, 0.28800000000000003, 192.0, 0.0, 0.0, 0.0, 0.0, 0.0, 0.0, 0.0, 0.0, 0.0, 1.6636184521924367E9, 0.0, 2022-09-20 01:14:12.192
188.0, -43948.96107303633, 5609.192622803763, -34207.04265916856, -13756.87286339675, -13812.97574197957, 3115.2296799695114, -29765.28164926549, -3704.488719044771, 0.6920000000000001, -0.6960000000000001, 0.28800000000000003, 192.0, 0.0, 0.0, 0.0, 0.0, 0.0, 0.0, 0.0, 0.0, 0.0, 1.6636184521926281E9, 0.0, 2022-09-20 01:14:12.192
189.0, -43797.21507992924, 6052.025383952307, -34213.792885994066, -13446.697705590452, -14909.217048790104, 2998.6876843795403, -29612.865103824748, -3295.742368190571, 0.6920000000000001, -0.6960000000000001, 0.28800000000000003, 192.0, 0.0, 0.0, 0.0, 0.0, 0.0, 0.0, 0.0, 0.0, 0.0, 1.6636184521926594E9, 0.0, 2022-09-20 01:14:12.192
190.0, -43640.574054786455, 9114.929630151944, -34269.851061087975, -13071.009584785652, -11926.734379140662, 2814.0399234342485, -29436.554543561288, -2806.350923341623, 0.6920000000000001, -0.6960000000000001, 0.28800000000000003, 192.0, 0.0, 0.0, 0.0, 0.0, 0.0, 0.0, 0.0, 0.0, 0.0, 1.6636184521926901E9, 0.0, 2022-09-20 01:14:12.192
191.0, -43865.119679584466, 11775.033089522492, -34393.92559455938, -13284.401689100469, -7196.389996575117, 2809.189594887447, -29522.45229750303, -3050.1861036045675, 0.6940000000000001, -0.6940000000000001, 0.28, 192.0, 21.0, 176.0, 234.0, 80.0, 8.0, 192.0, 0.0, 0.0, 0.0, 1.6636184521927218E9, 0.0, 2022-09-20 01:14:12.192
192.0, -44161.72732850639, 8620.911374200747, -34337.21921887627, -13908.529449526008, -9130.70996173739, 3099.270534428422, -29824.2902546275, -3864.817782022689, 0.6940000000000001, -0.6940000000000001, 0.28, 192.0, 0.0, 0.0, 0.0, 0.0, 0.0, 0.0, 0.0, 0.0, 0.0, 1.6636184521927748E9, 0.0, 2022-09-20 01:14:12.192
193.0, -43961.61216039803, 5637.042896395075, -34202.90758644433, -13754.861206395772, -13754.168302317656, 3163.1294683372344, -29765.393407987765, -3705.5168992897156, 0.6940000000000001, -0.6940000000000001, 0.28, 192.0, 0.0, 0.0, 0.0, 0.0, 0.0, 0.0, 0.0, 0.0, 0.0, 1.6636184521928043E9, 0.0, 2022-09-20 01:14:12.192
194.0, -43780.89830647687, 6015.927316656986, -34198.414885808816, -13435.722999062897, -14950.076037654406, 3050.879007682682, -29600.61634786324, -3292.9931036225685, 0.6940000000000001, -0.6940000000000001, 0.28, 192.0, 0.0, 0.0, 0.0, 0.0, 0.0, 0.0, 0.0, 0.0, 0.0, 1.663618452192832E9, 0.0, 2022-09-20 01:14:12.192
195.0, -43624.3466883119, 8989.849268180045, -34249.376863166915, -13058.313793935036, -12113.63966627594, 2871.0815752841922, -29422.942331188005, -2808.094359409137, 0.6940000000000001, -0.6940000000000001, 0.28, 192.0, 0.0, 0.0, 0.0, 0.0, 0.0, 0.0, 0.0, 0.0, 0.0, 1.66361845219288E9, 0.0, 2022-09-20 01:14:12.192
196.0, -43843.43848746282, 11789.069985040425, -34378.68170484086, -13244.570880481111, -7289.909695376122, 2851.2332262078794, -29500.994622825936, -3021.821739890783, 0.6940000000000001, -0.6940000000000001, 0.28, 192.0, 0.0, 0.0, 0.0, 0.0, 0.0, 0.0, 0.0, 0.0, 0.0, 1.663618452192924E9, 0.0, 2022-09-20 01:14:12.192
197.0, -44146.416383554504, 8783.833239535481, -34329.01612866118, -13881.79676315746, -8987.725852456791, 3133.4687034450417, -29810.253359109567, -3854.4018691065157, 0.6940000000000001, -0.6940000000000001, 0.28, 192.0, 0.0, 0.0, 0.0, 0.0, 0.0, 0.0, 0.0, 0.0, 0.0, 1.6636184521929588E9, 0.0, 2022-09-20 01:14:12.192
198.0, -43942.926102033394, 5695.425652912338, -34188.691876970755, -13748.401552248188, -13661.967356439514, 3205.284858379943, -29759.961934085124, -3725.4546553438495, 0.6940000000000001, -0.6940000000000001, 0.28, 192.0, 0.0, 0.0, 0.0, 0.0, 0.0, 0.0, 0.0, 0.0, 0.0, 1.6636184521930027E9, 0.0, 2022-09-20 01:14:12.193
199.0, -43776.20444014126, 5983.494935452335, -34188.44600778175, -13429.08453095967, -14981.457886869657, 3093.213211681034, -29599.454057151564, -3308.616972996828, 0.6940000000000001, -0.6940000000000001, 0.28, 192.0, 0.0, 0.0, 0.0, 0.0, 0.0, 0.0, 0.0, 0.0, 0.0, 1.6636184521930463E9, 0.0, 2022-09-20 01:14:12.193
200.0, -43616.00948763007, 8874.51426679066, -34242.73839506369, -13060.884244547397, -12281.881246791036, 2908.0066571243597, -29423.21055212147, -2826.4227898624886, 0.6940000000000001, -0.6940000000000001, 0.28, 192.0, 0.0, 0.0, 0.0, 0.0, 0.0, 0.0, 0.0, 0.0, 0.0, 1.6636184521931021E9, 0.0, 2022-09-20 01:14:12.193
201.0, -43805.61933584444, 11809.655941683763, -34372.982010004765, -13217.637028412466, -7364.408059645661, 2867.4158891935217, -29481.012163282892, -2997.59244890123, 0.706, -0.6960000000000001, 0.274, 192.0, 22.0, 16.0, 234.0, 64.0, 8.0, 144.0, 0.0, 0.0, 0.0, 1.6636184521931536E9, 0.0, 2022-09-20 01:14:12.193
202.0, -44124.53402573276, 8943.357639713007, -34334.98404443074, -13866.374059483298, -8823.261716754641, 3141.8953111046926, -29794.67419322422, -3833.4135810629823, 0.706, -0.6960000000000001, 0.274, 192.0, 0.0, 0.0, 0.0, 0.0, 0.0, 0.0, 0.0, 0.0, 0.0, 1.663618452193195E9, 0.0, 2022-09-20 01:14:12.193
203.0, -43943.46254390032, 5747.549920982114, -34191.66465898331, -13755.688220940618, -13551.952070230493, 3222.8309777773593, -29757.816166617416, -3724.06884718762, 0.706, -0.6960000000000001, 0.274, 192.0, 0.0, 0.0, 0.0, 0.0, 0.0, 0.0, 0.0, 0.0, 0.0, 1.663618452193367E9, 0.0, 2022-09-20 01:14:12.193
204.0, -43767.93429469279, 5953.789467071231, -34189.89887117134, -13441.802673554741, -14991.560875363455, 3102.6009443522626, -29600.549292629876, -3304.616010739328, 0.706, -0.6960000000000001, 0.274, 192.0, 0.0, 0.0, 0.0, 0.0, 0.0, 0.0, 0.0, 0.0, 0.0, 1.6636184521934018E9, 0.0, 2022-09-20 01:14:12.193
205.0, -43607.11349333686, 8754.597157787939, -34251.455575401254, -13086.87932334892, -12441.875033602124, 2908.05136061327, -29431.81597373676, -2828.4344468634663, 0.706, -0.6960000000000001, 0.274, 192.0, 0.0, 0.0, 0.0, 0.0, 0.0, 0.0, 0.0, 0.0, 0.0, 1.6636184521934545E9, 0.0, 2022-09-20 01:14:12.193
206.0, -43771.86820171693, 11818.306066787967, -34378.54759437413, -13211.75851962072, -7448.696487986624, 2859.3692611896113, -29473.92666029056, -2948.5750733107416, 0.706, -0.6960000000000001, 0.274, 192.0, 0.0, 0.0, 0.0, 0.0, 0.0, 0.0, 0.0, 0.0, 0.0, 1.6636184521935759E9, 0.0, 2022-09-20 01:14:12.193
207.0, -44102.49520569983, 9091.884981618523, -34341.3542916005, -13868.609233928828, -8680.679938874238, 3139.503674447975, -29789.823864677415, -3783.4127287164606, 0.706, -0.6960000000000001, 0.274, 192.0, 0.0, 0.0, 0.0, 0.0, 0.0, 0.0, 0.0, 0.0, 0.0, 1.6636184521936178E9, 0.0, 2022-09-20 01:14:12.193
208.0, -43941.60734911053, 5783.156249899417, -34197.87844394189, -13781.973872420058, -13460.913415064028, 3227.234271435055, -29769.103797567346, -3704.6675330004136, 0.706, -0.6960000000000001, 0.274, 192.0, 0.0, 0.0, 0.0, 0.0, 0.0, 0.0, 0.0, 0.0, 0.0, 1.6636184521936464E9, 0.0, 2022-09-20 01:14:12.193
209.0, -43766.43672781429, 5902.805137968676, -34187.86486242591, -13459.795827841263, -15017.868878587351, 3118.269517215433, -29608.461810167053, -3277.7939173929594, 0.706, -0.6960000000000001, 0.274, 192.0, 0.0, 0.0, 0.0, 0.0, 0.0, 0.0, 0.0, 0.0, 0.0, 1.6636184521936748E9, 0.0, 2022-09-20 01:14:12.193
210.0, -43611.60619397237, 8623.012438179545, -34240.72673806271, -13091.506134451169, -12600.974750635, 2937.287442360812, -29436.44278483901, -2792.8951731795282, 0.706, -0.6960000000000001, 0.274, 192.0, 0.0, 0.0, 0.0, 0.0, 0.0, 0.0, 0.0, 0.0, 0.0, 1.6636184521937013E9, 0.0, 2022-09-20 01:14:12.193
211.0, -43773.812803484536, 11805.163241048247, -34371.149166959425, -13183.394155906935, -7545.077210077908, 2876.2224765089127, -29466.058846242293, -2865.9406740594713, 0.7020000000000001, -0.7000000000000001, 0.278, 192.0, 21.0, 240.0, 234.0, 32.0, 8.0, 176.0, 0.0, 0.0, 0.0, 1.6636184521937273E9, 0.0, 2022-09-20 01:14:12.193
212.0, -44128.08795310115, 9230.868128641621, -34349.91500972689, -13854.88526283327, -8537.159387726711, 3144.2422442724996, -29789.68975421068, -3714.278783116196, 0.7020000000000001, -0.7000000000000001, 0.278, 192.0, 0.0, 0.0, 0.0, 0.0, 0.0, 0.0, 0.0, 0.0, 0.0, 1.6636184521937563E9, 0.0, 2022-09-20 01:14:12.193
213.0, -43979.493555962275, 5821.489491640269, -34210.68599351478, -13794.669663270673, -13358.207149291891, 3239.192454718644, -29782.537195984984, -3663.540323202649, 0.7020000000000001, -0.7000000000000001, 0.278, 192.0, 0.0, 0.0, 0.0, 0.0, 0.0, 0.0, 0.0, 0.0, 0.0, 1.6636184521937792E9, 0.0, 2022-09-20 01:14:12.193
214.0, -43807.31806842305, 5845.048230296163, -34205.34392658996, -13475.57615942671, -15050.681239447742, 3126.562014408352, -29622.364595218256, -3244.266300709999, 0.7020000000000001, -0.7000000000000001, 0.278, 192.0, 0.0, 0.0, 0.0, 0.0, 0.0, 0.0, 0.0, 0.0, 0.0, 1.6636184521938012E9, 0.0, 2022-09-20 01:14:12.193
215.0, -43643.72565075465, 8477.413174797675, -34255.389482425395, -13114.371969028947, -12779.587540577359, 2945.2670151313564, -29442.030720952836, -2773.9408938814277, 0.7020000000000001, -0.7000000000000001, 0.278, 192.0, 0.0, 0.0, 0.0, 0.0, 0.0, 0.0, 0.0, 0.0, 0.0, 1.6636184521938255E9, 0.0, 2022-09-20 01:14:12.193
216.0, -43781.83707974399, 11764.058382994937, -34377.921745529384, -13175.436934880845, -7672.728022662166, 2872.9367700739826, -29451.798433279808, -2824.992278217349, 0.7020000000000001, -0.7000000000000001, 0.278, 192.0, 0.0, 0.0, 0.0, 0.0, 0.0, 0.0, 0.0, 0.0, 0.0, 1.663618452193851E9, 0.0, 2022-09-20 01:14:12.193
217.0, -44136.35809854962, 9345.644336419624, -34355.838222007544, -13851.063114531413, -8426.76412186195, 3139.213101770056, -29775.809320903936, -3687.590800236559, 0.7020000000000001, -0.7000000000000001, 0.278, 192.0, 0.0, 0.0, 0.0, 0.0, 0.0, 0.0, 0.0, 0.0, 0.0, 1.6636184521938896E9, 0.0, 2022-09-20 01:14:12.193
218.0, -43989.2836200337, 5857.0958205575735, -34203.4216765668, -13807.164288421189, -13262.116999878526, 3249.295443212443, -29771.808358646438, -3675.1632303194083, 0.7020000000000001, -0.7000000000000001, 0.278, 192.0, 0.0, 0.0, 0.0, 0.0, 0.0, 0.0, 0.0, 0.0, 0.0, 1.6636184521940217E9, 0.0, 2022-09-20 01:14:12.194
219.0, -43805.99931550018, 5804.81509027661, -34190.927051416285, -13482.706365907952, -15062.97469889816, 3141.0012413264803, -29610.38406019021, -3254.905731070725, 0.7020000000000001, -0.7000000000000001, 0.278, 192.0, 0.0, 0.0, 0.0, 0.0, 0.0, 0.0, 0.0, 0.0, 0.0, 1.663618452194065E9, 0.0, 2022-09-20 01:14:12.194
220.0, -43653.26984563707, 8352.51162678142, -34241.68786307429, -13128.721788969255, -12930.014780761574, 2957.6498815595965, -29441.628389552643, -2793.1857458574473, 0.7020000000000001, -0.7000000000000001, 0.278, 192.0, 0.0, 0.0, 0.0, 0.0, 0.0, 0.0, 0.0, 0.0, 0.0, 1.6636184521940985E9, 0.0, 2022-09-20 01:14:12.194
221.0, -43775.980922696705, 11736.409275103722, -34363.37075988898, -13164.03754520864, -7787.817154862542, 2874.6578543970413, -29441.91896223056, -2810.1730716434804, 0.6960000000000001, -0.6940000000000001, 0.274, 192.0, 21.0, 192.0, 234.0, 80.0, 8.0, 144.0, 0.0, 0.0, 0.0, 1.6636184521941385E9, 0.0, 2022-09-20 01:14:12.194
222.0, -44137.1180578611, 9483.822820642332, -34350.16087891589, -13842.97178303859, -8297.906315077105, 3136.888520346704, -29761.906535852737, -3677.1301838314753, 0.6960000000000001, -0.6940000000000001, 0.274, 192.0, 0.0, 0.0, 0.0, 0.0, 0.0, 0.0, 0.0, 0.0, 0.0, 1.6636184521941705E9, 0.0, 2022-09-20 01:14:12.194
223.0, -44006.136835353, 5895.049082642685, -34210.998917937155, -13830.857137543815, -13166.362126631991, 3250.234216479566, -29782.09016109588, -3698.364341064017, 0.6960000000000001, -0.6940000000000001, 0.274, 192.0, 0.0, 0.0, 0.0, 0.0, 0.0, 0.0, 0.0, 0.0, 0.0, 1.663618452194204E9, 0.0, 2022-09-20 01:14:12.194
224.0, -43804.03236198812, 5759.105772865507, -34193.05046713954, -13498.4866974934, -15084.477077064166, 3142.8340843718156, -29622.096374284793, -3269.7025859001383, 0.6960000000000001, -0.6940000000000001, 0.274, 192.0, 0.0, 0.0, 0.0, 0.0, 0.0, 0.0, 0.0, 0.0, 0.0, 1.663618452194256E9, 0.0, 2022-09-20 01:14:12.194
225.0, -43647.346633356414, 8223.430302552022, -34238.335101405995, -13143.138664142927, -13092.579018185023, 2964.5789223407414, -29451.329046646246, -2804.2275076183687, 0.6960000000000001, -0.6940000000000001, 0.274, 192.0, 0.0, 0.0, 0.0, 0.0, 0.0, 0.0, 0.0, 0.0, 0.0, 1.663618452194338E9, 0.0, 2022-09-20 01:14:12.194
226.0, -43754.32208231951, 11697.78546068495, -34360.19681217633, -13145.664411266376, -7928.543737953155, 2872.7132526294295, -29437.515668572865, -2782.83688817464, 0.6960000000000001, -0.6940000000000001, 0.274, 192.0, 0.0, 0.0, 0.0, 0.0, 0.0, 0.0, 0.0, 0.0, 0.0, 1.66361845219443E9, 0.0, 2022-09-20 01:14:12.194
227.0, -44138.88384567307, 9612.658275682721, -34357.29108539713, -13830.566564865896, -8194.23892429339, 3130.115941776746, -29762.3759224863, -3653.8620178535007, 0.6960000000000001, -0.6940000000000001, 0.274, 192.0, 0.0, 0.0, 0.0, 0.0, 0.0, 0.0, 0.0, 0.0, 0.0, 1.6636184521946871E9, 0.0, 2022-09-20 01:14:12.194
228.0, -44021.38072507152, 5945.474618133858, -34205.99212717916, -13838.099102747334, -13059.364325924436, 3260.5383706734624, -29786.85108266486, -3703.6170010110145, 0.6960000000000001, -0.6940000000000001, 0.274, 192.0, 0.0, 0.0, 0.0, 0.0, 0.0, 0.0, 0.0, 0.0, 0.0, 1.6636184521947951E9, 0.0, 2022-09-20 01:14:12.194
229.0, -43827.12171401045, 5712.569440909558, -34187.86486242591, -13508.321465053734, -15099.497449338132, 3156.133372322723, -29628.310159243367, -3279.894981371758, 0.6960000000000001, -0.6940000000000001, 0.274, 192.0, 0.0, 0.0, 0.0, 0.0, 0.0, 0.0, 0.0, 0.0, 0.0, 1.6636184521948676E9, 0.0, 2022-09-20 01:14:12.194
230.0, -43668.64784582232, 8088.805745697707, -34233.79769728157, -13152.12406541396, -13242.179243824392, 2983.6673121055737, -29460.135633961636, -2816.6774292799746, 0.6960000000000001, -0.6940000000000001, 0.274, 192.0, 0.0, 0.0, 0.0, 0.0, 0.0, 0.0, 0.0, 0.0, 0.0, 1.6636184521949422E9, 0.0, 2022-09-20 01:14:12.194
231.0, -43744.62142522591, 11647.605794382787, -34353.37953011746, -13117.92589639734, -8060.620195939565, 2881.85511611165, -29426.987996934415, -2749.9127685919725, 0.6920000000000001, -0.684, 0.268, 192.0, 21.0, 160.0, 234.0, 160.0, 8.0, 96.0, 0.0, 0.0, 0.0, 1.6636184521950138E9, 0.0, 2022-09-20 01:14:12.195
232.0, -44124.332860032664, 9745.338230769425, -34357.67106505288, -13803.878581986259, -8080.5356002492435, 3133.8039796118715, -29750.08246303588, -3619.23916569223, 0.6920000000000001, -0.684, 0.268, 192.0, 0.0, 0.0, 0.0, 0.0, 0.0, 0.0, 0.0, 0.0, 0.0, 1.6636184521951573E9, 0.0, 2022-09-20 01:14:12.195
0.0, 0.0, 0.0, 0.0, 0.0, 0.0, 0.0, 0.0, 0.0, 0.706, -0.66, 0.306, 192.0, 22.0, 16.0, 235.0, 96.0, 9.0, 144.0, 0.0, 0.0, 0.0, 1.6636184523116913E9, 0.0, 2022-09-20 01:14:12.311
1.0, -43976.0290355717, 11261.345298450626, -34408.16365577742, -12864.680631718711, -11094.422470858392, 2884.805546379751, -29125.284150276682, -2484.1281752739164, 0.706, -0.66, 0.306, 192.0, 0.0, 0.0, 0.0, 0.0, 0.0, 0.0, 0.0, 0.0, 0.0, 1.66361845278961E9, 0.0, 2022-09-20 01:14:12.789
2.0, -44284.84073696622, 8902.56570608207, -34376.0665507396, -13418.154527921026, -11778.788182590984, 3134.966270323547, -29403.317499556244, -3186.017654659469, 0.706, -0.66, 0.306, 192.0, 0.0, 0.0, 0.0, 0.0, 0.0, 0.0, 0.0, 0.0, 0.0, 1.6636184527896724E9, 0.0, 2022-09-20 01:14:12.789
3.0, -44143.06362188621, 5777.5012585522245, -34247.38755791039, -13366.320832529169, -15839.586059997806, 3217.1312829412564, -29380.563423700743, -3169.455012018086, 0.706, -0.66, 0.306, 192.0, 0.0, 0.0, 0.0, 0.0, 0.0, 0.0, 0.0, 0.0, 0.0, 1.6636184527897108E9, 0.0, 2022-09-20 01:14:12.789
4.0, -43984.857974631544, 5753.204912329306, -34244.25831368665, -13107.331169525525, -17383.44340127032, 3106.7360170764946, -29244.41894822347, -2841.890197025561, 0.706, -0.66, 0.306, 192.0, 0.0, 0.0, 0.0, 0.0, 0.0, 0.0, 0.0, 0.0, 0.0, 1.6636184527897432E9, 0.0, 2022-09-20 01:14:12.789
5.0, -43832.329670468534, 8209.81809017874, -34286.011372329165, -12798.228895453083, -15513.094128739134, 2936.885110960616, -29082.011173011208, -2442.308061398037, 0.706, -0.66, 0.306, 192.0, 0.0, 0.0, 0.0, 0.0, 0.0, 0.0, 0.0, 0.0, 0.0, 1.6636184527897885E9, 0.0, 2022-09-20 01:14:12.789
6.0, -43976.81134662764, 11231.706885302889, -34403.33567897507, -12859.606785727357, -11172.854742152065, 2874.389633463578, -29113.840057115565, -2484.552858418567, 0.706, -0.66, 0.306, 192.0, 0.0, 0.0, 0.0, 0.0, 0.0, 0.0, 0.0, 0.0, 0.0, 1.6636184527898104E9, 0.0, 2022-09-20 01:14:12.789
7.0, -44290.160452146585, 8980.662701208914, -34378.59229786305, -13413.639475541053, -11709.453071290622, 3122.3151829618437, -29401.10467685517, -3196.4112158311864, 0.706, -0.66, 0.306, 192.0, 0.0, 0.0, 0.0, 0.0, 0.0, 0.0, 0.0, 0.0, 0.0, 1.663618452789831E9, 0.0, 2022-09-20 01:14:12.789
8.0, -44147.0198806548, 5809.754825801233, -34247.11933697693, -13373.160466332492, -15773.491951643462, 3214.5608323288957, -29384.273813280324, -3196.8582507202927, 0.71, -0.652, 0.34400000000000003, 192.0, 22.0, 48.0, 235.0, 160.0, 10.0, 192.0, 0.0, 0.0, 0.0, 1.6636184527898462E9, 0.0, 2022-09-20 01:14:12.789
9.0, -43990.93764912339, 5726.069894560564, -34239.45268862876, -13108.918143381852, -17393.278168830653, 3115.207328225056, -29248.375206992056, -2861.671490868508, 0.71, -0.652, 0.34400000000000003, 192.0, 0.0, 0.0, 0.0, 0.0, 0.0, 0.0, 0.0, 0.0, 0.0, 1.6636184527898624E9, 0.0, 2022-09-20 01:14:12.789
10.0, -43843.97492932975, 8122.758045525318, -34281.60807867147, -12800.620532109802, -15618.862583501648, 2944.372945353144, -29087.17442598038, -2461.619968607422, 0.71, -0.652, 0.34400000000000003, 192.0, 0.0, 0.0, 0.0, 0.0, 0.0, 0.0, 0.0, 0.0, 0.0, 1.6636184527898777E9, 0.0, 2022-09-20 01:14:12.789
11.0, -43981.25934377425, 11216.083015928629, -34400.452303940336, -12849.6826111892, -11256.025583270262, 2867.1253165156027, -29109.548522180146, -2486.3857014639025, 0.71, -0.652, 0.34400000000000003, 192.0, 0.0, 0.0, 0.0, 0.0, 0.0, 0.0, 0.0, 0.0, 0.0, 1.663618452789893E9, 0.0, 2022-09-20 01:14:12.789
12.0, -44307.706571544004, 9068.88503657401, -34384.649620610435, -13418.534507576765, -11644.521253647954, 3104.679656586606, -29401.931691400016, -3201.3509513558092, 0.71, -0.652, 0.34400000000000003, 192.0, 0.0, 0.0, 0.0, 0.0, 0.0, 0.0, 0.0, 0.0, 0.0, 1.663618452789908E9, 0.0, 2022-09-20 01:14:12.789
13.0, -44174.89250599057, 5836.934547058886, -34251.36616842344, -13395.26634159879, -15713.991607903436, 3200.9039164667033, -29397.70721169796, -3214.2702596509766, 0.71, -0.652, 0.34400000000000003, 192.0, 0.0, 0.0, 0.0, 0.0, 0.0, 0.0, 0.0, 0.0, 0.0, 1.6636184527899232E9, 0.0, 2022-09-20 01:14:12.789
14.0, -44001.68883820639, 5703.025246027141, -34233.35066239246, -13123.245611577704, -17398.977863666758, 3110.04407525588, -29252.622038438567, -2868.0417380382705, 0.71, -0.652, 0.34400000000000003, 192.0, 0.0, 0.0, 0.0, 0.0, 0.0, 0.0, 0.0, 0.0, 0.0, 1.6636184527899382E9, 0.0, 2022-09-20 01:14:12.789
15.0, -43868.22657206376, 8036.413256694467, -34280.490491448705, -12824.15691902124, -15713.410462547597, 2938.7850092393173, -29098.03737378566, -2476.170954247827, 0.71, -0.652, 0.34400000000000003, 192.0, 0.0, 0.0, 0.0, 0.0, 0.0, 0.0, 0.0, 0.0, 0.0, 1.6636184527899532E9, 0.0, 2022-09-20 01:14:12.789
16.0, -43999.11838759403, 11186.511658014257, -34405.548501676145, -12857.818646170932, -11339.5764040442, 2856.1729617325022, -29116.5222664502, -2481.5800764060114, 0.71, -0.652, 0.34400000000000003, 192.0, 0.0, 0.0, 0.0, 0.0, 0.0, 0.0, 0.0, 0.0, 0.0, 1.6636184527900074E9, 0.0, 2022-09-20 01:14:12.790
17.0, -44317.63074608216, 9163.544674342236, -34387.0636090116, -13414.958228463916, -11566.938348643584, 3101.170432707123, -29400.76940068834, -3182.463727291075, 0.71, -0.652, 0.34400000000000003, 192.0, 0.0, 0.0, 0.0, 0.0, 0.0, 0.0, 0.0, 0.0, 0.0, 1.663618452790023E9, 0.0, 2022-09-20 01:14:12.790
18.0, -44183.006189227846, 5880.095765602085, -34248.14751722187, -13398.440289311444, -15628.831461528714, 3204.7707682574714, -29393.61684246264, -3214.2702596509766, 0.7000000000000001, -0.652, 0.35000000000000003, 192.0, 21.0, 224.0, 235.0, 160.0, 10.0, 240.0, 0.0, 0.0, 0.0, 1.663618452790038E9, 0.0, 2022-09-20 01:14:12.790
19.0, -44007.20971908685, 5685.009739996164, -34231.271950158116, -13127.000704646196, -17383.01871812567, 3114.335610191299, -29237.959294075885, -2872.668549140519, 0.7000000000000001, -0.652, 0.35000000000000003, 192.0, 0.0, 0.0, 0.0, 0.0, 0.0, 0.0, 0.0, 0.0, 0.0, 1.663618452790054E9, 0.0, 2022-09-20 01:14:12.790
20.0, -43859.39763300391, 7955.790514444175, -34283.26210776116, -12833.142320292274, -15784.377251193197, 2941.221349384946, -29094.550501650632, -2492.8006521225757, 0.7000000000000001, -0.652, 0.35000000000000003, 192.0, 0.0, 0.0, 0.0, 0.0, 0.0, 0.0, 0.0, 0.0, 0.0, 1.6636184527900689E9, 0.0, 2022-09-20 01:14:12.790
21.0, -43971.22341051381, 11163.668175180934, -34400.04997254014, -12843.647640186267, -11400.037872795805, 2853.3342901866786, -29104.340565722057, -2466.492648898679, 0.7000000000000001, -0.652, 0.35000000000000003, 192.0, 0.0, 0.0, 0.0, 0.0, 0.0, 0.0, 0.0, 0.0, 0.0, 1.663618452790084E9, 0.0, 2022-09-20 01:14:12.790
22.0, -44298.38589410614, 9253.130466119108, -34382.19092872035, -13403.245914369336, -11478.067812689284, 3092.632066325196, -29382.843301635185, -3165.8340294163263, 0.7000000000000001, -0.652, 0.35000000000000003, 192.0, 0.0, 0.0, 0.0, 0.0, 0.0, 0.0, 0.0, 0.0, 0.0, 1.663618452790099E9, 0.0, 2022-09-20 01:14:12.790
23.0, -44159.82743022769, 5916.864385231064, -34242.023139241115, -13403.156507391514, -15541.659658153018, 3208.4364543481415, -29383.178577802013, -3219.0982364533234, 0.7000000000000001, -0.652, 0.35000000000000003, 192.0, 0.0, 0.0, 0.0, 0.0, 0.0, 0.0, 0.0, 0.0, 0.0, 1.663618452790114E9, 0.0, 2022-09-20 01:14:12.790
24.0, -43986.266134532234, 5658.478219327715, -34230.556694335544, -13137.774245473653, -17376.849636656003, 3114.5144241469416, -29249.023407581262, -2885.0961190576695, 0.7000000000000001, -0.652, 0.35000000000000003, 192.0, 0.0, 0.0, 0.0, 0.0, 0.0, 0.0, 0.0, 0.0, 0.0, 1.6636184527901287E9, 0.0, 2022-09-20 01:14:12.790
25.0, -43848.266464265165, 7875.950083249818, -34283.03859031661, -12841.390113996282, -15864.485903321018, 2945.7811052538286, -29106.352222723035, -2502.0319225826174, 0.7000000000000001, -0.652, 0.35000000000000003, 192.0, 0.0, 0.0, 0.0, 0.0, 0.0, 0.0, 0.0, 0.0, 0.0, 1.6636184527901435E9, 0.0, 2022-09-20 01:14:12.790
26.0, -43952.33618644907, 11136.935488812387, -34399.58058590658, -12836.629192427301, -11477.441963844534, 2850.4285634074886, -29100.38430695347, -2460.144753473372, 0.7000000000000001, -0.652, 0.35000000000000003, 192.0, 0.0, 0.0, 0.0, 0.0, 0.0, 0.0, 0.0, 0.0, 0.0, 1.6636184527901585E9, 0.0, 2022-09-20 01:14:12.790
27.0, -44292.37327484766, 9336.390714215126, -34391.33279220257, -13400.451946312422, -11409.11268104466, 3089.1675459346234, -29382.95506035746, -3161.72130843655, 0.7000000000000001, -0.652, 0.35000000000000003, 192.0, 0.0, 0.0, 0.0, 0.0, 0.0, 0.0, 0.0, 0.0, 0.0, 1.6636184527901845E9, 0.0, 2022-09-20 01:14:12.790
28.0, -44168.231686142884, 5950.7049263364, -34253.80250856907, -13411.538411562255, -15464.277918848744, 3208.615268303784, -29394.980298874416, -3229.4694458805857, 0.7020000000000001, -0.648, 0.354, 192.0, 21.0, 240.0, 235.0, 192.0, 11.0, 16.0, 0.0, 0.0, 0.0, 1.6636184527902E9, 0.0, 2022-09-20 01:14:12.790
29.0, -43992.09993983507, 5633.824245193511, -34238.49156361718, -13146.111446155483, -17366.2996132731, 3111.206365967556, -29263.775558921763, -2896.696674429974, 0.7020000000000001, -0.648, 0.354, 192.0, 0.0, 0.0, 0.0, 0.0, 0.0, 0.0, 0.0, 0.0, 0.0, 1.6636184527902164E9, 0.0, 2022-09-20 01:14:12.790
30.0, -43841.31507173957, 7792.73453864271, -34280.66930540434, -12850.48727398959, -15939.543061201939, 2948.887997733116, -29103.6700133884, -2513.297201788092, 0.7020000000000001, -0.648, 0.354, 192.0, 0.0, 0.0, 0.0, 0.0, 0.0, 0.0, 0.0, 0.0, 0.0, 1.6636184527902315E9, 0.0, 2022-09-20 01:14:12.790
31.0, -43930.78910479416, 11103.519630851702, -34393.590318392555, -12824.849823099354, -11555.024868848905, 2848.3051476842343, -29088.023792269683, -2448.521846356612, 0.7020000000000001, -0.648, 0.354, 192.0, 0.0, 0.0, 0.0, 0.0, 0.0, 0.0, 0.0, 0.0, 0.0, 1.6636184527902465E9, 0.0, 2022-09-20 01:14:12.790
32.0, -44276.05650139529, 9425.060084469329, -34393.389152692456, -13386.750326961319, -11336.96124994293, 3081.9255807311038, -29379.825816133718, -3149.3831454972205, 0.7020000000000001, -0.648, 0.354, 192.0, 0.0, 0.0, 0.0, 0.0, 0.0, 0.0, 0.0, 0.0, 0.0, 1.6636184527902756E9, 0.0, 2022-09-20 01:14:12.790
33.0, -44168.41050009853, 5992.390929745547, -34253.48958414669, -13413.751234263329, -15381.151781219458, 3211.6551055497057, -29401.19408383299, -3230.1399982142448, 0.7020000000000001, -0.648, 0.354, 192.0, 0.0, 0.0, 0.0, 0.0, 0.0, 0.0, 0.0, 0.0, 0.0, 1.6636184527902904E9, 0.0, 2022-09-20 01:14:12.790
34.0, -43998.76075968275, 5608.499718725649, -34233.373014136916, -13147.340792100526, -17360.309345759077, 3119.051828271369, -29259.573430964167, -2894.662665684541, 0.7020000000000001, -0.648, 0.354, 192.0, 0.0, 0.0, 0.0, 0.0, 0.0, 0.0, 0.0, 0.0, 0.0, 1.6636184527903056E9, 0.0, 2022-09-20 01:14:12.790
35.0, -43864.560885973086, 7700.71240672021, -34275.97543906873, -12857.483370004104, -16025.016131999033, 2954.0288989578366, -29111.18019952538, -2522.3049548035806, 0.7020000000000001, -0.648, 0.354, 192.0, 0.0, 0.0, 0.0, 0.0, 0.0, 0.0, 0.0, 0.0, 0.0, 1.6636184527903206E9, 0.0, 2022-09-20 01:14:12.790
36.0, -43937.829904297585, 11065.655775744412, -34384.157882232415, -12808.421290924703, -11636.407570410678, 2848.036926750771, -29084.201643967826, -2432.540349071068, 0.7020000000000001, -0.648, 0.354, 192.0, 0.0, 0.0, 0.0, 0.0, 0.0, 0.0, 0.0, 0.0, 0.0, 1.663618452790336E9, 0.0, 2022-09-20 01:14:12.790
37.0, -44283.879611954646, 9510.26493433296, -34390.103446257526, -13364.376230761556, -11272.185894511449, 3074.951836461048, -29364.403112459557, -3129.400685954176, 0.7020000000000001, -0.648, 0.354, 192.0, 0.0, 0.0, 0.0, 0.0, 0.0, 0.0, 0.0, 0.0, 0.0, 1.663618452790351E9, 0.0, 2022-09-20 01:14:12.790
38.0, -44179.2287444149, 6035.775665733298, -34253.3331219355, -13409.504402816821, -15315.772928687684, 3206.49185258053, -29393.907415140562, -3241.0252977639793, 0.706, -0.648, 0.358, 192.0, 22.0, 16.0, 235.0, 192.0, 11.0, 48.0, 0.0, 0.0, 0.0, 1.6636184527903657E9, 0.0, 2022-09-20 01:14:12.790
39.0, -43992.25640204625, 5602.710616911723, -34224.65583379935, -13134.98027741674, -17359.012944580667, 3124.0586190293575, -29252.5549832052, -2900.6752849430186, 0.706, -0.648, 0.358, 192.0, 0.0, 0.0, 0.0, 0.0, 0.0, 0.0, 0.0, 0.0, 0.0, 1.6636184527903848E9, 0.0, 2022-09-20 01:14:12.790
40.0, -43851.976853844746, 7641.524987402558, -34262.31852320654, -12840.563099451436, -16101.70496722519, 2966.8364485307275, -29101.90422557643, -2519.2427658132037, 0.706, -0.648, 0.358, 192.0, 0.0, 0.0, 0.0, 0.0, 0.0, 0.0, 0.0, 0.0, 0.0, 1.663618452790413E9, 0.0, 2022-09-20 01:14:12.790
41.0, -43928.64333732645, 11039.28071728715, -34374.74779781673, -12787.634168581268, -11723.758187742018, 2854.3848221760777, -29073.450454884824, -2416.1565203853274, 0.706, -0.648, 0.358, 192.0, 0.0, 0.0, 0.0, 0.0, 0.0, 0.0, 0.0, 0.0, 0.0, 1.6636184527904284E9, 0.0, 2022-09-20 01:14:12.790
42.0, -44286.8523939672, 9594.240438251549, -34382.57090837609, -13349.73583814333, -11217.178251406938, 3075.5106300724306, -29355.037731532782, -3116.4143224256427, 0.706, -0.648, 0.358, 192.0, 0.0, 0.0, 0.0, 0.0, 0.0, 0.0, 0.0, 0.0, 0.0, 1.6636184527904432E9, 0.0, 2022-09-20 01:14:12.790
43.0, -44198.093616735176, 6068.297453915769, -34242.69369157478, -13411.13608016206, -15249.745875566707, 3210.6939805381276, -29390.241729049892, -3247.4402484226525, 0.706, -0.648, 0.358, 192.0, 0.0, 0.0, 0.0, 0.0, 0.0, 0.0, 0.0, 0.0, 0.0, 1.6636184527904582E9, 0.0, 2022-09-20 01:14:12.790
44.0, -43998.67135270493, 5575.508543909615, -34211.51300805962, -13138.042466407118, -17355.213148023267, 3127.232566742011, -29247.391730236024, -2910.800625181273, 0.706, -0.648, 0.358, 192.0, 0.0, 0.0, 0.0, 0.0, 0.0, 0.0, 0.0, 0.0, 0.0, 1.6636184527904732E9, 0.0, 2022-09-20 01:14:12.790
45.0, -43857.02834809165, 7560.634024218801, -34257.892877804385, -12856.611651970346, -16169.408401180317, 2961.7849542838285, -29103.62530989949, -2545.0590306590834, 0.706, -0.648, 0.358, 192.0, 0.0, 0.0, 0.0, 0.0, 0.0, 0.0, 0.0, 0.0, 0.0, 1.6636184527904882E9, 0.0, 2022-09-20 01:14:12.790
46.0, -43910.471369084284, 10997.482955155725, -34373.33963791605, -12787.768279048, -11806.750214904574, 2847.388726161567, -29066.94609724833, -2425.745418756654, 0.706, -0.648, 0.358, 192.0, 0.0, 0.0, 0.0, 0.0, 0.0, 0.0, 0.0, 0.0, 0.0, 1.6636184527905033E9, 0.0, 2022-09-20 01:14:12.790
47.0, -44264.07596636724, 9670.10225893286, -34388.94115554585, -13348.059457309182, -11169.25611129476, 3066.7040427570396, -29354.00955128784, -3119.7670840939386, 0.706, -0.648, 0.358, 192.0, 0.0, 0.0, 0.0, 0.0, 0.0, 0.0, 0.0, 0.0, 0.0, 1.6636184527905335E9, 0.0, 2022-09-20 01:14:12.790
48.0, -44173.37258736761, 6114.297344004792, -34250.74031957869, -13422.13313843407, -15183.987043379193, 3209.3528758708094, -29404.502142012378, -3267.6462254102503, 0.71, -0.642, 0.36, 192.0, 22.0, 48.0, 235.0, 240.0, 11.0, 64.0, 0.0, 0.0, 0.0, 1.663618452790552E9, 0.0, 2022-09-20 01:14:12.790
49.0, -43983.114538564034, 5567.1266397388745, -34216.0727639285, -13148.659545023387, -17348.10529328648, 3124.192729496089, -29257.98645710784, -2930.179587624024, 0.71, -0.642, 0.36, 192.0, 0.0, 0.0, 0.0, 0.0, 0.0, 0.0, 0.0, 0.0, 0.0, 1.663618452790568E9, 0.0, 2022-09-20 01:14:12.790
50.0, -43845.00310957469, 7494.33875016436, -34251.56733412354, -12860.903186905765, -16241.895108448876, 2965.852971774694, -29106.4192779564, -2557.486600576234, 0.71, -0.642, 0.36, 192.0, 0.0, 0.0, 0.0, 0.0, 0.0, 0.0, 0.0, 0.0, 0.0, 1.663618452790583E9, 0.0, 2022-09-20 01:14:12.790
51.0, -43893.2605258537, 10957.36157385845, -34360.308570898604, -12773.95490097462, -11900.739300339139, 2844.192426704458, -29055.166727920383, -2417.944659941752, 0.71, -0.642, 0.36, 192.0, 0.0, 0.0, 0.0, 0.0, 0.0, 0.0, 0.0, 0.0, 0.0, 1.663618452790598E9, 0.0, 2022-09-20 01:14:12.790
52.0, -44253.48123949543, 9760.470361765667, -34380.380437419466, -13332.167367001459, -11108.213497187317, 3060.8925891986596, -29343.303065693744, -3109.1276537332124, 0.71, -0.642, 0.36, 192.0, 0.0, 0.0, 0.0, 0.0, 0.0, 0.0, 0.0, 0.0, 0.0, 1.6636184527906127E9, 0.0, 2022-09-20 01:14:12.790
53.0, -44182.179174683, 6168.4332690755455, -34239.67620607331, -13423.809519268218, -15092.680167279264, 3213.3091346393985, -29393.750952929375, -3274.619969680306, 0.71, -0.642, 0.36, 192.0, 0.0, 0.0, 0.0, 0.0, 0.0, 0.0, 0.0, 0.0, 0.0, 1.6636184527906277E9, 0.0, 2022-09-20 01:14:12.790
54.0, -43996.8832131485, 5548.507636607604, -34212.09415341546, -13152.973431703262, -17334.582487891017, 3128.1936917535895, -29255.036026839738, -2942.785971496817, 0.71, -0.642, 0.36, 192.0, 0.0, 0.0, 0.0, 0.0, 0.0, 0.0, 0.0, 0.0, 0.0, 1.6636184527906427E9, 0.0, 2022-09-20 01:14:12.790
55.0, -43856.514257969175, 7418.588688205325, -34250.896781789874, -12866.692288719689, -16309.911466826377, 2972.849067789205, -29106.776905867686, -2572.3952141279237, 0.71, -0.642, 0.36, 192.0, 0.0, 0.0, 0.0, 0.0, 0.0, 0.0, 0.0, 0.0, 0.0, 1.6636184527906575E9, 0.0, 2022-09-20 01:14:12.790
56.0, -43884.38688330494, 10917.508413494637, -34358.296913897626, -12760.834426979354, -11984.51363855763, 2845.779400560785, -29054.09384418653, -2413.1837383727716, 0.71, -0.642, 0.36, 192.0, 0.0, 0.0, 0.0, 0.0, 0.0, 0.0, 0.0, 0.0, 0.0, 1.6636184527906725E9, 0.0, 2022-09-20 01:14:12.790
57.0, -44249.055594093275, 9842.14363600536, -34387.778864834174, -13313.950695270383, -11052.37883953796, 3057.495124041453, -29344.688873849977, -3089.2122494235336, 0.71, -0.642, 0.36, 192.0, 0.0, 0.0, 0.0, 0.0, 0.0, 0.0, 0.0, 0.0, 0.0, 1.6636184527906876E9, 0.0, 2022-09-20 01:14:12.790
58.0, -44193.28799167729, 6214.164938231103, -34255.188316725296, -13424.010684968316, -15022.92037283425, 3206.4247973471643, -29409.732450214917, -3274.195286535655, 0.712, -0.644, 0.354, 192.0, 22.0, 64.0, 235.0, 224.0, 11.0, 16.0, 0.0, 0.0, 0.0, 1.6636184527907023E9, 0.0, 2022-09-20 01:14:12.790
59.0, -44007.47794002032, 5539.455180103205, -34221.57129306451, -13152.325231114059, -17325.306513942065, 3124.6397643851956, -29265.94367813393, -2937.3992010830884, 0.712, -0.644, 0.354, 192.0, 0.0, 0.0, 0.0, 0.0, 0.0, 0.0, 0.0, 0.0, 0.0, 1.6636184527907183E9, 0.0, 2022-09-20 01:14:12.790
60.0, -43873.30041805511, 7350.661736805647, -34263.65962787386, -12874.202474856673, -16378.397211837437, 2967.1717246975572, -29128.033414844682, -2574.876257762463, 0.712, -0.644, 0.354, 192.0, 0.0, 0.0, 0.0, 0.0, 0.0, 0.0, 0.0, 0.0, 0.0, 1.663618452790733E9, 0.0, 2022-09-20 01:14:12.790
61.0, -43895.47334855478, 10868.781610582068, -34372.04323673764, -12757.347554844328, -12074.85938964598, 2832.413057376511, -29072.17640545087, -2401.4043690448248, 0.712, -0.644, 0.354, 192.0, 0.0, 0.0, 0.0, 0.0, 0.0, 0.0, 0.0, 0.0, 0.0, 1.663618452790748E9, 0.0, 2022-09-20 01:14:12.790
62.0, -44260.164411087564, 9923.079302678027, -34402.531016174675, -13308.854497534574, -10987.424670150838, 3035.501007497431, -29353.249591976357, -3077.99167370697, 0.712, -0.644, 0.354, 192.0, 0.0, 0.0, 0.0, 0.0, 0.0, 0.0, 0.0, 0.0, 0.0, 1.663618452790763E9, 0.0, 2022-09-20 01:14:12.790
63.0, -44207.74957033987, 6267.295034801368, -34266.76652035314, -13433.04078972826, -14912.055720335928, 3201.8650414782815, -29421.131839887126, -3282.040748839468, 0.712, -0.644, 0.354, 192.0, 0.0, 0.0, 0.0, 0.0, 0.0, 0.0, 0.0, 0.0, 0.0, 1.6636184527907903E9, 0.0, 2022-09-20 01:14:12.790
64.0, -44012.14945461148, 5521.596136283414, -34222.06303144253, -13159.723658528765, -17290.571903058517, 3125.9585173080586, -29264.848442655617, -2948.2397971439123, 0.712, -0.644, 0.354, 192.0, 0.0, 0.0, 0.0, 0.0, 0.0, 0.0, 0.0, 0.0, 0.0, 1.6636184527908058E9, 0.0, 2022-09-20 01:14:12.790
65.0, -43869.70178719781, 7272.3188724897955, -34263.45846217376, -12882.986710427609, -16434.72360786481, 2970.6138933436746, -29128.212228800327, -2581.984112499251, 0.712, -0.644, 0.354, 192.0, 0.0, 0.0, 0.0, 0.0, 0.0, 0.0, 0.0, 0.0, 0.0, 1.6636184527908208E9, 0.0, 2022-09-20 01:14:12.790
66.0, -43887.87375543997, 10807.023740652054, -34381.05098975313, -12760.588557790346, -12171.485980926274, 2826.4227898624886, -29075.059780485604, -2398.2527730766265, 0.712, -0.644, 0.354, 192.0, 0.0, 0.0, 0.0, 0.0, 0.0, 0.0, 0.0, 0.0, 0.0, 1.6636184527908359E9, 0.0, 2022-09-20 01:14:12.790
67.0, -44247.49097198141, 9988.525210443166, -34416.09852505905, -13310.754395813276, -10949.046724921076, 3024.2580800364117, -29349.24862971886, -3075.2200573945115, 0.712, -0.644, 0.354, 192.0, 0.0, 0.0, 0.0, 0.0, 0.0, 0.0, 0.0, 0.0, 0.0, 1.6636184527908509E9, 0.0, 2022-09-20 01:14:12.790
68.0, -44207.86132906214, 6300.6214857842315, -34279.73053213722, -13456.241900472869, -14858.232719687549, 3188.8563262052926, -29426.898589956596, -3304.8618799283363, 0.71, -0.644, 0.354, 192.0, 22.0, 48.0, 235.0, 224.0, 11.0, 16.0, 0.0, 0.0, 0.0, 1.6636184527908657E9, 0.0, 2022-09-20 01:14:12.790
69.0, -44010.85305343307, 5505.167604108764, -34239.787964795585, -13186.299882686126, -17289.789592002584, 3112.011028767947, -29281.925175419474, -2975.441870146021, 0.71, -0.644, 0.354, 192.0, 0.0, 0.0, 0.0, 0.0, 0.0, 0.0, 0.0, 0.0, 0.0, 1.6636184527908835E9, 0.0, 2022-09-20 01:14:12.790
70.0, -43874.619170977974, 7204.99541819041, -34273.24852624518, -12909.853507262887, -16502.158820886474, 2963.72955605144, -29135.342435281567, -2613.3436099700466, 0.71, -0.644, 0.354, 192.0, 0.0, 0.0, 0.0, 0.0, 0.0, 0.0, 0.0, 0.0, 0.0, 1.6636184527908986E9, 0.0, 2022-09-20 01:14:12.790
71.0, -43884.610400749494, 10755.972356316133, -34377.49706238473, -12769.663366039202, -12271.755906552782, 2820.767798515296, -29066.8119867816, -2405.8076627025202, 0.71, -0.644, 0.354, 192.0, 0.0, 0.0, 0.0, 0.0, 0.0, 0.0, 0.0, 0.0, 0.0, 1.6636184527909136E9, 0.0, 2022-09-20 01:14:12.790
72.0, -44251.223713305444, 10081.195542954867, -34416.299690759144, -13305.904067266472, -10893.949674838743, 3008.1871757730455, -29339.95030402545, -3061.9654729325143, 0.71, -0.644, 0.354, 192.0, 0.0, 0.0, 0.0, 0.0, 0.0, 0.0, 0.0, 0.0, 0.0, 1.6636184527909284E9, 0.0, 2022-09-20 01:14:12.790
73.0, -44220.244195490384, 6389.089690338336, -34281.89865134939, -13460.913415064028, -14725.932744256586, 3181.6367127462286, -29421.221246864945, -3308.773435208015, 0.71, -0.644, 0.354, 192.0, 0.0, 0.0, 0.0, 0.0, 0.0, 0.0, 0.0, 0.0, 0.0, 1.6636184527909434E9, 0.0, 2022-09-20 01:14:12.790
74.0, -44019.681992492915, 5492.404758024783, -34237.709252561246, -13190.122030987983, -17254.295021807557, 3109.217060711034, -29281.58989925264, -2982.885001049638, 0.71, -0.644, 0.354, 192.0, 0.0, 0.0, 0.0, 0.0, 0.0, 0.0, 0.0, 0.0, 0.0, 1.6636184527909584E9, 0.0, 2022-09-20 01:14:12.790
75.0, -43883.559868760094, 7130.720571365425, -34269.649895387876, -12917.497803866603, -16559.89337681453, 2961.4496781169987, -29134.403662014447, -2632.5214067127, 0.71, -0.644, 0.354, 192.0, 0.0, 0.0, 0.0, 0.0, 0.0, 0.0, 0.0, 0.0, 0.0, 1.6636184527909737E9, 0.0, 2022-09-20 01:14:12.790
76.0, -43880.18475534734, 10689.028881672488, -34367.88581226895, -12761.884958968754, -12372.271701368298, 2816.2303943908687, -29051.56809706308, -2414.7930639735537, 0.71, -0.644, 0.354, 192.0, 0.0, 0.0, 0.0, 0.0, 0.0, 0.0, 0.0, 0.0, 0.0, 1.6636184527909887E9, 0.0, 2022-09-20 01:14:12.790
77.0, -44253.50359123988, 10137.633697704518, -34413.10339130204, -13294.862305505552, -10856.130523220363, 2998.821794846272, -29330.294350420758, -3066.145249145657, 0.71, -0.644, 0.354, 192.0, 0.0, 0.0, 0.0, 0.0, 0.0, 0.0, 0.0, 0.0, 0.0, 1.6636184527910042E9, 0.0, 2022-09-20 01:14:12.791
78.0, -44227.530864182816, 6419.197490119635, -34279.05997980356, -13466.121371522115, -14654.965955610985, 3179.8932766787148, -29423.970511432948, -3333.4721128311294, 0.712, -0.652, 0.36, 192.0, 22.0, 64.0, 235.0, 160.0, 11.0, 64.0, 0.0, 0.0, 0.0, 1.6636184527910345E9, 0.0, 2022-09-20 01:14:12.791
79.0, -44015.09988487958, 5478.926656118233, -34227.628615811904, -13193.318330445092, -17237.64297218835, 3114.8273485693157, -29274.325582304667, -3007.0919402947357, 0.712, -0.652, 0.36, 192.0, 0.0, 0.0, 0.0, 0.0, 0.0, 0.0, 0.0, 0.0, 0.0, 1.6636184527910504E9, 0.0, 2022-09-20 01:14:12.791
80.0, -43878.79894719111, 7063.508875788317, -34265.04543603009, -12922.348132413405, -16624.042883401264, 2964.1542391960907, -29134.604827714546, -2656.884808168985, 0.712, -0.652, 0.36, 192.0, 0.0, 0.0, 0.0, 0.0, 0.0, 0.0, 0.0, 0.0, 0.0, 1.6636184527910652E9, 0.0, 2022-09-20 01:14:12.791
81.0, -43873.233362821746, 10633.887128101245, -34374.90426002792, -12759.068639167386, -12474.396821784596, 2805.79212973024, -29058.094806444027, -2423.3537820999363, 0.712, -0.652, 0.36, 192.0, 0.0, 0.0, 0.0, 0.0, 0.0, 0.0, 0.0, 0.0, 0.0, 1.6636184527910805E9, 0.0, 2022-09-20 01:14:12.791
82.0, -44243.19943704599, 10207.840527038637, -34426.78265890868, -13284.62520654502, -10830.761293263591, 2986.3048179513003, -29337.71512957992, -3061.5407897878636, 0.712, -0.652, 0.36, 192.0, 0.0, 0.0, 0.0, 0.0, 0.0, 0.0, 0.0, 0.0, 0.0, 1.6636184527910955E9, 0.0, 2022-09-20 01:14:12.791
83.0, -44231.42006771804, 6466.583188364886, -34291.6440119319, -13473.564502425732, -14601.768803807356, 3171.086689363324, -29440.644912796608, -3349.2747961610316, 0.712, -0.652, 0.36, 192.0, 0.0, 0.0, 0.0, 0.0, 0.0, 0.0, 0.0, 0.0, 0.0, 1.6636184527911108E9, 0.0, 2022-09-20 01:14:12.791
84.0, -44035.03764093371, 5467.884894357311, -34236.21168568274, -13205.052996284128, -17236.63714368786, 3105.1937467090784, -29285.814378954696, -3026.180330059568, 0.712, -0.652, 0.36, 192.0, 0.0, 0.0, 0.0, 0.0, 0.0, 0.0, 0.0, 0.0, 0.0, 1.6636184527911258E9, 0.0, 2022-09-20 01:14:12.791
85.0, -43898.468482311786, 6994.821965077158, -34271.12511052193, -12934.954516286198, -16690.360509200156, 2960.8014775277948, -29148.77583369921, -2676.6884537563865, 0.712, -0.652, 0.36, 192.0, 0.0, 0.0, 0.0, 0.0, 0.0, 0.0, 0.0, 0.0, 0.0, 1.6636184527911406E9, 0.0, 2022-09-20 01:14:12.791
86.0, -43867.913647641384, 10575.437316350617, -34369.539841358644, -12748.742133229034, -12576.030203822877, 2810.262478621302, -29057.401902365913, -2421.118607654406, 0.712, -0.652, 0.36, 192.0, 0.0, 0.0, 0.0, 0.0, 0.0, 0.0, 0.0, 0.0, 0.0, 1.6636184527911556E9, 0.0, 2022-09-20 01:14:12.791
87.0, -44231.8894543516, 10295.012330414334, -34424.636891440976, -13266.564997025132, -10781.788621162012, 2979.956922525993, -29318.60438807063, -3050.342565815755, 0.712, -0.652, 0.36, 192.0, 0.0, 0.0, 0.0, 0.0, 0.0, 0.0, 0.0, 0.0, 0.0, 1.6636184527911704E9, 0.0, 2022-09-20 01:14:12.791
88.0, -44234.012870074854, 6559.454686576687, -34287.330125252025, -13471.552845424754, -14464.685555062957, 3172.740718453016, -29423.25525561038, -3353.745145052093, 0.708, -0.65, 0.358, 192.0, 22.0, 32.0, 235.0, 176.0, 11.0, 48.0, 0.0, 0.0, 0.0, 1.6636184527911854E9, 0.0, 2022-09-20 01:14:12.791
89.0, -44025.0911146511, 5465.292092000495, -34228.16505767883, -13201.879048571474, -17194.50410538961, 3114.402665424665, -29282.21574809739, -3033.7799231743725, 0.708, -0.65, 0.358, 192.0, 0.0, 0.0, 0.0, 0.0, 0.0, 0.0, 0.0, 0.0, 0.0, 1.6636184527912014E9, 0.0, 2022-09-20 01:14:12.791
90.0, -43902.514148058195, 6934.472255047829, -34266.140671508394, -12937.547318643014, -16734.527556243844, 2969.5186578653647, -29152.218002345326, -2689.384244607001, 0.708, -0.65, 0.358, 192.0, 0.0, 0.0, 0.0, 0.0, 0.0, 0.0, 0.0, 0.0, 0.0, 1.6636184527912164E9, 0.0, 2022-09-20 01:14:12.791
91.0, -43864.627941206454, 10512.830080131303, -34364.935382000855, -12742.885976181744, -12669.41579215715, 2814.933993212461, -29053.065663941583, -2421.6103460324225, 0.708, -0.65, 0.358, 192.0, 0.0, 0.0, 0.0, 0.0, 0.0, 0.0, 0.0, 0.0, 0.0, 1.6636184527912335E9, 0.0, 2022-09-20 01:14:12.791
92.0, -44218.590166400696, 10353.462142164963, -34421.59705419505, -13251.678735217898, -10753.156036514763, 2985.813079573283, -29305.66272803101, -3033.2211295629895, 0.708, -0.65, 0.358, 192.0, 0.0, 0.0, 0.0, 0.0, 0.0, 0.0, 0.0, 0.0, 0.0, 1.6636184527912483E9, 0.0, 2022-09-20 01:14:12.791
93.0, -44225.630965904114, 6590.903591025304, -34284.670267661844, -13471.306976235746, -14416.964580650876, 3182.039044146424, -29418.53903753031, -3356.941444509202, 0.708, -0.65, 0.358, 192.0, 0.0, 0.0, 0.0, 0.0, 0.0, 0.0, 0.0, 0.0, 0.0, 1.6636184527912636E9, 0.0, 2022-09-20 01:14:12.791
94.0, -44010.51777726624, 5456.8878360853005, -34227.96389197873, -13205.052996284128, -17186.524532619063, 3121.4211131836314, -29280.449960285423, -3039.881949410671, 0.708, -0.65, 0.358, 192.0, 0.0, 0.0, 0.0, 0.0, 0.0, 0.0, 0.0, 0.0, 0.0, 1.6636184527912912E9, 0.0, 2022-09-20 01:14:12.791
95.0, -43891.58414501955, 6863.527818146685, -34268.77817735412, -12951.964193816686, -16806.321359434292, 2973.430213145043, -29156.598944258567, -2705.2763349147244, 0.708, -0.65, 0.358, 192.0, 0.0, 0.0, 0.0, 0.0, 0.0, 0.0, 0.0, 0.0, 0.0, 1.663618452791306E9, 0.0, 2022-09-20 01:14:12.791
96.0, -43857.96712135877, 10440.321021118287, -34363.393111633435, -12749.077409395864, -12796.641921596756, 2810.4859960658546, -29055.390245364935, -2427.4441513352576, 0.708, -0.65, 0.358, 192.0, 0.0, 0.0, 0.0, 0.0, 0.0, 0.0, 0.0, 0.0, 0.0, 1.6636184527913208E9, 0.0, 2022-09-20 01:14:12.791
97.0, -44223.79812285878, 10415.19766035052, -34425.374499008, -13245.889633403975, -10739.432065419205, 2970.412727643577, -29310.490704833355, -3028.12493182718, 0.708, -0.65, 0.358, 192.0, 0.0, 0.0, 0.0, 0.0, 0.0, 0.0, 0.0, 0.0, 0.0, 1.6636184527913358E9, 0.0, 2022-09-20 01:14:12.791
98.0, -44257.1469255861, 6648.8840161423705, -34299.422419002345, -13486.170886298525, -14333.681980810403, 3169.209142829078, -29440.06376744077, -3377.1474214967993, 0.708, -0.65, 0.358, 192.0, 0.0, 0.0, 0.0, 0.0, 0.0, 0.0, 0.0, 0.0, 0.0, 1.663618452791351E9, 0.0, 2022-09-20 01:14:12.791
99.0, -44046.21351316137, 5432.45737939565, -34238.71508106173, -13222.017970325705, -17177.58383483694, 3112.3463049347765, -29302.220559384892, -3061.8760659546933, 0.712, -0.65, 0.362, 192.0, 22.0, 64.0, 235.0, 176.0, 11.0, 80.0, 0.0, 0.0, 0.0, 1.663618452791366E9, 0.0, 2022-09-20 01:14:12.791
100.0, -43904.59286029254, 6800.942933671825, -34266.74416860869, -12958.759124131098, -16861.127836838703, 2975.598332357208, -29166.187842629894, -2715.4910821308, 0.712, -0.65, 0.362, 192.0, 0.0, 0.0, 0.0, 0.0, 0.0, 0.0, 0.0, 0.0, 0.0, 1.663618452791384E9, 0.0, 2022-09-20 01:14:12.791
101.0, -43854.34613875701, 10370.851799351192, -34357.7604720307, -12745.702295983112, -12909.406472373781, 2810.351885599123, -29049.042349939627, -2425.2089768897267, 0.712, -0.65, 0.362, 192.0, 0.0, 0.0, 0.0, 0.0, 0.0, 0.0, 0.0, 0.0, 0.0, 1.6636184527914195E9, 0.0, 2022-09-20 01:14:12.791
102.0, -44211.996401786375, 10492.087661276777, -34423.161676306925, -13229.908136118429, -10719.628419831804, 2963.5283903513423, -29298.59957678313, -3007.8071961173055, 0.712, -0.65, 0.362, 192.0, 0.0, 0.0, 0.0, 0.0, 0.0, 0.0, 0.0, 0.0, 0.0, 1.6636184527914464E9, 0.0, 2022-09-20 01:14:12.791
103.0, -44250.21788480495, 6751.1879505143115, -34293.43215148833, -13478.817162372728, -14211.082662473043, 3172.6066079862844, -29431.123069658646, -3366.6644533472604, 0.712, -0.65, 0.362, 192.0, 0.0, 0.0, 0.0, 0.0, 0.0, 0.0, 0.0, 0.0, 0.0, 1.6636184527914636E9, 0.0, 2022-09-20 01:14:12.791
104.0, -44039.329175869134, 5442.2697952115295, -34229.953197235256, -13219.4698714578, -17130.95809590317, 3123.365714951243, -29295.671498259486, -3056.6681094966066, 0.712, -0.65, 0.362, 192.0, 0.0, 0.0, 0.0, 0.0, 0.0, 0.0, 0.0, 0.0, 0.0, 1.6636184527914789E9, 0.0, 2022-09-20 01:14:12.791
105.0, -43905.2634126262, 6746.784656856616, -34258.76459583814, -12957.99916481962, -16903.551447814876, 2990.1940214865235, -29159.43761580439, -2713.032390240716, 0.712, -0.65, 0.362, 192.0, 0.0, 0.0, 0.0, 0.0, 0.0, 0.0, 0.0, 0.0, 0.0, 1.6636184527914937E9, 0.0, 2022-09-20 01:14:12.791
106.0, -43857.60949344748, 10294.632350758595, -34356.01703596318, -12745.165854116185, -13019.019427182608, 2816.6103740466087, -29055.859631998497, -2421.81151173252, 0.712, -0.65, 0.362, 192.0, 0.0, 0.0, 0.0, 0.0, 0.0, 0.0, 0.0, 0.0, 0.0, 1.663618452791509E9, 0.0, 2022-09-20 01:14:12.791
107.0, -44210.94586979698, 10531.426731518119, -34426.20151355285, -13221.146252291948, -10715.113367451831, 2959.214503671468, -29298.443114571946, -2989.143489497124, 0.712, -0.65, 0.362, 192.0, 0.0, 0.0, 0.0, 0.0, 0.0, 0.0, 0.0, 0.0, 0.0, 1.6636184527915237E9, 0.0, 2022-09-20 01:14:12.791
108.0, -44256.945759886, 6775.283131037132, -34297.88014863493, -13483.063993819236, -14176.750382989692, 3173.2101050865776, -29433.760575504373, -3364.0492992459895, 0.712, -0.65, 0.362, 192.0, 0.0, 0.0, 0.0, 0.0, 0.0, 0.0, 0.0, 0.0, 0.0, 1.6636184527915387E9, 0.0, 2022-09-20 01:14:12.791
109.0, -44042.27960613723, 5431.563309617438, -34230.48963910218, -13221.369769736502, -17133.01445639306, 3123.9245085626258, -29298.2643006163, -3059.305615342333, 0.712, -0.642, 0.358, 192.0, 22.0, 64.0, 235.0, 240.0, 11.0, 48.0, 0.0, 0.0, 0.0, 1.663618452791571E9, 0.0, 2022-09-20 01:14:12.791
110.0, -43910.761941762205, 6687.261961372133, -34255.88122080341, -12961.910720099297, -16961.040134553925, 2986.5506871403086, -29158.67765649291, -2723.805931068174, 0.712, -0.642, 0.358, 192.0, 0.0, 0.0, 0.0, 0.0, 0.0, 0.0, 0.0, 0.0, 0.0, 1.6636184527915888E9, 0.0, 2022-09-20 01:14:12.791
111.0, -43847.573560187055, 10230.147568005033, -34351.25611439421, -12732.872394665766, -13126.866594179464, 2811.2683071217907, -29043.275599870158, -2415.5753750294894, 0.712, -0.642, 0.358, 192.0, 0.0, 0.0, 0.0, 0.0, 0.0, 0.0, 0.0, 0.0, 0.0, 1.663618452791604E9, 0.0, 2022-09-20 01:14:12.791
112.0, -44200.66406734754, 10607.556773132894, -34422.736993162274, -13197.207533980314, -10690.995835184554, 2947.926872721538, -29282.21574809739, -2968.4010706425993, 0.712, -0.642, 0.358, 192.0, 0.0, 0.0, 0.0, 0.0, 0.0, 0.0, 0.0, 0.0, 0.0, 1.6636184527916267E9, 0.0, 2022-09-20 01:14:12.791
113.0, -44264.0983181117, 6858.945710533347, -34299.04243934661, -13481.387612985089, -14077.486285863673, 3162.280102047933, -29435.436956338523, -3370.2183807156543, 0.712, -0.642, 0.358, 192.0, 0.0, 0.0, 0.0, 0.0, 0.0, 0.0, 0.0, 0.0, 0.0, 1.6636184527916417E9, 0.0, 2022-09-20 01:14:12.791
114.0, -44053.790754531714, 5427.897623526767, -34231.58487458049, -13228.879955873485, -17106.840563635895, 3115.006162524958, -29310.51305657781, -3075.8459062392603, 0.712, -0.642, 0.358, 192.0, 0.0, 0.0, 0.0, 0.0, 0.0, 0.0, 0.0, 0.0, 0.0, 1.6636184527916567E9, 0.0, 2022-09-20 01:14:12.791
115.0, -43916.23811915376, 6639.853911382426, -34255.99297952568, -12966.448124223725, -17000.334501306355, 2983.0414632608254, -29162.14217688348, -2736.680535874431, 0.712, -0.642, 0.358, 192.0, 0.0, 0.0, 0.0, 0.0, 0.0, 0.0, 0.0, 0.0, 0.0, 1.6636184527916715E9, 0.0, 2022-09-20 01:14:12.791
116.0, -43848.199409031804, 10155.760962457773, -34348.506849826204, -12730.972496387065, -13240.636973456976, 2807.669676264486, -29042.94032370333, -2421.3197733545035, 0.712, -0.642, 0.358, 192.0, 0.0, 0.0, 0.0, 0.0, 0.0, 0.0, 0.0, 0.0, 0.0, 1.6636184527916868E9, 0.0, 2022-09-20 01:14:12.791
117.0, -44196.484291134395, 10661.849160414835, -34428.34728102056, -13185.897551285929, -10694.795631741958, 2935.3428405932, -29276.784274194753, -2961.762602539373, 0.712, -0.642, 0.358, 192.0, 0.0, 0.0, 0.0, 0.0, 0.0, 0.0, 0.0, 0.0, 0.0, 1.6636184527917018E9, 0.0, 2022-09-20 01:14:12.791
118.0, -44261.86314366617, 6945.491665064295, -34303.490436493215, -13484.874485120117, -13980.457363183184, 3153.0264798434355, -29429.35728184668, -3381.461308176674, 0.712, -0.642, 0.358, 192.0, 0.0, 0.0, 0.0, 0.0, 0.0, 0.0, 0.0, 0.0, 0.0, 1.6636184527917168E9, 0.0, 2022-09-20 01:14:12.791
119.0, -44053.99192023181, 5426.601222348359, -34234.80352578205, -13240.368752523513, -17079.75024935606, 3108.255935699455, -29307.003832698327, -3095.7389588044834, 0.6980000000000001, -0.642, 0.356, 192.0, 21.0, 208.0, 235.0, 240.0, 11.0, 32.0, 0.0, 0.0, 0.0, 1.663618452791732E9, 0.0, 2022-09-20 01:14:12.791
120.0, -43935.39356415196, 6573.536285583531, -34260.26216271665, -12988.352833789926, -17057.3761531563, 2972.692605578018, -29168.065389164138, -2765.4919344773216, 0.6980000000000001, -0.642, 0.356, 192.0, 0.0, 0.0, 0.0, 0.0, 0.0, 0.0, 0.0, 0.0, 0.0, 1.6636184527917478E9, 0.0, 2022-09-20 01:14:12.791
121.0, -43850.41223173287, 10081.776688310705, -34346.94222771433, -12739.08617962434, -13354.094428312115, 2795.957362169905, -29041.398053335914, -2435.691945039266, 0.6980000000000001, -0.642, 0.356, 192.0, 0.0, 0.0, 0.0, 0.0, 0.0, 0.0, 0.0, 0.0, 0.0, 1.6636184532701335E9, 0.0, 2022-09-20 01:14:13.270
122.0, -44193.22093644392, 10710.374797627306, -34427.81083915363, -13177.51564711519, -10690.660559017726, 2918.668439229541, -29264.7590356778, -2954.878265247138, 0.6980000000000001, -0.642, 0.356, 192.0, 0.0, 0.0, 0.0, 0.0, 0.0, 0.0, 0.0, 0.0, 0.0, 1.663618453270326E9, 0.0, 2022-09-20 01:14:13.270
123.0, -44267.09345186871, 6986.19419171741, -34303.55749172658, -13483.779249641806, -13929.964772458647, 3151.841837387304, -29423.411717821567, -3386.1998780011986, 0.6980000000000001, -0.642, 0.356, 192.0, 0.0, 0.0, 0.0, 0.0, 0.0, 0.0, 0.0, 0.0, 0.0, 1.663618453270384E9, 0.0, 2022-09-20 01:14:13.270
124.0, -44047.442859106406, 5430.021039250021, -34228.746203034665, -13234.154967564937, -17064.081676492893, 3113.441540413087, -29295.112704648105, -3096.7447873049723, 0.6980000000000001, -0.642, 0.356, 192.0, 0.0, 0.0, 0.0, 0.0, 0.0, 0.0, 0.0, 0.0, 0.0, 1.6636184532705925E9, 0.0, 2022-09-20 01:14:13.270
125.0, -43923.345973890544, 6528.676334461729, -34264.21842148524, -12989.13514484586, -17101.453793222165, 2974.1901724565237, -29170.524081054224, -2775.393757271023, 0.6980000000000001, -0.642, 0.356, 192.0, 0.0, 0.0, 0.0, 0.0, 0.0, 0.0, 0.0, 0.0, 0.0, 1.663618453270622E9, 0.0, 2022-09-20 01:14:13.270
126.0, -43846.27715900864, 10004.59611470653, -34350.63026554946, -12740.740208714034, -13467.306013978245, 2793.7221877243746, -29041.46510856928, -2440.922253241808, 0.6980000000000001, -0.642, 0.356, 192.0, 0.0, 0.0, 0.0, 0.0, 0.0, 0.0, 0.0, 0.0, 0.0, 1.663618453270648E9, 0.0, 2022-09-20 01:14:13.270
127.0, -44198.31713417973, 10761.403830218773, -34437.287978802684, -13172.195931934826, -10688.000701427543, 2904.2739158003233, -29266.54717523422, -2947.6810035325293, 0.6980000000000001, -0.642, 0.356, 192.0, 0.0, 0.0, 0.0, 0.0, 0.0, 0.0, 0.0, 0.0, 0.0, 1.6636184532706733E9, 0.0, 2022-09-20 01:14:13.270
128.0, -44289.24403062392, 7072.49427705935, -34315.850951176995, -13496.631502703609, -13809.287704144444, 3134.9886220680028, -29428.686729513018, -3399.2085932741875, 0.6980000000000001, -0.642, 0.356, 192.0, 0.0, 0.0, 0.0, 0.0, 0.0, 0.0, 0.0, 0.0, 0.0, 1.6636184532706995E9, 0.0, 2022-09-20 01:14:13.270
129.0, -44060.8986092685, 5414.419521620217, -34232.43424086979, -13252.393991040468, -17019.51229804901, 3106.2889821873882, -29294.106876147616, -3117.978944537514, 0.704, -0.638, 0.358, 192.0, 22.0, 0.0, 236.0, 16.0, 11.0, 48.0, 0.0, 0.0, 0.0, 1.6636184532707257E9, 0.0, 2022-09-20 01:14:13.270
130.0, -43922.83188376807, 6465.75617382004, -34257.088215004, -12993.896066414842, -17139.898793685294, 2978.7722800698616, -29161.96336292784, -2784.200344586414, 0.704, -0.638, 0.358, 192.0, 0.0, 0.0, 0.0, 0.0, 0.0, 0.0, 0.0, 0.0, 0.0, 1.6636184532707531E9, 0.0, 2022-09-20 01:14:13.270
131.0, -43836.330632726036, 9927.951982969284, -34344.01414919068, -12726.703313196102, -13572.716840829473, 2798.12548138207, -29031.496230542212, -2434.820227005509, 0.704, -0.638, 0.358, 192.0, 0.0, 0.0, 0.0, 0.0, 0.0, 0.0, 0.0, 0.0, 0.0, 1.663618453270779E9, 0.0, 2022-09-20 01:14:13.270
132.0, -44177.194735669465, 10821.015932681077, -34433.71169968983, -13144.859748465986, -10677.025994899988, 2898.931848875505, -29246.967047091373, -2924.993982910393, 0.704, -0.638, 0.358, 192.0, 0.0, 0.0, 0.0, 0.0, 0.0, 0.0, 0.0, 0.0, 0.0, 1.6636184532708046E9, 0.0, 2022-09-20 01:14:13.270
133.0, -44280.86212645318, 7150.501865208372, -34315.73919245472, -13487.891970621584, -13724.61929614774, 3136.9555755800698, -29422.40588932108, -3394.537078683028, 0.704, -0.638, 0.358, 192.0, 0.0, 0.0, 0.0, 0.0, 0.0, 0.0, 0.0, 0.0, 0.0, 1.6636184532708387E9, 0.0, 2022-09-20 01:14:13.270
134.0, -44066.37478666005, 5429.953984016655, -34235.250560671164, -13255.389124797479, -16992.533742491454, 3113.687409602095, -29303.78518149676, -3115.073217758324, 0.704, -0.638, 0.358, 192.0, 0.0, 0.0, 0.0, 0.0, 0.0, 0.0, 0.0, 0.0, 0.0, 1.6636184532708645E9, 0.0, 2022-09-20 01:14:13.270
135.0, -43943.060212500124, 6419.845690708839, -34265.02308428563, -13016.068996914506, -17184.69168957373, 2983.1308702386464, -29171.06052292115, -2781.384024785045, 0.704, -0.638, 0.358, 192.0, 0.0, 0.0, 0.0, 0.0, 0.0, 0.0, 0.0, 0.0, 0.0, 1.6636184532708907E9, 0.0, 2022-09-20 01:14:13.270
136.0, -43848.98172008774, 9841.674249371797, -34349.66914053788, -12750.418514063182, -13692.030452731902, 2803.4899000513437, -29037.352387589504, -2415.5753750294894, 0.704, -0.638, 0.358, 192.0, 0.0, 0.0, 0.0, 0.0, 0.0, 0.0, 0.0, 0.0, 0.0, 1.6636184532709167E9, 0.0, 2022-09-20 01:14:13.270
137.0, -44168.29874137625, 10863.528950635071, -34431.61063571103, -13141.954021686795, -10676.958939666622, 2905.3020960452673, -29236.148802775006, -2864.5325141587873, 0.704, -0.638, 0.358, 192.0, 0.0, 0.0, 0.0, 0.0, 0.0, 0.0, 0.0, 0.0, 0.0, 1.6636184532709424E9, 0.0, 2022-09-20 01:14:13.270
138.0, -44279.677483997046, 7214.204336905997, -34310.486532507726, -13493.05522359076, -13639.839129428761, 3145.985680340014, -29420.416584064555, -3331.7957319969814, 0.704, -0.638, 0.358, 192.0, 0.0, 0.0, 0.0, 0.0, 0.0, 0.0, 0.0, 0.0, 0.0, 1.6636184532709684E9, 0.0, 2022-09-20 01:14:13.270
139.0, -44067.58178086064, 5428.2999549269625, -34229.43910711278, -13260.641784744477, -16954.669887384163, 3125.9585173080586, -29300.99121343985, -3051.951891416537, 0.708, -0.644, 0.364, 192.0, 22.0, 32.0, 235.0, 224.0, 11.0, 96.0, 0.0, 0.0, 0.0, 1.663618453270994E9, 0.0, 2022-09-20 01:14:13.270
140.0, -43933.78423855117, 6374.896332609217, -34256.93175279281, -13016.404273081336, -17204.696500861228, 2996.564268656286, -29166.34430484108, -2719.5367478772105, 0.708, -0.644, 0.364, 192.0, 0.0, 0.0, 0.0, 0.0, 0.0, 0.0, 0.0, 0.0, 0.0, 1.6636184532710521E9, 0.0, 2022-09-20 01:14:13.271
141.0, -43826.83114133253, 9764.873655423362, -34335.20756187529, -12742.37188605927, -13788.500581801009, 2810.1730716434804, -29024.9024659279, -2350.174170753261, 0.708, -0.644, 0.364, 192.0, 0.0, 0.0, 0.0, 0.0, 0.0, 0.0, 0.0, 0.0, 0.0, 1.6636184532710788E9, 0.0, 2022-09-20 01:14:13.271
142.0, -44152.04902315725, 10912.479270992193, -34426.26856878622, -13120.988085387718, -10674.612006498815, 2902.5751832217197, -29219.96613978936, -2782.926295152461, 0.708, -0.644, 0.364, 192.0, 0.0, 0.0, 0.0, 0.0, 0.0, 0.0, 0.0, 0.0, 0.0, 1.6636184532711115E9, 0.0, 2022-09-20 01:14:13.271
143.0, -44284.59486777722, 7321.246841102463, -34318.734326211736, -13488.674281677519, -13507.360340042156, 3148.891407119204, -29415.499200284386, -3271.2001527786438, 0.708, -0.644, 0.364, 192.0, 0.0, 0.0, 0.0, 0.0, 0.0, 0.0, 0.0, 0.0, 0.0, 1.6636184532711415E9, 0.0, 2022-09-20 01:14:13.271
144.0, -44070.800432062206, 5438.760571332046, -34231.6295780694, -13258.428962043401, -16893.515514554445, 3132.7981511113826, -29302.689946018454, -3016.010286332403, 0.708, -0.644, 0.364, 192.0, 0.0, 0.0, 0.0, 0.0, 0.0, 0.0, 0.0, 0.0, 0.0, 1.6636184532711732E9, 0.0, 2022-09-20 01:14:13.271
145.0, -43935.39356415196, 6326.840082030307, -34255.523592892125, -13014.303209102538, -17235.296039020544, 3003.336847226244, -29169.29473510918, -2694.8157185096406, 0.708, -0.644, 0.364, 192.0, 0.0, 0.0, 0.0, 0.0, 0.0, 0.0, 0.0, 0.0, 0.0, 1.663618453271202E9, 0.0, 2022-09-20 01:14:13.271
146.0, -43851.57452244455, 9679.24412241508, -34338.98500668824, -12743.556528515403, -13899.633455232795, 2812.274135622279, -29036.234800366736, -2333.3433071784148, 0.708, -0.644, 0.364, 192.0, 0.0, 0.0, 0.0, 0.0, 0.0, 0.0, 0.0, 0.0, 0.0, 1.6636184532712305E9, 0.0, 2022-09-20 01:14:13.271
147.0, -44174.959561223935, 10944.509320796647, -34434.96339737933, -13111.01920736065, -10688.805364227936, 2892.539249961287, -29224.749413102796, -2758.227617529347, 0.708, -0.644, 0.364, 192.0, 0.0, 0.0, 0.0, 0.0, 0.0, 0.0, 0.0, 0.0, 0.0, 1.663618453271258E9, 0.0, 2022-09-20 01:14:13.271
148.0, -44316.08847571474, 7366.106792224264, -34327.76443097168, -13497.257351548356, -13449.290507947268, 3133.267537744944, -29421.802392220783, -3273.256513268532, 0.708, -0.644, 0.364, 192.0, 0.0, 0.0, 0.0, 0.0, 0.0, 0.0, 0.0, 0.0, 0.0, 1.6636184532712874E9, 0.0, 2022-09-20 01:14:13.271
149.0, -44100.371789976576, 5426.288297925985, -34237.0834037165, -13275.840970974084, -16879.00923240295, 3115.9672875365363, -29309.775449010784, -3029.7119056835063, 0.7020000000000001, -0.638, 0.366, 192.0, 21.0, 240.0, 236.0, 16.0, 11.0, 112.0, 0.0, 0.0, 0.0, 1.6636184532713153E9, 0.0, 2022-09-20 01:14:13.271
150.0, -43938.858084542524, 6272.570046492821, -34248.4827933887, -13018.14770914885, -17278.770181986118, 2999.090015779736, -29172.848662477576, -2701.230669168314, 0.7020000000000001, -0.638, 0.366, 192.0, 0.0, 0.0, 0.0, 0.0, 0.0, 0.0, 0.0, 0.0, 0.0, 1.6636184532713451E9, 0.0, 2022-09-20 01:14:13.271
151.0, -43819.119789495446, 9598.6660836537, -34318.17553260035, -12731.128958598252, -14009.112299574888, 2814.9563449569164, -29019.91802691436, -2327.2636326865713, 0.7020000000000001, -0.638, 0.366, 192.0, 0.0, 0.0, 0.0, 0.0, 0.0, 0.0, 0.0, 0.0, 0.0, 1.6636184532713733E9, 0.0, 2022-09-20 01:14:13.271
152.0, -44150.26088360082, 10987.379966661927, -34414.846827369554, -13086.365233226446, -10691.711091007124, 2889.2758952708123, -29193.25580516527, -2734.4900649178107, 0.7020000000000001, -0.638, 0.366, 192.0, 0.0, 0.0, 0.0, 0.0, 0.0, 0.0, 0.0, 0.0, 0.0, 1.6636184532714007E9, 0.0, 2022-09-20 01:14:13.271
153.0, -44317.071952470775, 7454.217368867085, -34314.666308720865, -13488.942502610982, -13338.761131615775, 3138.296680247388, -29399.38359253211, -3266.2157137651106, 0.7020000000000001, -0.638, 0.366, 192.0, 0.0, 0.0, 0.0, 0.0, 0.0, 0.0, 0.0, 0.0, 0.0, 1.6636184532714272E9, 0.0, 2022-09-20 01:14:13.271
154.0, -44100.79647312123, 5429.819873549924, -34215.893949972866, -13275.885674462996, -16826.035598043873, 3131.6135086552513, -29289.59182376764, -3028.7060771830174, 0.7020000000000001, -0.638, 0.366, 192.0, 0.0, 0.0, 0.0, 0.0, 0.0, 0.0, 0.0, 0.0, 0.0, 1.663618453271454E9, 0.0, 2022-09-20 01:14:13.271
155.0, -43962.148602264955, 6220.624592378687, -34235.98816823818, -13025.38967435237, -17299.04321420708, 3007.896603095127, -29161.449272805366, -2706.8186052821407, 0.7020000000000001, -0.638, 0.366, 192.0, 0.0, 0.0, 0.0, 0.0, 0.0, 0.0, 0.0, 0.0, 0.0, 1.6636184532715187E9, 0.0, 2022-09-20 01:14:13.271
156.0, -43850.0993073105, 9504.364073796758, -34314.57690174304, -12737.05217087891, -14110.499812424161, 2820.119597926092, -29021.884980426432, -2333.1644932227723, 0.7020000000000001, -0.638, 0.366, 192.0, 0.0, 0.0, 0.0, 0.0, 0.0, 0.0, 0.0, 0.0, 0.0, 1.6636184532715447E9, 0.0, 2022-09-20 01:14:13.271
157.0, -44150.97613942339, 11015.029074553142, -34413.036336068675, -13080.531427923612, -10700.607085300337, 2880.4246044665106, -29185.387991117, -2725.839939813607, 0.7020000000000001, -0.638, 0.366, 192.0, 0.0, 0.0, 0.0, 0.0, 0.0, 0.0, 0.0, 0.0, 0.0, 1.6636184532715707E9, 0.0, 2022-09-20 01:14:13.271
158.0, -44326.213815953, 7527.352276724849, -34321.7518117132, -13500.744223683385, -13240.748732179252, 3122.4045899396647, -29407.452572280476, -3282.0183970950125, 0.7020000000000001, -0.638, 0.366, 192.0, 0.0, 0.0, 0.0, 0.0, 0.0, 0.0, 0.0, 0.0, 0.0, 1.663618453271597E9, 0.0, 2022-09-20 01:14:13.271
159.0, -44111.23473778185, 5424.254289180552, -34220.61016805293, -13294.817602016641, -16778.985175965452, 3118.336572448799, -29302.064097173705, -3054.075307139791, 0.6980000000000001, -0.64, 0.36, 192.0, 21.0, 208.0, 236.0, 0.0, 11.0, 64.0, 0.0, 0.0, 0.0, 1.6636184532716227E9, 0.0, 2022-09-20 01:14:13.271
160.0, -43976.74429139427, 6161.83950446123, -34237.66454907233, -13048.277860674603, -17318.511583627653, 2998.173594257068, -29163.6844472509, -2731.472579416344, 0.6980000000000001, -0.64, 0.36, 192.0, 0.0, 0.0, 0.0, 0.0, 0.0, 0.0, 0.0, 0.0, 0.0, 1.66361845327165E9, 0.0, 2022-09-20 01:14:13.271
161.0, -43872.182830832346, 9404.228258636984, -34312.006451130685, -12757.302851355416, -14211.060310728588, 2815.22456589038, -29019.023957136153, -2350.822371342465, 0.6980000000000001, -0.64, 0.36, 192.0, 0.0, 0.0, 0.0, 0.0, 0.0, 0.0, 0.0, 0.0, 0.0, 1.663618453271676E9, 0.0, 2022-09-20 01:14:13.271
162.0, -44167.404671598044, 11025.176766535851, -34417.66314717092, -13078.54212266709, -10720.611896587838, 2874.791964863773, -29188.07020045164, -2716.6533728424756, 0.6980000000000001, -0.64, 0.36, 192.0, 0.0, 0.0, 0.0, 0.0, 0.0, 0.0, 0.0, 0.0, 0.0, 1.6636184532717018E9, 0.0, 2022-09-20 01:14:13.271
163.0, -44310.41113262309, 7596.55327755848, -34315.33686105452, -13490.19420030048, -13157.287318383136, 3131.434694699609, -29402.646947222587, -3270.082565555879, 0.6980000000000001, -0.64, 0.36, 192.0, 0.0, 0.0, 0.0, 0.0, 0.0, 0.0, 0.0, 0.0, 0.0, 1.6636184532717276E9, 0.0, 2022-09-20 01:14:13.271
164.0, -44094.31446722919, 5450.674051126725, -34216.85507498444, -13284.468744333833, -16727.08442534023, 3133.602813911774, -29297.571396538187, -3052.0636501388135, 0.6980000000000001, -0.64, 0.36, 192.0, 0.0, 0.0, 0.0, 0.0, 0.0, 0.0, 0.0, 0.0, 0.0, 1.6636184532717535E9, 0.0, 2022-09-20 01:14:13.271
165.0, -43951.82209632661, 6143.913405408073, -34235.56348509353, -13037.750189036155, -17330.402711677874, 3017.1278735551687, -29168.043037419684, -2730.131474749026, 0.6980000000000001, -0.64, 0.36, 192.0, 0.0, 0.0, 0.0, 0.0, 0.0, 0.0, 0.0, 0.0, 0.0, 1.663618453271779E9, 0.0, 2022-09-20 01:14:13.271
166.0, -43840.018670561156, 9336.457769448492, -34310.397125529904, -12747.065752394887, -14315.331198612595, 2827.2945078962457, -29021.706166470787, -2352.9010835768086, 0.6980000000000001, -0.64, 0.36, 192.0, 0.0, 0.0, 0.0, 0.0, 0.0, 0.0, 0.0, 0.0, 0.0, 1.6636184532718048E9, 0.0, 2022-09-20 01:14:13.271
167.0, -44132.55830199222, 11076.474020060781, -34419.27247277171, -13051.652974087356, -10738.537995640992, 2876.5801044201976, -29183.33163062711, -2697.4308726109116, 0.6980000000000001, -0.64, 0.36, 192.0, 0.0, 0.0, 0.0, 0.0, 0.0, 0.0, 0.0, 0.0, 0.0, 1.6636184532718303E9, 0.0, 2022-09-20 01:14:13.271
168.0, -44320.73763856145, 7693.872772916887, -34329.84314320602, -13490.887104378595, -13053.910500277341, 3130.004183054469, -29409.66539498155, -3274.776431891493, 0.6980000000000001, -0.64, 0.36, 192.0, 0.0, 0.0, 0.0, 0.0, 0.0, 0.0, 0.0, 0.0, 0.0, 1.663618453271858E9, 0.0, 2022-09-20 01:14:13.271
169.0, -44105.35622899011, 5451.501065671571, -34221.21366515323, -13294.884657250006, -16678.223511960925, 3144.2869477614104, -29299.3148326057, -3065.8099729788273, 0.706, -0.638, 0.364, 192.0, 22.0, 16.0, 236.0, 16.0, 11.0, 96.0, 0.0, 0.0, 0.0, 1.6636184532718863E9, 0.0, 2022-09-20 01:14:13.271
170.0, -43977.66071291694, 6087.4305471695125, -34236.435203127294, -13046.53442460709, -17355.123741045445, 3022.0899608242466, -29163.63974376199, -2741.35205046559, 0.706, -0.638, 0.364, 192.0, 0.0, 0.0, 0.0, 0.0, 0.0, 0.0, 0.0, 0.0, 0.0, 1.6636184532719119E9, 0.0, 2022-09-20 01:14:13.271
171.0, -43855.173153301854, 9241.082875857697, -34308.11724759546, -12751.469046052582, -14411.130775348041, 2831.6530980650305, -29017.973425146753, -2352.766973110077, 0.706, -0.638, 0.364, 192.0, 0.0, 0.0, 0.0, 0.0, 0.0, 0.0, 0.0, 0.0, 0.0, 1.6636184532719612E9, 0.0, 2022-09-20 01:14:13.271
172.0, -44130.077258357676, 11091.181467912373, -34412.5222459462, -13037.14669193586, -10755.950004571678, 2875.373110219611, -29161.136348382992, -2672.7545467322525, 0.706, -0.638, 0.364, 192.0, 0.0, 0.0, 0.0, 0.0, 0.0, 0.0, 0.0, 0.0, 0.0, 1.6636184532719872E9, 0.0, 2022-09-20 01:14:13.271
173.0, -44334.10398174572, 7757.687003336788, -34334.17938163035, -13489.501296222365, -12963.721211400178, 3125.3773719522205, -29401.462304766454, -3264.874609097792, 0.706, -0.638, 0.364, 192.0, 0.0, 0.0, 0.0, 0.0, 0.0, 0.0, 0.0, 0.0, 0.0, 1.663618453272014E9, 0.0, 2022-09-20 01:14:13.272
174.0, -44121.49418848684, 5447.097772013876, -34225.035813455084, -13302.037215475704, -16626.38981656907, 3142.118828549246, -29309.037841443762, -3070.3473771032545, 0.706, -0.638, 0.364, 192.0, 0.0, 0.0, 0.0, 0.0, 0.0, 0.0, 0.0, 0.0, 0.0, 1.6636184532720404E9, 0.0, 2022-09-20 01:14:13.272
175.0, -43979.98529434029, 6038.5919855346665, -34236.16698219383, -13049.797779297565, -17365.562005706073, 3030.717734183995, -29172.28986886619, -2744.503646433788, 0.706, -0.638, 0.364, 192.0, 0.0, 0.0, 0.0, 0.0, 0.0, 0.0, 0.0, 0.0, 0.0, 1.663618453272066E9, 0.0, 2022-09-20 01:14:13.272
176.0, -43848.467629965264, 9146.736162511845, -34307.849026662, -12747.646897750725, -14507.19857301695, 2843.164246459514, -29023.136678115927, -2350.2635777310825, 0.706, -0.638, 0.364, 192.0, 0.0, 0.0, 0.0, 0.0, 0.0, 0.0, 0.0, 0.0, 0.0, 1.6636184532720993E9, 0.0, 2022-09-20 01:14:13.272
177.0, -44116.576804706674, 11106.984151242275, -34419.69715591636, -13020.405235338836, -10774.189028047209, 2873.0038253073485, -29166.90309845246, -2659.835238437085, 0.706, -0.638, 0.364, 192.0, 0.0, 0.0, 0.0, 0.0, 0.0, 0.0, 0.0, 0.0, 0.0, 1.6636184532721312E9, 0.0, 2022-09-20 01:14:13.272
178.0, -44322.816350795794, 7832.431236795335, -34331.63128276244, -13477.140781538581, -12879.008099914563, 3132.462874944553, -29404.748011201384, -3258.034975294468, 0.706, -0.638, 0.364, 192.0, 0.0, 0.0, 0.0, 0.0, 0.0, 0.0, 0.0, 0.0, 0.0, 1.663618453272158E9, 0.0, 2022-09-20 01:14:13.272
179.0, -44117.33676401815, 5464.196856522186, -34222.39830760936, -13296.091651450593, -16581.820438125185, 3156.848628145293, -29318.93966423746, -3068.0004439354475, 0.712, -0.634, 0.364, 192.0, 22.0, 64.0, 236.0, 48.0, 11.0, 96.0, 0.0, 0.0, 0.0, 1.663618453272182E9, 0.0, 2022-09-20 01:14:13.272
180.0, -43984.589753698085, 6009.445310764946, -34238.44686012827, -13049.082523474995, -17379.174218079355, 3038.4514377655314, -29183.376334116023, -2750.739783136819, 0.712, -0.634, 0.364, 192.0, 0.0, 0.0, 0.0, 0.0, 0.0, 0.0, 0.0, 0.0, 0.0, 1.6636184532722068E9, 0.0, 2022-09-20 01:14:13.272
181.0, -43841.18096127283, 9079.256246001274, -34305.099762093996, -12745.14350237173, -14587.016652466853, 2847.724002328396, -29028.07641364055, -2360.0983452914174, 0.712, -0.634, 0.364, 192.0, 0.0, 0.0, 0.0, 0.0, 0.0, 0.0, 0.0, 0.0, 0.0, 1.663618453272235E9, 0.0, 2022-09-20 01:14:13.272
182.0, -44100.86352835459, 11137.337820212582, -34421.46294372832, -13008.201182866238, -10791.064595110965, 2866.5888746486753, -29164.779682729208, -2648.5923109760656, 0.712, -0.634, 0.364, 192.0, 0.0, 0.0, 0.0, 0.0, 0.0, 0.0, 0.0, 0.0, 0.0, 1.6636184532722583E9, 0.0, 2022-09-20 01:14:13.272
183.0, -44323.82217929628, 7938.110284580027, -34344.41648059088, -13484.673319420019, -12759.515674056493, 3121.2870027168997, -29411.11825837115, -3265.209885264622, 0.712, -0.634, 0.364, 192.0, 0.0, 0.0, 0.0, 0.0, 0.0, 0.0, 0.0, 0.0, 0.0, 1.6636184532722833E9, 0.0, 2022-09-20 01:14:13.272
184.0, -44122.790589665245, 5469.494219958094, -34235.96581649373, -13326.132395998526, -16515.703978026388, 3139.3695639812427, -29330.003777742837, -3106.4454443985755, 0.712, -0.634, 0.364, 192.0, 0.0, 0.0, 0.0, 0.0, 0.0, 0.0, 0.0, 0.0, 0.0, 1.663618453272307E9, 0.0, 2022-09-20 01:14:13.272
185.0, -43977.54895419466, 5965.121801510072, -34243.96774100873, -13069.355555695958, -17384.44922977081, 3028.9072428831155, -29186.930261484416, -2778.992388128327, 0.712, -0.634, 0.364, 192.0, 0.0, 0.0, 0.0, 0.0, 0.0, 0.0, 0.0, 0.0, 0.0, 1.663618453272331E9, 0.0, 2022-09-20 01:14:13.272
186.0, -43840.577464172544, 8982.361433787517, -34311.82763717504, -12766.020031692986, -14683.777354213877, 2842.1360662145694, -29035.050157910606, -2384.0594153475067, 0.712, -0.634, 0.364, 192.0, 0.0, 0.0, 0.0, 0.0, 0.0, 0.0, 0.0, 0.0, 0.0, 1.6636184532723846E9, 0.0, 2022-09-20 01:14:13.272
187.0, -44091.699313127916, 11144.87035809402, -34425.64271994147, -13006.86007819892, -10824.502804816104, 2859.9057030565386, -29160.175223371414, -2646.357136530535, 0.712, -0.634, 0.364, 192.0, 0.0, 0.0, 0.0, 0.0, 0.0, 0.0, 0.0, 0.0, 0.0, 1.6636184532724104E9, 0.0, 2022-09-20 01:14:13.272
188.0, -44332.13702823365, 8008.20535519187, -34351.77020451667, -13487.19906654347, -12679.898760306689, 3118.42597942662, -29413.800467705783, -3268.875571355292, 0.712, -0.634, 0.364, 192.0, 0.0, 0.0, 0.0, 0.0, 0.0, 0.0, 0.0, 0.0, 0.0, 1.6636184532724361E9, 0.0, 2022-09-20 01:14:13.272
189.0, -44135.106400860124, 5477.853772384378, -34233.082441458995, -13327.4958524103, -16467.178340813916, 3149.1819797971225, -29326.963940496917, -3114.8720520582265, 0.712, -0.642, 0.37, 192.0, 22.0, 64.0, 235.0, 240.0, 11.0, 144.0, 0.0, 0.0, 0.0, 1.6636184532724583E9, 0.0, 2022-09-20 01:14:13.272
190.0, -43983.29335251968, 5924.575737068145, -34241.956084007754, -13071.814247586042, -17399.11197413349, 3035.501007497431, -29184.136293427506, -2797.477280792866, 0.712, -0.642, 0.37, 192.0, 0.0, 0.0, 0.0, 0.0, 0.0, 0.0, 0.0, 0.0, 0.0, 1.6636184532724824E9, 0.0, 2022-09-20 01:14:13.272
191.0, -43830.76504835666, 8898.229467657742, -34300.36119226947, -12756.945223444132, -14779.845151882786, 2849.3333279291783, -29024.142506616416, -2399.1691945992943, 0.712, -0.642, 0.37, 192.0, 0.0, 0.0, 0.0, 0.0, 0.0, 0.0, 0.0, 0.0, 0.0, 1.6636184532725055E9, 0.0, 2022-09-20 01:14:13.272
192.0, -44080.14346124452, 11160.315413512637, -34417.23846402627, -12989.157496590316, -10857.00224125412, 2854.541284387265, -29147.14415635397, -2648.324090042602, 0.712, -0.642, 0.37, 192.0, 0.0, 0.0, 0.0, 0.0, 0.0, 0.0, 0.0, 0.0, 0.0, 1.6636184532725325E9, 0.0, 2022-09-20 01:14:13.272
193.0, -44319.932975761054, 8086.324702063168, -34344.34942535751, -13483.57808394171, -12596.884381399677, 3115.341438691788, -29405.597377490685, -3284.4994407295517, 0.712, -0.642, 0.37, 192.0, 0.0, 0.0, 0.0, 0.0, 0.0, 0.0, 0.0, 0.0, 0.0, 1.6636184532725563E9, 0.0, 2022-09-20 01:14:13.272
194.0, -44109.40189473652, 5501.010179640077, -34222.3759558649, -13325.260677964769, -16417.19984021185, 3153.4064594991755, -29321.957149738926, -3132.686392389106, 0.712, -0.642, 0.37, 192.0, 0.0, 0.0, 0.0, 0.0, 0.0, 0.0, 0.0, 0.0, 0.0, 1.663618453272579E9, 0.0, 2022-09-20 01:14:13.272
195.0, -43969.59173316857, 5905.017960669752, -34227.91918848982, -13071.210750485749, -17403.53761953564, 3042.765324445406, -29178.05661893566, -2800.6959319944303, 0.712, -0.642, 0.37, 192.0, 0.0, 0.0, 0.0, 0.0, 0.0, 0.0, 0.0, 0.0, 0.0, 1.663618453272602E9, 0.0, 2022-09-20 01:14:13.272
196.0, -43827.74756285519, 8822.0323708096, -34289.855872375476, -12764.38835434775, -14870.660289604699, 2858.3187292002117, -29024.343672316514, -2400.4879475221574, 0.712, -0.642, 0.37, 192.0, 0.0, 0.0, 0.0, 0.0, 0.0, 0.0, 0.0, 0.0, 0.0, 1.6636184532726307E9, 0.0, 2022-09-20 01:14:13.272
197.0, -44060.6974435684, 11186.444602780892, -34410.13060928948, -12970.829066136965, -10889.00993931412, 2850.965005274416, -29139.05282486115, -2620.786740873664, 0.712, -0.642, 0.37, 192.0, 0.0, 0.0, 0.0, 0.0, 0.0, 0.0, 0.0, 0.0, 0.0, 1.6636184532726583E9, 0.0, 2022-09-20 01:14:13.272
198.0, -44303.9067749866, 8203.537249986799, -34338.53797179913, -13466.18842675548, -12482.197580599497, 3115.9225840476256, -29388.788865660295, -3261.7230131295937, 0.712, -0.642, 0.37, 192.0, 0.0, 0.0, 0.0, 0.0, 0.0, 0.0, 0.0, 0.0, 0.0, 1.6636184532726808E9, 0.0, 2022-09-20 01:14:13.272
199.0, -44108.619583680585, 5538.404648113805, -34216.095115672964, -13326.199451231892, -16329.37983624695, 3166.750450938994, -29319.252588659834, -3128.9312993206145, 0.706, -0.646, 0.368, 192.0, 22.0, 16.0, 235.0, 208.0, 11.0, 128.0, 0.0, 0.0, 0.0, 1.6636184532727115E9, 0.0, 2022-09-20 01:14:13.272
200.0, -43968.40709071244, 5880.654559213467, -34218.889083729875, -13070.786067341098, -17397.30148283261, 3064.7147375005175, -29180.91764222594, -2797.8796121930613, 0.706, -0.646, 0.368, 192.0, 0.0, 0.0, 0.0, 0.0, 0.0, 0.0, 0.0, 0.0, 0.0, 1.6636184532727466E9, 0.0, 2022-09-20 01:14:13.272
201.0, -43831.03326929013, 8736.15696861231, -34281.250450760184, -12767.025860193475, -14951.931232444196, 2881.9445230894717, -29025.193038605816, -2403.7289504681767, 0.706, -0.646, 0.368, 192.0, 0.0, 0.0, 0.0, 0.0, 0.0, 0.0, 0.0, 0.0, 0.0, 1.6636184532728E9, 0.0, 2022-09-20 01:14:13.272
202.0, -44062.262065680276, 11180.566093989146, -34402.03927779666, -12961.039002065541, -10923.699846708758, 2868.4664211829213, -29126.982882855285, -2605.9004790664294, 0.706, -0.646, 0.368, 192.0, 0.0, 0.0, 0.0, 0.0, 0.0, 0.0, 0.0, 0.0, 0.0, 1.6636184532728233E9, 0.0, 2022-09-20 01:14:13.272
203.0, -44322.79399905133, 8266.569169350763, -34343.34359685703, -13468.267138989824, -12398.222076680908, 3125.913813819148, -29391.62753720612, -3259.5325421729735, 0.706, -0.646, 0.368, 192.0, 0.0, 0.0, 0.0, 0.0, 0.0, 0.0, 0.0, 0.0, 0.0, 1.663618453272846E9, 0.0, 2022-09-20 01:14:13.272
204.0, -44126.94801413394, 5541.265671404085, -34222.06303144253, -13337.397675204002, -16274.439248375804, 3174.618264987262, -29327.880362019583, -3144.2869477614104, 0.706, -0.646, 0.368, 192.0, 0.0, 0.0, 0.0, 0.0, 0.0, 0.0, 0.0, 0.0, 0.0, 1.663618453272869E9, 0.0, 2022-09-20 01:14:13.272
205.0, -43979.31474200663, 5841.270785483216, -34223.11356343193, -13076.351651710469, -17402.48708754624, 3072.2919788708664, -29184.650383549975, -2817.415036847, 0.706, -0.646, 0.368, 192.0, 0.0, 0.0, 0.0, 0.0, 0.0, 0.0, 0.0, 0.0, 0.0, 1.6636184532728927E9, 0.0, 2022-09-20 01:14:13.272
206.0, -43840.86803685046, 8647.867578013847, -34281.20574727127, -12766.735287515556, -15048.758989424587, 2894.95323836246, -29032.5020590427, -2416.692962252255, 0.706, -0.646, 0.368, 192.0, 0.0, 0.0, 0.0, 0.0, 0.0, 0.0, 0.0, 0.0, 0.0, 1.6636184532729163E9, 0.0, 2022-09-20 01:14:13.272
207.0, -44048.269873651254, 11195.877038941031, -34400.161731262415, -12942.04001927853, -10967.285748396605, 2874.389633463578, -29123.04897583115, -2595.998656272728, 0.706, -0.646, 0.368, 192.0, 0.0, 0.0, 0.0, 0.0, 0.0, 0.0, 0.0, 0.0, 0.0, 1.6636184532729464E9, 0.0, 2022-09-20 01:14:13.272
208.0, -44310.90287100111, 8371.622368290708, -34345.623474791464, -13460.399324941556, -12304.791784857725, 3136.687354646606, -29388.654755193566, -3257.6996991276383, 0.706, -0.646, 0.368, 192.0, 0.0, 0.0, 0.0, 0.0, 0.0, 0.0, 0.0, 0.0, 0.0, 1.6636184532729752E9, 0.0, 2022-09-20 01:14:13.272
209.0, -44126.74684843384, 5582.214067246207, -34218.55380756305, -13340.750436872297, -16201.818430640511, 3199.9204397106696, -29323.5217718508, -3149.271386774944, 0.706, -0.646, 0.368, 192.0, 0.0, 0.0, 0.0, 0.0, 0.0, 0.0, 0.0, 0.0, 0.0, 1.6636184532730083E9, 0.0, 2022-09-20 01:14:13.273
210.0, -43990.08828283409, 5815.119244470507, -34232.23307516969, -13097.943436854297, -17406.108070148002, 3093.861412270238, -29195.334517399613, -2827.9874119743604, 0.7000000000000001, -0.636, 0.364, 192.0, 21.0, 224.0, 236.0, 32.0, 11.0, 96.0, 0.0, 0.0, 0.0, 1.663618453273033E9, 0.0, 2022-09-20 01:14:13.273
211.0, -43855.039042835124, 8556.761867614016, -34294.90736662238, -12794.67496808469, -15145.743208616163, 2916.9473549064824, -29049.5564400621, -2432.4509420932463, 0.7000000000000001, -0.636, 0.364, 192.0, 0.0, 0.0, 0.0, 0.0, 0.0, 0.0, 0.0, 0.0, 0.0, 1.6636184532730732E9, 0.0, 2022-09-20 01:14:13.273
212.0, -44047.778135273235, 11188.590370248601, -34405.95083307634, -12941.816501833977, -11023.790958379623, 2890.3264272602114, -29119.584455440578, -2581.5370776101445, 0.7000000000000001, -0.636, 0.364, 192.0, 0.0, 0.0, 0.0, 0.0, 0.0, 0.0, 0.0, 0.0, 0.0, 1.6636184532731035E9, 0.0, 2022-09-20 01:14:13.273
213.0, -44315.395571636625, 8460.716421689562, -34350.58556206054, -13456.934804550983, -12220.235135583298, 3150.9924710980026, -29383.938537113496, -3241.874664053281, 0.7000000000000001, -0.636, 0.364, 192.0, 0.0, 0.0, 0.0, 0.0, 0.0, 0.0, 0.0, 0.0, 0.0, 1.6636184532731347E9, 0.0, 2022-09-20 01:14:13.273
214.0, -44138.34740380614, 5595.625113919391, -34229.170886179316, -13357.871873125063, -16149.917680015289, 3210.559870071396, -29337.625722602097, -3159.6425962022063, 0.7000000000000001, -0.636, 0.364, 192.0, 0.0, 0.0, 0.0, 0.0, 0.0, 0.0, 0.0, 0.0, 0.0, 1.6636184532731645E9, 0.0, 2022-09-20 01:14:13.273
215.0, -43985.55087870966, 5773.075613150074, -34235.13880194888, -13108.046425348095, -17433.55601233912, 3103.562069363841, -29209.773744317743, -2838.4256766349886, 0.7000000000000001, -0.636, 0.364, 192.0, 0.0, 0.0, 0.0, 0.0, 0.0, 0.0, 0.0, 0.0, 0.0, 1.663618453273193E9, 0.0, 2022-09-20 01:14:13.273
216.0, -43842.43265896233, 8461.05169785639, -34291.174625298336, -12802.319264688405, -15259.088904749025, 2913.86281417165, -29051.61280055199, -2446.7113550557324, 0.7000000000000001, -0.636, 0.364, 192.0, 0.0, 0.0, 0.0, 0.0, 0.0, 0.0, 0.0, 0.0, 0.0, 1.6636184532732208E9, 0.0, 2022-09-20 01:14:13.273
217.0, -44023.884120450515, 11177.570960232135, -34403.00040280824, -12934.216908719172, -11090.756784767722, 2872.243865995868, -29115.650548416445, -2577.6925775638315, 0.7000000000000001, -0.636, 0.364, 192.0, 0.0, 0.0, 0.0, 0.0, 0.0, 0.0, 0.0, 0.0, 0.0, 1.6636184532732897E9, 0.0, 2022-09-20 01:14:13.273
218.0, -44305.38199012065, 8540.467445906097, -34356.329960385556, -13456.621880128609, -12147.971945759291, 3126.405552197165, -29382.686839423997, -3246.0767920108788, 0.7000000000000001, -0.636, 0.364, 192.0, 0.0, 0.0, 0.0, 0.0, 0.0, 0.0, 0.0, 0.0, 0.0, 1.6636184532733192E9, 0.0, 2022-09-20 01:14:13.273
219.0, -44130.412534524505, 5621.687247954279, -34232.23307516969, -13361.246986537813, -16088.22686531864, 3188.8563262052926, -29338.743309824862, -3169.499715506997, 0.7000000000000001, -0.636, 0.364, 192.0, 0.0, 0.0, 0.0, 0.0, 0.0, 0.0, 0.0, 0.0, 0.0, 1.6636184532733529E9, 0.0, 2022-09-20 01:14:13.273
220.0, -43981.41580598543, 5746.879368648454, -34233.26125541464, -13109.722806182242, -17433.511308850208, 3069.2968451138554, -29203.381145403524, -2849.9368250294715, 0.7020000000000001, -0.634, 0.366, 192.0, 21.0, 240.0, 236.0, 48.0, 11.0, 112.0, 0.0, 0.0, 0.0, 1.6636184532733805E9, 0.0, 2022-09-20 01:14:13.273
221.0, -43834.02840304714, 8373.723432269506, -34287.50893920767, -12807.504869402037, -15350.686353526873, 2879.28466549929, -29046.382492349447, -2457.1496197163606, 0.7020000000000001, -0.634, 0.366, 192.0, 0.0, 0.0, 0.0, 0.0, 0.0, 0.0, 0.0, 0.0, 0.0, 1.6636184532734113E9, 0.0, 2022-09-20 01:14:13.273
222.0, -44024.33115533962, 11160.561282701647, -34415.539731447665, -12935.870937808864, -11155.420381476926, 2813.4587780784104, -29116.544618194657, -2579.36895839798, 0.7020000000000001, -0.634, 0.366, 192.0, 0.0, 0.0, 0.0, 0.0, 0.0, 0.0, 0.0, 0.0, 0.0, 1.6636184532734396E9, 0.0, 2022-09-20 01:14:13.273
223.0, -44323.41984789608, 8592.859934909337, -34378.30172518513, -13471.217569257924, -12100.988578914235, 3052.7789059613833, -29399.16007508756, -3267.6909288991606, 0.7020000000000001, -0.634, 0.366, 192.0, 0.0, 0.0, 0.0, 0.0, 0.0, 0.0, 0.0, 0.0, 0.0, 1.6636184532734687E9, 0.0, 2022-09-20 01:14:13.273
224.0, -44148.316281833206, 5624.458864266738, -34244.59358985348, -13379.59776873562, -16061.449475461182, 3118.023648026425, -29361.51973742482, -3207.4082741031975, 0.7020000000000001, -0.634, 0.366, 192.0, 0.0, 0.0, 0.0, 0.0, 0.0, 0.0, 0.0, 0.0, 0.0, 1.6636184532735047E9, 0.0, 2022-09-20 01:14:13.273
225.0, -43989.14950956697, 5714.067007788063, -34241.91138051884, -13123.133852855428, -17457.628841117483, 3005.057931549303, -29221.910741556974, -2881.7880608782843, 0.7020000000000001, -0.634, 0.366, 192.0, 0.0, 0.0, 0.0, 0.0, 0.0, 0.0, 0.0, 0.0, 0.0, 1.6636184532735367E9, 0.0, 2022-09-20 01:14:13.273
226.0, -43847.05947006458, 8285.92578004906, -34297.76838991266, -12823.39695970976, -15454.420799543954, 2828.277984652279, -29067.70605655981, -2492.420672466835, 0.7020000000000001, -0.634, 0.366, 192.0, 0.0, 0.0, 0.0, 0.0, 0.0, 0.0, 0.0, 0.0, 0.0, 1.6636184532735655E9, 0.0, 2022-09-20 01:14:13.273
227.0, -44010.40601854397, 11156.180340788405, -34412.23167326828, -12915.329684654438, -11224.308457888183, 2782.3004463077127, -29112.00721407023, -2577.737281052742, 0.7020000000000001, -0.634, 0.366, 192.0, 0.0, 0.0, 0.0, 0.0, 0.0, 0.0, 0.0, 0.0, 0.0, 1.6636184532735949E9, 0.0, 2022-09-20 01:14:13.273
228.0, -44292.50738531439, 8714.028741601556, -34376.62534435098, -13447.010630012826, -12006.463051612742, 3038.2949755543445, -29389.10179008267, -3251.865893824803, 0.7020000000000001, -0.634, 0.366, 192.0, 0.0, 0.0, 0.0, 0.0, 0.0, 0.0, 0.0, 0.0, 0.0, 1.6636184532736237E9, 0.0, 2022-09-20 01:14:13.273
229.0, -44128.534987990264, 5677.320739903538, -34237.59749383897, -13380.022451880272, -15973.741230218558, 3124.3268399628214, -29348.66748436302, -3211.6104020607954, 0.7020000000000001, -0.634, 0.366, 192.0, 0.0, 0.0, 0.0, 0.0, 0.0, 0.0, 0.0, 0.0, 0.0, 1.6636184532736564E9, 0.0, 2022-09-20 01:14:13.273
230.0, -43982.913372863935, 5700.097167503496, -34237.64219732788, -13132.231012848737, -17446.005934000725, 3024.7051149255176, -29216.993357776806, -2890.3934824935777, 0.7000000000000001, -0.636, 0.366, 192.0, 21.0, 224.0, 236.0, 32.0, 11.0, 112.0, 0.0, 0.0, 0.0, 1.6636184532736857E9, 0.0, 2022-09-20 01:14:13.273
231.0, -43838.834028105026, 8211.114491357148, -34284.15617753937, -12827.308514989438, -15526.996913790335, 2858.6093018781307, -29056.865460498986, -2500.8696318709412, 0.7000000000000001, -0.636, 0.366, 192.0, 0.0, 0.0, 0.0, 0.0, 0.0, 0.0, 0.0, 0.0, 0.0, 1.6636184532737172E9, 0.0, 2022-09-20 01:14:13.273
232.0, -43996.10090209257, 11149.54187268518, -34403.96152781982, -12904.578495571435, -11274.08579279015, 2810.910679210506, -29105.48050468928, -2570.1600396823933, 0.7000000000000001, -0.636, 0.366, 192.0, 0.0, 0.0, 0.0, 0.0, 0.0, 0.0, 0.0, 0.0, 0.0, 1.6636184532738225E9, 0.0, 2022-09-20 01:14:13.273
233.0, -44304.44321685353, 8774.914893497813, -34372.758492560206, -13444.037848000271, -11939.02783859108, 3075.3541678612432, -29386.374877259124, -3247.686117611661, 0.7000000000000001, -0.636, 0.366, 192.0, 0.0, 0.0, 0.0, 0.0, 0.0, 0.0, 0.0, 0.0, 0.0, 1.6636184532738588E9, 0.0, 2022-09-20 01:14:13.273
234.0, -44143.980043408876, 5685.74734756319, -34237.03870022758, -13382.056460625705, -15926.623752906771, 3162.4142125146645, -29347.3263796957, -3217.8912422527364, 0.7000000000000001, -0.636, 0.366, 192.0, 0.0, 0.0, 0.0, 0.0, 0.0, 0.0, 0.0, 0.0, 0.0, 1.6636184532738912E9, 0.0, 2022-09-20 01:14:13.273
235.0, -43991.1835183124, 5663.954396719265, -34225.63931055538, -13127.224222090748, -17453.605527115527, 3067.0169671794138, -29204.655194837476, -2895.601438951664, 0.7000000000000001, -0.636, 0.366, 192.0, 0.0, 0.0, 0.0, 0.0, 0.0, 0.0, 0.0, 0.0, 0.0, 1.6636184532739253E9, 0.0, 2022-09-20 01:14:13.273
236.0, -43845.271330508156, 8116.879536733572, -34271.2368692442, -12823.911049832232, -15624.562278337751, 2903.066921599737, -29045.242553382228, -2505.4070359953685, 0.7000000000000001, -0.636, 0.366, 192.0, 0.0, 0.0, 0.0, 0.0, 0.0, 0.0, 0.0, 0.0, 0.0, 1.6636184532739613E9, 0.0, 2022-09-20 01:14:13.273
237.0, -43995.1844805699, 11128.620639875013, -34391.51160615821, -12886.831210473922, -11346.5277965698, 2846.2711389388014, -29085.162768979404, -2549.082344661039, 0.7000000000000001, -0.636, 0.366, 192.0, 0.0, 0.0, 0.0, 0.0, 0.0, 0.0, 0.0, 0.0, 0.0, 1.663618453274017E9, 0.0, 2022-09-20 01:14:13.274
238.0, -44310.165263434086, 8867.249949842686, -34362.543745344134, -13431.833795527673, -11865.356488866388, 3106.892479287682, -29375.176653287013, -3235.325602927876, 0.7000000000000001, -0.636, 0.366, 192.0, 0.0, 0.0, 0.0, 0.0, 0.0, 0.0, 0.0, 0.0, 0.0, 1.6636184532740448E9, 0.0, 2022-09-20 01:14:13.274
239.0, -44157.324034848694, 5719.029095057142, -34229.796735024065, -13385.632739738554, -15859.702630007581, 3204.1896229016334, -29346.09703375066, -3225.110855711801, 0.7000000000000001, -0.636, 0.366, 192.0, 0.0, 0.0, 0.0, 0.0, 0.0, 0.0, 0.0, 0.0, 0.0, 1.6636184532740731E9, 0.0, 2022-09-20 01:14:13.274
240.0, -43999.49836724978, 5653.449076825271, -34219.29141513007, -13119.199945831293, -17449.15752996892, 3111.496938645475, -29204.92341577094, -2892.114566816636, 0.7020000000000001, -0.638, 0.364, 192.0, 21.0, 240.0, 236.0, 16.0, 11.0, 96.0, 0.0, 0.0, 0.0, 1.663618453274109E9, 0.0, 2022-09-20 01:14:13.274
241.0, -43853.42971723434, 8049.041992311716, -34270.67807563282, -12821.497061431059, -15700.312340296787, 2939.6567272730745, -29051.83631799654, -2510.458530242268, 0.7020000000000001, -0.638, 0.364, 192.0, 0.0, 0.0, 0.0, 0.0, 0.0, 0.0, 0.0, 0.0, 0.0, 1.663618453751712E9, 0.0, 2022-09-20 01:14:13.751
242.0, -43978.55478269515, 11120.01521825972, -34389.745818346244, -12874.247178345584, -11405.670512398543, 2871.6403688955747, -29075.70798107481, -2535.35837356548, 0.7020000000000001, -0.638, 0.364, 192.0, 0.0, 0.0, 0.0, 0.0, 0.0, 0.0, 0.0, 0.0, 0.0, 1.6636184537518864E9, 0.0, 2022-09-20 01:14:13.751
243.0, -44301.001048207414, 8973.130163327476, -34366.72352155728, -13425.776472780284, -11778.072926768415, 3119.8564910717596, -29364.20194675946, -3223.3227161553764, 0.7020000000000001, -0.638, 0.364, 192.0, 0.0, 0.0, 0.0, 0.0, 0.0, 0.0, 0.0, 0.0, 0.0, 1.6636184537519288E9, 0.0, 2022-09-20 01:14:13.751
244.0, -44161.99554943986, 5765.878351435465, -34235.876409515906, -13396.763908477296, -15780.64450986916, 3220.8640242652923, -29356.1776705, -3234.0739052383788, 0.7020000000000001, -0.638, 0.364, 192.0, 0.0, 0.0, 0.0, 0.0, 0.0, 0.0, 0.0, 0.0, 0.0, 1.6636184537519622E9, 0.0, 2022-09-20 01:14:13.751
245.0, -44001.510024250754, 5630.627945736403, -34223.24767389866, -13133.281544838137, -17446.855300290026, 3132.015840055447, -29215.741660087308, -2901.9716861214265, 0.7020000000000001, -0.638, 0.364, 192.0, 0.0, 0.0, 0.0, 0.0, 0.0, 0.0, 0.0, 0.0, 0.0, 1.6636184537519896E9, 0.0, 2022-09-20 01:14:13.751
246.0, -43853.58617944553, 7967.81575296113, -34267.81705234254, -12827.308514989438, -15779.817495324314, 2971.3962043996103, -29056.217259909783, -2514.1465680773936, 0.7020000000000001, -0.638, 0.364, 192.0, 0.0, 0.0, 0.0, 0.0, 0.0, 0.0, 0.0, 0.0, 0.0, 1.6636184537520175E9, 0.0, 2022-09-20 01:14:13.752
247.0, -43982.39928274146, 11105.128956452485, -34391.19868173584, -12859.74089619409, -11461.84044621473, 2894.372093006622, -29079.105446232017, -2518.6392687129105, 0.7020000000000001, -0.638, 0.364, 192.0, 0.0, 0.0, 0.0, 0.0, 0.0, 0.0, 0.0, 0.0, 0.0, 1.6636184537520452E9, 0.0, 2022-09-20 01:14:13.752
248.0, -44313.8085977803, 9040.453617626861, -34375.99949550623, -13418.623914554586, -11715.130414382269, 3138.9672325810475, -29368.202909016956, -3219.7911405314376, 0.7020000000000001, -0.638, 0.364, 192.0, 0.0, 0.0, 0.0, 0.0, 0.0, 0.0, 0.0, 0.0, 0.0, 1.6636184537521248E9, 0.0, 2022-09-20 01:14:13.752
249.0, -44168.857534987634, 5782.150421398928, -34230.37788037991, -13394.036995653749, -15732.722369756983, 3247.7308211005716, -29351.416748931024, -3242.969899531591, 0.7020000000000001, -0.638, 0.364, 192.0, 0.0, 0.0, 0.0, 0.0, 0.0, 0.0, 0.0, 0.0, 0.0, 1.663618453752154E9, 0.0, 2022-09-20 01:14:13.752
250.0, -44001.24180331729, 5612.478329238693, -34217.61503429592, -13131.001666903696, -17442.40730314342, 3154.1887705551117, -29212.008918763273, -2920.05424738577, 0.706, -0.644, 0.362, 192.0, 22.0, 16.0, 235.0, 224.0, 11.0, 80.0, 0.0, 0.0, 0.0, 1.6636184537521818E9, 0.0, 2022-09-20 01:14:13.752
251.0, -43858.23534229223, 7887.058900244106, -34266.76652035314, -12839.266698273028, -15853.734714238015, 2984.919009795071, -29063.57098383558, -2541.1251236349494, 0.706, -0.644, 0.362, 192.0, 0.0, 0.0, 0.0, 0.0, 0.0, 0.0, 0.0, 0.0, 0.0, 1.6636184537522118E9, 0.0, 2022-09-20 01:14:13.752
252.0, -43970.55285818015, 11079.29033986215, -34389.63405962397, -12859.606785727357, -11528.158072013626, 2899.803566909262, -29075.685629330354, -2521.2097193252707, 0.706, -0.644, 0.362, 192.0, 0.0, 0.0, 0.0, 0.0, 0.0, 0.0, 0.0, 0.0, 0.0, 1.6636184537522395E9, 0.0, 2022-09-20 01:14:13.752
253.0, -44299.54818481782, 9154.358107371105, -34374.434873394355, -13408.498574316332, -11614.569916077842, 3149.33844200831, -29360.782129857795, -3206.5142043249853, 0.706, -0.644, 0.362, 192.0, 0.0, 0.0, 0.0, 0.0, 0.0, 0.0, 0.0, 0.0, 0.0, 1.6636184537522664E9, 0.0, 2022-09-20 01:14:13.752
254.0, -44180.03340721529, 5831.257203967239, -34236.77047929412, -13404.408205081012, -15631.960705752457, 3261.7006613851386, -29363.531394425798, -3250.4130304352084, 0.706, -0.644, 0.362, 192.0, 0.0, 0.0, 0.0, 0.0, 0.0, 0.0, 0.0, 0.0, 0.0, 1.663618453752294E9, 0.0, 2022-09-20 01:14:13.752
255.0, -43993.4857479913, 5591.53474468407, -34218.86673198542, -13140.07647515255, -17424.54825932363, 3169.2538463179885, -29216.322805443146, -2921.015372397348, 0.706, -0.644, 0.362, 192.0, 0.0, 0.0, 0.0, 0.0, 0.0, 0.0, 0.0, 0.0, 0.0, 1.6636184537523215E9, 0.0, 2022-09-20 01:14:13.752
0.0, -43847.55120844259, 7817.120291843449, -34261.78208133961, -12844.11702681983, -15913.704444611603, 3002.2192600034787, -29060.307629145103, -2544.500237047701, 0.706, -0.644, 0.362, 192.0, 0.0, 0.0, 0.0, 0.0, 0.0, 0.0, 0.0, 0.0, 0.0, 1.663618453752349E9, 0.0, 2022-09-20 01:14:13.752
1.0, -43957.387680695974, 11067.756839723212, -34384.582565377066, -12843.848805886366, -11575.901398170161, 2911.873508915128, -29063.168652435383, -2511.956097120774, 0.706, -0.644, 0.362, 192.0, 0.0, 0.0, 0.0, 0.0, 0.0, 0.0, 0.0, 0.0, 0.0, 1.663618453752376E9, 0.0, 2022-09-20 01:14:13.752
2.0, -44292.328571358754, 9237.372486278116, -34380.939231030854, -13398.261475355803, -11534.438912205567, 3154.7028606775834, -29354.344827454668, -3201.7309310115497, 0.706, -0.644, 0.362, 192.0, 0.0, 0.0, 0.0, 0.0, 0.0, 0.0, 0.0, 0.0, 0.0, 1.6636184537524068E9, 0.0, 2022-09-20 01:14:13.752
3.0, -44175.36189262413, 5860.582692692601, -34238.20099093926, -13406.151641148525, -15561.642117696061, 3276.966902848113, -29361.497385680366, -3257.6996991276383, 0.706, -0.644, 0.362, 192.0, 0.0, 0.0, 0.0, 0.0, 0.0, 0.0, 0.0, 0.0, 0.0, 1.6636184537524397E9, 0.0, 2022-09-20 01:14:13.752
4.0, -44003.52168125173, 5562.119848980886, -34211.35654584844, -13135.159091372383, -17419.36265461, 3186.9340761821363, -29211.91951178545, -2920.031895641315, 0.708, -0.64, 0.36, 192.0, 22.0, 32.0, 236.0, 0.0, 11.0, 64.0, 0.0, 0.0, 0.0, 1.6636184537524679E9, 0.0, 2022-09-20 01:14:13.752
5.0, -43865.92434238486, 7721.253659874637, -34259.368092938435, -12846.285146031994, -15995.042442684466, 3016.8820043661603, -29064.17448093587, -2550.714022006276, 0.708, -0.64, 0.36, 192.0, 0.0, 0.0, 0.0, 0.0, 0.0, 0.0, 0.0, 0.0, 0.0, 1.6636184537525043E9, 0.0, 2022-09-20 01:14:13.752
6.0, -43958.84054408557, 11023.410978723881, -34379.79929206363, -12831.287125502484, -11653.998393297004, 2915.405084539066, -29059.771187278177, -2499.237954525704, 0.708, -0.64, 0.36, 192.0, 0.0, 0.0, 0.0, 0.0, 0.0, 0.0, 0.0, 0.0, 0.0, 1.66361845375253E9, 0.0, 2022-09-20 01:14:13.752
7.0, -44306.90190874361, 9307.825184801244, -34375.2618879392, -13390.751289218819, -11472.546931808822, 3154.077011832835, -29348.935705296484, -3194.3101518523877, 0.708, -0.64, 0.36, 192.0, 0.0, 0.0, 0.0, 0.0, 0.0, 0.0, 0.0, 0.0, 0.0, 1.6636184537525835E9, 0.0, 2022-09-20 01:14:13.752
8.0, -44201.40167491456, 5885.236666826805, -34239.028005484106, -13417.886306987562, -15490.45181160591, 3276.273998769999, -29365.81127236024, -3276.318702258909, 0.708, -0.64, 0.36, 192.0, 0.0, 0.0, 0.0, 0.0, 0.0, 0.0, 0.0, 0.0, 0.0, 1.6636184537526095E9, 0.0, 2022-09-20 01:14:13.752
9.0, -44017.871501192036, 5539.2987178920175, -34219.045545941066, -13147.31844035607, -17401.838886957037, 3188.5657535273735, -29226.425793936945, -2940.3943348400994, 0.708, -0.64, 0.36, 192.0, 0.0, 0.0, 0.0, 0.0, 0.0, 0.0, 0.0, 0.0, 0.0, 1.6636184537526357E9, 0.0, 2022-09-20 01:14:13.752
10.0, -43871.02054012067, 7653.527874175057, -34256.59647662598, -12853.057724601953, -16054.207510257664, 3033.332888285266, -29074.210414196303, -2560.0794029330496, 0.708, -0.64, 0.36, 192.0, 0.0, 0.0, 0.0, 0.0, 0.0, 0.0, 0.0, 0.0, 0.0, 1.6636184537526612E9, 0.0, 2022-09-20 01:14:13.752
11.0, -43950.59275038156, 10995.806574321578, -34376.08890248405, -12820.20066025265, -11722.484138308066, 2926.5809567667197, -29063.50392860221, -2489.3808352209135, 0.708, -0.64, 0.36, 192.0, 0.0, 0.0, 0.0, 0.0, 0.0, 0.0, 0.0, 0.0, 0.0, 1.6636184537526872E9, 0.0, 2022-09-20 01:14:13.752
