 EXG Channel 0, EXG Channel 1, EXG Channel 2, EXG Channel 3
-16032.727483836114,-10575.19144716161,-7966.139372126981,-28346.839946131706
-15408.040929799192,-10335.75956055636,-7632.003144264597,-28380.99341165941
-14218.078758487554,-8954.846436363034,-7492.617665841301,-28835.963170047187
-13332.882622824029,-7337.049524432365,-7694.6550839728225,-29401.10467685517
-14861.51842612248,-8636.199967408176,-8179.419717719522,-29030.31158808608
-16040.729408351111,-10570.47522908154,-7988.111136926549,-28367.47060626395
-15462.087447892123,-10390.968369360968,-7636.27232745556,-28361.703856194483
-14284.575198242092,-9051.69654508788,-7496.931552521176,-28803.374326631347
-13334.626058891545,-7374.108716739263,-7686.85432515792,-29393.303918040267
-14752.419561436123,-8491.964160438081,-8172.580083916197,-29087.17442598038
-16026.670161088725,-10504.582286427294,-7997.275352153225,-28388.928280941043
-15520.872535809582,-10429.994515179937,-7643.715458359177,-28346.839946131706
-14358.805341578169,-9134.174482127964,-7500.999570012042,-28771.970125671643
-13340.996306061304,-7406.585801432825,-7651.8067898519985,-29362.61497290313
-14637.598650169211,-8355.216187860511,-8147.032040003782,-29104.295862233143
-16002.55262882145,-10448.613518311206,-8026.086750756115,-28401.04292643582
-15537.479881939877,-10453.262681157908,-7656.679470143255,-28324.59996039867
-14385.716841902356,-9202.906096328032,-7493.310569919417,-28736.85553513236
-13314.06245399266,-7448.540025775436,-7629.387990163325,-29347.102862251148
-14499.844849091156,-8225.374904319633,-8139.298336422245,-29163.01389491724
-15961.581881234872,-10382.139430301122,-8055.92632960395,-28438.48209839846
-15584.41854529602,-10501.274228247908,-7680.305264032515,-28328.69032963399
-14451.363915367594,-9296.60460908468,-7491.164802451707,-28715.91195057773
-13332.524994912745,-7511.236668972572,-7603.191745661706,-29321.66657706101
-14394.814001895667,-8099.020492913783,-8108.3635220961,-29198.01672673425
-15950.026029351477,-10314.078368434712,-8058.78735289423,-28464.074845799787
-15639.716761078447,-10527.828100660814,-7690.810583926509,-28319.72728010741
-14532.366637273626,-9375.483915267458,-7505.849898558843,-28695.39304916776
-13383.5093240153,-7581.577608773424,-7599.995446204597,-29304.388678597057
-14297.44980304835,-7979.10338391106,-8098.640513258042,-29228.83978233812
-15927.96485757409,-10234.349695962632,-8088.045786386227,-28470.199223780543
-15710.2588665794,-10574.766764016958,-7722.19243314176,-28297.21907344092
-14630.110815776685,-9480.268893273938,-7519.707980121134,-28663.13948191875
-13439.366333409112,-7678.762993665099,-7573.866256936343,-29255.617172195576
-14209.026301983156,-7896.290170704147,-8066.655166942498,-29246.676474413453
-15917.168965002176,-10188.729785529353,-8100.808632470207,-28501.514017762427
-15772.150846976145,-10626.600459408815,-7727.646258788855,-28283.36099187863
-14682.480953035469,-9557.762391300486,-7501.513660134514,-28611.417545249173
-13468.781229112295,-7756.435305647291,-7550.061649091441,-29221.664872367965
-14097.915780295823,-7785.939608328296,-8037.083809028127,-29275.778445694265
-15867.883368478224,-10096.57354314012,-8108.184708140458,-28526.726785508014
-15787.88647507268,-10637.217538025086,-7745.639413075378,-28288.703058803447
-14731.364218159226,-9629.533842746478,-7520.065608032419,-28605.13670505723
-13498.397290515575,-7841.193120621815,-7528.313401736427,-29189.70187779688
-13977.395174192809,-7687.323711791481,-7995.263695152247,-29295.336222092657
-15795.664882143126,-9987.921713342872,-8115.001990199326,-28551.35840789776
-15821.74936792247,-10653.86958764429,-7746.131151453394,-28271.15693940603
-14792.183314822116,-9702.57934362642,-7510.074378260896,-28569.57507962884
-13549.761599273874,-7938.400857257946,-7528.291049991972,-29170.72524675432
-13869.011565329023,-7594.653379279778,-7975.169476886926,-29331.300178921247
-15738.243250637444,-9894.312607564045,-8141.533510867776,-28603.46032422308
-15832.455853516562,-10655.34480277834,-7767.030032519106,-28278.398904609552
-14824.906268704686,-9751.730829683642,-7514.254154474039,-28546.575134584327
-13590.330015460257,-8018.844785552596,-7517.383398697782,-29144.752519697253
-13779.045793896414,-7508.576811382391,-7945.66517420592,-29362.167938014027
-15666.0471160468,-9766.572388001963,-8150.250691205346,-28631.51176351449
-15882.300243651896,-10674.366137309808,-7798.836564879009,-28274.934384218977
-14918.850650650342,-9842.322449961,-7541.947965854164,-28532.91821872213
-13669.365783854222,-8122.623935058586,-7505.134642736273,-29097.50093191873
-13711.14119424119,-7452.138656632741,-7915.937354080362,-29378.06002832175
-15618.32614163472,-9675.377270624313,-8158.140856998069,-28676.66228731421
-15911.871601566269,-10687.844239216356,-7806.726730671732,-28281.081113944187
-14968.605633807854,-9903.812098957553,-7533.744875639067,-28501.871645673717
-13719.254877478466,-8218.982305405416,-7494.29404667545,-29055.814928509582
-13628.305629289822,-7392.235981492518,-7879.79458329613,-29384.40792374705
-15549.236899523366,-9558.678812823156,-8157.9620430424275,-28704.356098694338
-15944.818072893391,-10685.83258221538,-7819.333114544525,-28276.767227264318
-15032.866899116863,-9965.949948543304,-7535.465959962125,-28474.289593015863
-13790.288721357432,-8326.829472402273,-7490.874229773788,-29027.94230317382
-13560.624547079153,-7353.411001373649,-7859.141571419427,-29403.384554789613
-15453.973764654847,-9429.798654293854,-8170.255502492846,-28757.106215608863
-15964.331145802877,-10691.73344275158,-7845.9763939352515,-28288.74776229236
-15085.50525730911,-10030.054751641126,-7546.39596300077,-28447.15457524712
-13834.25460270102,-8412.28019145491,-7489.399014639737,-28982.72472414073
-13471.3293279802,-7301.554954237337,-7831.626573994944,-29403.362203045155
-15346.506577313732,-9290.88256250412,-8167.863865836128,-28784.040067677503
-15961.15719809022,-10658.406991768716,-7861.689670287332,-28281.9751837224
-15131.3710369314,-10069.3267666491,-7553.928500882209,-28425.875714525668
-13887.27294054901,-8494.042872672424,-7468.47778182957,-28943.96679925523
-13417.662789543008,-7261.657090384614,-7786.856029850964,-29399.361240787657
-15258.418352415369,-9151.09475268063,-8177.743336885373,-28830.24112346663
-15979.39622156575,-10643.163102050195,-7891.5292491351665,-28296.12383796261
-15201.466107543243,-10139.62300296104,-7568.837114433899,-28410.43065910705
-13981.95493006169,-8621.000781178569,-7477.418479611693,-28915.133048907883
-13403.22356262488,-7287.987445352966,-7771.969768043729,-29406.53615075781
-15178.600272965465,-9047.829693297112,-8173.742374627874,-28865.065141328
-16014.376701638306,-10662.16208483721,-7909.075368532583,-28303.634024099592
-15282.491181193733,-10234.12617851808,-7587.523172798536,-28398.651289779104
-14070.132561937877,-8753.323108353987,-7482.715843047601,-28891.59666199645
-13386.638568239045,-7319.838681201778,-7746.377020642402,-29407.229054835923
-15092.99309170164,-8947.045677548133,-8191.422604492021,-28930.5781043265
-16017.997684240068,-10643.923061361678,-7946.402781772946,-28331.484297690906
-15326.457062537322,-10275.65571971604,-7604.085815439918,-28382.66979249356
-14121.56392592954,-8839.399676251374,-7484.772203537489,-28873.916432132297
-13343.812625862674,-7316.776492211401,-7711.19537486975,-29408.368993803146
-14973.187741421192,-8798.07130075351,-8159.705479109941,-28967.97257280023
-16011.113346947832,-10595.03979623792,-7934.802226400641,-28333.9876930699
-15373.082801471091,-10318.973400470424,-7600.464832838158,-28363.827271917737
-14174.537560288616,-8924.068084248076,-7477.418479611693,-28831.82809732296
-13313.414253403456,-7322.744407980968,-7689.245961814638,-29389.70528718296
-14850.543719594923,-8646.90645300227,-8164.756973356841,-29009.368003531457
-15992.382585094285,-10550.716286983048,-7974.00718617525,-28349.499803721883
-15416.735758392306,-10365.509732426372,-7635.288850699527,-28350.48328047792
-14231.556860394105,-9010.524631801203,-7486.470936116092,-28795.32769862744
-13298.326825896123,-7349.8347222608,-7664.010842324596,-29374.841377120185
-14735.879270539195,-8504.749358266516,-8143.56751961321,-29047.23185863875
-15999.244570642064,-10504.1799550271,-7995.86719225254,-28372.991487144413
-15480.460581834386,-10411.733139959948,-7645.458894426692,-28340.827326873223
-14305.049396163156,-9097.674083432446,-7488.259075672517,-28771.366628571348
-13290.526067081222,-7377.12620224073,-7645.458894426692,-29359.843356590674
-14623.94173430702,-8370.236560134479,-8134.738580553363,-29094.550501650632
-15981.720802989104,-10449.529939833874,-8006.551326102177,-28392.59396703172
-15528.472128924386,-10451.720410790493,-7653.997260808619,-28328.13153602261
-14374.049231296687,-9192.19961073394,-7493.936418764165,-28754.0887301074
-13323.24902096379,-7449.702316487112,-7622.660115082278,-29350.05329251925
-14530.69025643948,-8266.099782717203,-8114.286734376757,-29138.71754869432
-15977.228102353589,-10407.419253280075,-8031.54057640321,-28425.808659292303
-15590.2299988544,-10502.213001515032,-7675.56669420799,-28320.911922563544
-14455.275470647272,-9293.184792183018,-7505.089939247363,-28730.12766005131
-13347.59007067562,-7517.62926788679,-7617.005123735085,-29333.4235946445
-14427.581659267147,-8148.507255137832,-8113.0573884317155,-29173.96624970034
-15954.16110207571,-10347.628336862128,-8066.07402158666,-28441.611342622204
-15629.613772584653,-10540.65800197816,-7704.825127699987,-28313.535846893294
-14503.175259014995,-9373.42755477757,-7512.689532362167,-28695.43775265667
-13363.03512609424,-7584.483335552613,-7596.240353136105,-29295.78325698176
-14308.625675276004,-8030.2888787137135,-8084.827135184662,-29207.292700683203
-15923.29334298293,-10279.991958140368,-8073.874780401562,-28472.903784859634
-15687.549494212806,-10589.965950246567,-7709.250773102138,-28300.79535255377
-14575.93018721702,-9466.008480311451,-7501.983046768075,-28652.723569002577
-13387.622044995076,-7655.450124198213,-7575.542637770491,-29265.83191941165
-14203.684235058336,-7919.111301793016,-8082.033167127749,-29243.279009256246
-15894.660758335682,-10204.443061881431,-8104.519022049788,-28492.528616491392
-15726.419177820586,-10603.533459130938,-7726.483968077179,-28286.93727099148
-14643.208938027496,-9531.208518887584,-7504.575849124891,-28618.592455219325
-13430.068007715705,-7724.651125031844,-7551.760381670044,-29223.78828809122
-14099.949789041257,-7805.273867282137,-8041.397695708,-29264.826090911163
-15851.790112470402,-10109.269333990733,-8113.5267750652765,-28522.07762266131
-15765.333564917277,-10630.467311199583,-7745.125322952906,-28283.204529667444
-14712.275828394391,-9617.687418185164,-7520.266773732516,-28612.110449327287
-13492.518781723831,-7830.061951883073,-7556.9459863836755,-29214.311148442168
-14005.737186162138,-7728.696790778255,-8031.250003725291,-29308.99313795485
-15810.394681739172,-10036.402647066432,-8129.463568861911,-28562.578983614327
-15807.243085770977,-10661.938567392655,-7755.943567269274,-28286.26671865782
-14775.151285547172,-9695.627951100822,-7521.294953977461,-28588.551710671392
-13542.385523603622,-7927.828482130585,-7534.035448316986,-29181.074104437128
-13916.710187996649,-7643.961327548186,-7986.904142725962,-29336.597542357154
-15766.2723381844,-9943.039410476616,-8136.079685220681,-28593.89377759621
-15851.1419118812,-10678.59061701186,-7775.099012267472,-28280.812893010723
-14840.597193312313,-9763.689012967232,-7533.230785516595,-28563.60716385927
-13594.420384695575,-8015.179099461926,-7535.376552984304,-29155.10137738006
-13813.735701291049,-7548.899358379765,-7964.19477035937,-29361.653847891557
-15695.35025302771,-9815.008618236616,-8157.80558083124,-28637.926714173165
-15876.600548815792,-10677.24951234454,-7791.505192697668,-28272.02865743979
-14888.027595046471,-9812.013484479605,-7532.046143060464,-28530.258361131957
-13640.017943384402,-8094.88542018955,-7513.225974229094,-29117.706908906333
-13723.1887845026,-7470.780011508466,-7930.197767042848,-29376.49540620988
-15634.084121475713,-9703.942800038196,-8165.159304757036,-28665.15113891973
-15904.853153807302,-10677.003643155533,-7814.326323786537,-28275.8731574861
-14945.67274399671,-9876.274749788612,-7537.745837896567,-28512.80164871236
-13702.915752281637,-8187.421642234522,-7509.113253249318,-29082.145283477937
-13646.008210898426,-7399.299132740394,-7905.744958608742,-29391.180502317013
-15546.778207633282,-9567.03836524944,-8169.830819348195,-28706.457162673138
-15925.975552317566,-10669.381698296273,-7826.508024514678,-28273.7720935073
-15002.803802824475,-9932.668201049351,-7548.385268257292,-28479.63165994068
-13758.079857597337,-8282.885942803137,-7503.5923723688575,-29038.559381790088
-13576.315471686778,-7357.769591542434,-7881.247446685726,-29402.2893193113
-15488.037823204735,-9479.419526984637,-8193.456613237455,-28751.764148684044
-15961.783046934968,-10699.310684121929,-7858.448667341312,-28294.134532706088
-15083.404193330312,-10026.523176017186,-7572.815724946943,-28479.251680284942
-13856.31577447841,-8430.3404009748,-7530.302706992949,-29035.474841055257
-13543.234889892923,-7363.916321267644,-7869.289263402136,-29439.72849127394
-15419.61913342704,-9383.75406071592,-8191.489659725387,-28801.6979457972
-15988.962768192623,-10713.995780229066,-7878.587589095544,-28293.821608283717
-15127.817109563008,-10084.794173812172,-7573.754498214066,-28438.81737456529
-13892.592655729371,-8502.178907654155,-7494.1375844642625,-28968.50901466716
-13449.603432369642,-7304.348922294251,-7806.011474849162,-29407.16199960256
-15287.632082418451,-9222.01683783732,-8176.71515664043,-28812.650300580302
-15974.434134296673,-10673.293253575952,-7885.963664765795,-28288.63600357008
-15171.76063916214,-10129.855290634072,-7571.698137724178,-28412.643481808125
-13947.220319178145,-8596.637379722284,-7488.639055328257,-28924.14080192337
-13400.02726316777,-7290.826116898789,-7791.974579331229,-29407.609034491663
-15189.2844068151,-9086.475859460335,-8192.607246948153,-28861.37710349287
-15986.839352469367,-10653.0649248439,-7910.707045877821,-28299.36484090863
-15236.603049826988,-10196.575247833163,-7586.874972209332,-28397.95838570099
-14018.72354969067,-8705.535078708539,-7479.653654057223,-28888.936804406265
-13358.207149291891,-7283.785317395368,-7746.421724131314,-29393.661545951552
-15105.800641274527,-8958.735639898257,-8180.805525875751,-28895.73173472068
-16013.482631860094,-10637.552814191917,-7924.743941395753,-28301.041221742777
-15299.45615523531,-10246.620803668597,-7604.59990556239,-28375.830158690234
-14097.334634939984,-8800.865268810425,-7500.016093256008,-28869.04375184104
-13351.523977699757,-7301.01851237041,-7739.492683350169,-29406.96083390246
-15012.459756429167,-8842.730086175214,-8186.818145134229,-28952.438110403797
-16008.609951568837,-10617.34683720432,-7960.506732524244,-28334.21121051445
-15341.522138300195,-10291.950141423958,-7625.096455227906,-28374.55610925628
-14160.120685114944,-8900.866973503467,-7498.138546721762,-28845.574420162968
-13328.21110823287,-7327.281812105395,-7704.333389321971,-29402.266967566848
-14891.492115437046,-8706.585610697939,-8174.032947305793,-29010.664404709867
-16013.013245226532,-10591.776441547448,-7982.657311279454,-28359.75925442687
-15410.007883311258,-10362.447543435996,-7632.807807064987,-28365.45894926297
-14220.58215386655,-8986.854134423034,-7488.929628006176,-28818.77467856105
-13307.580448100622,-7339.172940155619,-7683.56861872299,-29395.315575041244
-14785.142515318694,-8560.472257193596,-8170.18844725948,-29050.38345460695
-16004.385471866784,-10531.60554547376,-8011.625172093532,-28381.1498738706
-15457.684154234428,-10391.683625183538,-7662.759144635099,-28360.60862071617
-14293.73941346877,-9074.405917454473,-7510.9237445501985,-28803.284919653528
-13311.40259640248,-7373.974606272532,-7664.99431908063,-29386.86661563714
-14682.570360013293,-8431.234470753012,-8163.415868689522,-29102.37361220999
-16001.658559043237,-10487.818478085814,-8033.082846770627,-28408.86603699518
-15521.207811976412,-10444.746666520436,-7682.920418133786,-28360.11688233816
-14366.002603292776,-9176.419279148491,-7515.483500419081,-28778.809759474967
-13325.417140175956,-7435.486607013537,-7642.463760669681,-29367.867632850128
-14570.7892859923,-8315.765358896895,-8142.584042857175,-29133.95662712534
-15998.082279930388,-10457.509512604418,-8046.717410888364,-28424.19933369152
-15590.90055118806,-10516.160490055145,-7680.260560543605,-28330.970207568436
-14450.134569422553,-9286.568675824246,-7510.834337572377,-28742.711692179644
-13349.624079421052,-7506.207526470128,-7624.045923238507,-29342.90073429355
-14471.212264443908,-8195.267104538334,-8122.221603658391,-29170.61348803204
-15979.060945398922,-10391.393052505618,-8065.269358786269,-28441.700749600022
-15630.731359807416,-10543.362563057251,-7705.138052122361,-28324.018815042837
-14505.231619504884,-9360.32943252676,-7506.654561359234,-28705.54074115047
-13372.467562254378,-7566.445477777181,-7597.31323686996,-29312.23414090087
-14366.427286437429,-8079.686233959942,-8107.357693595612,-29210.35488967358
-15957.15623583272,-10319.956877226456,-8084.782431695752,-28470.266279013907
-15686.00722384539,-10577.8960082407,-7722.572412797501,-28318.18500974
-14573.806771493766,-9437.10767473074,-7510.230840472083,-28679.903290260238
-13401.010739923804,-7635.780589077543,-7582.248161107083,-29278.57241375117
-14259.988279341254,-7962.294872080669,-8080.31208280469,-29239.009826065285
-15929.77534887497,-10240.094094287646,-8094.036053900249,-28492.752133935945
-15715.310360826295,-10586.657892067182,-7718.750264495643,-28297.88962577458
-14619.27021971586,-9494.529306236424,-7509.403825927237,-28645.14632763223
-13425.441196613456,-7696.890258418353,-7559.114105595841,-29249.22457328136
-14141.300516283574,-7839.472036298756,-8048.438495211422,-29268.40237002401
-15881.85320876279,-10151.53648275572,-8113.347961109634,-28527.576151797315
-15760.080904970278,-10623.672380885171,-7749.170988699316,-28296.727335062904
-14685.409031559117,-9581.119964256282,-7524.759474368033,-28617.6536819522
-13473.89977859256,-7795.886134610908,-7566.534884755002,-29224.88352356953
-14029.340628306942,-7742.018430473618,-8020.63292510902,-29296.967899437896
-15829.304257548363,-10053.121751919003,-8116.521908822287,-28555.18055619962
-15810.55114395036,-10640.615003182293,-7755.29536668007,-28297.93432926349
-14770.524474444925,-9660.222787883617,-7525.295916234961,-28608.936501614637
-13528.125110641136,-7882.432089141856,-7537.879948363298,-29195.043944721696
-13937.921993484735,-7645.3471357044145,-7997.923552742429,-29330.227295187397
-15784.287844215376,-9953.321212926056,-8140.393571900556,-28589.043449049408
-15849.979621169525,-10665.336032549863,-7783.212695504749,-28294.290994917275
-14827.83434722833,-9735.83873937592,-7539.8692536198205,-28572.056123263377
-13578.461239154489,-7975.907084453951,-7534.303669250449,-29157.738883225786
-13844.40229468373,-7557.437724761692,-7974.588331531087,-29351.10382450865
-15729.794291233336,-9847.217481996711,-8156.71034535293,-28622.79458317692
-15881.182656429131,-10670.9686721526,-7794.768547388143,-28280.79054126627
-14886.731193868063,-9795.450841838225,-7534.214262272628,-28537.94736122458
-13641.291992818356,-8072.667786200976,-7524.401846456748,-29120.27735951869
-13769.00986063598,-7501.267790945505,-7959.366793557024,-29377.881214366105
-15671.232720760432,-9755.575329729954,-8184.068880566226,-28670.023819210983
-15910.172868987664,-10692.225181129596,-7820.830681423031,-28283.89743374556
-14949.04785740946,-9872.81022939804,-7551.268643292027,-28522.05527091685
-13695.673787078118,-8176.357528729145,-7517.763378353522,-29090.54953939313
-13673.65731878964,-7432.893804656721,-7909.097720277038,-29389.28060403831
-15592.822801211216,-9645.649450498757,-8170.434316448488,-28694.65544160073
-15919.828822592355,-10690.571152039904,-7820.383646533925,-28278.35420112064
-14992.834924797407,-9931.952945226783,-7550.6651461917345,-28497.714221205024
-13751.933127872126,-8278.952035779004,-7518.255116731539,-29062.967486735284
-13599.74009987594,-7389.151440757685,-7895.284342203658,-29417.62261600764
-15507.059157736205,-9517.618658258756,-8195.62473244962,-28749.14899458277
-15951.25537529652,-10693.387471841274,-7856.928748718352,-28286.043201213262
-15052.424675515256,-9991.967379089285,-7555.023736360519,-28473.08259881528
-13803.431547097152,-8364.112182153724,-7495.00930249802,-29017.03465187963
-13517.262162835856,-7332.400361585661,-7856.168789406871,-29418.896665441596
-15419.216802026844,-9386.95036017303,-8189.388595746589,-28788.353954357382
-15978.725669232092,-10695.600294542348,-7874.877199515963,-28302.73995432138
-15117.08827222446,-10065.03523171368,-7572.815724946943,-28459.17981376408
-13876.767620655017,-8475.602683496796,-7500.8207560564,-28991.240738778204
-13468.736525623384,-7309.087492118775,-7832.118312372961,-29421.712985242964
-15332.872013195994,-9264.21693136894,-8193.680130682007,-28820.652225095306
-15983.710108245625,-10673.472067531597,-7877.022966983673,-28308.037317757287
-15173.459371740744,-10111.2362875028,-7574.715623225645,-28444.00297927892
-13948.136740700813,-8573.726841655594,-7499.792575811455,-28964.32923845401
-13428.771606537295,-7295.765852423412,-7806.1232335714385,-29436.04045343881
-15228.623477056442,-9121.09871162161,-8189.81327889124,-28871.055408842018
-15996.897637474256,-10657.647032457236,-7907.510746420711,-28318.095602762176
-15230.232802657223,-10168.166180630467,-7594.921600213242,-28426.546266859328
-14008.039415841034,-8668.609996868372,-7502.7206543351,-28925.99599671316
-13380.782411191753,-7285.484049973971,-7769.15344824236,-29418.04729915229
-15140.669362624809,-8993.850230437545,-8194.864773138139,-28908.807505227032
-16015.628399327805,-10640.436189226652,-7931.449464732345,-28322.40948944205
-15293.443535976832,-10233.58973665115,-7601.068329938452,-28403.032231692345
-14080.459067876229,-8776.233646420676,-7495.836317042866,-28895.55292076504
-13347.523015442255,-7292.837773899767,-7744.790046786076,-29414.02398515034
-15024.373236223846,-8855.984670637212,-8182.481906709899,-28942.62569458791
-16012.20858242614,-10612.2059359796,-7950.00141263025,-28327.148059266576
-15339.264612110212,-10279.388461040076,-7618.837966780421,-28385.84374020621
-14143.915670384846,-8873.173162123343,-7507.235706715072,-28869.110807074405
-13322.01967501875,-7305.44415777256,-7720.493700563157,-29412.638176994107
-14923.768034430508,-8721.360113782897,-8182.034871820792,-28999.242663293204
-16014.510812105038,-10573.962101216568,-7977.695224010376,-28354.03720784631
-15395.881580815503,-10324.829557517714,-7631.332591930937,-28368.52113825335
-14210.9038485174,-8959.361488743007,-7494.897543775743,-28821.56864661797
-13311.15672721347,-7334.032038930898,-7695.906781662319,-29388.43123774901
-14811.294056331404,-8585.729728428094,-8171.373089715611,-29030.46805029727
-16017.528297606505,-10539.071028121833,-8002.4386051224,-28366.777702185835
-15452.699715220897,-10375.590369175718,-7634.707705343689,-28339.352111739176
-14265.464456732803,-9037.74905654777,-7479.810116268411,-28773.44534080569
-13298.30447415167,-7355.981451986009,-7657.081801543451,-29358.926935068004
-14691.6675200066,-8447.439485483108,-8147.076743492693,-29053.333884875046
-15995.847105484858,-10482.74463209446,-8007.110119713559,-28369.43755977602
-15504.555762357208,-10418.72923597446,-7657.953519577208,-28325.672844132525
-14345.528405371717,-9137.728409496356,-7498.67498858869,-28755.765110941546
-13310.754395813276,-7404.730606643035,-7636.182920477739,-29342.297237193256
-14591.911684502566,-8319.699265921028,-8141.444103889955,-29109.3697082245
-15990.393279837765,-10424.54068953284,-8033.932213059928,-28390.872882708656
-15556.210643793422,-10457.800085282335,-7669.330557504959,-28312.26179745934
-14407.576847979648,-9220.027532580798,-7489.868401273299,-28718.99649131257
-13324.657180864477,-7461.057002670408,-7606.164527674262,-29313.03880370126
-14480.599997115136,-8196.518802227833,-8114.376141354578,-29132.39200501347
-15965.426381281184,-10364.995642303902,-8046.650355654998,-28406.80967650529
-15599.349510592165,-10493.272303732909,-7683.434508256258,-28300.9294630205
-14477.224883702384,-9308.98747551292,-7497.423290899193,-28694.409572411725
-13346.316021241668,-7531.330887237894,-7598.229658392627,-29299.7171640059
-14362.046344524188,-8081.295559560724,-8096.941780679439,-29170.747598498776
-15944.326334515374,-10316.112377180145,-8061.380155251045,-28436.87277279768
-15641.639011101606,-10530.063275106344,-7694.945656650741,-28294.000422239355
-14536.769930931325,-9392.404185820124,-7509.560288138425,-28670.224984911085
-13374.725088444364,-7602.051806694485,-7584.036300663508,-29281.768713208286
-14260.032982830166,-7964.306529081647,-8079.194495581925,-29221.463706667862
-15906.48483115254,-10225.49840515833,-8091.711472476897,-28472.702619159536
-15699.15004958511,-10576.845476251305,-7733.368305369414,-28290.3794396376
-14608.094347488208,-9479.285416517903,-7507.146299737251,-28644.67694099867
-13404.698777758931,-7674.918493618786,-7558.264739306538,-29243.949561589907
-14139.311211027052,-7849.84324572602,-8052.59591968011,-29245.15655579049
-15863.94946145409,-10147.334354798122,-8106.4636238174,-28495.45669501504
-15734.935192458055,-10602.929962030645,-7738.553910083046,-28278.73418077638
-14666.09712434973,-9561.539836113434,-7511.683703861679,-28617.51957148547
-13453.157359738036,-7767.588826130489,-7548.944061868676,-29219.45204966689
-14052.474683818184,-7756.636471347389,-8027.4949106568,-29278.79593119573
-15827.80669066986,-10066.532798592189,-8119.964077468405,-28530.146602409677
-15773.156675476632,-10623.806491351905,-7752.836674789986,-28272.96743070691
-14727.139738457172,-9629.466787513113,-7516.019942286008,-28582.60614664628
-13486.23794153189,-7846.512835802178,-7526.368799968815,-29180.984697459306
-13941.475920853129,-7664.346118491426,-7998.504698098266,-29307.204998398425
-15780.912730802624,-9977.058765537591,-8138.203100943935,-28569.329210439828
-15828.410187770152,-10660.932738892168,-7773.087355266494,-28281.01405871082
-14791.155134577171,-9710.558916396967,-7510.789634083466,-28561.908431280663
-13544.285421882323,-7951.364869042024,-7517.942192309165,-29156.107205880548
-13855.2205390001,-7592.909943212265,-7975.191828631381,-29337.06692899072
-15727.91674469909,-9884.880171403904,-8140.795903300751,-28597.291242753417
-15843.51996702194,-10664.151390093732,-7769.332262198003,-28263.69145675796
-14848.17443468266,-9774.440202050231,-7517.115177764318,-28533.76758501144
-13606.512678445895,-8041.218881752358,-7516.53403240848,-29124.63594968748
-13757.074029096846,-7502.743006079556,-7940.993659614762,-29354.4789379214
-15650.691467606006,-9761.6550042218,-8158.431429675988,-28637.43497579515
-15883.373127385752,-10682.680986247182,-7801.407015491369,-28268.228860882387
-14914.514412226012,-9855.934662334284,-7531.688515149179,-28510.678232989103
-13653.36193482422,-8147.948461526449,-7505.96165728112,-29084.67103060139
-13678.507647336442,-7453.502113044515,-7913.679827890376,-29370.01340031784
-15593.627464011606,-9666.05659318645,-8153.067011006715,-28666.38048486477
-15906.551886385903,-10685.340843837364,-7812.761701674664,-28270.77695975029
-14963.330622116402,-9903.320360579535,-7536.360029740337,-28488.68411644508
-13721.981790302014,-8233.95797419047,-7497.088014732363,-29043.767338248177
-13612.480594215463,-7390.000807046987,-7897.22894397127,-29387.939499370998
-15541.79376861975,-9558.052963978404,-8188.472174223921,-28719.10825003484
-15958.16206433321,-10705.680931291692,-7849.463266070279,-28286.825512269203
-15052.871710404364,-9992.056786067104,-7568.837114433899,-28484.236119298475
-13809.712387289095,-8365.69915601005,-7522.814872600422,-29035.6536550109
-13565.027840736848,-7378.176734230129,-7887.260065944203,-29422.24942710989
-15468.144770639512,-9455.570215650823,-8193.121337070625,-28771.053704148973
-15979.73149773258,-10712.766434284023,-7861.7120220317875,-28289.9771082374
-15102.716100539696,-10057.212121154324,-7565.193780087684,-28457.52578467438
-13854.326469221887,-8460.850532156293,-7499.859631044821,-28987.68681140981
-13471.262272746835,-7323.750236481457,-7837.370972319958,-29407.720793213943
-15345.388990090963,-9297.36456839616,-8195.647084194075,-28798.144018428808
-15978.792724465458,-10692.716919507611,-7887.528286877667,-28284.724448290403
-15154.90742384284,-10116.19837477188,-7575.11795462584,-28429.899028527623
-13928.891888724793,-8566.686042152172,-7506.028712514486,-28964.172776242827
-13437.108807219123,-7312.753178209446,-7817.947306388296,-29418.62844450813
-15270.60005314351,-9176.77690705978,-8200.787985418796,-28845.194440507228
-16008.677006802203,-10683.396242069752,-7907.957781309818,-28298.3813641526
-15229.539898579107,-10184.371195360563,-7596.55327755848,-28417.158534188096
-13998.96460759218,-8672.454496914685,-7502.631247357279,-28924.923112979308
-13393.299388086723,-7302.985465882477,-7777.311834968547,-29412.928749672028
-15172.05121184006,-9047.002678752266,-8187.131069556603,-28882.834778169967
-16026.759568066547,-10671.058079130422,-7924.699237906842,-28307.16559972353
-15292.92944585436,-10237.166015764,-7604.175222417739,-28398.69599326801
-14071.518370094103,-8762.599082302939,-7502.094805490352,-28884.68997295976
-13354.340297501123,-7293.9777128669875,-7751.227349189205,-29401.529359999822
-15056.917376150774,-8893.245028644209,-8180.269084008823,-28916.809429742032
-16026.290181432983,-10635.42939846866,-7954.874092921507,-28311.21126546994
-15331.173280617391,-10282.428298285997,-7619.50851911408,-28364.40841727357
-14128.403559732862,-8851.536673490606,-7489.801346039933,-28839.494745671123
-13329.127529755537,-7304.818308927812,-7711.061264403018,-29382.23980453489
-14939.682476482689,-8756.608814788917,-8173.451801949955,-28951.67815109231
-16010.26398065853,-10593.832802037336,-7971.883770451996,-28322.36478595314
-15385.398612665966,-10332.943240754992,-7627.353981417893,-28354.66305669106
-14198.319816389065,-8952.387744472951,-7495.411633898215,-28814.505495370093
-13310.888506280007,-7323.929050437099,-7683.345101278437,-29373.45556896396
-14839.948992723108,-8625.001743436069,-8160.688955865974,-29001.65665169438
-16011.873306259313,-10554.381973073718,-7978.946921699873,-28343.978922841423
-15430.01269459876,-10361.173494002043,-7625.789359306021,-28335.529963437315
-14256.859035117512,-9023.7792162632,-7485.845087271344,-28781.8943002098
-13310.664988835451,-7354.103905451764,-7667.967101093185,-29366.593583416176
-14739.34379092977,-8492.254733116,-8158.654947120542,-29051.27752438516
-16020.83635578589,-10514.193536543076,-8010.887564526506,-28369.41520803156
-15493.156372685002,-10415.979971406456,-7655.472475942669,-28333.45125120297
-14325.8812219955,-9117.544784253214,-7491.768299552,-28755.31807605244
-13299.82439277463,-7386.960969801065,-7640.876786813354,-29336.21756270141
-14625.729873863444,-8364.782734487384,-8137.599603843642,-29079.55248112112
-16001.88207648779,-10466.025527241887,-8020.185890219915,-28380.009934903377
-15544.744198887847,-10463.83505628527,-7673.487981973646,-28328.153887767065
-14399.574923464648,-9216.361846490126,-7502.921820035198,-28743.650465446768
-13325.975933787338,-7463.247473627028,-7630.997315764108,-29341.559629626237
-14520.430805734492,-8255.10272444519,-8127.4966153498435,-29133.464888747323
-15983.598349523349,-10412.448395782518,-8040.302460229691,-28409.938920729037
-15596.42143206852,-10512.74067315348,-7677.75716516461,-28312.0829835037
-14459.544653838237,-9303.93598126602,-7498.29500893295,-28708.93820630768
-13345.26548925227,-7527.128759280295,-7614.07704521144,-29320.571341582698
-14405.676949700946,-8128.457740361422,-8114.599658799131,-29175.799092745678
-15957.290346299453,-10343.537967626808,-8067.102201831603,-28435.86694429719
-15638.554470366773,-10538.646344977182,-7699.416005541802,-28304.103410733154
-14525.124672070107,-9384.178743860572,-7506.341636936861,-28682.473740872592
-13369.07009709717,-7588.014911176552,-7588.841925721398,-29292.22932961337
-14290.654872733936,-8005.009055734761,-8088.917504419984,-29220.770802589752
-15923.20393600511,-10264.010460854824,-8079.015681626282,-28467.31584874581
-15685.29196802282,-10574.923226228146,-7710.614229513912,-28291.474675115907
-14584.870884999144,-9464.220340755028,-7498.831450799877,-28648.76731023399
-13397.45681255541,-7663.899083602319,-7559.136457340295,-29256.64535244052
-14176.079830656032,-7898.905324805418,-8063.190646551925,-29243.92720984545
-15881.33911864032,-10193.91539024298,-8102.708530748908,-28491.9251193911
-15711.644674735628,-10597.297322427909,-7728.8756047338975,-28281.081113944187
-14635.408179212593,-9538.27167013546,-7505.671084603201,-28615.932597629144
-13425.351789635632,-7746.488779364679,-7551.44745724767,-29220.25671246728
-14058.77787575458,-7786.006663561662,-8025.840881567107,-29257.69588442992
-15831.070045360331,-10099.009883285747,-8106.910658706505,-28508.823038199316
-15747.206300164022,-10622.711255873592,-7747.561663098534,-28270.17346265
-14685.47608679248,-9611.18306054867,-7513.896526562754,-28594.56432992987
-13460.33226970819,-7827.558556504078,-7531.464997704626,-29192.071162709137
-13955.065781481955,-7689.648293214834,-7999.510526598755,-29291.491722046343
-15775.16833247761,-10000.21517279329,-8116.454853588922,-28543.26707640494
-15785.204265738044,-10644.280689272964,-7758.826942304009,-28267.044218426254
-14753.20187249206,-9688.050709730473,-7522.524299922503,-28568.36808542825
-13501.213610316949,-7912.450481945334,-7532.135550038284,-29164.64557226248
-13849.49849241954,-7585.735033242111,-7982.746718257275,-29326.360443396625
-15726.218012120487,-9896.19015409829,-8141.600566101142,-28586.249480992497
-15820.475318488518,-10648.371058508284,-7780.0610995365505,-28268.43002658249
-14808.008349896474,-9731.88248060733,-7521.25025048855,-28535.26515188994
-13563.73143955844,-7988.111136926549,-7513.337732951371,-29121.08202231908
-13765.880616412238,-7500.440776400659,-7949.800246930153,-29342.990141271373
-15671.657403905085,-9799.205934906717,-8157.872636064606,-28623.554542488404
-15847.52092927944,-10654.987174867056,-7800.580000946522,-28271.872195228603
-14880.204484487116,-9805.620885565388,-7546.015983345031,-28524.871590718223
-13626.070454844292,-8093.544315522232,-7526.01117205753,-29099.534940664165
-13675.1772374126,-7433.251432568006,-7929.99660134275,-29370.05810380675
-15589.157115120544,-9672.20332291166,-8163.751144856352,-28660.591383050847
-15880.04271746191,-10674.522599520991,-7812.78405341912,-28266.708942259425
-14929.043046121962,-9879.627511456909,-7542.640869932279,-28499.25649157244
-13677.390060113676,-8195.244752793878,-7509.090901504863,-29064.353294891516
-13592.31932071678,-7377.752051085478,-7895.351397437024,-29380.47401672292
-15510.411919404498,-9554.70020231011,-8172.736546127385,-28692.397915410747
-15892.0009007455,-10662.385602281762,-7832.498292028701,-28267.714770759914
-14980.5861688359,-9928.331962625023,-7555.761343927544,-28484.72785767649
-13731.637743906707,-8277.20859971149,-7502.787709568466,-29030.64686425291
-13516.14457561309,-7318.050541645353,-7866.897626745418,-29396.656679708565
-15441.121511593046,-9442.136817233184,-8193.590723704187,-28750.288933549997
-15926.221421506576,-10671.706279719623,-7867.299958145614,-28287.138436691577
-15040.757064909589,-9992.526172700664,-7574.335643569904,-28467.44995921254
-13800.838744740338,-8382.284150395888,-7513.360084695827,-29008.22806456424
-13464.623804643608,-7291.183744810074,-7861.667318542876,-29421.042432909304
-15357.369525119013,-9316.922344794551,-8223.072674640736,-28803.88841675382
-15960.173721334188,-10682.725689736091,-7913.657476145921,-28298.359012408146
-15108.549905842532,-10070.824333527606,-7587.165544887251,-28448.92036305909
-13865.278824004989,-8494.668721517173,-7489.711939062112,-28963.703389609265
-13403.469431813888,-7275.291654502351,-7806.816137649553,-29415.92388342904
-15253.92565177985,-9190.38911943306,-8197.256409794856,-28836.343149702927
-15962.319488801895,-10671.706279719623,-7911.601115656033,-28297.68846007448
-15155.935604087785,-10132.96218311336,-7593.289922868004,-28425.11575521419
-13930.27769688102,-8606.159222860244,-7503.793538068955,-28938.53532535259
-13360.151751059504,-7272.34122423425,-7792.086338053506,-29418.78490671932
-15154.23687150918,-9069.80145809668,-8204.632485465108,-28875.883385644363
-15974.88116918578,-10669.694622718647,-7936.232738045781,-28310.518361391827
-15199.72267147573,-10190.383814619045,-7599.973094460141,-28400.215911890977
-13987.319348730964,-8707.502032220607,-7506.609857870324,-28907.019365670607
-13317.817547061151,-7270.553084677826,-7767.231198219204,-29425.602188778183
-15044.02041960006,-8926.52677613816,-8196.652912694564,-28932.76857528312
-15977.406916309228,-10638.424532225674,-7951.566034742122,-28327.75155636687
-15272.388192699931,-10254.913300861514,-7623.12950171584,-28398.450124079005
-14069.439657859764,-8808.9789520477,-7501.088976989863,-28878.610298467916
-13304.004168987773,-7283.96413135101,-7735.447017603758,-29419.29899684179
-14963.352973860858,-8802.586353133483,-8193.613075448642,-28975.818035104043
-15990.415631582217,-10610.28368595644,-7971.794363474174,-28344.738882152906
-15327.731111971274,-10303.327179351709,-7631.600812864401,-28383.586214016228
-14132.918612112837,-8899.414110113872,-7500.954866523131,-28849.173051020272
-13279.86428497604,-7298.3810065246835,-7712.514127792612,-29404.30097631228
-14851.46014111759,-8664.631386355328,-8184.404156733055,-29014.441849522813
-15985.610006524326,-10568.888255225213,-7989.452241593867,-28360.25099280489
-15368.903025257949,-10331.736246554405,-7638.574557134457,-28363.00025737289
-14189.937912218324,-8974.337157528062,-7511.303724205938,-28816.60655934889
-13268.174322625917,-7316.240050344473,-7691.816412426998,-29394.42150526303
-14737.220375206516,-8512.326599636865,-8162.454743677944,-29053.065663941583
-15983.30777684543,-10515.109958065745,-8003.511488856255,-28371.35980979917
-15441.412084270964,-10385.782764647338,-7652.879673585853,-28346.32585600923
-14269.845398646046,-9071.74605986429,-7504.687607847168,-28782.587204287916
-13267.190845869882,-7353.008669973454,-7661.418039967781,-29368.426426461512
-14625.104025018696,-8385.703967297552,-8158.856112820639,-29091.823588827086
-15962.565357990905,-10461.868102773202,-8026.109102500571,-28381.61926050416
-15479.566512056175,-10424.33952383274,-7677.645406442333,-28335.64172215959
-14328.898707496966,-9164.10346795362,-7528.469863947615,-28765.44341629069
-13280.758354754253,-7417.873432382755,-7659.071106799974,-29358.815176345728
-14521.794262146266,-8272.15710546459,-8141.153531212036,-29135.074214348104
-15959.63727946726,-10425.032427910855,-8047.544425433211,-28424.422851136074
-15546.755855888829,-10493.40641419964,-7694.230400828172,-28333.205382013963
-14406.682778201435,-9272.375318095126,-7513.471843418103,-28726.529029194004
-13303.44537537639,-7488.661407072713,-7625.923469772753,-29335.792879556764
-14409.722615447356,-8156.308013952735,-8136.727885809885,-29175.50852006776
-15936.39146523374,-10363.609834147672,-8085.363577051589,-28449.859136326213
-15592.50987678884,-10524.900022137168,-7718.19147088426,-28325.1364022656
-14463.277395162271,-9342.738609640432,-7519.842090587866,-28698.790514324966
-13315.4929656378,-7541.590337942879,-7605.538678829513,-29300.3653645951
-14290.945445411857,-8027.785483334718,-8116.454853588922,-29210.31018618467
-15895.890104280725,-10285.84811518766,-8103.826117971674,-28468.768712135403
-15614.749862521872,-10538.042847876888,-7727.087465177473,-28304.88572178909
-14517.480375466392,-9410.464395340014,-7527.419331958215,-28672.169586678698
-13348.953527087397,-7615.842833023409,-7603.638780550812,-29281.70165797492
-14187.345109861508,-7918.820729115097,-8105.435443572455,-29248.12933780305
-15874.007746458978,-10214.16607071949,-8136.638478832064,-28505.425573042103
-15665.018935801858,-10579.52768558594,-7740.498511850657,-28291.206454182444
-14580.154666919074,-9496.7421289375,-7520.15501501024,-28636.585609505848
-13383.08464087065,-7697.806679941021,-7574.693271481189,-29245.64829416851
-14078.559169597527,-7806.950248116285,-8063.436515740934,-29269.13997759104
-15826.957324380555,-10121.965124841348,-8127.362504883112,-28520.40124182716
-15714.706863726004,-10607.936752788632,-7762.358517927947,-28290.73706754888
-14654.384810255147,-9582.28225496796,-7543.646698432768,-28621.76640293198
-13432.66081007252,-7785.090242038995,-7577.6660534937455,-29225.06233752517
-13982.603130650894,-7715.688075505266,-8061.961300606883,-29315.05046070224
-15783.88551281518,-10043.55520529213,-8156.643290119564,-28559.427387646127
-15745.664029796604,-10634.62473566827,-7785.693739139288,-28288.926576248003
-14710.95707547153,-9655.975956437109,-7549.927538624709,-28597.49240845352
-13480.068860062223,-7874.586626838044,-7562.668032964234,-29192.428790620423
-13876.521751466007,-7618.569745846957,-8020.230593708825,-29333.401242900043
-15727.603820276718,-9935.819797017552,-8170.210799003935,-28591.65860315068
-15785.226617482498,-10645.82295964038,-7808.559573717067,-28285.774980279803
-14764.82477960882,-9713.665808876254,-7557.504779995058,-28566.401131916184
-13513.842345934194,-7945.285194550181,-7552.028602603508,-29156.24131634728
-13773.144933360212,-7511.348427694849,-7992.894410239985,-29356.982333300395
-15658.872206076649,-9806.22438266568,-8173.943540327971,-28623.263969810483
-15815.17795505261,-10646.9628986076,-7815.488614498212,-28278.55536682074
-14821.821727969853,-9768.539341514032,-7555.090791593885,-28538.97554146952
-13574.147352474612,-8030.557099647177,-7537.142340796273,-29119.651510673943
-13697.461926634542,-7434.190205835129,-7958.807999945641,-29373.030885819306
-15616.023911955825,-9715.230430988126,-8186.460517222944,-28662.647743540736
-15859.65792651867,-10679.909369934723,-7837.50508278669,-28289.731239048397
-14904.09849930984,-9871.402069497355,-7572.748669713577,-28528.35846285325
-13658.771056982408,-8174.90466533955,-7544.250195533061,-29100.116086020003
-13636.911050905115,-7415.526499214948,-7943.497054993756,-29413.755764216872
-15561.820931651704,-9633.4230462817,-8205.705369198962,-28721.34342448037
-15911.446918421618,-10720.164861698731,-7859.946234219818,-28302.695250832472
-14979.62504382432,-9963.647718864408,-7580.728242484122,-28516.53439003639
-13727.346208971288,-8290.954922551504,-7534.236614017083,-29069.024809482675
-13550.454503351988,-7358.596606087281,-7900.313484706103,-29409.48658102591
-15460.120494380057,-9494.484602747512,-8201.324427285723,-28732.40753798575
-15911.066938765878,-10697.12021316531,-7877.805278039608,-28287.07138145821
-15016.147794264292,-10002.98678910575,-7584.952722186175,-28487.678287944596
-13777.1011921288,-8375.690385781572,-7524.6030121568465,-29040.436928324336
-13476.604339671654,-7310.003913641443,-7870.9879959807395,-29431.905380714583
-15381.889388786483,-9374.746307700432,-8211.315657057245,-28797.51816958406
-15937.732569901058,-10703.557515568438,-7895.731377092765,-28309.51253289134
-15072.094210635929,-10062.88946424597,-7588.037262921008,-28469.282802257872
-13826.096215974834,-8461.2975670454,-7516.712846364123,-28995.55462545808
-13404.94464694794,-7272.363575978706,-7835.247556596703,-29418.941368930504
-15272.298785722112,-9232.58921296468,-8205.347741287678,-28822.686233840734
-15937.844328623336,-10677.629492000282,-7907.1978219983375,-28307.389117168084
-15125.358417672924,-10119.998171329282,-7598.721396770644,-28442.08072925577
-13889.374004527808,-8570.709356154128,-7516.042294030463,-28959.009523273653
-13360.531730715244,-7265.032203797366,-7812.851108652486,-29423.81404922176
-15176.745078175674,-9103.70905443538,-8207.158232588557,-28864.57340294998
-15951.613003207804,-10669.024070384989,-7941.261880548225,-28322.76711735333
-15184.81405792404,-10187.366329117576,-7620.469644125658,-28429.04966223832
-13980.05503178299,-8689.397119211808,-7519.976201054597,-28930.511049093137
-13347.813588120174,-7281.147811549642,-7797.49546021169,-29427.278569612336
-15092.590760301444,-8982.473192509793,-8214.936639659005,-28905.342984836458
-15971.081372628376,-10654.20486381112,-7951.878959164496,-28317.7826783398
-15243.822663286051,-10241.703419888428,-7620.737865059122,-28402.60754854769
-14039.845948200937,-8779.027614477589,-7511.683703861679,-28894.882368431376
-13311.737872569309,-7281.77366039439,-7758.871645792919,-29419.67897649753
-15007.832945326918,-8864.120705618943,-8213.975514647427,-28964.4857006652
-15991.756736249536,-10644.48185497306,-7975.705918753853,-28344.805937386267
-15299.254989535211,-10303.304827607257,-7633.433655909736,-28384.413228561072
-14106.096518766466,-8883.700833761792,-7521.049084788452,-28862.070007570983
-13286.100421679072,-7300.906753648133,-7734.776465270098,-29408.458400780964
-14886.6641386347,-8721.740093438637,-8205.526555243321,-29004.674137195845
-15988.515733303517,-10603.019369008469,-8001.72334929983,-28356.18297531402
-15350.306373871132,-10345.66138335006,-7651.672679385267,-28376.120731368155
-14162.42291479384,-8967.698689424837,-7514.34356145186,-28830.308178699997
-13260.798246955665,-7319.905736435144,-7705.674493989289,-29392.231034306413
-14763.59543366378,-8582.958112115635,-8182.951293343461,-29034.98310267724
-15969.24852958304,-10559.858150465268,-8012.407483149467,-28375.874862179146
-15391.05360401316,-10390.923665872058,-7656.701821887711,-28360.429806760527
-14220.693912588826,-9063.855894071568,-7510.7225788501,-28796.288823639017
-13264.128656879504,-7374.0416615058975,-7690.207086826216,-29386.643098192588
-14670.47806626297,-8467.041965370414,-8184.292398010779,-29093.18704523886
-15971.8189801954,-10518.596830200771,-8042.247061997303,-28396.125542655653
-15465.261395604775,-10449.418181111596,-7681.512258233101,-28347.84577463219
-14306.323445597109,-9164.975185987376,-7514.812948085421,-28771.970125671643
-13276.57857854111,-7419.974496361554,-7646.956461305197,-29366.638286905087
-14559.568710275737,-8338.005344629926,-8144.796865558251,-29129.262760789727
-15962.073619612887,-10470.428820899586,-8042.135303275026,-28422.411194135097
-15517.586829374652,-10495.619236900717,-7682.339272777948,-28344.828289130724
-14375.23387375282,-9257.01966965433,-7515.908183563732,-28750.847727161377
-13303.467727120844,-7486.493287860548,-7637.881653056343,-29350.880307064093
-14469.848808032131,-8227.095988642692,-8145.08743823617,-29177.229604390814
-15958.743209689048,-10425.032427910855,-8077.585169981143,-28458.26339224141
-15586.40785055254,-10555.812484718856,-7710.256601602627,-28348.829251388222
-14460.975165483376,-9360.195322060028,-7519.283296976483,-28731.871096118823
-13329.798082089195,-7555.336660782893,-7617.116882457362,-29330.60727484313
-14357.397181677485,-8100.383949325556,-8122.713342036408,-29212.031270507727
-15928.30013374092,-10341.056923992268,-8095.667731245486,-28488.751171678447
-15632.318333663745,-10580.913493742168,-7738.53155833859,-28342.90603910757
-14527.762177915834,-9435.833625296787,-7542.819683887921,-28713.98970055457
-13360.621137693064,-7626.45991163968,-7610.925449243242,-29320.7725072828
-14231.892136560937,-7985.585389803099,-8099.713396991897,-29256.108910573592
-15879.394516872708,-10266.759725422828,-8114.51025182131,-28520.624759271715
-15657.86637757616,-10605.120432987263,-7748.142808454372,-28336.17816402652
-14557.177073619016,-9492.204724813071,-7528.15693952524,-28671.744903534047
-13363.079829583148,-7677.287778531048,-7586.718509998144,-29272.068056114684
-14122.681513152304,-7860.773248764664,-8093.387853311045,-29292.810474969207
-15849.778455469424,-10171.518942298764,-8139.097170722148,-28557.03575098941
-15704.849744421212,-10618.531479660449,-7762.671442350322,-28326.812783099747
-14628.03210354234,-9565.36198441529,-7551.626271203312,-28661.15017666223
-13423.809519268218,-7765.465410407235,-7589.087794910407,-29262.41210250999
-14026.457253272209,-7755.988270758185,-8067.482181487344,-29323.477068361888
-15808.51713520493,-10080.100307476558,-8162.298281466757,-28576.951155299088
-15754.917652001102,-10648.616927697292,-7803.463375981257,-28333.18303026951
-14698.797726487845,-9645.984726665583,-7568.345376055882,-28642.62058050878
-13471.932825080494,-7857.5545975631,-7589.35601584387,-29231.07495678365
-13927.975467202124,-7666.335423747948,-8048.997288822805,-29355.775339099808
-15753.263622911409,-9992.436765722843,-8173.720022883418,-28610.09879232631
-15775.436553411077,-10671.236893086065,-7809.341884773003,-28323.92940806501
-14765.54003543139,-9739.3479632554,-7565.774925443522,-28619.19595231962
-13519.296171581287,-7961.914892424928,-7562.288053308493,-29204.766953559752
-13831.930021277669,-7590.875934466831,-8016.274334940235,-29384.3855720026
-15706.615532233183,-9906.15903212536,-8181.185505531491,-28651.360112590806
-15819.693007432585,-10698.036634687976,-7815.287448798114,-28325.449326687973
-14822.17935588114,-9800.390577362845,-7563.0480126199745,-28595.86073110828
-13578.885922299138,-8052.752381891297,-7560.343451540882,-29178.21308114685
-13753.028363350437,-7516.981067297586,-7994.593142818588,-29407.94431065849
-15658.827502587736,-9802.670455297286,-8204.498374998377,-28693.64961310025
-15863.61418528726,-10714.129890695798,-7837.661544997877,-28320.978977796916
-14884.920702567186,-9864.71889790522,-7568.859466178354,-28563.204832459072
-13646.723466720996,-8152.552920884243,-7553.6826316932,-29139.499859750256
-13664.18017914059,-7441.946261161121,-7952.638918475976,-29411.185313604517
-15574.874350413604,-9676.740727036087,-8193.009578348348,-28705.60779638384
-15873.001917958489,-10704.384530113284,-7849.664431770377,-28309.22196021342
-14947.706752742142,-9931.528262082133,-7580.661187250756,-28532.873515233223
-13700.591170858284,-8249.671250542551,-7528.291049991972,-29085.67685910188
-13586.3067014583,-7387.631522134724,-7908.047188287639,-29415.029813650825
-15498.476087865363,-9554.119056954272,-8200.318598785234,-28747.74083468209
-15912.475098666562,-10720.164861698731,-7866.137667433938,-28310.42895441401
-15000.859201056865,-10001.98096060526,-7579.051861649974,-28506.006718397944
-13763.891311155714,-8365.565045543319,-7532.739047138578,-29054.65263779791
-13516.792776202295,-7357.344908397783,-7888.779984567164,-29430.98895919192
-15413.695921146384,-9441.890948044176,-8217.551793760276,-28791.84082649241
-15931.228212264565,-10723.40586464475,-7896.111356748504,-28323.72824236492
-15065.723963466164,-10074.42296438491,-7598.877858981831,-28495.76961943741
-13824.397483396231,-8471.780535194937,-7534.68364890619,-29023.673119982854
-13454.431409171988,-7331.081608662797,-7863.433106354846,-29440.77902326334
-15328.803995705128,-9319.202222728994,-8220.882203684116,-28841.394643949825
-15961.336012045862,-10732.212451960142,-7924.006333828728,-28341.02849257332
-15130.253449708636,-10149.63658447702,-7616.200460934694,-28485.867796643717
-13894.783126685994,-8585.953245872646,-7531.777922126999,-28996.471046980747
-13397.233295110858,-7316.083588133287,-7831.425408294846,-29450.099700701205
-15233.473805603244,-9198.7710236038,-8228.884128199117,-28888.48976951716
-15977.675137242692,-10723.629382089304,-7947.296851551158,-28357.1441003256
-15189.91025565985,-10208.980466005858,-7625.096455227906,-28466.891165601155
-13962.061877496468,-8681.641063885816,-7523.798349356455,-28962.45169191977
-13366.142018573526,-7311.859108431234,-7805.855012637975,-29450.837308268223
-15147.620755150409,-9076.194057010896,-8226.492491542398,-28928.6782060478
-15983.68775650117,-10705.457413847138,-7974.029537919705,-28361.212117816463
-15243.152110952393,-10263.831646899182,-7636.048810011007,-28448.562735147803
-14034.190956853745,-8785.55432385854,-7519.81973884341,-28927.761784525133
-13332.346180957102,-7310.16037585263,-7775.769564601132,-29444.087081442725
-15038.611297441876,-8929.544261639627,-8220.122244372636,-28974.36517171445
-15994.30483511744,-10671.102782619331,-7982.2773316237135,-28371.270402821352
-15298.472678479277,-10313.117243423134,-7649.862188084387,-28436.738662330947
-14095.993530272668,-8875.609502268971,-7535.533015195491,-28909.120429649407
-13292.224799659823,-7305.622971728203,-7757.865817292431,-29438.2979796288
-14920.839955906864,-8777.351233643441,-8213.86375592515,-29012.474896010743
-15984.11243964582,-10624.879375085757,-8000.538706843699,-28387.85539720719
-15343.824367979094,-10352.031630519825,-7667.028327826063,-28423.43937438004
-14158.399600791883,-8963.809485889613,-7539.690439664178,-28885.80756018252
-13279.10432566456,-7332.288602863384,-7736.72106703771,-29439.92965697404
-14821.754672736488,-8651.846188526892,-8214.131976858615,-29068.42131238238
-15995.131849662288,-10604.874563798256,-8037.262622983769,-28408.68722303953
-15405.314016975644,-10416.605820251203,-7681.601665210923,-28399.9029874686
-14224.851337057513,-9064.437039427405,-7530.548576181958,-28840.23235323815
-13270.38714532699,-7369.79483005939,-7707.127357378884,-29418.606092763675
-14704.698587024044,-8524.485948620551,-8197.010540605848,-29102.73124012128
-15966.096933614845,-10554.694897496092,-8044.705753887386,-28411.28002539635
-15431.800834155183,-10446.892433988149,-7690.654121715323,-28380.61343200367
-14282.720003452305,-9154.805142260211,-7540.606861186846,-28815.064288981477
-13274.969252940327,-7420.354476017294,-7690.587066481957,-29404.09981061218
-14593.923341503543,-8399.785566304394,-8181.878409609606,-29140.01394987273
-15962.29713705744,-10514.148833054163,-8065.73874541983,-28434.79406056333
-15501.962960000392,-10511.667789419627,-7709.474290546691,-28369.638725476118
-14352.92683278642,-9252.482265529905,-7539.44457047517,-28776.105198395875
-13290.749584525774,-7481.262979658006,-7663.384993479847,-29371.91329859654
-14493.675767621491,-8278.147372978614,-8160.934825054983,-29174.30152586717
-15947.96966886159,-10456.30251840383,-8081.407318283001,-28463.11372078821
-15546.50998669982,-10545.12835086922,-7724.517014565113,-28363.782568428825
-14413.365949793571,-9337.575356671256,-7544.0937333218735,-28740.901200878765
-13302.886581765008,-7546.194797300673,-7644.520121159569,-29346.633475617586
-14364.437981180905,-8149.960118527427,-8139.700667822442,-29202.06239248066
-15909.189392231632,-10381.91591285657,-8091.264437587791,-28469.50631970243
-15594.096850645168,-10580.935845486623,-7725.679305276788,-28340.80497512877
-14476.017889501798,-9415.024151208896,-7532.806102371944,-28714.168514510216
-13320.87973605153,-7611.260725410071,-7627.9127750292755,-29322.04655671675
-14241.637497143449,-8025.706771100376,-8121.551051324732,-29239.009826065285
-15871.504351079984,-10300.555563039252,-8111.693932019942,-28498.78710493888
-15630.552545851771,-10610.596610378816,-7753.954262012752,-28341.27436176233
-14522.911849369031,-9486.54973346588,-7532.224957016106,-28684.35128740684
-13342.78444561773,-7673.443278484736,-7597.603809547879,-29286.79785571073
-14140.18292906081,-7916.697313391843,-8092.717300977386,-29269.207032824404
-15830.0865686043,-10215.484823642351,-8120.433464101967,-28516.22146561402
-15662.023802044843,-10624.655857641204,-7762.6267388614115,-28322.67771037552
-14590.280007157327,-9562.970347758574,-7552.2521200480605,-28659.71966501709
-13384.023414137771,-7756.211788202738,-7593.468736823647,-29256.89122162953
-14030.63702948535,-7808.604277205977,-8066.386946009034,-29297.973727938384
-15793.899094331158,-10132.917479624448,-8135.297374164746,-28549.525564852425
-15706.414366533088,-10659.971613880589,-7771.433326176802,-28310.250140458364
-14656.463522489492,-9649.829226711898,-7541.143303053774,-28625.454440767106
-13433.890156017562,-7854.31359461708,-7568.993576645086,-29226.582256148133
-13935.843281250392,-7719.66668601831,-8045.219844009858,-29327.92506550849
-15766.898187029146,-10058.553225821644,-8170.300205981756,-28594.18435027413
-15768.30634692983,-10705.099785935854,-7810.504175484679,-28324.398794698573
-14745.95990728854,-9753.206044817693,-7568.859466178354,-28624.73918494453
-13504.789889429796,-7972.420212318923,-7580.750594228577,-29209.97491001784
-13843.374114438786,-7638.79807457901,-8022.599878621088,-29357.831699589697
-15694.925569883058,-9946.123951211448,-8180.917284598027,-28621.453478509604
-15790.144001262666,-10716.901507008257,-7813.923992386341,-28308.7302218354
-14785.567198463345,-9808.12428094438,-7557.236559061595,-28582.8967193242
-13535.143558400105,-8043.856387598084,-7551.335698525393,-29166.16549088544
-13741.092531811302,-7548.072343834919,-7989.318131127135,-29377.99297308838
-15622.952952736969,-9832.37592367839,-8186.013482333838,-28656.501013815527
-15810.417033483627,-10708.899582493255,-7827.938536159818,-28306.58445436769
-14837.244431644016,-9860.33795599198,-7572.6816144802115,-28556.05227423337
-13591.447602683022,-8137.465493376911,-7551.313346780938,-29126.312330521625
-13659.016926171416,-7481.95588373612,-7964.328880826102,-29395.49438899689
-15576.282510314288,-9741.35962025638,-8211.472119268432,-28697.51646489101
-15844.883423433714,-10732.659486849248,-7857.040507440628,-28304.952777022456
-14891.179191014671,-9930.701247537285,-7574.603864503368,-28524.96099769605
-13647.215205099012,-8241.088180671713,-7537.432913474192,-29087.152074235928
-13571.68866058453,-7423.081388840841,-7925.593307685055,-29402.91516815605
-15487.657843548996,-9613.082958827372,-8204.230154064913,-28728.98772108409
-15869.202121401087,-10732.614783360335,-7867.41171686789,-28311.926521292517
-14956.088656912883,-9996.348321002522,-7596.016835691552,-28522.591712783786
-13720.819499590338,-8347.191911601056,-7555.314309038438,-29077.69728633133
-13516.278686079822,-7382.93765579911,-7906.191993497849,-29425.423374822545
-15423.396578239988,-9495.088099847806,-8216.411854793056,-28773.93707918371
-15902.014482261478,-10732.145396726775,-7888.400004911424,-28317.1344777506
-15024.26147750157,-10058.75439152174,-7598.006140948074,-28500.93287240659
-13789.43935506813,-8445.04784882639,-7535.488311706581,-29035.720710244263
-13451.369220181612,-7342.011611701443,-7879.481658873757,-29443.32712213125
-15342.773835989696,-9368.286653552848,-8229.91230844406,-28831.872800811863
-15929.39536921923,-10731.541899626482,-7910.707045877821,-28330.56787616824
-15085.728774753665,-10126.256659776767,-7610.679580054233,-28484.68315418758
-13859.51207393552,-8552.35857395632,-7538.192872785673,-29012.385489032924
-13395.333396832157,-7321.224489358007,-7849.083286414539,-29444.936447732027
-15249.835282544527,-9248.950689905963,-8230.96284043346,-28867.926164618275
-15950.562471218404,-10728.770283314025,-7933.349363011046,-28335.686425648502
-15148.738342373175,-10193.803631520705,-7623.867109282864,-28461.88437484317
-13932.89285098229,-8664.944310777702,-7544.160788555239,-28975.236889748205
-13370.008870364294,-7326.767721982923,-7835.1805013633375,-29455.419415881566
-15163.915176858329,-9127.223089602365,-8237.668363770052,-28913.74724075165
-15966.432209781671,-10717.21443143063,-7969.156857628448,-28353.54546946829
-15206.04821515658,-10247.403114724531,-7645.570653148968,-28451.468461926997
-13999.746918648116,-8757.815808989502,-7541.545634453969,-28947.654837090355
-13340.057532794182,-7329.472283062016,-7799.68593116831,-29458.23573568293
-15066.21570184418,-8992.933808914877,-8225.464311297454,-28955.32148543853
-15983.330128589883,-10695.577942797892,-7980.265674622736,-28359.71455093796
-15262.620480372963,-10295.325254836707,-7647.738772361133,-28422.835877279747
-14062.175340911788,-8845.479350743217,-7541.97031759862,-28909.031022671585
-13307.736910311807,-7323.906698692644,-7779.614064647444,-29451.28434315733
-14958.524997058512,-8844.898205387379,-8225.754883975373,-29003.73536392872
-15982.9725006786,-10658.183474324163,-8005.67960806842,-28384.681449494536
-15312.576629230576,-10349.304717696275,-7662.602682423912,-28421.405365634608
-14129.677609166814,-8948.655003148915,-7535.801236128955,-28887.349830549934
-13289.386128114002,-7343.799751257868,-7743.270128163115,-29441.11429943017
-14851.773065539965,-8704.77511939706,-8214.064921625248,-29048.394149350424
-15983.330128589883,-10620.140805261231,-8015.380265162023,-28398.18190314554
-15386.315034188634,-10413.431872538553,-7678.271255287083,-28413.24697890842
-14212.379063651451,-9054.781085822711,-7548.608785701846,-28866.786225651056
-13280.62424428752,-7379.6743011086355,-7721.343066852459,-29425.49043005591
-14740.43902640808,-8581.214676048121,-8195.62473244962,-29087.04031551365
-15972.087201128865,-10579.281816396931,-8031.339410703113,-28408.463705594982
-15429.118624820549,-10451.698059046035,-7686.0273106130735,-28392.325746098253
-14269.621881201492,-9145.372706100072,-7539.422218730715,-28825.01081526409
-13271.124752894017,-7428.579917976847,-7690.587066481957,-29400.74704894389
-14623.338237206726,-8461.05169785639,-8186.818145134229,-29124.07715607609
-15959.234948067064,-10542.021458389934,-8064.040012841227,-28433.363548918194
-15470.4022968295,-10500.51426893643,-7704.802775955532,-28376.79128370181
-14317.722835269313,-9231.270460041816,-7536.203567529151,-28793.22663464864
-13271.549436038666,-7472.903427231721,-7667.1847900372495,-29389.05708659376
-14502.839982848169,-8320.213356043501,-8166.343947213167,-29163.59504027308
-15922.421624949173,-10465.109105719222,-8077.406356025501,-28451.602572393727
-15498.476087865363,-10523.290696536384,-7721.119549407906,-28365.90598415208
-14362.716896857846,-9295.822298028745,-7539.690439664178,-28769.31026808146
-13273.00229942826,-7512.510718406525,-7653.103191030406,-29369.54401368428
-14393.048214083698,-8187.779270145807,-8166.1204297686145,-29211.74069782981
-15902.595627617316,-10387.48149722594,-8105.055463916715,-28481.419799497107
-15556.188292048968,-10545.463627036052,-7740.118532194917,-28350.23741128891
-14440.38920884004,-9368.733688441956,-7548.988765357586,-28732.38518624129
-13309.25682893477,-7567.920692911231,-7639.982717035141,-29340.911429037027
-14296.488678036772,-8062.318928518168,-8144.349830669145,-29247.45878546939
-15900.04752874941,-10332.56326109925,-8119.159414668014,-28498.51888400541
-15614.056958443756,-10583.193371676609,-7755.004794002151,-28351.354998511677
-14524.25295403635,-9457.760686607444,-7555.806047416455,-28713.430906943195
-13346.651297408498,-7646.911757816287,-7621.900155770798,-29311.65299554503
-14182.695947014803,-7949.084991107583,-8118.958248967916,-29277.812454439696
-15859.322650351842,-10252.02992582678,-8141.868787034606,-28537.56738156884
-15664.929528824036,-10631.383732722252,-7771.29921571007,-28340.670864662035
-14588.514219345358,-9553.426152876158,-7562.220998075128,-28686.65351708573
-13389.164315362492,-7747.002869487152,-7608.064425952963,-29288.60834701161
-14078.514466108618,-7857.88987372993,-8091.644417243531,-29309.4178210995
-15822.688141189594,-10177.017471434769,-8161.560673899731,-28568.32338193934
-15698.032462362346,-10653.86958764429,-7794.679140410321,-28339.709739650458
-14629.641429143125,-9614.334656516869,-7565.082021365407,-28663.00537145202
-13413.37125460759,-7819.8025011780865,-7598.050844436985,-29257.628829196557
-13965.52639788704,-7747.986346243185,-8071.371385022568,-29337.29044643527
-15759.231538680977,-10072.634824828485,-8177.631578163097,-28598.52058869846
-15739.763169260405,-10685.184381626175,-7826.128044858939,-28342.928390852023
-14701.05525267783,-9705.038035516503,-7580.88470469531,-28635.937408916645
-13459.639365630075,-7918.463101203812,-7585.422108819736,-29223.25184622429
-13863.93771933767,-7658.802885866509,-8040.905957329984,-29364.157243270547
-15713.96925615898,-9975.82941959255,-8188.159249801547,-28633.03168213745
-15777.962300534524,-10702.238762645577,-7817.388512776914,-28328.2879982338
-14775.21834078054,-9783.000920176615,-7577.062556393452,-28617.43016450765
-13543.279593381834,-8028.500739157288,-7584.863315208354,-29199.98368024632
-13793.239151625534,-7590.697120511189,-8021.795215820696,-29398.24365356489
-15672.305604494288,-9884.164915581336,-8206.308866299256,-28677.779874536976
-15820.922353377624,-10723.897603022768,-7853.978318450251,-28337.452213460478
-14835.523347320956,-9853.14069427737,-7590.518306555547,-28596.106600297288
-13581.344614189222,-8113.280905876269,-7562.176294586217,-29161.62808676101
-13687.940083496582,-7508.979142782587,-7989.027558449216,-29414.649833995085
-15604.110432161146,-9776.094231139929,-8210.689808212497,-28710.100497019357
-15859.456760818572,-10734.134701983296,-7855.230016139748,-28339.352111739176
-14897.929417840174,-9917.737235753208,-7591.9935216895965,-28578.26990822195
-13651.864367945716,-8221.351590317678,-7566.110201610351,-29142.24912431826
-13607.83143136876,-7442.594461750325,-7955.298776066158,-29435.5487150608
-15516.178669473968,-9640.91088067423,-8224.413779308055,-28755.675703963723
-15868.553920811884,-10725.663390834736,-7883.996711253729,-28349.9915420999
-14937.469653781613,-9965.25704446519,-7598.609638048368,-28557.68395157861
-13693.61742658823,-8301.124966278669,-7556.409544516748,-29109.012080313216
-13528.572145530245,-7384.546981399892,-7932.701162421842,-29456.268782170868
-15437.209956313369,-9521.083178649327,-8236.707238758474,-28793.33839337092
-15882.85903726328,-10722.668257077725,-7908.985961554762,-28346.907001365067
-14995.472430643134,-10040.56007153512,-7624.112978471873,-28528.31375936434
-13768.696936213606,-8428.261688740455,-7568.390079544793,-29080.37949566597
-13464.95908081044,-7362.754030555968,-7896.223115470781,-29457.006389737893
-15354.352039617545,-9412.00666570743,-8233.689753257007,-28828.587094376933
-15922.91336332719,-10742.851882320869,-7929.169586797904,-28349.09747232169
-15066.394515799824,-10115.371360227033,-7628.628030851845,-28510.8793986892
-13841.943602793646,-8533.069018491391,-7562.243349819583,-29039.02876842365
-13437.287621174768,-7349.901777494166,-7881.783888552653,-29469.70218058851
-15288.83907661904,-9298.54921085229,-8239.456503326477,-28871.99418210914
-15950.651878196226,-10739.879100308312,-7950.537854497177,-28359.53573698232
-15132.734493343174,-10179.699680769409,-7646.509426416091,-28494.093238603265
-13911.65869374975,-8639.575080820929,-7560.432858518703,-28993.92294811284
-13381.676480969963,-7336.647193032169,-7848.703306758798,-29455.97820949295
-15190.200828337767,-9171.412488390504,-8239.881186471128,-28904.359508080423
-15951.411837507709,-10719.807233787446,-7952.728325453798,-28346.95170485398
-15177.19211306478,-10226.481881914364,-7642.486112414135,-28455.603534651225
-13971.874293312349,-8726.858642918902,-7549.905186880253,-28961.35645644146
-13338.202338004392,-7321.358599824739,-7813.901640641885,-29460.22504093946
-15080.677280506765,-9019.755902261246,-8239.68002077103,-28951.20876445875
-15965.895767914746,-10687.866590960812,-7992.268561395235,-28375.33842031222
-15241.006343484682,-10273.12997259259,-7670.761069150099,-28461.39263646515
-14033.229831842164,-8811.169423004321,-7562.77979168651,-28944.145613210872
-13300.316131152646,-7311.032093886387,-7806.503213227179,-29466.125901475654
-14987.515209617044,-8886.539505307615,-8249.894767987105,-29001.947224372296
-15969.069715627398,-10657.267052801497,-8015.447320395389,-28386.313126839774
-15286.290977751134,-10313.51957482333,-7686.586104224456,-28438.213877465
-14108.801079845558,-8908.868898018467,-7566.110201610351,-28908.76280173812
-13291.77776477072,-7335.998992442965,-7777.401241946369,-29456.604058337696
-14888.608740402313,-8750.909119952812,-8246.765523763363,-29050.584620307043
-15971.081372628376,-10620.0066947945,-8039.788370107219,-28401.66877528057
-15354.374391362,-10378.540799443816,-7696.890258418353,-28424.579313347254
-14180.416069080362,-9014.9279254589,-7559.762306185044,-28877.604469967424
-13287.642692046487,-7380.590722631303,-7753.82015154602,-29446.88104949964
-14791.98214912202,-8642.27964190002,-8233.82386372374,-29088.917862047896
-15997.143506663264,-10614.57522089186,-8064.889379130528,-28427.84266803773
-15430.1915085544,-10454.15675093612,-7716.582145283479,-28418.11965919968
-14261.284680519662,-9132.743970482825,-7569.954701656664,-28849.821251609475
-13291.82246825963,-7438.168816348174,-7738.375096127403,-29432.12889815913
-14673.942586653542,-8512.952448481614,-8209.929848901016,-29127.76519391122
-15983.8218669679,-10564.23909237851,-8073.852428657106,-28442.795985078334
-15469.843503218117,-10484.666882117615,-7716.3139243500145,-28396.23730137793
-14315.822936990611,-9199.575686404192,-7559.561140484946,-28818.28294018304
-13293.051814204671,-7456.251377612517,-7706.389749811859,-29406.11146761316
-14558.965213175445,-8356.400830316643,-8203.00080811987,-29173.76508400024
-15944.862776382302,-10469.937082521568,-8094.17016436698,-28462.28670624336
-15513.943495028436,-10503.017664315425,-7740.297346150559,-28386.80486521779
-14378.18430402092,-9273.671719273534,-7561.148114341273,-28783.771846744043
-13282.39003209949,-7497.57975311038,-7674.270293029582,-29382.172749301524
-14427.581659267147,-8232.281593356323,-8184.828839877706,-29205.236340193314
-15896.359490914285,-10420.91970693108,-8116.521908822287,-28486.42659025509
-15518.011512519302,-10546.245938091986,-7759.899826037864,-28377.84181569121
-14394.121097817551,-9356.976670858465,-7562.377460286315,-28762.045951133485
-13263.122828379015,-7564.59028298739,-7658.0876300439395,-29362.972600814417
-14287.279759321184,-8115.739597766352,-8159.705479109941,-29242.720215644866
-15867.61514754476,-10367.610796405172,-8136.571423598698,-28515.439154558084
-15567.2747572988,-10600.58302886284,-7769.600483131467,-28372.67856272204
-14472.016927244298,-9472.021099569927,-7578.828344205421,-28752.09942485088
-13319.06924475065,-7679.210028554205,-7667.140086548339,-29361.89971708056
-14208.400453138407,-8048.997288822805,-8170.993110059871,-29301.50530356232
-15858.607394529272,-10331.132749454113,-8164.399345445556,-28546.530431095416
-15645.28234544782,-10679.484686790072,-7789.605294418967,-28371.024533632342
-14558.182902119506,-9586.014996291997,-7582.583437273913,-28724.137392537286
-13364.3538790171,-7775.590750645489,-7637.568728633968,-29324.75111779584
-14111.617399646926,-7949.040287618672,-8121.707513535919,-29328.7744317978
-15819.290676032386,-10247.023135068792,-8163.214702989424,-28576.951155299088
-15674.80899987328,-10693.9239137082,-7800.244724779693,-28353.724283423937
-14610.709501589476,-9644.19658710916,-7583.902190196775,-28689.00045025354
-13403.692949258442,-7842.64598401141,-7626.571670361957,-29292.341088335645
-13996.39415697982,-7823.021152379651,-8092.538487021743,-29343.03484476028
-15778.45403891254,-10142.461674506863,-8174.90466533955,-28596.978318331043
-15731.560079045306,-10711.112405194332,-7812.06879759655,-28350.550335711283
-14678.077659377774,-9709.128404751827,-7581.957588429164,-28664.681752286167
-13436.862938030115,-7913.769234868198,-7601.64947529429,-29251.191526793427
-13888.2787690495,-7723.868813975909,-8071.036108855737,-29371.220394518423
-15717.210259105,-10047.913795460916,-8206.822956421729,-28632.942275159632
-15734.644619780138,-10712.520565095016,-7838.555614776089,-28342.77192864084
-14714.28748539537,-9761.766762944077,-7589.400719332782,-28630.9082664142
-13475.95613908245,-7993.699073040376,-7597.31323686996,-29219.407346177977
-13786.801849222406,-7626.236394195127,-8040.056591040682,-29396.25434830837
-15651.38437168412,-9924.889793978906,-8210.890973912594,-28673.48833960156
-15774.2742626994,-10723.383512900296,-7858.403963852402,-28352.785510156813
-14776.894721614686,-9835.415760924312,-7605.426920107237,-28619.77709767545
-13532.886032210115,-8096.941780679439,-7594.6310275353235,-29199.64840407949
-13690.018795730924,-7549.659317691246,-8015.179099461926,-29429.17846789104
-15595.549714034763,-9826.720932331196,-8229.10764564367,-28719.354119223848
-15813.859202129746,-10746.070533522432,-7875.100716960516,-28358.261687548365
-14850.677830061655,-9913.266886862146,-7616.558088845979,-28604.71202191258
-13609.239591269445,-8208.074654111226,-7590.831230977921,-29169.607659531557
-13632.4183502696,-7504.933477036176,-7992.648541050976,-29447.082215199734
-15557.797617649749,-9740.800826644996,-8244.128017917636,-28751.36181728385
-15862.04956317539,-10764.242501764596,-7897.005426526717,-28360.027475360333
-14939.190738104671,-9993.64375992343,-7632.9642692761745,-28587.143550770703
-13698.177182457111,-8319.676914176574,-7588.372539087837,-29130.04507184566
-13566.01131749288,-7449.52350253147,-7963.457162792345,-29452.290171657824
-15481.377003357054,-9609.28316226997,-8250.2970993873,-28781.022582176043
-15901.52274388346,-10770.098658811889,-7912.092854034049,-28346.437614731505
-14998.44521265569,-10057.189769409868,-7629.499748885602,-28548.1397566962
-13749.25091853749,-8416.147043245679,-7572.368690057838,-29093.34350745005
-13491.401194501066,-7409.692693912112,-7922.888746605962,-29466.81880555377
-15391.679452857908,-9491.467117246046,-8243.926852217539,-28823.71441408568
-15904.629636362748,-10758.475751695129,-7923.693409406354,-28354.01485610185
-15049.586003969433,-10114.14201428199,-7640.563862390979,-28533.275846633416
-13818.1613466932,-8516.282858405455,-7570.245274334583,-29064.018018724684
-13436.773531052297,-7367.783173058412,-7896.84896431553,-29479.53694814884
-15295.946931355827,-9339.587013672235,-8257.829637268738,-28872.70943793171
-15916.744281857524,-10735.989896773088,-7958.428020289901,-28373.39381854461
-15090.154420155815,-10154.755133957284,-7648.521083417068,-28517.137887136687
-13859.467370446608,-8595.720958199616,-7571.0946406238845,-29032.07737589805
-13369.539483730732,-7335.529605809404,-7876.12889720546,-29481.63801212764
-15205.981159923216,-9221.59215469267,-8259.841294269716,-28915.91535996382
-15933.35162798782,-10731.050161248466,-7972.509619296744,-28370.42103653205
-15164.384563491887,-10233.1650535065,-7667.810638881999,-28497.49070376047
-13947.37678138933,-8720.890727149335,-7562.913902153243,-28996.15812255837
-13352.507454455788,-7354.372126385228,-7832.699457728799,-29482.04034352784
-15132.33216194298,-9106.637132959024,-8246.542006318808,-28959.34479944048
-15981.54198903346,-10742.449550920672,-7989.116965427038,-28391.99046993142
-15238.681762061333,-10310.457385832951,-7661.485095201147,-28484.169064065107
-14030.0111806406,-8838.639716939893,-7553.883797393299,-28972.44292169129
-13335.095445525105,-7371.27004519344,-7807.665503938855,-29486.711858119
-15045.540338223022,-8987.323521056596,-8240.127055660136,-29007.17753257484
-16003.02201545501,-10730.133739725798,-8004.874945268029,-28417.47145861047
-15299.433803490854,-10364.749773114894,-7678.740641920644,-28476.100084316746
-14083.521256866608,-8921.318819680075,-7561.393983530282,-28943.408005643847
-13295.577561328122,-7366.285606179907,-7785.49257343919,-29487.40476219711
-14925.846746664853,-8839.712600673747,-8243.63627953962,-29063.101597202018
-15982.525465789497,-10682.703337991636,-8026.980820534328,-28431.798926806325
-15335.688332997364,-10397.562133975283,-7682.920418133786,-28462.91255508811
-14150.42002802134,-9007.21657362182,-7558.510608495547,-28926.86771474692
-13272.287043605693,-7376.768574329445,-7762.738497583688,-29476.49711090292
-14804.946160906096,-8689.017139556068,-8239.098875415191,-29102.57477791009
-15964.554663247429,-10617.48094767105,-8046.225672510347,-28439.644389110137
-15369.66298456943,-10415.152956861612,-7692.889296160853,-28442.52776414487
-14200.778508279149,-9073.422440698438,-7550.285166535994,-28889.00385963963
-13256.752581209254,-7390.850173336288,-7729.344991367458,-29462.59432585172
-14692.405127573626,-8539.349858683332,-8215.853061181673,-29139.09752835006
-15964.77818069198,-10569.111772669768,-8071.796068167218,-28466.287668500863
-15427.755168408772,-10460.817570783804,-7723.6229447869,-28436.80571756431
-14265.084477077064,-9156.883854494556,-7555.694288694178,-28850.268286498584
-13259.680659732898,-7424.668362697168,-7708.893145190853,-29430.63133128063
-14577.494809328891,-8390.643702822174,-8197.591685961686,-29165.763159485243
-15955.882186398769,-10500.447213703064,-8086.101184618615,-28473.14965404864
-15505.382776902054,-10516.339304010786,-7742.91250025183,-28412.68818529704
-14350.535196129704,-9263.54637903528,-7567.138381855296,-28817.63473959384
-13294.839953761097,-7503.502965391036,-7687.390767024847,-29412.3923078051
-14499.509572924326,-8293.92770456406,-8178.659758408041,-29209.170247217447
-15966.20869233712,-10469.333585421276,-8098.640513258042,-28496.21665432652
-15577.645966726062,-10568.95531045858,-7742.800741529553,-28392.102228653697
-14450.492197333837,-9370.275958809372,-7561.863370163843,-28786.722277012144
-13337.77765485974,-7580.012986661552,-7664.413173724792,-29386.397229003574
-14407.442737512916,-8189.679168424508,-8171.596607160164,-29242.675512155954
-15957.49151199955,-10422.886660443148,-8125.350847882134,-28516.266169102928
-15630.440787129495,-10613.032950524444,-7760.413916160335,-28389.420019319063
-14521.034302834789,-9457.268948229426,-7572.413393546748,-28771.63484950481
-13356.709582413388,-7646.509426416091,-7655.584234664945,-29375.51192945384
-14279.7695731842,-8061.044879084216,-8154.050487762748,-29289.99415516784
-15902.617979361772,-10323.80137727277,-8151.61414761712,-28549.10088170777
-15662.739057867417,-10635.96584033559,-7789.717053141243,-28393.62214727666
-14571.593948792692,-9525.128844395738,-7576.079079637418,-28741.19177355669
-13378.614291979588,-7713.631715015378,-7631.198481464205,-29334.13885046707
-14164.009888650167,-7953.532988254188,-8124.70264729293,-29317.93383573697
-15866.408153344171,-10261.55176896474,-8161.381859944089,-28571.251460462983
-15692.265712292876,-10674.232026843076,-7793.695663654288,-28370.04105687631
-14604.830992797732,-9603.337598244858,-7581.510553540058,-28714.190866254678
-13395.713376487896,-7798.791861390097,-7639.55803389049,-29317.37504212559
-14045.657401759316,-7849.709135259287,-8126.624897316086,-29369.34284798418
-15809.41120498314,-10167.517980041264,-8182.593665432176,-28612.33396677184
-15727.067378409787,-10706.575001069905,-7820.584812234022,-28371.94095515501
-14668.444057517536,-9693.549238866475,-7600.040149693507,-28693.426095655694
-13439.768664809308,-7895.507859648212,-7623.867109282864,-29287.244890599835
-13940.738313286103,-7759.117514981928,-8086.101184618615,-29387.783037159807
-15758.181006691577,-10080.972025510317,-8199.111604584647,-28649.437862567647
-15764.484198627972,-10720.991876243575,-7829.257289082681,-28368.7446556979
-14745.557575888346,-9765.275986823555,-7600.531888071524,-28677.444598370148
-13519.497337281387,-7993.542610829189,-7610.344303887404,-29262.166233320982
-13871.112629307823,-7672.504505217613,-8059.234387783335,-29412.43701129401
-15727.670875510084,-9977.349338215512,-8212.05326462427,-28669.48737734406
-15823.470452245529,-10739.8343968194,-7847.630423024943,-28355.08773983571
-14825.040379171418,-9834.924022546296,-7592.21703913415,-28629.94714140262
-13574.3038146858,-8078.725108948363,-7583.030472163019,-29207.762087316765
-13787.897084700717,-7594.988655446608,-8021.012904764761,-29426.74212774541
-15683.906159866592,-9884.52254349262,-8214.087273369703,-28703.26086321603
-15851.61129851476,-10741.60018463137,-7855.319423117569,-28353.903097379574
-14875.80119082942,-9886.668310960333,-7599.12372817084,-28605.60609169079
-13632.17248108059,-8168.467362936421,-7574.939140670198,-29179.218909647338
-13692.745708554472,-7515.237631230072,-7985.071299680627,-29444.556468076287
-15603.529286805307,-9761.78911468853,-8228.124168887636,-28743.91868638023
-15885.965929742568,-10764.42131572024,-7885.22605719877,-28364.073141106743
-14930.227688578092,-9966.30757645459,-7618.726208058144,-28598.297071253903
-13673.925539723105,-8276.202771211001,-7579.789469216999,-29158.4317873039
-13591.201733494012,-7459.9170637031875,-7960.216159846325,-29462.32610491825
-15509.920181026482,-9653.96429943613,-8243.189244650514,-28787.057553178973
-15893.00672924599,-10771.998557090588,-7902.593362640544,-28368.968173142457
-14977.859256012352,-10034.07806564308,-7613.384141133326,-28568.61395461726
-13731.436578206609,-8376.427993348598,-7571.698137724178,-29118.511571706724
-13519.653799492577,-7412.374903246749,-7932.857624633029,-29479.447541171023
-15430.43737774341,-9523.586574028324,-8245.58088130723,-28829.23529496614
-15927.853098851812,-10768.042298321998,-7931.516519965711,-28372.320934810752
-15049.474245247156,-10097.020578029224,-7639.714496101677,-28558.622724845736
-13817.759015293004,-8484.990416168024,-7574.268588336538,-29091.153036493422
-13485.790906642784,-7391.811298347867,-7914.842118602052,-29489.81875059828
-15380.391821907975,-9422.422578623602,-8269.83252404124,-28874.25170829913
-15965.49343651455,-10772.020908835044,-7953.845912676563,-28377.59594650221
-15124.978438017182,-10168.792029475217,-7641.413228680281,-28534.92987572311
-13906.115461124831,-8608.707321728149,-7573.151001113773,-29068.60012633802
-13447.390609668568,-7382.26710346545,-7885.516629876689,-29492.6127186552
-15300.88666688045,-9305.858231289176,-8271.173628708557,-28907.86873195991
-15996.472954329603,-10776.75947865957,-7973.470744308322,-28387.497769295904
-15182.690642200789,-10233.79090235125,-7648.454028183703,-28511.95228242305
-13956.85392103838,-8701.802337384503,-7559.82936141841,-29018.241646080216
-13392.204152608414,-7369.168981214641,-7850.424391081857,-29490.131675020657
-15182.28831080059,-9163.701136553424,-8254.476875600443,-28950.40410165836
-15987.129925147286,-10752.17255975873,-7980.556247300655,-28389.487074552428
-15231.082168946528,-10290.385519312087,-7666.514237703591,-28490.91929089061
-14019.550564235517,-8801.826393822003,-7566.892512666287,-28983.93171834132
-13339.78931186072,-7359.714193310046,-7817.097940098994,-29479.17932023756
-15062.281794820046,-9016.894878970968,-8247.927814475039,-28987.55270094308
-15974.59059650786,-10717.862632019836,-8001.969218488839,-28395.52204555536
-15257.92661403735,-10333.390275644097,-7666.760106892599,-28459.24686899744
-14050.798302984036,-8885.42191808485,-7549.882835135799,-28938.62473233041
-13283.172343155426,-7360.474152621527,-7782.832715849008,-29464.56127936379
-14932.127586856794,-8870.267435344153,-8234.24854686839,-29018.06283212457
-15961.961860890611,-10676.288387332965,-8030.2888787137135,-28412.91170274159
-15309.067405351092,-10373.37754647464,-7706.166232367305,-28472.3226395038
-14110.723329868715,-8967.676337680381,-7567.898341166776,-28927.851191502952
-13268.24137785928,-7373.751088827978,-7776.238951234693,-29484.364924951187
-14845.961611981586,-8743.711858238205,-8238.853006226183,-29082.59231836705
-15987.331090847383,-10654.16016032221,-8052.238291768825,-28436.15751697511
-15392.23824646929,-10444.232576397966,-7720.7172180077105,-28460.40915970912
-14222.169127722877,-9094.254266530785,-7578.761288972055,-28908.89691220485
-13300.427889874923,-7437.699429714612,-7760.995061516173,-29474.88778530214
-14776.917073359142,-8648.828703025425,-8250.900596487594,-29145.043092375174
-16013.84025977138,-10639.787988637449,-8088.917504419984,-28472.903784859634
-15457.550043767696,-10500.69308289207,-7725.299325621048,-28439.353816432216
-14286.519800009704,-9181.738994328856,-7564.858503920854,-28868.84258614094
-13294.68349154991,-7466.197903895129,-7720.650162774345,-29449.250334411903
-14660.03980160234,-8505.978704211559,-8215.316619314744,-29171.172281643427
-15988.716899003612,-10577.203104162589,-8089.923332920473,-28473.73079940448
-15495.838582019638,-10528.610411716749,-7745.81822703102,-28424.132278458157
-14351.429265907916,-9270.02838492732,-7580.392966317292,-28837.013702036587
-13299.176192185423,-7517.159881253229,-7705.115700377906,-29419.85779045317
-14544.25776532385,-8372.427031091098,-8210.600401234675,-29205.281043682226
-15975.64112849726,-10513.344170253777,-8116.834833244662,-28496.171950837608
-15540.810291863716,-10564.261444122963,-7747.271090420615,-28406.69791778301
-14395.193981551409,-9337.016563059877,-7566.378422543815,-28801.51913184156
-13297.812735773652,-7559.40467827376,-7682.652197200322,-29397.46134250896
-14409.432042769438,-8231.812206722761,-8180.179677031002,-29234.651235896497
-15921.572258659871,-10427.580526778762,-8121.394589113544,-28504.106820119243
-15570.068725355712,-10587.730775801036,-7750.847369533464,-28381.127522126146
-14455.409581114003,-9421.528508845391,-7565.082021365407,-28769.22086110364
-13327.987590788316,-7633.612469865378,-7669.196447038227,-29385.81608364774
-14323.064902194132,-8134.403304386534,-8175.888142095583,-29292.162274380004
-15928.76952037448,-10391.929494372547,-8159.213740731924,-28556.83458528931
-15648.210423971466,-10653.10962833281,-7799.462413723757,-28403.14399041462
-14550.762122960345,-9529.778007242445,-7597.782623503522,-28766.337486068904
-13385.588036249645,-7730.641392545866,-7672.728022662166,-29369.655772406557
-14227.66765685888,-8032.501701414789,-8164.622862890109,-29323.27590266179
-15900.04752874941,-10315.0841969352,-8180.403194475555,-28580.773303600945
-15709.34244505673,-10696.15908815373,-7825.949230903296,-28400.394725846618
-14615.760995836376,-9611.7195024156,-7600.867164238354,-28739.850668889365
-13411.694873773442,-7802.368140502947,-7653.393763708325,-29348.645132618563
-14128.336504499495,-7933.95286011134,-8148.261385948824,-29369.119330539623
-15866.072877177345,-10247.291356002255,-8210.712159956951,-28624.627426222258
-15751.296669399342,-10730.960754270644,-7845.88698695743,-28399.72417351296
-14690.348767083737,-9699.20423021367,-7606.768024774555,-28718.616511656823
-13471.396383213569,-7901.587534140055,-7636.339382688926,-29321.353652638634
-14016.913058389791,-7825.83747218102,-8110.263420374802,-29399.45064776548
-15810.0817573168,-10135.219709303345,-8216.881241426616,-28659.60790629481
-15794.03320479789,-10745.981126544611,-7858.895702230418,-28397.041964178323
-14753.358334703247,-9766.281815324046,-7622.391894148815,-28700.623357370303
-13517.709197724962,-7984.467802580333,-7637.456969911692,-29286.4625795439
-13927.126100912825,-7736.072866448506,-8093.074928888671,-29418.2931683413
-15759.410352636618,-10039.50953954572,-8222.87150894064,-28675.38823788026
-15804.002082824956,-10739.65558286376,-7857.778115007653,-28375.673696479047
-14788.83055315382,-9809.197164678237,-7607.148004430295,-28653.90821145871
-13547.772294017352,-8057.222730782358,-7602.45413809468,-29237.26638999777
-13800.324654617863,-7631.109074486384,-8042.247061997303,-29431.7489185034
-15693.20448556,-9931.684724293318,-8228.43709331001,-28707.373584195804
-15833.148757594678,-10746.60697538936,-7876.441821627834,-28376.00897264588
-14846.430998615146,-9873.57018870952,-7629.611507607879,-28634.23867633804
-13591.335843960744,-8139.99124050036,-7602.476489839136,-29206.77861056073
-13715.499784409974,-7547.088867078885,-8018.375398919034,-29445.472889598957
-15629.434958629008,-9810.69473155674,-8255.10272444519,-28747.763186426542
-15880.869732006757,-10766.880007610323,-7912.450481945334,-28382.736847726926
-14910.893429624251,-9945.676916322342,-7639.0662955124735,-28611.238731293528
-13666.862388475229,-8249.693602287007,-7599.906039226776,-29179.040095691693
-13654.926556936092,-7503.659427602223,-7994.01199746275,-29483.940241806537
-15571.70040270095,-9709.217811729648,-8263.864608271671,-28801.921463241757
-15917.571296402371,-10787.443612509203,-7934.913985122917,-28394.113885654675
-14999.227523711626,-10043.398743080945,-7658.758182377599,-28613.38449876124
-13747.775703403438,-8375.332757870288,-7595.748614758088,-29147.03239763169
-13587.647806125618,-7468.14250566274,-7966.72051748282,-29483.292041217333
-15496.48678260884,-9599.493098198544,-8266.032727483836,-28830.129364744356
-15942.761712403502,-10794.484412012627,-7938.423209002401,-28391.923414698056
-15040.712361420676,-10100.216877486337,-7647.671717127767,-28580.95211755659
-13804.68324478665,-8479.737756221028,-7591.144155400295,-29124.56889445411
-13511.29424706629,-7425.785949919934,-7928.946069353351,-29502.60394842672
-15403.168249507937,-9470.6352914137,-8264.915140261071,-28871.77066466459
-15948.372000261785,-10777.720603671149,-7961.914892424928,-28395.007955432888
-15096.390556858843,-10144.92036639695,-7662.982662079652,-28558.578021356825
-13860.02616405799,-8555.778390857982,-7579.968283172641,-29084.7157340903
-13447.211795712925,-7383.228228477029,-7902.146327751438,-29512.550474709333
-15305.781698916162,-9336.524824681856,-8264.937492005527,-28917.703499520245
-15953.02116310849,-10754.36303071535,-7961.892540680474,-28396.550225800303
-15132.130996242882,-10186.226390150356,-7658.42290621077,-28536.852125746267
-13909.08824313739,-8641.117351188344,-7570.02175689003,-29049.489384828736
-13388.292597328737,-7352.472228106526,-7869.93746399134,-29511.522294464387
-15211.882020459418,-9196.155869502529,-8272.514733375876,-28964.32923845401
-15986.459372813628,-10746.472864922627,-7998.035311464705,-28416.823258021268
-15207.814002968553,-10250.420600225998,-7677.466592486691,-28521.69764300557
-14005.670130928773,-8759.358079356918,-7580.795297717488,-29022.42142229336
-13375.21682682238,-7356.987280486498,-7837.5497862756,-29514.87505613268
-15131.75101658714,-9064.504094660771,-8254.879207000638,-28999.332070271023
-16003.714919533126,-10719.717826809623,-8003.2879714117025,-28427.32857791526
-15275.31627122358,-10306.881106720104,-7678.047737842529,-28507.012546898437
-14074.200579428743,-8851.111990345955,-7567.630120233312,-28991.128980055928
-13338.135282771023,-7354.461533363049,-7802.345788758492,-29503.02863157137
-15033.760968895074,-8940.38485770045,-8259.573073336252,-29052.573925563567
-16014.376701638306,-10699.824774244402,-8028.903070557484,-28439.465575154496
-15334.570745774598,-10359.072430023243,-7691.481136260169,-28491.723953691
-14150.062400110057,-8954.39940147393,-7574.7379749700995,-28965.49152916569
-13320.67857035143,-7379.026100519432,-7782.743308871188,-29498.82650361377
-14908.747662156542,-8789.354120415941,-8247.257262141378,-29089.58841438156
-16008.654655057748,-10655.34480277834,-8048.326736489146,-28459.31392423081
-15377.195522450867,-10398.523258986865,-7695.347988050937,-28471.87560461469
-14195.1011651875,-9032.49639660077,-7567.048974877474,-28924.252560645647
-13302.864230020552,-7403.389501975716,-7762.91731153933,-29490.60106165422
-14809.21534409706,-8667.492409645607,-8249.805361009283,-29143.25495281875
-16000.920951476211,-10619.179680249654,-8079.663882215486,-28480.056343085333
-15439.981572625826,-10454.223806169488,-7733.949450725252,-28469.01458132441
-14268.14666606744,-9127.647772747014,-7581.018815162041,-28904.20304586924
-13288.357947869055,-7431.999734878509,-7749.9532997552515,-29479.089913259737
-14682.279787335372,-8522.273125919477,-8241.669326027552,-29180.850586992576
-15984.648881512749,-10563.27796736693,-8101.4121295705,-28500.73170670649
-15483.63452954704,-10493.674635133104,-7748.254567176648,-28449.993246792943
-14328.40696911895,-9216.495956956858,-7581.555257028968,-28858.873708113875
-13291.666006048445,-7481.844125013844,-7716.492738305657,-29449.451500112
-14571.16926564804,-8394.555258101853,-8202.978456375415,-29209.34906117309
-15975.618776752804,-10515.445234232571,-8107.000065684327,-28508.42070679912
-15554.355449003631,-10557.086534152812,-7761.10682023845,-28435.799889063823
-14409.47674625835,-9323.404350686593,-7583.343396585393,-28836.901943314308
-13316.521145882743,-7553.861445648843,-7706.054473645029,-29438.67795928454
-14467.881854520068,-8286.663387616085,-8208.499337255877,-29261.540384476237
-15965.381677792271,-10472.84280930076,-8136.638478832064,-28545.055215961365
-15598.723661747415,-10605.72393008756,-7769.242855220182,-28429.317883171785
-14471.614595844105,-9418.935706488575,-7585.019777419541,-28813.32085291396
-13348.461788709375,-7638.105170500895,-7687.368415280393,-29419.09783114169
-14371.814056851155,-8184.135935799592,-8178.123316541114,-29301.102972162127
-15954.652840453726,-10420.87500344217,-8146.383839414578,-28569.955059284577
-15649.931508294523,-10642.067866571888,-7781.849239092975,-28416.152705687608
-14540.569727488724,-9495.937466137108,-7591.524135056035,-28783.056590921475
-13388.247893839824,-7704.065168388506,-7674.8737901298755,-29394.82383666323
-14267.58787245606,-8064.151771563504,-8159.3254994542,-29329.310873664723
-15921.0581685374,-10342.845063548692,-8174.614092661631,-28602.65566142269
-15695.126735583155,-10673.047384386944,-7808.961905117262,-28420.444240623023
-14606.239152698416,-9577.767202587987,-7600.531888071524,-28760.414273788247
-13412.3654261071,-7778.049442535573,-7663.56380743549,-29370.77335962932
-14160.210092092764,-7960.014994146228,-8158.52083665381,-29376.45070272097
-15872.040792946911,-10253.438085727465,-8198.441052250988,-28618.883027897245
-15735.203413391522,-10703.73632952408,-7831.6489257394,-28403.83689449273
-14669.85221741822,-9661.72035476212,-7600.174260160239,-28732.273427519016
-13445.624821856598,-7862.851960999008,-7632.092551242417,-29326.248684674345
-14034.0121428981,-7849.127989903449,-8112.610353542609,-29395.49438899689
-15820.207097555054,-10164.96988117336,-8208.05230236677,-28662.267763885
-15768.351050418742,-10730.424312403717,-7835.918108930363,-28400.327670613253
-14725.463357623024,-9743.639498190822,-7600.375425860337,-28706.01012778403
-13500.520706238833,-7964.127715126004,-7623.50948137158,-29304.813361741708
-13948.360258145363,-7770.494552909679,-8091.376196310067,-29422.96468293246
-15787.1265157612,-10088.392804669476,-8228.01241016536,-28687.279365930484
-15823.559859223353,-10768.288167511007,-7858.225149896759,-28402.115810169675
-14799.045300369897,-9822.429397395776,-7609.8972689982975,-28687.5699386084
-13562.97148024696,-8066.11872507557,-7622.146024959806,-29276.158425350004
-13872.69960316415,-7701.986456154163,-8068.1527338210035,-29456.55935484879
-15746.692210041549,-10001.802146649616,-8233.62269802364,-28721.522238436013
-15855.858129961269,-10777.22886529313,-7872.664376814888,-28395.969080444465
-14861.071391233372,-9885.260151059649,-7618.905022013787,-28661.53015631797
-13624.148204821136,-8152.977604028893,-7610.366655631859,-29242.876677856053
-13778.174075862657,-7605.918658485253,-8034.938041560417,-29467.69052358753
-15672.998508572402,-9871.402069497355,-8251.839369754716,-28759.94488715469
-15882.791982029914,-10773.876103624834,-7898.212420727304,-28394.4044583326
-14923.589220474869,-9947.889739023416,-7635.9594030331855,-28640.653626996715
-13678.462943847531,-8246.854930741183,-7603.594077061901,-29206.93507277192
-13692.969225999026,-7543.020849588019,-8009.30059067018,-29495.272576245377
-15608.290208374288,-9765.521856012569,-8274.504038632398,-28811.063326723972
-15915.24671497902,-10792.651568967292,-7931.494168221256,-28410.78828701833
-14971.891340242784,-10012.240411310246,-7651.247996240616,-28628.538981501937
-13722.786453102406,-8338.98882138596,-7599.190783404206,-29177.095493924084
-13594.509791673398,-7478.983101723565,-7974.543628042177,-29505.93435835056
-15505.427480390965,-9637.759284706031,-8268.603178096197,-28841.931085816752
-15921.974590060066,-10795.713757957668,-7942.580633471088,-28411.078859696256
-15027.882460103328,-10089.957426781348,-7659.316975988981,-28612.17750456065
-13791.67452951366,-8462.303395545889,-7606.656266052279,-29157.604772759056
-13533.087197910214,-7455.893749701232,-7959.299738323658,-29533.583466241776
-15431.264392288256,-9527.632239774734,-8288.228009727956,-28893.29539457505
-15960.173721334188,-10803.223944094652,-7963.993604659272,-28422.61235983519
-15093.261312635104,-10149.502474010287,-7661.663909156789,-28591.61389966177
-13857.567472167906,-8554.861969335314,-7594.921600213242,-29118.15394379544
-13485.075650820214,-7424.288383041428,-7928.85666237553,-29526.967349883005
-15372.300490415157,-9413.012494207918,-8293.234800485945,-28925.861886246432
-15982.771334978504,-10785.744879930602,-7984.758375258252,-28416.935016743544
-15147.5760516615,-10192.082547197646,-7675.924322119275,-28556.34284691129
-13926.52260381253,-8645.811217523958,-7594.921600213242,-29075.48446363025
-13433.554879850732,-7386.513934911959,-7893.429147413868,-29522.07231784729
-15257.390172170422,-9254.15864636405,-8277.54387587832,-28958.651895362367
-15997.12115491881,-10764.644833164792,-7992.894410239985,-28423.372319146674
-15209.378625080422,-10253.348678749642,-7679.142973320839,-28533.432308844604
-13980.591473649916,-8737.900404679824,-7576.146134870784,-29029.41751830787
-13378.726050701864,-7369.683071337113,-7856.526417318156,-29517.646672445146
-15150.638240651875,-9114.974333640854,-8275.152239221601,-28995.68873592481
-15996.49530607406,-10735.878138050812,-8014.665009339454,-28423.14880170212
-15258.30659369309,-10297.158097882044,-7693.157517094317,-28510.41001205564
-14043.39987556933,-8825.563946433538,-7576.995501160086,-28997.83450339252
-13330.513337911769,-7353.142780440186,-7824.205794835782,-29512.72928866497
-15047.104960334893,-8974.091288339054,-8268.379660651644,-29042.73915800323
-16009.83929751388,-10714.845146518368,-8031.339410703113,-28444.762938590404
-15315.437652520855,-10354.75854334337,-7691.324674048981,-28497.84833167176
-14114.523126426117,-8925.699761593314,-7569.284149323005,-28968.263145478148
-13316.476442393834,-7375.986263273509,-7799.149489301382,-29506.783724639863
-14946.656220752744,-8847.401600766374,-8266.21154143948,-29090.504835904223
-16007.64882655726,-10686.234913615575,-8059.54731220571,-28466.086502800765
-15361.03521120968,-10402.926552644558,-7723.220613386705,-28499.85998867273
-14176.303348100586,-9021.92402147341,-7587.83609722091,-28954.002732515663
-13304.294741665692,-7405.289400254417,-7786.721919384232,-29503.877997860676
-14842.94412648012,-8715.10162533541,-8256.712050045973,-29124.792411898663
-16015.918972005722,-10652.752000421526,-8080.759117693797,-28478.11174131772
-15429.409197498466,-10461.97986149548,-7735.424665859302,-28472.81437788181
-14259.63065142997,-9125.434950045938,-7588.037262921008,-28913.188447140277
-13309.234477190314,-7443.37677280626,-7755.518884124624,-29489.88580583165
-14739.634363607687,-8584.165106316223,-8248.10662843068,-29172.5357380552
-16013.996721982568,-10606.416834165671,-8103.647304016031,-28491.67925020209
-15493.78222152975,-10507.488013206485,-7747.248738676159,-28452.898973572133
-14326.708236540348,-9209.05282605324,-7582.7398994851,-28871.72596117568
-13314.77770981523,-7481.039462213453,-7734.642354803366,-29460.4038548951
-14627.987400053433,-8446.992450594003,-8231.67809625603,-29203.82818029263
-15997.747003763558,-10546.983545659012,-8127.451911860933,-28508.063078887837
-15539.804463363227,-10546.04477239189,-7765.711279596243,-28436.00105476392
-14393.80817339518,-9297.923362007545,-7589.445422821692,-28844.322722473476
-13330.893317567508,-7542.238538532083,-7725.187566898771,-29449.11622394517
-14512.428881219494,-8327.745893924939,-8221.82097695124,-29246.38590173553
-15974.59059650786,-10500.55897242534,-8150.13893248307,-28537.969712969032
-15579.635271982585,-10598.928999773145,-7780.865762336942,-28438.99618852093
-14447.877043232564,-9391.063081152806,-7585.131536141817,-28821.92627452925
-13326.042989020703,-7598.274361881538,-7688.687168203255,-29423.367014332656
-14384.956882590875,-8200.452709251966,-8193.657778937553,-29289.211844111906
-15936.749093145025,-10428.027561667868,-8156.5538831417425,-28558.041579489895
-15621.075406202724,-10631.182567022151,-7792.6227799204335,-28421.67358656807
-14505.701006138446,-9470.277663502417,-7597.961437459164,-28797.808742261976
-13353.26741376727,-7667.721231904177,-7683.613322211901,-29402.24461582239
-14283.30114880814,-8087.062309630193,-8182.548961943265,-29326.583960841177
-15911.62573237726,-10352.43396192002,-8182.548961943265,-28591.70330663959
-15658.492226420907,-10651.142674820743,-7817.16499533236,-28415.795077776325
-14556.171245118529,-9536.327068367847,-7602.096510183395,-28760.30251506597
-13373.808666921695,-7735.782293770587,-7667.363603992892,-29369.38755147309
-14167.720278229748,-7966.966386671828,-8158.476133164899,-29358.591658901176
-15876.33232788233,-10255.583853195174,-8188.04749107927,-28612.468077238573
-15718.461956794496,-10673.226198342589,-7826.351562303492,-28402.78636250333
-14634.871737345666,-9603.13643254476,-7603.214097406161,-28727.89248560578
-13420.344998877645,-7797.49546021169,-7642.262594969582,-29329.84731553165
-14060.49896007764,-7840.567271777067,-8118.958248967916,-29380.965755100937
-15825.146833079676,-10151.514131011265,-8197.47992723941,-28640.96655141909
-15751.45313161053,-10685.0726229039,-7838.712076987276,-28405.513275326884
-14704.072738179297,-9681.591055582889,-7616.669847568256,-28722.885694847788
-13475.687918148986,-7898.234772471759,-7643.603699636901,-29319.36434738211
-13972.991880535112,-7764.169009228827,-8110.039902930249,-29423.121145143647
-15786.523018660906,-10083.2295517003,-8225.933697931016,-28677.2210809256
-15785.383079693684,-10726.959792013144,-7868.976338979762,-28406.653214294103
-14766.21058776505,-9777.4576875517,-7634.283022199038,-28706.54656965096
-13537.266974123357,-8022.979858276828,-7643.246071725616,-29296.967899437896
-13886.89296089327,-7714.279915604582,-8098.729920235864,-29463.890727030128
-15754.872948512191,-10025.740864961252,-8262.836428026727,-28739.515392722536
-15852.862996204258,-10784.493182241104,-7898.815917827597,-28421.852400523712
-14837.736170022032,-9861.991985081671,-7637.792246078521,-28678.942165248653
-13590.017091037882,-8111.60452504212,-7630.706743086189,-29254.54428846172
-13791.942750447126,-7621.587231348423,-8062.095411073615,-29468.62929685465
-15674.697241151003,-9887.96471213874,-8256.667346557064,-28746.936171881694
-15867.212816144563,-10773.18319954672,-7902.593362640544,-28391.655193764596
-14887.737022368554,-9921.805253244072,-7639.669792612767,-28647.783833477955
-13636.374609038188,-8204.163098831546,-7623.330667415938,-29220.279064211736
-13697.506630123453,-7546.977108356608,-8025.416198422457,-29479.425189426565
-15602.2328856269,-9779.134068385849,-8255.929738990038,-28774.7417419841
-15887.262330920976,-10772.669109424249,-7911.623467400488,-28395.0526589218
-14937.313191570423,-9979.49510568322,-7637.993411778619,-28617.072536596363
-13687.56010384084,-8292.74306210793,-7596.486222325114,-29173.653325277966
-13607.294989501834,-7473.082241187363,-7981.226799634314,-29491.718648876984
-15520.73842534285,-9647.348183077358,-8259.43896286952,-28810.66099532378
-15909.52466839846,-10775.08309782542,-7925.123921051493,-28384.949670428
-15003.116727246848,-10050.148969906446,-7641.860263569387,-28594.452571207592
-13759.935052387124,-8405.641723351684,-7587.634931520812,-29144.57370574161
-13541.91613697006,-7439.37581054876,-7950.71666845282,-29507.141352551145
-15451.895052420505,-9548.821693518365,-8279.913160790582,-28859.276039514072
-15939.230136779564,-10792.048071867,-7953.175360342903,-28397.71251651198
-15063.26527157608,-10122.345104497088,-7652.119714274373,-28574.358352942272
-13830.052474743425,-8513.645352559728,-7580.92940818422,-29109.59322566905
-13492.027043345815,-7411.100853812797,-7911.891688333952,-29509.711803163507
-15383.006976009248,-9431.072703727808,-8263.484628615932,-28892.356621307925
-15976.714012231114,-10791.55633348898,-7969.8944651954735,-28408.307243383795
-15132.4215689208,-10183.320663371163,-7663.384993479847,-28564.74710282649
-13905.9813506581,-8615.345789831375,-7583.924541941231,-29086.90620504692
-13448.95523178044,-7387.899743068188,-7882.946179264329,-29520.23947480196
-15284.145210283425,-9291.97779798243,-8263.216407682468,-28936.4789648627
-15985.721765246602,-10770.9927285901,-7981.942055456884,-28404.216874148475
-15182.176552078314,-10231.846300583638,-7671.498676717124,-28525.22921862951
-13956.831569293923,-8694.023930314057,-7584.528039041525,-29029.08224214104
-13384.358690304602,-7346.124332681219,-7866.338833134036,-29499.474704202978
-15177.885017142897,-9134.174482127964,-8270.413669397078,-28961.624677374923
-15990.706204260136,-10728.74793156957,-8005.769015046241,-28410.609473062694
-15228.95875322327,-10264.993937610858,-7679.254732043116,-28511.348785322763
-14019.997599124625,-8786.44839363675,-7576.034376148507,-29000.963747616264
-13346.651297408498,-7356.36143164175,-7832.699457728799,-29499.206483269518
-15084.946463697728,-9018.012466193732,-8268.312605418278,-29013.883055911432
-16011.761547537037,-10716.0297889745,-8019.448282652889,-28420.77951678986
-15300.104355824516,-10331.982115743413,-7686.787269924554,-28494.76379093692
-14093.601893615947,-8896.687197290326,-7570.804067945965,-28972.42056994684
-13336.391846703513,-7384.859905822266,-7811.465300496256,-29513.69041367655
-14988.074003228428,-8898.721206035758,-8263.752849549395,-29069.13656820495
-16014.801384782955,-10703.848088246355,-8041.241233496814,-28446.081691513264
-15359.761161775728,-10404.91585790108,-7698.298418319037,-28485.64427919916
-14170.693060242304,-9012.804509735646,-7564.255006820561,-28947.27485743461
-13322.06437850766,-7420.153310317196,-7771.969768043729,-29499.25118675842
-14885.52419966748,-8780.122849955898,-8241.53521556082,-29115.851714116543
-16026.737216322092,-10687.531314793983,-8051.567739435165,-28471.45092147004
-15423.418929984444,-10470.898207533146,-7708.803738213031,-28474.0213720824
-14239.938764564844,-9113.901449907,-7569.105335367362,-28913.791944240565
-13319.739797084309,-7455.022031667475,-7751.339107911481,-29491.092800032235
-14789.903436887676,-8648.828703025425,-8236.371962591644,-29160.26463034924
-16029.240611701083,-10640.927927604667,-8076.735803691841,-28484.43728499857
-15476.146695154512,-10509.924353352111,-7724.069979676006,-28459.515089930905
-14302.25542810624,-9200.11212827112,-7568.323024311427,-28888.355659050427
-13309.323884168136,-7494.584619353369,-7723.801758742543,-29470.909174789093
-14663.750191181922,-8520.641448574239,-8212.276782068824,-29199.268424423743
-15994.036614183977,-10588.557790345883,-8084.849486929118,-28505.380869553195
-15511.73067232736,-10552.303260839377,-7737.883357749386,-28458.710427130514
-14364.79560909219,-9291.866039260154,-7567.764230700044,-28873.961135621208
-13307.245171933791,-7534.370724483815,-7699.147784608339,-29469.590421866236
-14543.96719264593,-8380.875990495204,-8210.53334600131,-29263.32852403266
-15988.35927109233,-10535.092417608788,-8131.877557263084,-28555.001742243978
-15573.26502481282,-10592.37993864774,-7779.323491969525,-28466.60059292324
-14439.42808382846,-9377.272054823885,-7590.920637955742,-28857.7114174022
-13328.881660566529,-7588.126669898828,-7684.619150712389,-29443.10360468669
-14435.069493659676,-8246.474951085444,-8180.783174131296,-29281.276974830267
-15967.840369682355,-10458.291823660353,-8139.208929444424,-28562.869556292244
-15627.311542905754,-10619.358494205297,-7786.118422283938,-28440.98549377745
-14508.15969802853,-9441.91329978863,-7595.480393824625,-28823.759117574587
-13357.201320791402,-7641.256766469093,-7673.711499418199,-29419.522514286346
-14335.514823855738,-8129.150644439536,-8175.418755462022,-29325.399318385043
-15953.401142764227,-10388.24145653742,-8155.033964518781,-28588.37289671575
-15675.077220806745,-10647.432285241162,-7791.751061886676,-28426.210990692496
-14572.532722059814,-9519.965591426562,-7590.361844344359,-28781.71548625416
-13397.389757322046,-7719.599630784945,-7661.865074856887,-29386.844263892683
-14239.469377931284,-8021.392884420501,-8161.985357044382,-29357.71994086742
-15913.123299255763,-10309.965647454936,-8175.016424061826,-28606.81308589138
-15714.706863726004,-10686.63724501577,-7806.413806249358,-28415.19158067603
-14635.341123979226,-9608.299685513935,-7600.688350282711,-28768.28208783652
-13418.400397110034,-7792.578076431522,-7637.524025145058,-29357.29525772277
-14096.50762039514,-7893.5632578806,-8105.480147061366,-29364.984257815395
-15839.317839064342,-10205.404186893007,-8171.28368273779,-28628.04724312392
-15741.081922183266,-10702.149355667754,-7816.427387765335,-28416.935016743544
-14682.90563618012,-9674.214979912636,-7593.736957757111,-28743.002264857565
-13450.98924052587,-7870.585664580544,-7613.965286489164,-29333.691815577964
-13993.44372671172,-7795.528506699623,-8073.338338534634,-29408.50310426988
-15799.844658356267,-10123.574450442133,-8190.752052158363,-28669.375618621783
-15767.904015529635,-10713.816966273424,-7826.843300681508,-28408.128429428158
-14731.163052459127,-9741.31491676747,-7594.385158346315,-28714.63790114378
-13504.275799307325,-7970.4309070624,-7612.646533566301,-29309.6189867996
-13913.46918505063,-7723.913517464819,-8069.136210577037,-29448.22215416696
-15762.137265460166,-10037.587289522564,-8216.568317004243,-28712.961520309636
-15832.813481427847,-10758.542806928494,-7859.387440608435,-28413.44814460852
-14825.062730915874,-9832.845310311952,-7614.188803933716,-28693.627261355792
-13582.059870011792,-8075.551161235709,-7609.114957942362,-29275.64433522753
-13838.210861469612,-7648.386972950337,-8046.762114377274,-29470.68565734454
-15716.20443060451,-9935.082189450526,-8222.916212429549,-28733.70393916416
-15870.878502235237,-10769.85278962288,-7870.540961091633,-28395.81261823328
-14881.813810087897,-9901.24164834519,-7608.22088816415,-28647.24739161103
-13626.562193222308,-8171.730717626896,-7583.589265774402,-29218.02153802175
-13741.271345766943,-7576.21319010415,-8000.404596376968,-29471.713837589487
-15648.657458860573,-9820.440092139255,-8229.040590410303,-28771.768959971545
-15903.333235184342,-10778.480562982628,-7877.358243150502,-28391.45402806449
-14937.693171226165,-9966.911073554882,-7607.349170130393,-28627.242580323527
-13688.744746296972,-8271.754774064395,-7582.091698895896,-29190.417133619445
-13658.458132560032,-7513.740064351567,-7981.830296734607,-29495.294927989835
-15565.84424565366,-9714.738692610108,-8236.260203869368,-28804.491913854115
-15905.479002652051,-10781.18512406172,-7885.293112432136,-28392.3033943538
-14969.67851754171,-10018.521251502189,-7605.382216618325,-28598.654699165192
-13727.368560715744,-8364.536865298374,-7573.6874429807,-29153.089720379085
-13562.278576168845,-7454.954976434109,-7948.705011451842,-29507.3648699957
-15472.458657319386,-9583.913932313197,-8240.574090549242,-28843.965094562187
-15924.522688927971,-10776.267740281552,-7918.217232014804,-28405.91560672708
-15025.423768213246,-10075.317034163125,-7624.001219749596,-28591.591547917316
-13775.804790950391,-8447.752409905483,-7560.097582351874,-29124.07715607609
-13479.912397851038,-7397.354530972783,-7909.544755166145,-29515.32209102179
-15381.509409130742,-9456.01725053993,-8251.39233486561,-28892.6695457303
-15943.789892648449,-10777.385327504317,-7940.47956949229,-28415.504505098404
-15090.199123644725,-10149.256604821278,-7650.130409017851,-28579.87923382273
-13858.126265779289,-8564.942606084658,-7580.191800617194,-29117.32692925059
-13437.220565941405,-7375.628635362224,-7893.362092180502,-29535.863344176218
-15317.69517871084,-9347.208958531495,-8274.101707232203,-28938.848249774965
-15974.367079063308,-10775.820705392443,-7967.882808194496,-28421.651234823614
-15158.550758189054,-10211.327399173666,-7645.995336293618,-28555.44877713308
-13936.580888817418,-8666.754802078582,-7556.968338128131,-29065.64969606992
-13398.999082922826,-7359.133047954207,-7846.289318357625,-29521.17824806908
-15222.610857797965,-9206.39296846306,-8255.572111078753,-28973.292287980592
-16002.329111376896,-10764.689536653705,-7986.859439237051,-28426.52391511487
-15222.901430475884,-10273.666414459518,-7668.212970282194,-28531.822983243823
-14001.043319826524,-8769.416364361807,-7570.982881901608,-29035.631303266444
-13358.78829464773,-7359.7812485434115,-7834.197024607304,-29525.73800393796
-15125.693693839752,-9082.65371115848,-8261.003584981392,-29018.12988735794
-16013.84025977138,-10754.452437693171,-8011.245192437791,-28437.47626989797
-15279.987785814736,-10332.585612843706,-7682.115755333395,-28515.237988857985
-14073.082992205978,-8872.61436851196,-7570.6252539903235,-28997.72274467024
-13329.485157666822,-7367.045565491387,-7809.341884773003,-29515.344442766243
-15008.883477316318,-8935.48982566474,-8249.827712753739,-29048.95294296181
-15998.93164621969,-10709.9277627382,-8022.39871292099,-28440.449051910527
-15323.663094480407,-10374.562188930771,-7692.732833949666,-28496.931910149087
-14118.591143916983,-8950.621956660982,-7568.5688935004355,-28961.423511674824
-13290.928398481416,-7369.3477951702835,-7791.30402699757,-29510.3153002638
-14899.963426585608,-8798.808908320536,-8251.571148821253,-29100.76428660921
-15999.468088086616,-10674.053212887433,-8047.231501010836,-28461.25852599842
-15371.831103781597,-10420.33856157524,-7707.127357378884,-28488.907633889638
-14178.918502201856,-9041.750018805267,-7568.792410944988,-28946.53724986759
-13281.607721043554,-7403.277743253439,-7766.068907507528,-29518.36192826771
-14791.043375854895,-8675.941369049713,-8247.167855163558,-29160.242278604783
-15995.176553151196,-10643.163102050195,-8075.595864724621,-28497.513055504925
-15439.020447614248,-10486.566780396315,-7738.196282171761,-28497.26718631592
-14272.77347716969,-9161.510665596805,-7581.577608773424,-28928.387633369883
-13303.19950618738,-7465.326185861371,-7737.928061238296,-29493.10445703321
-14703.066909678808,-8555.376059457787,-8224.905517686071,-29181.431732348414
-16014.711977805136,-10602.818203308369,-8087.464641030388,-28497.02131712691
-15514.07760549517,-10535.315935053342,-7732.630697802389,-28462.8678515992
-14350.021106007232,-9251.610547496146,-7578.381309316315,-28890.993164896157
-13310.06149173516,-7507.43687241517,-7723.019447686607,-29474.932488791048
-14598.41604213906,-8433.00025856498,-8225.82193920874,-29237.13227953104
-15992.673157772204,-10549.665754993648,-8108.207059884913,-28520.51300054944
-15539.513890685308,-10556.66185100816,-7742.085485706983,-28442.550115889328
-14400.200772309396,-9316.832937816733,-7570.312329567949,-28846.11086202989
-13320.097424995593,-7552.609747959345,-7694.1856973392605,-29444.77998552084
-14483.550427383236,-8298.129832521658,-8205.928886643516,-29272.31392530369
-15970.321413316897,-10477.916655292112,-8130.268231662301,-28551.31370440885
-15593.336891333687,-10594.659816582182,-7769.891055809386,-28442.930095545067
-14459.47759860487,-9404.42942433708,-7580.9517599286755,-28822.552123374004
-13331.653276878988,-7612.802995777488,-7670.045813327529,-29426.406851578577
-14367.969556804845,-8173.47415369441,-8177.09513629617,-29314.33520487967
-15944.795721148936,-10414.370645805677,-8151.2118162169245,-28586.137722270218
-15637.012199999355,-10636.546985691428,-7779.368195458436,-28438.03506350936
-14519.670846423012,-9482.101736319271,-7582.158754129262,-28796.802913761487
-13352.775675389252,-7680.595836710434,-7662.334461490448,-29403.85394142317
-14240.363447709497,-8051.232463268336,-8168.288548980779,-29358.591658901176
-15882.434354118628,-10318.056978947758,-8177.810392118739,-28618.748917430512
-15669.198712015,-10664.844294171846,-7806.793785905098,-28436.492793141937
-14579.975852963433,-9572.916874041186,-7597.939085714708,-28790.633832291824
-13376.133248345048,-7757.329375425503,-7652.343231718926,-29385.592566203188
-14123.374417230418,-7937.529139224189,-8144.238071946868,-29390.174673816524
-15863.748295753992,-10258.578986952183,-8202.62082846413,-28648.20851662261
-15715.735043970948,-10697.768413754511,-7829.257289082681,-28431.10602272821
-14647.411065985092,-9651.684421501688,-7607.12565268584,-28770.36080007086
-13430.917374005006,-7851.296109115614,-7643.670754870267,-29357.205850744947
-14045.009201170113,-7856.347603362514,-8127.675429305485,-29421.86944745415
-15833.79695818388,-10177.755079001794,-8212.008561135359,-28673.53304309047
-15765.154750961632,-10722.087111721889,-7843.294184600614,-28420.176019689563
-14711.359406871728,-9718.605544400876,-7608.019722464052,-28724.45031695966
-13482.460496718944,-7933.28230777768,-7634.931222788242,-29324.79582128475
-13951.936537258212,-7752.948433512263,-8101.36742608159,-29450.59143907922
-15784.98074829349,-10072.545417850664,-8223.564413018754,-28706.85949407333
-15808.51713520493,-10741.68959160919,-7866.070612200572,-28421.494772612423
-14781.186256550103,-9790.89108596934,-7617.385103390826,-28703.417325427214
-13534.517709555354,-8016.341390173601,-7613.339437644415,-29285.94848942143
-13841.40716092672,-7646.911757816287,-8054.83109412564,-29459.46508162797
-15711.599971246716,-9951.600128602997,-8226.112511886658,-28731.15584029625
-15834.713379706547,-10748.238652734595,-7869.4010221244125,-28406.273234638364
-14827.633181528234,-9851.08433378748,-7612.378312632837,-28679.277441415485
-13569.92287277256,-8102.306199348713,-7604.890478240309,-29258.679361185958
-13738.544432943396,-7566.937216155197,-8033.038143281716,-29485.951898807514
-15652.837235073715,-9854.70531638924,-8245.044439440304,-28774.898204195288
-15864.75412425448,-10772.020908835044,-7896.200763726326,-28416.398574876617
-14887.08882177935,-9932.243517904702,-7628.695086085211,-28659.652609783723
-13629.467920001498,-8213.997866391881,-7596.55327755848,-29228.236285237825
-13652.601975512742,-7512.734235851078,-8002.282142911214,-29508.951843852028
-15585.133801118587,-9759.419829776269,-8253.87337850015,-28809.87868426784
-15894.750165313502,-10789.544676488003,-7909.030665043672,-28419.036080722344
-14940.48713928308,-9998.248219281224,-7625.901118028298,-28632.47288852607
-13686.308406151344,-8316.905297864116,-7584.17041113024,-29190.14891268598
-13576.87426529816,-7469.103630674319,-7968.307491339146,-29519.054832345824
-15505.896867024529,-9644.151883620249,-8257.472009357454,-28848.21192600869
-15928.277781996463,-10805.481470284638,-7927.560261197122,-28419.99720573392
-15033.202175283692,-10096.841764073582,-7651.9185485742755,-28632.29407457043
-13789.551113790409,-8454.145008819702,-7601.113033427362,-29171.14992989897
-13536.81993923425,-7445.656650740701,-7953.398877787456,-29536.176268598592
-15445.189529083911,-9536.37177185676,-8264.043422227314,-28883.05829561452
-15944.192224048642,-10793.478583512138,-7939.540796225167,-28412.91170274159
-15072.161265869292,-10135.733799425818,-7642.664926369778,-28590.13868452772
-13826.02916074147,-8526.743474810539,-7563.964434142642,-29116.07523156109
-13452.889138804572,-7390.872525080744,-7896.424281170879,-29530.610684229217
-15342.617373778508,-9396.874534711187,-8262.590558837719,-28929.10288919245
-15964.599366736338,-10792.584513733926,-7955.924624910906,-28425.227513936465
-15116.4177198908,-10195.278846654755,-7642.664926369778,-28570.51385289596
-13879.963920112124,-8626.678124270216,-7559.628195718312,-29085.63215561297
-13392.561780519698,-7369.861885292756,-7870.429202369357,-29540.266637833916
-15242.213337685267,-9266.273291858828,-8267.664404829075,-28976.756808371167
-15979.507980288028,-10781.341586272909,-7989.899276482974,-28447.780424091867
-15181.327185789012,-10257.84137938516,-7673.398574995826,-28562.690742336603
-13953.009420992068,-8733.407704044308,-7575.162658114751,-29066.387303636948
-13351.434570721936,-7364.542170112392,-7849.552673048101,-29546.838050703773
-15158.394295977869,-9145.976203200364,-8265.764506550373,-29018.956901902784
-15987.688718758667,-10760.21918776264,-8001.075148710627,-28445.67936011307
-15230.188099168314,-10298.879182205104,-7678.539476220546,-28537.522678079928
