 EXG Channel 0, EXG Channel 1, EXG Channel 2, EXG Channel 3
-59019.11068190464,-74661.28613487317,-54779.901180255554,-39816.72702035034
-58971.30030051474,-74600.89172135493,-54745.50184553884,-39782.46179610035
-58901.629913047545,-74544.78884277212,-54683.18518199745,-39726.24715879526
-58929.50253838331,-74580.97631704525,-54679.27362671777,-39730.04695535266
-59005.923152676005,-74643.40473930893,-54758.33174685619,-39808.09924699059
-59014.30505684675,-74654.96059119233,-54780.70584305595,-39827.098229777606
-58969.13218130257,-74621.70119544283,-54748.318165340206,-39793.36944739454
-58907.32960788365,-74553.70718880979,-54688.63900764454,-39734.98669087728
-58929.81546280569,-74560.85974703547,-54680.12299300707,-39728.3258710296
-59005.38671080908,-74632.67590197037,-54753.1237903981,-39796.25282242928
-59008.51595503282,-74659.29682961665,-54775.78845927578,-39819.31982270716
-58988.57819897869,-74635.76044270521,-54750.3745258301,-39793.03417122772
-58910.7047212964,-74551.47201436425,-54685.42035644298,-39728.23646405178
-58913.163413186485,-74557.41757838936,-54671.29405394722,-39724.727240172295
-58996.557771749234,-74636.16277410541,-54743.2219676044,-39797.9962584968
-59007.84540269917,-74652.09956790204,-54767.69712778296,-39819.23041572934
-58966.67348941249,-74627.19972457882,-54736.85172043464,-39787.64740081399
-58907.39666311701,-74553.17074694285,-54679.43008892895,-39730.31517628612
-58935.13517798605,-74566.2018139603,-54668.38832716803,-39722.76028666023
-58986.90181814454,-74649.08208240058,-54727.91102265252,-39788.20619442537
-58984.33136753218,-74647.33864633307,-54753.57082528721,-39809.86503480256
-58952.01074504981,-74611.73231741576,-54724.42415051749,-39778.37142686504
-58894.11972691056,-74544.29710439409,-54664.14149572152,-39720.10042907005
-58921.2547446793,-74554.26598242116,-54652.22801592684,-39716.88177786848
-59019.33419934919,-74669.623335555,-54731.755522698826,-39796.27517417374
-59013.34393183517,-74655.60879178153,-54752.520293297806,-39812.681354603934
-58957.4645706969,-74615.35330001752,-54724.98294412887,-39779.93604897691
-58895.52788681125,-74575.61189837598,-54672.63515861454,-39730.09165884157
-58913.453985864406,-74560.7479883132,-54660.654623586495,-39725.59895820606
-58982.31971053121,-74609.69830867033,-54724.98294412887,-39783.668790300944
-58997.13891710508,-74631.6700734699,-54752.76616248681,-39802.33249692112
-58957.77749511928,-74608.73718365874,-54721.02668536028,-39772.89524947349
-58901.71932002537,-74556.85878477799,-54660.00642299729,-39714.177216789394
-58931.29067793974,-74574.00257277519,-54651.44570487091,-39715.20539703434
-58985.09132684366,-74634.15111710443,-54718.947973125934,-39783.57938332312
-58990.9251321465,-74641.21426835231,-54743.6690024935,-39801.84075854311
-58961.17496027648,-74611.39704124893,-54722.14427258304,-39779.42195885444
-58900.154697913495,-74542.88894449342,-54664.23090269935,-39724.324908772105
-58930.083683739154,-74566.55944187158,-54655.67018457296,-39722.60382444904
-58991.75214669135,-74653.373617336,-54719.372656270585,-39791.84952877159
-58996.8259926827,-74654.58061153658,-54740.271537336295,-39812.949575537394
-58952.77070436129,-74606.61376793549,-54712.39891200053,-39782.37238912254
-58887.83888671862,-74539.75970026967,-54653.54676884971,-39720.3239465146
-58927.1109017266,-74579.52345365565,-54644.851940256594,-39717.23940577977
-59010.34879807816,-74656.63697202646,-54723.59713597264,-39795.51521486226
-59019.17773713801,-74675.09951294656,-54750.79920897475,-39819.20806398488
-58979.9727773634,-74655.65349527044,-54721.78664467176,-39790.01668572625
-58903.68627353743,-74544.20769741628,-54657.27951017374,-39724.45901923884
-58923.48991912483,-74542.12898518193,-54639.107541931575,-39714.601899934045
-59003.21859159692,-74629.03256762416,-54705.67103691949,-39783.177051922925
-58993.13795484757,-74632.27357057018,-54729.63210697557,-39804.03122949973
-58938.689105354446,-74601.42816322186,-54701.91594385099,-39780.96422922185
-58883.726165738844,-74553.12604345394,-54651.065725215165,-39734.606711221546
-58900.10999442459,-74548.85686026298,-54632.402018594985,-39716.45709472383
-58981.76091691982,-74632.9217711594,-54701.759481639805,-39780.673656543935
-58981.91737913101,-74637.28036132817,-54729.34153429765,-39796.23047068482
-58934.55403263021,-74583.88204382444,-54697.7138158934,-39761.384101079
-58875.43366854593,-74526.7956884856,-54634.88306222953,-39699.20154800434
-58889.22469487485,-74535.66933103435,-54621.76258823426,-39693.27833572368
-58982.18560006447,-74629.7701751912,-54699.90428685001,-39772.22469713983
-58998.79294619477,-74666.35998086452,-54732.31431631021,-39802.958345765874
-58942.95828854541,-74605.25031152372,-54702.3629787401,-39773.69991227388
-58865.30832830767,-74518.4361360593,-54645.81306526817,-39718.51345521373
-58895.50553506679,-74550.28737190813,-54634.05604768468,-39708.96926033131
-58984.93486463247,-74642.77889046418,-54704.03935957424,-39780.00310421027
-58996.222495582406,-74650.62435276799,-54727.79926393024,-39800.41024689797
-58937.32564894267,-74588.77707586015,-54698.898458349526,-39765.63093252551
-58878.80878195868,-74534.70820602277,-54647.4000391245,-39712.634946421975
-58906.5025933388,-74536.47399383473,-54634.83835874061,-39703.89541433995
-58992.60151298065,-74625.97037863379,-54698.22790601587,-39770.74948200578
-59009.61119051113,-74654.2229836253,-54725.87701390709,-39797.03513348522
-58938.33147744316,-74609.40773599241,-54698.22790601587,-39772.135290162005
-58862.31319455066,-74532.87536297743,-54644.4496088564,-39722.089734326575
-58885.80487797319,-74550.17561318584,-54625.02594292474,-39708.34341148656
-58971.90379761503,-74635.44751828283,-54692.68467339095,-39780.96422922185
-58977.78230640678,-74645.59521026554,-54723.30656329472,-39811.004973769785
-58938.3091256987,-74592.26394799519,-54704.39698748553,-39781.76889202224
-58876.46184879087,-74521.25245586067,-54643.62259431155,-39720.21218779233
-58884.5978837726,-74524.76167974016,-54620.93557368941,-39701.5708329166
-58965.108867300616,-74612.82755289407,-54692.75172862432,-39768.3354936046
-58977.0223470953,-74632.117108359,-54720.33378128216,-39786.90979324696
-58924.1604714585,-74592.86744509547,-54686.67205413247,-39752.9351416749
-58855.004174113776,-74533.90354322238,-54633.27373662874,-39702.576661417086
-58877.82530520264,-74522.75002273919,-54617.2922393432,-39691.15492000043
-58947.78626534776,-74598.76830563167,-54681.62055988557,-39761.13823188999
-58962.09138179915,-74632.83236418157,-54717.7186271809,-39795.20229043989
-58929.99427676133,-74609.02775633667,-54692.97524606887,-39770.05657792766
-58886.34131984012,-74560.7032848243,-54642.9967454668,-39722.71558317132
-58906.72611078336,-74563.6537150924,-54626.59056503661,-39707.94108008636
-58957.4645706969,-74617.47671574078,-54684.4592314314,-39763.23929586879
-58942.57830888967,-74591.92867182835,-54706.27453401977,-39778.997275709786
-58904.49093633783,-74555.092996966,-54678.53601915074,-39751.079946885104
-58851.003211856274,-74515.01631915764,-54630.41271333846,-39709.75157138724
-58875.27720633474,-74534.70820602277,-54613.38068406352,-39700.16267301592
-58960.683221898464,-74628.65258796842,-54683.92278956447,-39768.38019709352
-58965.06416381171,-74629.47960251327,-54714.65643819052,-39791.89423226049
-58922.32762841316,-74578.87525306645,-54686.940275065936,-39759.417147566935
-58847.941022865896,-74531.60131354348,-54637.40880935297,-39710.51153069872
-58842.0401623297,-74502.81226668504,-54616.19700386489,-39693.14422525695
-58924.89807902552,-74587.39126770393,-54677.88781856154,-39755.99733066528
-58937.2138902204,-74608.91599761439,-54709.5155369658,-39783.51232808975
-58916.24795392132,-74587.57008165956,-54691.16475476799,-39764.803917980666
-58865.12951435203,-74527.6897582638,-54642.30384138869,-39712.61259467752
-58856.5464444812,-74523.77820298412,-54615.1911753644,-39690.484367666766
-58930.7095325839,-74596.46607595278,-54675.36207143809,-39751.929313174405
-58950.222605493385,-74614.07925058357,-54707.50387996482,-39781.47831934432
-58915.30918065419,-74589.87231133846,-54690.00246405631,-39761.27234235672
-58847.806912399166,-74518.50319129266,-54636.872367486045,-39708.67868765339
-58864.995403885296,-74526.21454312975,-54613.24657359679,-39693.81477759061
-58942.15362574502,-74609.31832901458,-54676.0549755162,-39755.70675798736
-58949.75321885982,-74619.28720704165,-54705.00048458582,-39780.89717398849
-58917.54435509972,-74582.76445660168,-54680.212399984885,-39757.13726963249
-58853.528958979725,-74517.3856040699,-54631.55265230568,-39710.198606276346
-58856.32292703664,-74516.2903685916,-54606.92102991594,-39691.57960314508
-58925.43452089245,-74590.49816018321,-54663.87327478806,-39751.10229862956
-58940.05256176622,-74619.98011111976,-54695.948028081424,-39780.56189782166
-58910.54825908521,-74594.63323290745,-54682.17935349696,-39764.3345313471
-58860.32388929414,-74550.46618586376,-54639.398114609496,-39719.92161511441
-58872.28207257773,-74548.36512188496,-54616.2417073538,-39701.70494338333
-58965.15357078953,-74641.63895149696,-54679.0054057843,-39769.02839768272
-58973.53547496027,-74666.71760877581,-54703.12293805158,-39792.16245319396
-58917.499651610815,-74606.63611967994,-54676.03262377175,-39759.30538884466
-58838.75445589477,-74526.50511580767,-54627.7975592372,-39710.891510354464
-58846.93519436541,-74550.82381377504,-54611.12315787353,-39704.43185620688
-58919.51130861179,-74615.19683780633,-54675.2056092269,-39765.63093252551
-58919.84658477862,-74607.82076213608,-54706.43099623096,-39787.91562174745
-58882.98855817182,-74570.91803204037,-54683.0063680418,-39762.47933655731
-58813.60874338255,-74504.9356824083,-54627.1940621369,-39709.39394347596
-58834.59703142608,-74518.12321163694,-54612.59837300758,-39699.872100338
-58914.32570389816,-74597.31544224208,-54673.26100745929,-39755.61735100953
-58922.03705573524,-74617.78964016314,-54704.70991190791,-39781.65713329997
-58896.04197693372,-74597.44955270881,-54689.1083942781,-39764.55804879165
-58847.18106355442,-74553.23780217621,-54644.784885023226,-39718.8263796361
-58846.465807731845,-74532.4953833217,-54615.34763757559,-39690.99845778924
-58910.68236955195,-74594.92380558536,-54666.01904225577,-39744.5308857597
-58927.624991849065,-74613.49810522773,-54698.7643478828,-39773.185822151405
-58897.02545368976,-74590.31934622757,-54681.46409767438,-39753.69510098638
-58843.26950827474,-74536.04931069008,-54632.84905348409,-39708.74574288676
-58855.0935810916,-74546.95696198428,-54606.58575374911,-39692.317210712106
-58920.003046989805,-74605.80910513511,-54663.76151606578,-39749.02358639522
-58928.42965464946,-74622.70702394331,-54702.20651652891,-39780.49484258829
-58883.033261660734,-74570.87332855146,-54679.89947556252,-39756.95845567685
-58822.10240627556,-74513.09406913449,-54630.36800984955,-39709.95273708734
-58828.76322612324,-74529.43319433132,-54610.251439839776,-39697.63692589247
-58900.98171245834,-74617.2084948073,-54665.683766088936,-39752.06342364114
-58911.50938409679,-74613.29693952763,-54696.84209785963,-39778.10320593157
-58863.40843002897,-74550.68970330831,-54673.77509758176,-39756.80199346566
-58808.93722879139,-74504.71216496374,-54632.33496336162,-39718.20053079135
-58827.48917668929,-74524.04642391759,-54616.73344573181,-39706.55527193013
-58916.42676787696,-74608.22309353627,-54678.87129531757,-39769.90011571648
-58937.50446289832,-74627.11031760101,-54715.99754285783,-39800.1420259645
-58887.168334384965,-74582.8985670684,-54691.902362335015,-39771.55414480616
-58807.21614446833,-74502.02995562911,-54630.50212031628,-39708.65633590893
-58819.26373472974,-74515.4857057912,-54607.77039620524,-39692.76424560121
-58925.09924472562,-74631.78183219217,-54677.01610052778,-39762.00994992375
-58937.906794298506,-74643.31533233111,-54711.34838001113,-39792.14010144951
-58886.02839541774,-74576.103636754,-54680.793545340726,-39764.91567670294
-58828.67381914542,-74503.99690914118,-54629.473940071344,-39712.61259467752
-58812.7817288377,-74503.95220565227,-54596.6392274665,-39685.589335631055
-58879.054651147686,-74585.51372116969,-54647.86942575806,-39743.07802237011
-58886.18485762893,-74601.47286671077,-54681.46409767438,-39774.28105762971
-58858.26752880425,-74578.02588677715,-54664.633234099536,-39753.89626668648
-58798.25309494175,-74507.97551965422,-54611.32432357363,-39697.18989100336
-58803.57281012211,-74499.07952536101,-54582.66938718193,-39676.78274831567
-58883.90497969449,-74579.18817748883,-54646.86359725757,-39744.12855435951
-58908.00016021731,-74601.18229403286,-54685.62152214308,-39781.00893271076
-58873.801991200686,-74580.93161355634,-54660.27464393075,-39758.500726044265
-58807.57377237961,-74526.3933570854,-54610.20673635087,-39710.71269639882
-58799.59419960907,-74504.89097891939,-54582.28940752619,-39683.60003037453
-58892.42099433196,-74594.96850907427,-54648.2494054138,-39743.32389155912
-58909.0059887178,-74613.05107033862,-54683.94514130893,-39770.6377232835
-58868.23640683132,-74569.57692737305,-54657.88300727404,-39745.02262413772
-58823.86819408753,-74531.02016818765,-54618.52158528824,-39707.56110043062
-58819.66606612993,-74501.20294108427,-54591.49832624177,-39684.538803641655
-58888.88941870802,-74569.04048550612,-54648.38351588053,-39741.781621191694
-58903.999197959805,-74608.93834935884,-54678.93835055093,-39768.58136279361
-58853.640717702,-74568.32522968356,-54661.45928638688,-39747.4813160278
-58794.56505710662,-74500.42063002833,-54614.40886430846,-39698.24042299276
-58798.521315875216,-74495.54794973707,-54578.95899760235,-39668.89258252294
-58905.42970960495,-74606.41260223539,-54641.83445475512,-39739.0323566237
-58934.03994250774,-74637.01214039471,-54682.00053954131,-39774.504575074265
-58887.88359020753,-74593.4038869624,-54660.855789286594,-39746.78841194969
-58795.34736816256,-74512.57997901202,-54605.37875954852,-39696.496986925245
-58783.3221296456,-74491.05524910156,-54569.14658178647,-39673.58644885856
-58863.98957538481,-74566.51473838267,-54630.01038193827,-39732.59505422057
-58890.029357675245,-74596.22020676377,-54670.19881846891,-39764.89332495849
-58868.48227602032,-74568.86167155048,-54651.95979499338,-39744.68734797089
-58821.94594406438,-74534.12706066693,-54610.43025379542,-39709.19277777586
-58817.319132962126,-74524.71697625125,-54584.61398894954,-39689.635001377465
-58893.516229810266,-74605.07149756807,-54640.94038497692,-39747.36955730552
-58923.936954013945,-74650.57964927908,-54680.81589708518,-39785.63574381301
-58897.78541300124,-74621.4106227649,-54666.801353311705,-39769.56483954965
-58851.62906070102,-74555.62943883294,-54624.780073735725,-39721.799161648654
-58820.51543241923,-74527.82386873053,-54593.6887971984,-39691.08786476706
-58887.302444851695,-74594.29795674061,-54655.17844619494,-39748.59890325057
-58893.35976759908,-74594.74499162972,-54690.091871034136,-39778.25966814276
-58839.78263613971,-74556.32234291105,-54666.82370505616,-39755.974978920814
-58778.80707726564,-74496.82199917102,-54615.54880327568,-39708.18694927537
-58777.75654527624,-74477.3759814949,-54582.3341110151,-39674.77109131469
-58868.5940347426,-74564.88306103743,-54645.410733867975,-39735.45607751085
-58905.80968926069,-74610.43591623734,-54686.56029541019,-39776.13625241951
-58862.73787769531,-74570.91803204037,-54662.37570790955,-39753.96332191984
-58789.8264872821,-74506.05326963107,-54619.70622774437,-39713.99840283375
-58790.38528089348,-74499.19128408328,-54597.62270422253,-39694.73119911328
-58877.91471218046,-74596.9131108419,-54659.24646368581,-39758.32191208863
-58907.9554567284,-74633.3688060485,-54697.64676066003,-39794.28586891721
-58881.6474535045,-74593.94032882934,-54677.7537080948,-39773.319932618135
-58816.04508352817,-74532.65184553288,-54628.557518548674,-39723.6767081829
-58792.48634487228,-74513.5858075125,-54592.973541375824,-39696.0723037806
-58867.02941263073,-74576.08128500954,-54645.61189956807,-39747.74953696127
-58891.52692455375,-74613.38634650545,-54689.06369078919,-39791.17897643793
-58851.45024674538,-74579.41169493338,-54667.47190564536,-39772.559973306656
-58793.02278673921,-74517.96674942574,-54622.343733590096,-39726.04599309516
-58781.06460345562,-74494.65387995886,-54588.90552388496,-39695.28999272466
-58857.12758983703,-74559.0492557346,-54642.01326871077,-39750.54350501818
-58890.96813094236,-74595.03556430765,-54687.76728961078,-39790.4413688709
-58871.11978186605,-74587.100695026,-54673.640987115024,-39773.29758087368
-58782.6739290564,-74508.80253419907,-54615.92878293143,-39716.30063251265
-58764.54666430315,-74478.58297569549,-54586.44683199487,-39689.72440835529
-58866.47061901935,-74566.22416570476,-54647.42239086895,-39753.62804575301
-58891.50457280929,-74606.54671270213,-54683.25223723081,-39787.20036592488
-58849.25977578876,-74574.06962800857,-54655.75959155079,-39761.74172899029
-58799.48244088679,-74524.3369965955,-54614.09593988609,-39717.95466160234
-58797.64959784146,-74514.85985694645,-54586.91621862844,-39691.98193454527
-58885.13432563953,-74602.74691614472,-54647.355335635584,-39750.92348467392
-58903.64157004852,-74630.70894845831,-54687.34260646613,-39790.642534571
-58863.63194747352,-74606.52436095767,-54664.0073852548,-39770.97299945033
-58795.61558909602,-74534.64115078941,-54613.268925341246,-39719.89926336995
-58781.176362177895,-74478.11358906193,-54568.96776783082,-39682.08011175157
-58866.4929707638,-74567.96760177227,-54621.9414021899,-39748.64360673948
-58908.93893348443,-74613.83338139455,-54672.43399291444,-39803.11480797706
-58883.48029654984,-74604.1103725565,-54644.56136757867,-39775.46570008584
-58817.319132962126,-74542.30779913758,-54593.04059660919,-39720.39100174797
-58768.21235039382,-74498.29721430507,-54554.19326474587,-39684.829376319576
-58851.562005467655,-74585.11138976949,-54612.218393351846,-39745.67082472692
-58898.74653801281,-74624.69632919984,-54667.27073994526,-39792.94476424989
-58863.07315386214,-74600.64585216592,-54651.37864963754,-39772.425862839926
-58796.50965887424,-74545.90642999488,-54599.52260250123,-39719.65339418095
-58786.74194654727,-74511.61885400044,-54564.00568056175,-39689.031504277176
-58864.50366550728,-74585.96075605879,-54622.09786440109,-39751.50463002976
-58892.84567747661,-74636.65451248342,-54669.461210901885,-39797.14689220749
-58857.82049391515,-74595.23673000775,-54655.469018872864,-39782.46179610035
-58794.028615239695,-74529.29908386458,-54611.97252416283,-39742.09454561407
-58782.428059867394,-74505.40506904187,-54575.5838841896,-39706.26469925221
-58869.08577312062,-74594.02973580715,-54635.12893141853,-39761.71937724584
-58896.89134322302,-74624.69632919984,-54681.553504652205,-39804.07593298864
-58885.02256691725,-74619.19780006383,-54676.524362149765,-39793.660020072464
-58831.89247034699,-74579.65756412239,-54624.60125978009,-39741.20047583586
-58816.29095271719,-74537.65863629087,-54582.75879415975,-39704.27539399569
-58887.25774136278,-74592.66627939539,-54631.977335450334,-39755.12561263151
-58915.37623588756,-74634.50874501572,-54668.0530510012,-39789.1449676925
-58855.96529912535,-74588.7100206268,-54646.81889376866,-39771.0400546837
-58793.35806290604,-74528.76264199766,-54602.80830893616,-39729.46580999682
-58797.60489435255,-74530.28256062062,-54570.01829982022,-39699.983859060274
-58873.57847375613,-74600.69055565483,-54626.00941968077,-39757.025510910215
-58899.84177349112,-74627.0656141121,-54677.574894139165,-39802.2430899433
-58862.17908408393,-74599.30474749861,-54654.507893861286,-39775.420996596935
-58780.21523716632,-74513.1387726234,-54597.75681468926,-39721.732106415286
-58758.75756248922,-74464.43432145528,-54550.86285482203,-39678.19090821635
-58850.26560428925,-74565.53126162663,-54609.31266657265,-39741.75926944724
-58889.828191975146,-74618.99663436374,-54660.43110614194,-39788.5414705922
-58863.60959572907,-74596.42137246387,-54639.08519018712,-39765.429766825415
-58805.74092933428,-74535.82579324553,-54590.02311110772,-39717.64173717997
-58792.151068705454,-74508.33314756551,-54552.80745658964,-39686.014018775706
-58849.14801706649,-74582.78680834614,-54601.310742057656,-39739.32292930161
-58876.30538657968,-74615.62152095098,-54650.663393814975,-39782.50649958927
-58860.70386894988,-74595.19202651882,-54644.47196060085,-39773.63285704051
-58807.9314002909,-74555.94236325531,-54605.40111129297,-39737.40067927846
-58787.97129249231,-74516.3350720805,-54560.76467761573,-39695.4688066803
-58860.5921102276,-74585.98310780324,-54615.1911753644,-39749.40356605096
-58880.66397674847,-74621.79060242065,-54663.35918466558,-39792.900060760985
-58855.45120900288,-74608.87129412548,-54650.81985602616,-39779.15373792097
-58792.218123938816,-74529.92493270933,-54598.36031178956,-39725.95658611734
-58752.029687408176,-74466.37892322289,-54544.26909020771,-39676.35806517101
-58829.70199939037,-74549.32624689654,-54599.32143680113,-39737.177161833904
-58882.45211630489,-74626.90915190091,-54663.09096373213,-39793.77177879474
-58873.95845341188,-74619.37661401948,-54658.3523939076,-39780.7407117773
-58820.962467308345,-74556.07647372205,-54621.159091133966,-39738.20534207885
-58776.840123753565,-74502.45463877376,-54573.549875444165,-39692.94305955685
-58844.76707515324,-74563.16197671437,-54621.53907078971,-39746.140211360485
-58885.76017448428,-74624.40575652191,-54666.19785621141,-39794.12940670603
-58841.12374080703,-74591.1016572835,-54641.7003442884,-39771.66590352845
-58770.98396670628,-74523.01824367265,-54593.84525940958,-39722.33560351558
-58752.3202600861,-74485.31085077654,-54552.15925600044,-39685.589335631055
-58835.20052852637,-74573.30966869708,-54608.2397828388,-39742.60863573654
-58880.39575581501,-74632.9664746483,-54668.92476903496,-39797.795092796696
-58836.07224656013,-74567.11823548297,-54649.36699263656,-39771.59884829508
-58772.95092021834,-74502.58874924049,-54603.54591650319,-39721.30742327064
-58760.03161192317,-74492.26224330215,-54560.407049704445,-39689.61264963301
-58850.44441824489,-74589.89466308292,-54611.95017241838,-39748.46479278384
-58897.31602636767,-74637.70504447282,-54666.86840854507,-39799.35971490857
-58873.93610166742,-74597.4048492199,-54649.99284148131,-39779.77958676572
-58802.72344383281,-74536.74221476821,-54596.52746874422,-39724.79429540566
-58754.957765931824,-74476.2807460166,-54540.0222587612,-39670.85953603501
-58822.50473767576,-74539.71499678076,-54590.00075936327,-39725.55425471714
-58871.27624407724,-74600.82466612157,-54644.069629200654,-39773.7893192517
-58850.2879560337,-74589.38057296045,-54641.81210301067,-39766.36854009254
-58792.084013472086,-74531.82483098803,-54593.84525940958,-39718.87108312501
-58740.54089075815,-74468.61409766843,-54532.17679645739,-39664.86926852098
-58805.60681886755,-74550.60029633049,-54578.9813493468,-39715.83124587909
-58864.19074108491,-74615.3085965286,-54640.87332974355,-39774.19165065189
-58841.14609255149,-74597.85188410901,-54626.1435301475,-39759.886534200494
-58775.63312955298,-74535.08818567851,-54576.79087839018,-39707.896376597455
-58740.63029773597,-74479.34293500698,-54525.49362486525,-39659.39309112944
-58817.76616785123,-74560.43506389082,-54569.772430631216,-39705.88471959648
-58877.06534589116,-74637.70504447282,-54630.88209997203,-39763.77573773572
-58856.65820320347,-74615.33094827305,-54621.80729172317,-39757.42784231041
-58770.73809751727,-74529.41084258686,-54568.92306434192,-39701.19085326086
-58735.89172791145,-74489.40122001186,-54523.30315390863,-39653.60398931551
-58827.533880178205,-74562.4467208918,-54578.9813493468,-39711.0256208212
-58884.93315993943,-74636.65451248342,-54632.82670173964,-39761.56291503464
-58859.049839860185,-74614.16865756139,-54616.21935560934,-39744.95556890435
-58771.45335333984,-74528.67323501983,-54563.759811372736,-39690.95375430033
-58730.48260575326,-74480.50522571865,-54514.74243578225,-39648.01605320168
-58804.39982466696,-74532.42832808832,-54566.82200036312,-39704.14128352896
-58872.3938313,-74613.11812557199,-54638.77226576475,-39770.10128141657
-58835.9381360934,-74586.11721826998,-54626.81408248116,-39750.319987573625
-58772.54858881815,-74522.99589192819,-54580.4342127364,-39701.92846082788
-58747.35817281702,-74490.51880723462,-54535.70837208133,-39664.28812316515
-58815.06160677214,-74561.3961889024,-54579.42838423591,-39712.7243533998
-58851.49495023429,-74605.09384931253,-54632.51377731726,-39762.568743535136
-58821.27539173072,-74588.53120667115,-54618.81215796616,-39750.16352536244
-58768.59233004956,-74531.71307226576,-54574.376889989006,-39706.95760333033
-58759.47281831179,-74507.01439464264,-54529.293421422655,-39661.67296906388
-58823.06353128714,-74566.4029796604,-54573.16989578842,-39707.35993473053
-58839.96145009536,-74591.43693345034,-54630.47976857183,-39761.56291503464
-58806.43383341239,-74567.18529071633,-54619.1921376219,-39751.61638875203
-58748.743980973246,-74507.79670569858,-54573.37106148852,-39704.29774574015
-58735.62350697798,-74490.74232467917,-54533.60730810253,-39664.84691677653
-58826.25983074425,-74581.11042751199,-54588.19026806239,-39723.45319073834
-58868.05759287567,-74594.11914278497,-54641.5438820772,-39769.43072908291
-58841.011982084754,-74574.98604953123,-54632.53612906172,-39757.025510910215
-58770.84985623955,-74526.23689487421,-54588.927875629415,-39712.34437374406
-58723.62062020548,-74466.04364705607,-54531.21567144581,-39656.95675098381
-58793.17924895039,-74538.03861594661,-54574.51100045574,-39702.75547537273
-58841.570775696135,-74595.08026779655,-54632.49142557281,-39757.80782196616
-58810.032464269694,-74562.37966565845,-54625.5400330472,-39749.269455584224
-58746.79937920564,-74501.94054865128,-54580.25539878076,-39700.22972824928
-58726.14636732893,-74476.7277809057,-54533.02616274669,-39657.18026842836
-58818.503775418256,-74574.51666289767,-54584.882209883006,-39712.83611212207
-58847.873967632535,-74605.40677373491,-54641.0968471881,-39764.021606924725
-58806.07620550111,-74551.20379343079,-54620.91322194496,-39744.21796133732
-58744.050114637634,-74497.60431022696,-54564.78799161768,-39689.85851882202
-58712.44474797783,-74462.35560922095,-54516.910554994414,-39648.17251541287
-58781.53399008918,-74526.10278440747,-54564.83269510659,-39703.11310328401
-58827.667990644935,-74590.18523576084,-54629.63040228253,-39768.648418026976
-58801.94113277688,-74568.81696806157,-54620.175614377935,-39752.89043818598
-58746.39704780544,-74502.43228702931,-54580.54597145868,-39709.61746092051
-58721.76542541569,-74469.08348430198,-54529.09225572256,-39666.2103731883
-58802.45522289935,-74553.97540974325,-54574.86862836703,-39719.4745802253
-58841.90605186296,-74593.78386661815,-54636.51473957476,-39776.15860416396
-58806.6797026014,-74579.2552327222,-54619.95209693338,-39756.891400443485
-58757.34940258854,-74530.57313329853,-54571.20294227636,-39707.71756264181
-58725.11818708399,-74492.12813283541,-54516.99996197224,-39658.49902135122
-58796.263789685225,-74551.38260738643,-54564.2291980063,-39707.18112077488
-58838.77680763922,-74599.28239575416,-54627.68580051492,-39763.2839993577
-58811.79825208167,-74568.63815410592,-54620.600297522586,-39750.8340776961
-58743.26780358169,-74501.62762422892,-54571.04648006517,-39698.8215683486
-58694.18337275784,-74449.48100441469,-54510.69677003584,-39647.278445634656
-58777.64478655396,-74528.092089664,-54556.629604891496,-39699.15684451543
-58847.96337461035,-74601.69638415532,-54625.04829466919,-39761.384101079
-58838.26271751675,-74591.14636077241,-54613.179518363424,-39745.11203111554
-58752.029687408176,-74520.11251689345,-54561.61404390503,-39693.59126014606
-58715.81986139058,-74477.35362975045,-54510.763825269205,-39646.920817723374
-58783.05390871214,-74536.74221476821,-54554.3273752126,-39694.50768166872
-58820.76130160825,-74587.7041921263,-54615.906431186966,-39753.91861843093
-58783.43388836788,-74547.18047942883,-54599.14262284549,-39731.29865304216
-58733.611849977,-74501.53821725109,-54556.89782582496,-39686.4163501759
-58698.89959083791,-74463.6743621438,-54511.23321190276,-39649.20069565782
-58771.5204085732,-74523.93466519531,-54555.377907202,-39696.45228343634
-58828.49500518978,-74578.6517356219,-54621.9414021899,-39755.282074842704
-58815.66510387244,-74568.77226457266,-54617.35929457656,-39752.689272485884
-58754.77895197618,-74507.34967080948,-54570.688852153886,-39706.845844608055
-58713.495279967225,-74460.65687664233,-54514.22834565978,-39653.67104454888
-58777.28715864267,-74532.38362459942,-54546.61602337552,-39694.35121945754
-58830.663124401945,-74597.65071840891,-54613.00070440778,-39757.71841498833
-58818.32496146262,-74584.21731999128,-54611.167861362446,-39754.87974344251
-58750.30860308512,-74514.0328424016,-54562.1281340275,-39704.83418760708
-58706.76740488618,-74461.50624293163,-54508.0145607012,-39653.67104454888
-58772.34742311805,-74537.72569152423,-54549.78997108817,-39703.09075153956
-58823.84584234308,-74596.9131108419,-54622.343733590096,-39772.3364558621
-58793.44746988386,-74569.42046516186,-54611.72665497383,-39757.74076673279
-58731.77900693167,-74511.14946736688,-54563.89392183947,-39708.298707997645
-58711.61773343298,-74468.39058022387,-54516.77644452768,-39660.68949230784
-58771.11807717301,-74519.37490932643,-54553.36625020102,-39698.32982997058
-58809.8312985696,-74558.1998894453,-54615.52645153123,-39753.00219690826
-58785.73611804678,-74537.74804326869,-54608.79857645018,-39740.887551413485
-58708.19791653132,-74476.14663554987,-54560.20588400435,-39697.03342879217
-58684.77328834216,-74449.25748697013,-54517.93873523936,-39662.32116965308
-58772.660347540426,-74535.64697928989,-54567.89488409697,-39713.88664411147
-58829.16555752344,-74586.34073571453,-54633.161977906464,-39773.7893192517
-58808.04315901318,-74555.56238359956,-54626.27764061423,-39761.92054294593
-58730.2143848198,-74486.89782463286,-54573.05813706615,-39708.20930101983
-58693.04343379062,-74451.6267718824,-54519.86098526252,-39656.39795737243
-58775.54372257516,-74528.00268268617,-54555.84729383556,-39694.30651596862
-58808.9819322803,-74578.62938387744,-54607.88215492752,-39746.11785961602
-58798.92364727541,-74565.68772383782,-54606.51869851574,-39743.122725859015
-58759.76339098971,-74521.94535993879,-54577.595541190574,-39711.56206268812
-58711.550678199616,-74478.20299603975,-54533.204976702335,-39673.16176571391
-58776.66130979792,-74546.68874105082,-54567.76077363024,-39715.875949368
-58843.56008095266,-74615.42035525088,-54634.99482095181,-39778.59494430959
-58813.07230151562,-74571.65563960739,-54625.76355049176,-39763.23929586879
-58756.05300141013,-74518.32437733703,-54583.92108487143,-39720.56981570361
-58705.448651963314,-74454.68896087277,-54523.146691697446,-39662.47763186427
-58771.63216729548,-74510.8365429445,-54559.06594503712,-39700.7214666273
-58803.885734544485,-74564.43602614832,-54621.82964346762,-39757.7854702217
-58765.91012071492,-74538.44094734681,-54610.251439839776,-39745.42495553792
-58711.43891947734,-74467.54121393457,-54569.19128527538,-39701.54848117215
-58681.77815458515,-74428.13508845987,-54521.35855214102,-39656.04032946114
-58765.01605093671,-74507.8861126764,-54562.709279383336,-39703.76130387322
-58809.22780146931,-74564.39132265942,-54623.41661732395,-39760.467679556335
-58783.16566743442,-74536.29517987909,-54610.05027413968,-39748.375385806015
-58728.85092840802,-74478.51592046213,-54560.36234621553,-39701.7719986167
-58701.76061412819,-74447.2234782247,-54512.2166886588,-39655.97327422778
-58758.62345202249,-74521.25245586067,-54547.55479664264,-39696.67580088089
-58801.15882172094,-74575.09780825351,-54602.987122891805,-39748.59890325057
-58782.49511510076,-74536.89867697938,-54597.13096584451,-39732.39388852047
-58733.72360869928,-74491.27876654611,-54556.96488105832,-39686.66221936491
-58699.32427398256,-74445.18946947926,-54505.82408974458,-39639.43298333085
-58776.34838537555,-74514.2340081017,-54552.31571821162,-39691.28903046716
-58820.44837718587,-74576.57302338757,-54616.57698352063,-39753.65039749746
-58765.70895501482,-74497.58195848251,-54603.389454292,-39739.01000487924
-58696.01621580317,-74452.40908293833,-54565.61500616253,-39699.80504510463
-58665.77430555515,-74428.96210300471,-54515.14476718244,-39652.57580907056
-58750.91210018541,-74513.5858075125,-54548.18064548739,-39691.51254791171
-58806.70205434586,-74571.99091577422,-54613.04540789669,-39753.337473075095
-58769.91108297242,-74531.42249958783,-54601.04252112419,-39738.40650777895
-58705.09102405203,-74456.81237659602,-54556.629604891496,-39692.13839675646
-58667.40598290038,-74416.15455343181,-54506.42758684488,-39641.22112288727
-58727.30865804061,-74466.04364705607,-54542.07861925109,-39676.44747214884
-58788.5747895926,-74539.51383108067,-54609.78205320622,-39739.43468802389
-58776.41544060892,-74535.06583393406,-54607.97156190534,-39738.69708045686
-58721.38544575995,-74485.31085077654,-54570.86766610952,-39702.375495717
-58683.14161099692,-74439.10979498742,-54519.21278467331,-39655.99562597223
-58739.62446923548,-74488.03776360009,-54544.91729079691,-39690.75258860023
-58788.3289204036,-74541.9948747152,-54603.747082203285,-39750.051766640165
-58785.28908315767,-74534.81996474505,-54596.16984083293,-39740.10524035755
-58730.23673656425,-74474.55966169354,-54556.2272734913,-39702.28608873917
-58676.48079114924,-74433.38774840687,-54496.81633672909,-39651.48057359226
-58727.46512025179,-74482.80745539755,-54521.87264226349,-39679.84493730604
-58786.429022124896,-74543.93947648282,-54592.66061695345,-39745.40260379346
-58767.58650154907,-74530.52842980962,-54583.965788360336,-39730.4269350084
-58724.44763475033,-74490.1835310678,-54546.48191290879,-39693.92653631289
-58678.42539291685,-74445.323579946,-54492.0107116712,-39647.501963079216
-58742.48549252576,-74488.6859641893,-54520.129206195976,-39683.689437352354
-58798.655426341946,-74541.30197063708,-54582.82584939311,-39743.61446423704
-58768.9723097053,-74532.7412525107,-54584.54693371617,-39742.87685667001
-58705.62746591896,-74469.73168489119,-54548.69473560986,-39705.34827772955
-58659.22524442974,-74415.19342842024,-54495.3634733395,-39651.90525673691
-58732.82953892107,-74490.00471711216,-54522.67730506388,-39689.41148393291
-58795.03444374019,-74553.21545043176,-54582.04353833718,-39746.31902531612
-58783.21037092333,-74549.59446783,-54577.79670689067,-39736.46190601133
-58724.22411730577,-74495.92792939281,-54534.05434299164,-39692.76424560121
-58680.07942200654,-74428.11273671541,-54488.07680464707,-39649.89359973593
-58732.181338331866,-74472.70446690374,-54509.95916246881,-39673.72055932529
-58802.99166476628,-74560.27860167965,-54580.52361971422,-39738.71943220133
-58782.0257284672,-74536.38458685692,-54580.72478541431,-39732.55035073165
-58730.52730924217,-74479.40999024034,-54544.26909020771,-39691.82547233409
-58689.28834072213,-74437.99220776466,-54484.96991216778,-39640.19294264233
-58756.90236769943,-74498.65484221636,-54521.00092422974,-39683.15299548543
-58805.71857758983,-74543.6936072938,-54584.882209883006,-39742.65333922546
-58756.50003629924,-74524.82873497352,-54575.67329116742,-39731.9245018869
-58709.449614220815,-74484.66265018734,-54536.15540697044,-39693.43479793487
-58670.60228235749,-74432.29251292856,-54483.40529005591,-39646.94316946783
-58729.63323946396,-74485.75788566565,-54512.239040403256,-39678.615591361
-58792.55340010565,-74551.87434576445,-54579.1825150469,-39737.44538276737
-58791.167591949416,-74555.4953283662,-54584.77045116073,-39738.29474905667
-58730.37084703099,-74498.45367651626,-54549.72291585481,-39702.66606839491
-58654.39726762739,-74416.9145127433,-54488.881467447456,-39644.75269851121
-58716.155137557405,-74480.39346699638,-54518.69869455084,-39679.0626262501
-58784.10444070154,-74553.23780217621,-54589.35255877407,-39746.8331154386
-58767.81001899362,-74533.43415658882,-54586.44683199487,-39743.77092644822
-58708.91317235389,-74481.39929549686,-54537.45180814884,-39696.58639390307
-58669.32823292354,-74436.33817867497,-54485.14872612342,-39646.160858411895
-58746.844082694544,-74500.59944398397,-54525.20305218733,-39687.08690250956
-58795.01209199573,-74559.54099411261,-54578.10963131305,-39734.182028076895
-58760.970385190296,-74529.18732514231,-54568.788953875184,-39722.38030700449
-58711.43891947734,-74483.41095249784,-54535.88718603697,-39686.55046064263
-58671.78692481363,-74430.32555941648,-54489.99905467023,-39643.21042814379
-58731.82371042058,-74484.17091180931,-54510.33914212456,-39664.958675498805
-58785.73611804678,-74559.51864236816,-54570.04065156468,-39720.77098140371
-58780.43875461087,-74552.83547077603,-54571.85114286556,-39723.20732154934
-58724.00059986122,-74485.89199613238,-54542.74917158475,-39688.316248454605
-58636.60527904097,-74403.23524513665,-54476.8115254416,-39619.33876506553
-58699.2572187492,-74457.7287981187,-54497.2633716182,-39644.12684966646
-58766.6700800264,-74525.96867394075,-54568.67719515291,-39716.9264813574
-58750.80034146313,-74522.99589192819,-54565.45854395134,-39717.127647057496
-58710.29898051012,-74484.14856006486,-54528.33229641108,-39676.38041691547
-58673.53036088114,-74433.32069317349,-54483.11471737799,-39627.854779703
-58739.98209714676,-74488.10481883345,-54511.25556364722,-39664.04225397614
-58776.75071677574,-74528.33795885301,-54567.02316606321,-39715.16069354543
-58755.67302175439,-74544.27475264964,-54567.69371839687,-39712.54553944415
-58714.50110846772,-74514.99396741319,-54532.62383134649,-39678.30266693862
-58657.43710487332,-74406.14097191584,-54477.146801608425,-39627.295986091616
-58721.83248064906,-74466.11070228943,-54504.59474379954,-39662.32116965308
-58787.63601632548,-74541.25726714818,-54572.36523298803,-39728.81760940762
-58766.17834164839,-74511.70826097825,-54569.973596331314,-39723.36378376053
-58708.22026827577,-74459.51693767511,-54532.98145925778,-39683.08594025206
-58663.11444796497,-74411.99712896314,-54480.4101562989,-39630.22406461526
-58721.27368703768,-74468.21176626823,-54500.28085711967,-39656.46501260579
-58781.98102497829,-74537.68098803532,-54565.63735790698,-39720.56981570361
-58774.06850744111,-74543.85006950499,-54575.87445686752,-39724.77194366121
-58727.44276850734,-74486.80841765505,-54543.93381404088,-39686.930440298376
-58682.89574180791,-74441.74730083314,-54490.893124448434,-39636.169628640375
-58728.448597007824,-74492.50811249115,-54516.10589219402,-39668.55730635611
-58785.55730409113,-74540.18438341432,-54581.68591042589,-39731.41041176444
-58770.49222832826,-74532.04834843258,-54581.19417204788,-39727.63296695149
-58710.88012586596,-74481.24283328568,-54541.31865993961,-39687.77980658768
-58662.13097120893,-74413.91937898629,-54487.85328720252,-39640.30470136461
-58722.10070158252,-74466.44597845626,-54511.188508413856,-39667.17149819988
-58773.73323127428,-74541.52548808164,-54571.11353529854,-39725.26368203923
-58761.26095786822,-74532.98712169971,-54568.36427073053,-39718.24523428026
-58703.9063815959,-74467.58591742348,-54533.24968019124,-39677.676818093874
-58657.928843251335,-74412.01948070759,-54486.26631334619,-39627.58655876954
-58726.83927140704,-74483.52271122011,-54518.65399106193,-39664.22106793178
-58779.38822262147,-74546.12994743943,-54573.818096377625,-39717.55233020215
-58756.65649851043,-74516.67034824734,-54579.696605169374,-39718.44639998036
-58704.28636125164,-74467.16123427883,-54545.230215219286,-39681.43191116237
-58659.09113396301,-74398.02728867857,-54496.10108090653,-39634.78382048414
-58730.30379179762,-74463.18262376578,-54522.230270174776,-39668.28908542265
-58794.43094663989,-74548.11925269595,-54587.45266049536,-39729.24229255227
-58770.46987658381,-74533.41180484436,-54589.46431749634,-39726.29186228417
-58729.67794295287,-74481.48870247469,-54565.34678522906,-39697.45811193682
-58664.41084914337,-74407.07974518297,-54496.27989486216,-39624.43496280134
-58725.49816673973,-74460.50041443115,-54520.97857248528,-39652.41934685938
-58803.57281012211,-74546.62168581744,-54597.91327690045,-39721.732106415286
-58779.142353432464,-74528.98615944221,-54599.29908505668,-39717.68644066888
-58733.05305636562,-74491.70344969076,-54570.04065156468,-39687.109254254014
-58666.1989886998,-74409.82900975097,-54510.98734271376,-39631.4534105603
-58727.487471996246,-74451.55971664903,-54533.204976702335,-39657.7614137842
-58792.19577219436,-74541.03374970362,-54604.12706185902,-39723.94492911636
-58786.98781573628,-74539.06679619156,-54614.56532651965,-39723.85552213854
-58723.93354462786,-74460.38865570887,-54567.96193933034,-39672.13358546896
-58673.93269228133,-74397.82612297847,-54512.2166886588,-39621.48453253324
-58736.3164110561,-74461.08155978698,-54538.59174711607,-39655.88386724996
-58793.91685651742,-74536.31753162356,-54604.305875814665,-39717.19470229086
-58779.43292611039,-74503.86279867444,-54598.226201322825,-39708.99161207576
-58733.74596044373,-74469.06113255753,-54562.3292997276,-39673.74291106974
-58680.68291910684,-74428.98445474917,-54511.1661566694,-39627.98889016973
-58739.69152446884,-74490.4294002568,-54535.55190987014,-39658.99075972924
-58801.49409788777,-74538.95503746928,-54600.2378583238,-39715.54067320117
-58777.57773132059,-74516.67034824734,-54598.09209085609,-39710.31036499862
-58705.00161707421,-74438.48394614267,-54555.780238602194,-39666.009207488205
-58677.10663999399,-74399.16722764578,-54511.41202585841,-39621.43982904433
-58730.862585409,-74457.59468765196,-54534.09904648054,-39651.70409103681
-58779.63409181048,-74544.65473230538,-54594.7393291878,-39712.59024293307
-58785.4231936244,-74560.7032848243,-54603.54591650319,-39719.49693196976
-58737.411646534405,-74510.14363886639,-54574.39924173347,-39690.23849847776
-58662.73446830922,-74401.04477418003,-54515.74826428274,-39629.5535122816
-58707.81793687558,-74435.8687920414,-54529.51693886721,-39646.04909968962
-58774.26967314121,-74515.99979591368,-54595.47693675482,-39711.11502779902
-58769.73226901678,-74517.63147325891,-54603.05417812517,-39715.69713541235
-58731.42137902038,-74479.34293500698,-54570.37592773151,-39682.4153879184
-58680.32529119555,-74426.72692855918,-54517.22347941679,-39632.86157046098
-58718.88205038096,-74467.76473137912,-54533.11556972451,-39657.29202715064
-58790.98877799378,-74546.8899067509,-54602.56243974716,-39726.02364135071
-58778.40474586544,-74538.86563049146,-54607.52452701623,-39730.471638497314
-58728.98503887475,-74494.76563868113,-54573.23695102179,-39697.27929798118
-58674.849113804,-74411.61714930739,-54516.150595682935,-39636.95193969631
-58724.29117253914,-74451.44795792675,-54530.56747085661,-39655.83916376104
-58786.49607735826,-74531.4448513323,-54591.99006461979,-39716.702963912845
-58771.654519039934,-74525.05225241807,-54593.06294835365,-39716.99353659076
-58724.02295160568,-74478.60532743995,-54559.40122120395,-39682.70596059632
-58689.98124480024,-74441.52378338859,-54507.85809849002,-39628.9053116924
-58738.79745469063,-74483.9250426203,-54525.76184579872,-39653.51458233769
-58793.35806290604,-74526.68392976331,-54594.00172162077,-39722.31325177113
-58757.72938224428,-74478.73943790668,-54588.52554422922,-39715.093638312064
-58706.09685255252,-74444.74243459015,-54549.141770498965,-39674.65933259241
-58682.851038319,-74417.62976856586,-54502.09134842055,-39627.22893085825
-58729.23090806376,-74448.38576893638,-54521.0679794631,-39650.45239334731
-58773.93439697438,-74518.2349703592,-54582.222352292825,-39710.37742023199
-58757.63997526646,-74518.21261861475,-54581.50709647025,-39705.01300156272
-58728.02391386317,-74496.95610963776,-54554.394430445966,-39676.40276865992
-58680.928788295845,-74438.23807695367,-54507.65693278992,-39629.44175355933
-58724.760559172704,-74461.39448420936,-54520.79975852964,-39644.350367111016
-58788.35127214805,-74527.26507511915,-54587.43030875091,-39706.80114111914
-58768.458219582826,-74505.94151090879,-54590.24662855228,-39706.46586495231
-58720.29021028164,-74460.5227661756,-54555.1767415019,-39669.294913923135
-58672.25631144719,-74405.40336434882,-54500.97376119778,-39617.5506255091
-58724.20176556132,-74458.95814406373,-54510.60736305802,-39635.253207117705
-58777.84595225406,-74506.25443533117,-54572.20877077685,-39696.56404215861
-58761.86445496851,-74498.27486256062,-54579.60719819155,-39699.51447242671
-58735.13176859996,-74487.4789699887,-54560.831732849096,-39678.97321927229
-58687.43314593234,-74450.576239893,-54503.141880409945,-39619.89755867691
-58716.91509686889,-74467.60826916793,-54510.18267991337,-39630.11230589298
-58791.99460649426,-74546.80049977309,-54576.36619524553,-39696.74285611425
-58792.17342044991,-74530.48372632072,-54592.39239601999,-39709.10337079804
-58717.07155908008,-74456.9241353183,-54549.85702632154,-39665.1598411989
-58661.41571538636,-74400.55303580202,-54488.70265349182,-39606.86649165946
-58704.82280311856,-74441.03204501058,-54495.13995589495,-39619.89755867691
-58770.71574577281,-74520.1348686379,-54567.76077363024,-39692.11604501201
-58762.19973113534,-74516.89386569189,-54574.7792213892,-39698.55334741513
-58712.7576724002,-74485.89199613238,-54536.55773837063,-39663.639922575945
-58650.46336060326,-74411.88537024085,-54484.0087871562,-39613.3037940626
-58717.608000947,-74454.35368470594,-54503.49950832123,-39637.421326329866
-58795.25796118474,-74531.71307226576,-54574.801573133656,-39705.728257385286
-58761.68564101287,-74518.74906048168,-54579.696605169374,-39710.91386209892
-58720.9607626153,-74488.19422581127,-54546.07958150859,-39676.17925121537
-58673.08332599203,-74448.318713703,-54492.25658086021,-39622.51271277818
-58708.13086129796,-74448.49752765865,-54504.72885426627,-39638.29304436363
-58774.51554233021,-74518.30202559258,-54573.95220684436,-39704.05187655114
-58781.10930694453,-74532.47303157723,-54592.504154742266,-39717.28410926868
-58742.30667857012,-74491.18935956829,-54557.56837815862,-39683.53297514117
-58656.744200795205,-74408.9572917172,-54483.44999354482,-39614.24256732972
-58698.273741993165,-74454.48779517267,-54490.73666223725,-39631.67692800485
-58773.33089987408,-74528.80734548657,-54566.06204105164,-39706.89054809696
-58758.176417133385,-74510.6353772444,-54568.96776783082,-39706.35410623004
-58716.60217244652,-74477.82301638402,-54537.49651163775,-39670.01016974571
-58668.34475616751,-74419.57437033349,-54485.68516799035,-39619.89755867691
-58724.33587602805,-74453.75018760565,-54499.18562164136,-39637.24251237423
-58798.29779843066,-74534.61879904495,-54568.69954689736,-39703.94011782886
-58781.31047264463,-74529.7461187537,-54579.74130865828,-39714.78071388969
-58737.59046049005,-74496.9337578933,-54556.27197698021,-39689.925574055385
-58666.6460235889,-74426.95044600373,-54499.61030478601,-39632.99568092772
-58718.390312002935,-74468.34587673497,-54505.086482177554,-39645.42325084487
-58804.28806594468,-74563.72077032576,-54582.065890081634,-39717.5746819466
-58800.48826938728,-74564.7042470818,-54591.36421577504,-39720.01102209223
-58762.087972413065,-74519.35255758198,-54559.73649737078,-39684.96348678631
-58692.14936401241,-74445.3682834349,-54498.24684837424,-39624.54672152361
-58704.82280311856,-74451.8726410714,-54497.77746174067,-39631.09578264902
-58757.17058863289,-74498.29721430507,-54561.36817471602,-39696.29582122515
-58770.80515275063,-74520.47014480474,-54576.679119667904,-39709.5727574316
-58719.41849224788,-74474.02321982662,-54539.53052038319,-39671.21716394629
-58661.16984619735,-74405.58217830447,-54487.205086613314,-39619.6516894879
-58713.71879741178,-74449.34689394795,-54501.24198213124,-39640.05883217559
-58789.26769367072,-74531.31074086556,-54572.76756438823,-39708.56692893111
-58777.44362085386,-74539.51383108067,-54581.440041236885,-39712.70200165534
-58727.73334118526,-74485.5343682211,-54546.48191290879,-39676.492175637744
-58665.5507881106,-74414.96991097569,-54488.27797034717,-39620.34459356601
-58704.46517520728,-74441.38967292187,-54492.77067098268,-39625.21727385727
-58794.90033327346,-74531.82483098803,-54565.61500616253,-39693.32303921259
-58794.34153966207,-74548.85686026298,-54577.70729991285,-39703.31426898411
-58742.0161058922,-74499.54891199457,-54544.26909020771,-39668.244381933735
-58681.08525050703,-74406.92328297178,-54488.2109151138,-39610.10749460549
-58716.82568989107,-74448.18460323628,-54499.38678734146,-39626.96070992479
-58780.08112669959,-74521.85595296096,-54562.59752066106,-39689.52324265519
-58757.79643747764,-74506.18738009779,-54566.28555849619,-39696.34052471406
-58724.82761440607,-74480.25935652964,-54541.13984598397,-39670.211335445805
-58675.16203822637,-74413.42764060828,-54491.340159337546,-39618.93643366533
-58686.04733777611,-74412.89119874134,-54472.83291492855,-39608.65463121589
-58765.08310617008,-74516.04449940259,-54547.86772106501,-39685.00819027522
-58768.122943416,-74535.51286882316,-54566.37496547401,-39699.40271370443
-58726.57105047358,-74484.59559495396,-54537.9211947824,-39670.68072207936
-58672.39042191392,-74410.0078237066,-54488.47913604727,-39620.79162845512
-58702.87820135096,-74433.25363794013,-54484.81344995659,-39621.9539191668
-58774.35908011903,-74516.3350720805,-54549.96878504381,-39686.1704809869
-58773.621472552,-74529.81317398706,-54570.30887249814,-39705.12476028499
-58735.53410000016,-74496.9337578933,-54542.23508146228,-39676.89450703794
-58699.39132921593,-74436.15936471932,-54492.92713319387,-39629.5535122816
-58732.60602147652,-74446.39646367985,-54483.67351098937,-39627.765372725175
-58773.84498999656,-74522.37004308344,-54538.07765699359,-39690.26085022221
-58775.856646997534,-74537.74804326869,-54557.18839850288,-39708.321059742106
-58735.62350697798,-74486.89782463286,-54525.873604521,-39672.446509891335
-58694.496297180216,-74435.08648098547,-54476.76682195268,-39622.44565754481
-58726.10166384002,-74462.93675457677,-54476.63271148595,-39631.43105881585
-58793.22395243931,-74549.90739225238,-54545.34197394156,-39700.900280582944
-58768.41351609392,-74523.71114775076,-54553.23213973429,-39709.46099870932
-58718.79264340313,-74470.89397560287,-54512.26139214771,-39668.110271467005
-58688.57308489956,-74453.95135330575,-54464.406307268895,-39621.193959855314
-58722.48068123826,-74477.1748157948,-54469.39074628244,-39631.29694834912
-58778.11417318752,-74518.3914325704,-54529.09225572256,-39686.57281238709
-58759.96455668981,-74513.54110402359,-54536.51303488172,-39690.26085022221
-58721.98894286024,-74468.10000754596,-54505.68997927785,-39656.55441958361
-58667.8977212784,-74402.63174803637,-54449.34123150602,-39600.2503753007
-58709.91900085437,-74447.4246439248,-54452.53753096313,-39610.88980566142
-58793.00043499476,-74549.12508119644,-54529.0699039781,-39685.723446097785
-58777.48832434277,-74540.98904621472,-54538.85996804952,-39691.51254791171
-58733.611849977,-74500.33122305051,-54507.612229301005,-39664.04225397614
-58672.99391901421,-74423.06124246851,-54453.78922865263,-39612.47677951775
-58718.8596986365,-74460.0310277976,-54459.10894383299,-39624.36790756797
-58803.79632756667,-74561.32913366905,-54535.95424127034,-39703.49308293976
-58803.39399616647,-74558.98220050124,-54552.718049611816,-39717.70879241333
-58759.785742734166,-74512.24470284519,-54522.45378761933,-39684.94113504185
-58684.37095694196,-74431.91253327281,-54456.58319670954,-39616.36598305297
-58722.92771612736,-74468.90467034634,-54458.72896417725,-39623.89852093441
-58801.8293740546,-74563.43019764785,-54526.432398132376,-39692.36191420101
-58811.30651370365,-74569.35340992849,-54551.51105541123,-39709.52805394269
-58763.40672533592,-74513.22817960122,-54521.62677307449,-39678.34737042754
-58695.36801521397,-74437.67928334228,-54460.58415896704,-39623.026802900655
-58714.255239278704,-74465.77542612261,-54453.9009873749,-39625.351384324
-58781.66810055592,-74549.05802596308,-54514.38480787096,-39684.29293445265
-58801.29293218767,-74579.098770511,-54535.95424127034,-39700.63205964948
-58759.495170056245,-74540.09497643649,-54508.55100256813,-39673.497041880735
-58666.33309916653,-74416.64629180984,-54452.78340015214,-39615.36015455248
-58682.4487069188,-74430.21380069421,-54453.07397283005,-39622.19978835581
-58776.124867930994,-74542.66542704887,-54526.63356383248,-39696.34052471406
-58789.625321582,-74560.07743597955,-54545.61019487503,-39710.48917895427
-58753.50490254223,-74514.47987729072,-54512.26139214771,-39676.42512040438
-58682.76163134118,-74427.68805357076,-54457.410211254384,-39622.51271277818
-58709.11433805399,-74452.61024863843,-54446.83783612703,-39620.76927671066
-58783.16566743442,-74536.78691825712,-54507.99220895675,-39683.24240246325
-58779.96936797731,-74555.20475568829,-54533.54025286916,-39706.55527193013
-58729.789701675145,-74496.75494393766,-54501.4654995758,-39672.29004768015
-58674.04445100361,-74432.40427165083,-54446.90489136039,-39616.92477666435
-58717.02685559117,-74456.94648706276,-54446.10022856,-39621.17160811086
-58805.33859793408,-74539.11149968047,-54512.59666831454,-39688.27154496569
-58797.24726644126,-74546.01818871715,-54529.74045631176,-39701.70494338333
-58718.18914630285,-74494.54212123658,-54489.39555756993,-39666.25507667722
-58642.57319481054,-74429.40913789382,-54429.22466149624,-39610.77804693914
-58697.491430937225,-74465.52955693359,-54437.49480694471,-39629.21823611477
-58785.80317328015,-74547.15812768438,-54510.5179560802,-39701.9731643168
-58790.60879833804,-74559.76451155716,-54526.9688399993,-39709.75157138724
-58747.58169026157,-74523.4876303062,-54500.97376119778,-39678.392073916446
-58681.46523016277,-74463.11556853242,-54452.24695828521,-39627.81007621409
-58685.91322730938,-74454.89012657286,-54437.15953077788,-39618.66821273186
-58764.121981158496,-74530.75194725418,-54505.2652961332,-39687.80215833213
-58777.64478655396,-74544.00653171618,-54522.18556668587,-39707.09171379706
-58708.53319269815,-74483.8803391314,-54481.058356888105,-39662.4105766309
-58651.31272689256,-74431.15257396133,-54428.554109162586,-39606.06182885907
-58685.01915753116,-74432.40427165083,-54426.81067309508,-39607.58174748204
-58775.94605397536,-74535.0434821896,-54500.79494724214,-39679.35319892802
-58772.52623707369,-74523.6440925174,-54516.910554994414,-39689.74676009974
-58730.05792260861,-74487.09899033296,-54494.42470007238,-39667.37266389998
-58681.3981749294,-74443.84836481194,-54447.46368497178,-39620.03166914364
-58707.52736419766,-74462.40031270985,-54444.98264133724,-39622.31154707808
-58779.47762959929,-74529.3437873535,-54509.17685141288,-39683.30945769662
-58777.22010340931,-74534.1941159003,-54520.68799980736,-39688.67387636589
-58754.68954499836,-74512.088240634,-54498.38095884096,-39665.65157957692
-58679.36416618397,-74443.4683851562,-54438.59004242302,-39609.88397716093
-58688.72954711074,-74453.43726318327,-54425.31310621656,-39605.815959670064
-58768.324109116096,-74545.36998812795,-54495.49758380623,-39678.28031519417
-58773.979100463286,-74564.99481975971,-54518.63163931747,-39699.4697689378
-58741.77023670319,-74524.11347915095,-54497.66570301839,-39674.16759421439
-58686.78494534313,-74454.80071959505,-54447.575443694055,-39625.48549479074
-58692.30582622359,-74458.53346091908,-54440.44523721281,-39621.12690462195
-58779.63409181048,-74554.15422369889,-54516.217650916304,-39696.47463518079
-58780.01407146622,-74550.35442714149,-54529.56164235612,-39706.33175448558
-58758.95872818932,-74536.42929034583,-54504.862964733,-39674.59227735904
-58679.85590456199,-74437.14284147536,-54446.54726344911,-39612.052096373096
-58701.76061412819,-74436.42758565278,-54435.86312959947,-39608.4981690047
-58785.4231936244,-74542.03957820412,-54513.155461925926,-39689.67970486638
-58780.483458099785,-74558.69162782331,-54543.10679949603,-39716.211225534826
-58739.98209714676,-74531.91423796586,-54519.23513641777,-39688.94209729936
-58673.999747514696,-74463.74141737717,-54463.221664812765,-39633.152143138905
-58719.84317539253,-74493.80451366956,-54462.34994677901,-39635.946111195815
-58791.81579253863,-74554.4000928879,-54517.55875558362,-39687.24336472075
-58787.881885514485,-74554.75772079919,-54535.75307557024,-39702.53195792818
-58743.78189370417,-74517.89969419238,-54504.57239205509,-39672.93824826936
-58672.41277365837,-74446.93290554678,-54446.524911704655,-39617.66238423138
-58696.21738150327,-74480.61698444093,-54438.72415288975,-39619.62933774344
-58779.701147043845,-74555.27181092165,-54505.75703451122,-39688.85269032153
-58795.79440305167,-74566.91706978287,-54528.91344176691,-39709.21512952032
-58749.59334726255,-74519.55372328206,-54502.20310714282,-39682.79536757415
-58681.17465748485,-74445.70355960174,-54447.82131288306,-39628.525332036654
-58701.134765283445,-74467.85413835694,-54442.05456281359,-39627.854779703
-58787.43485062538,-74561.77616855815,-54514.809491015614,-39698.4192369484
-58802.72344383281,-74574.51666289767,-54538.45763664933,-39715.85359762354
-58750.59917576303,-74533.05417693307,-54501.53255480917,-39677.63211460497
-58682.180485985344,-74462.26620224312,-54441.29460350211,-39618.42234354286
-58702.87820135096,-74459.8298620975,-54430.27519348564,-39615.203692341296
-58771.96744346231,-74547.15812768438,-54491.07193840408,-39679.64377160594
-58781.73515578928,-74571.81210181858,-54515.88237474947,-39702.017867805705
-58748.78868446215,-74531.60131354348,-54492.8153744716,-39675.307533181614
-58686.80729708759,-74455.8736033289,-54441.67458315785,-39621.9539191668
-58701.62650366146,-74456.18652775127,-54430.38695220792,-39614.30962256308
-58781.91396974492,-74537.97156071324,-54504.25946763271,-39684.87407980848
-58786.80900178063,-74564.41367440387,-54531.12626446799,-39708.723391142295
-58730.19203307534,-74524.26994136214,-54497.196316384834,-39670.03252149016
-58674.2009132148,-74463.2273272547,-54443.95446109229,-39613.66142197388
-58705.82863161906,-74480.88520537439,-54427.41417019536,-39608.2970033046
-58779.79055402167,-74551.9414009978,-54495.43052857286,-39679.934344283865
-58781.75750753374,-74559.6974563238,-54517.37994162797,-39700.63205964948
-58743.93835591536,-74529.47789782022,-54496.10108090653,-39679.8672890505
-58667.83066604503,-74452.6773038718,-54435.41609471037,-39624.30085233461
-58694.58570415804,-74456.20887949572,-54424.53079516063,-39618.064715631575
-58785.71376630232,-74542.86659274895,-54500.28085711967,-39688.83033857708
-58786.09374595806,-74561.32913366905,-54522.58789808607,-39705.46003645183
-58734.260050566205,-74512.75879296765,-54489.88729594795,-39672.58062035807
-58676.77136382716,-74451.6267718824,-54430.83398709703,-39614.66725047437
-58698.07257629307,-74471.81039712553,-54414.96424853376,-39603.40197126889
-58785.98198723578,-74568.97343027276,-54486.26631334619,-39675.84397504854
-58800.55532462065,-74580.1493025004,-54518.67634280639,-39702.308440483626
-58767.54179806016,-74543.38068287143,-54499.34208385254,-39683.845899563545
-58708.9578758428,-74488.50715023365,-54446.70372566029,-39633.10743965
-58700.01717806068,-74484.0815048315,-54423.457911426776,-39620.635166243934
-58795.86145828504,-74579.76932284467,-54496.25754311771,-39694.26181247972
-58809.51837414723,-74610.81589589309,-54523.92900275338,-39718.28993776917
-58767.67590852689,-74583.85969207999,-54493.30711284961,-39688.40565543243
-58694.22807624675,-74508.15433360987,-54440.04290581261,-39633.59917802801
-58693.37870995745,-74514.16695286834,-54417.48999565721,-39616.45539003079
-58780.43875461087,-74555.092996966,-54488.97087442528,-39678.95086752783
-58796.71082457434,-74563.4525493923,-54521.29149690765,-39705.28122249618
-58729.67794295287,-74521.05129016058,-54483.62880750046,-39674.03348374766
-58666.6013201,-74468.18941452377,-54431.88451908642,-39624.97140466826
-58684.9521022978,-74477.44303672828,-54422.742655604205,-39621.41747729987
-58776.43779235337,-74573.73435184173,-54500.75024375323,-39698.4192369484
-58799.9294757759,-74603.88685511194,-54534.07669473609,-39724.74959191676
-58757.57292003309,-74559.47393887925,-54502.42662458737,-39688.27154496569
-58705.89568685242,-74498.49838000517,-54448.87184487246,-39634.761468739685
-58711.57302994407,-74496.84435091547,-54422.36267594847,-39613.97434639625
-58793.268655928216,-74584.7537618582,-54489.9096476924,-39681.00722801772
-58811.84295557058,-74610.74884065973,-54520.46448236281,-39709.79627487616
-58777.1753999204,-74574.00257277519,-54500.12439490848,-39687.399826931935
-58700.508916438695,-74511.57415051153,-54438.545338934106,-39628.41357331438
-58702.87820135096,-74521.7441942387,-54426.38598995042,-39623.093858134016
-58783.65740581243,-74591.14636077241,-54502.18075539837,-39695.49115842476
-58790.07235647111,-74576.70713385429,-54532.847348791045,-39719.40752499193
-58755.44950430984,-74545.97348522824,-54507.09813917853,-39690.841995578056
-58699.12310828247,-74511.4847435337,-54453.92333911936,-39636.862532718485
-58706.09685255252,-74509.02605164362,-54434.566728421065,-39622.44565754481
-58798.00722575274,-74579.21052923329,-54508.43924384585,-39694.57473690209
-58817.76616785123,-74611.0617650821,-54538.54704362715,-39719.228711036296
-58775.56607431961,-74569.59927911751,-54505.75703451122,-39686.014018775706
-58721.18428005985,-74527.51094430816,-54452.35871700749,-39633.97915768375
-58710.83542237704,-74508.60136849897,-54425.60367889448,-39616.76831445316
-58782.56217033413,-74570.71686634027,-54493.6647407609,-39692.09369326755
-58807.26084795724,-74609.58654994804,-54524.37603764249,-39720.83803663708
-58752.655536252925,-74557.350523156,-54494.759976239206,-39689.09855951054
-58681.04054701812,-74479.52174896262,-54438.97002207876,-39633.50977105019
-58679.9006080509,-74470.02225756912,-54409.041036253104,-39615.0025266412
-58773.55441731864,-74575.23191872024,-54477.86205743099,-39688.02567577669
-58801.35998742104,-74605.69734641282,-54509.60153455753,-39716.30063251265
-58744.541853015646,-74555.4953283662,-54481.68420573285,-39689.45618742183
-58678.80537257259,-74494.54212123658,-54433.67265864285,-39643.52335256617
-58700.53126818315,-74505.56153125304,-54412.93023978833,-39631.07343090456
-58800.1753449649,-74601.67403241087,-54480.11958362098,-39697.05578053663
-58824.62815339901,-74640.02962589618,-54518.18460442837,-39726.001289606254
-58791.27935067169,-74602.32223300007,-54503.25363913222,-39703.2695654952
-58720.62548644847,-74525.43223207381,-54445.02734482615,-39641.51169556519
-58723.97824811677,-74537.30100837958,-54426.56480390606,-39631.54281753813
-58794.74387106227,-74612.15700056042,-54498.00097918523,-39704.27539399569
-58806.2326677123,-74621.76825067619,-54529.78515980068,-39732.55035073165
-58774.00145220774,-74584.46318918029,-54495.49758380623,-39698.66510613741
-58697.983169315245,-74497.67136546032,-54438.76885637866,-39642.76339325469
-58695.43507044734,-74491.18935956829,-54411.16445197636,-39621.26101508868
-58764.90429221443,-74567.29704943861,-54470.24011257174,-39676.89450703794
-58781.48928660027,-74583.27854672415,-54500.86200247551,-39698.66510613741
-58740.29502156914,-74557.350523156,-54475.313958563085,-39673.45233839182
-58682.31459645207,-74485.91434787684,-54426.58715565052,-39624.92670117935
-58699.14546002692,-74490.80937991255,-54405.17418446233,-39611.0462678726
-58787.2783884142,-74589.358221216,-54472.452935272806,-39684.3152861971
-58798.4766123863,-74617.32025352959,-54503.72302576579,-39715.495969712254
-58760.7692194902,-74580.03754377813,-54480.45485978781,-39689.925574055385
-58684.68388136433,-74494.02803111411,-54424.62020213845,-39633.68858500583
-58684.080384264045,-74490.47410374571,-54397.73105355872,-39613.25909057368
-58776.23662665327,-74582.67504962385,-54467.04381311462,-39683.28710595216
-58807.19379272388,-74622.0588233541,-54507.5675258121,-39717.7758476467
-58769.64286203896,-74587.63713689294,-54487.33919708005,-39695.6699723804
-58695.61388440298,-74514.27871159062,-54432.91269933137,-39637.17545714086
-58694.47394543576,-74502.96872889623,-54404.637742595405,-39612.11915160647
-58783.54564709016,-74591.59339566152,-54470.843609672025,-39680.94017278435
-58810.479499158806,-74638.73322471777,-54508.37218861248,-39715.0712865676
-58775.029632452686,-74600.3105759991,-54488.32267383608,-39692.40661768992
-58704.01814031818,-74510.81419120004,-54435.259632499175,-39639.63414903094
-58679.118296994966,-74466.44597845626,-54395.67469306883,-39607.51469224867
-58772.57094056261,-74581.06572402308,-54468.04964161512,-39686.57281238709
-58802.29876068816,-74625.29982630014,-54506.02525544468,-39720.54746395916
-58769.8216759946,-74594.2085497628,-54485.99809241272,-39697.14518751445
-58689.95889305579,-74508.57901675452,-54431.5492429196,-39640.52821880916
-58689.26598897768,-74497.49255150468,-54403.20723095027,-39620.54575926611
-58787.41249888093,-74598.03069806466,-54472.49763876172,-39690.57377464459
-58818.302609718165,-74635.31340781611,-54506.65110428943,-39721.53094071519
-58765.70895501482,-74587.4583229373,-54472.43058352835,-39690.17144324439
-58686.53907615413,-74512.82584820103,-54423.50261491568,-39639.50003856421
-58708.53319269815,-74517.340900581,-54404.5930391065,-39627.58655876954
-58793.24630418376,-74615.9567971178,-54473.74933645122,-39700.699114882846
-58808.46784215783,-74633.68173047087,-54511.34497062505,-39731.321004786616
-58779.63409181048,-74599.08123005406,-54486.422775557374,-39705.88471959648
-58693.62457914646,-74516.60329301398,-54422.00504803718,-39645.62441654497
-58689.95889305579,-74503.97455739672,-54391.9866552337,-39622.53506452264
-58776.41544060892,-74590.96754681677,-54457.83489439904,-39693.345390957045
-58811.21710672583,-74638.04032063966,-54503.41010134341,-39737.08775485608
-58762.31148985762,-74589.87231133846,-54472.09530736152,-39703.94011782886
-58700.01717806068,-74525.7898599851,-54419.255783469176,-39648.48543983525
-58712.22123053327,-74534.73055776722,-54395.47352736873,-39627.96653842527
-58799.48244088679,-74615.88974188444,-54458.907778132896,-39694.32886771309
-58817.028560284205,-74626.2609513117,-54494.759976239206,-39725.75542041724
-58763.16085614692,-74579.56815714457,-54461.70174618981,-39692.80894909012
-58711.416567732886,-74537.68098803532,-54409.48807114221,-39640.34940485352
-58713.71879741178,-74524.18053438432,-54383.04595745158,-39622.736230222734
-58791.61462683853,-74604.9597388458,-54449.58710069503,-39690.86434732251
-58794.63211233999,-74639.53788751816,-54482.06418538859,-39720.122780814505
-58759.76339098971,-74597.22603526426,-54458.7066124328,-39694.17240550189
-58694.94333206932,-74512.24470284519,-54409.59982986448,-39639.12005890847
-58688.66249187738,-74501.33705155099,-54378.59796030498,-39612.2979655621
-58786.58548433608,-74607.99957609172,-54446.48020821574,-39681.00722801772
-58807.48436540179,-74637.8168031951,-54478.957292909305,-39714.06545806712
-58774.40378360794,-74599.84118936553,-54453.38689725243,-39686.84103332056
-58719.68671318135,-74540.83258400352,-54400.927353015824,-39635.2085036288
-58725.52051848418,-74546.01818871715,-54372.60769279095,-39613.57201499605
-58791.74873730526,-74616.47088724028,-54431.45983594177,-39678.30266693862
-58801.49409788777,-74624.45046001083,-54470.46363001629,-39711.20443477684
-58770.29106262816,-74598.03069806466,-54449.60945243949,-39684.829376319576
-58711.125995054965,-74537.07749093503,-54403.27428618363,-39636.48255306275
-58732.449559265326,-74555.51768011066,-54386.51047784215,-39626.22310235776
-58819.5319556632,-74657.08400691558,-54453.31984201907,-39697.94985031484
-58822.01299929775,-74654.75942549223,-54488.2109151138,-39727.6776704404
-58790.29587391566,-74599.7070788988,-54462.21583631228,-39696.18406250287
-58699.659550149394,-74529.03086293112,-54408.70576008628,-39646.49613457872
-58681.75580284069,-74508.80253419907,-54378.352091115965,-39623.004451156194
-58769.88873122797,-74602.81397137808,-54440.355830234985,-39687.35512344303
-58786.29491165816,-74627.8702769125,-54473.79403994013,-39717.21705403532
-58745.25710883822,-74577.35533444349,-54445.29556575961,-39688.22684147678
-58692.48464017924,-74529.50024956468,-54393.50657385666,-39636.59431178503
-58710.366035743486,-74542.55366832658,-54366.393907832375,-39615.807189441584
-58796.68847282988,-74616.9626256183,-54426.11776901696,-39676.96156227131
-58811.26181021474,-74629.88193391346,-54463.579292724055,-39710.198606276346
-58766.11128641502,-74587.36891595948,-54445.42967622634,-39691.93723105636
-58706.49918395272,-74530.52842980962,-54400.14504195989,-39643.81392524409
-58712.15417529991,-74531.98129319922,-54371.26658812363,-39619.49522727671
-58786.74194654727,-74610.95000635982,-54433.0468097981,-39684.49410015275
-58802.38816766598,-74631.11127985851,-54472.519990506175,-39715.25010052325
-58772.39212660696,-74603.23865452273,-54458.79601941062,-39696.60874564752
-58723.59826846103,-74549.01332247416,-54412.61731536596,-39653.20165791531
-58716.98215210225,-74531.98129319922,-54382.73303302921,-39630.358175082
-58787.188981436375,-74614.83920989504,-54438.05360055609,-39686.99749553174
-58818.146147506974,-74651.16079463492,-54482.958255166806,-39719.54163545867
-58785.51260060223,-74629.1666780909,-54467.89317940392,-39701.9731643168
-58747.3134693281,-74555.74119755521,-54423.90494631588,-39656.04032946114
-58737.63516397896,-74520.2913308491,-54394.221829679234,-39630.04525065962
-58761.48447531277,-74578.47292166627,-54443.239205269725,-39683.868251308
-58792.55340010565,-74632.89941941493,-54484.92520867887,-39722.514417471226
-58767.5194463157,-74609.6089016925,-54472.0059003837,-39704.49891144025
-58718.56912595858,-74550.3991306304,-54429.33642021852,-39658.07433820657
-58710.366035743486,-74521.76654598315,-54390.77966103311,-39622.84798894501
-58789.64767332646,-74607.73135515826,-54449.90002511741,-39685.90226005343
-58802.92460953291,-74644.03058815368,-54489.2614471032,-39721.32977501509
-58759.74103924526,-74611.21822729328,-54466.1050398475,-39693.88183282397
-58712.89178286694,-74558.26694467866,-54422.2956207151,-39651.52527708117
-58716.82568989107,-74555.80825278859,-54390.042053466095,-39629.799381470606
-58802.18700196588,-74649.88674520097,-54449.028307083645,-39694.4182746909
-58817.54265040668,-74648.43388181138,-54488.814412214095,-39726.068344839616
-58769.19582714985,-74586.608956648,-54464.07103110207,-39700.073266038096
-58708.24262002023,-74534.37292985593,-54417.154719490376,-39656.82264051708
-58707.99675083122,-74536.47399383473,-54385.28113189712,-39633.19684662782
-58799.34833042006,-74628.3173118016,-54441.4510657133,-39696.54169041415
-58822.25886848675,-74646.91396318842,-54484.29935983412,-39732.05861235364
-58774.62730105249,-74599.55061668761,-54459.84655140001,-39706.6223271635
-58715.171660801374,-74536.18342115682,-54418.36171369097,-39664.5116406097
-58704.107547296,-74516.60329301398,-54382.39775686237,-39634.67206176186
-58781.64574881146,-74603.95391034531,-54432.89034758692,-39686.57281238709
-58801.06941474312,-74650.93727719037,-54476.27508357466,-39721.93327211538
-58781.377527878,-74625.23277106676,-54464.29454854662,-39702.375495717
-58714.50110846772,-74553.05898822058,-54418.7416933467,-39653.492230593234
-58691.9034948234,-74523.33116809501,-54379.22380914972,-39620.52340752166
-58775.27550164169,-74594.11914278497,-54433.225623753744,-39678.97321927229
-58815.5309934057,-74635.2687043272,-54481.617150499485,-39724.593129705565
-58773.48736208528,-74613.18518080535,-54459.69008918883,-39704.27539399569
-58704.66634090738,-74561.21737494676,-54413.57844037753,-39659.34838764052
-58703.41464321788,-74551.62847657544,-54381.05665219506,-39628.77120122567
-58775.34255687506,-74606.90434061342,-54432.15274001989,-39685.3211146976
-58795.59323735157,-74626.0150821227,-54465.27802530266,-39716.7253156573
-58772.7721062627,-74606.56906444658,-54449.43063848384,-39696.60874564752
-58726.03460860666,-74574.02492451966,-54410.89623104289,-39656.59912307252
-58706.63329441944,-74552.63430507593,-54377.56978006003,-39630.55934078209
-58766.60302479304,-74604.51270395669,-54428.64351614041,-39686.77397808719
-58799.90712403144,-74637.19095435036,-54475.26925507418,-39725.28603378368
-58780.34934763305,-74600.93642484385,-54467.714365448286,-39712.500835955245
-58717.67505618037,-74530.55078155408,-54418.80874858007,-39662.36587314199
-58694.205724502295,-74504.60040624147,-54375.89339922588,-39628.19005586983
-58784.529123846194,-74594.4097154629,-54432.331553975535,-39687.33277169857
-58831.06545580214,-74650.0655591566,-54482.39946155542,-39732.10331584255
-58805.02567351171,-74640.83428869657,-54471.06712711658,-39718.8263796361
-58728.7615214302,-74548.83450851853,-54414.56191713357,-39662.07530046407
-58712.53415495565,-74506.43324928681,-54376.742765515184,-39629.62056751497
-58783.50094360125,-74590.14053227194,-54431.79511210861,-39686.505757153725
-58814.41340618294,-74636.92273341688,-54480.79013595464,-39730.53869373068
-58783.83621976808,-74617.14143957394,-54468.317862548574,-39715.2277487788
-58733.4106842769,-74563.27373543665,-54424.10611201598,-39668.15497495591
-58722.2124603048,-74530.10374666497,-54380.00612020566,-39629.01707041467
-58790.27352217121,-74601.94225334433,-54428.33059171803,-39680.94017278435
-58817.96733355133,-74665.66707678641,-54475.7609934522,-39723.56494946063
-58777.86830399851,-74625.12101234449,-54453.49865597471,-39699.53682417117
-58717.272724780174,-74541.01139795917,-54407.67757984133,-39651.03353870315
-58710.8577741215,-74534.75290951168,-54370.596035789975,-39620.65751798839
-58795.01209199573,-74618.862523897,-54425.71543761676,-39679.219088461294
-58823.57762140961,-74649.88674520097,-54475.93980740784,-39724.70488842784
-58769.12877191648,-74602.07636381107,-54455.01857459767,-39702.75547537273
-58708.01910257568,-74533.47886007772,-54407.61052460796,-39650.27357939167
-58707.61677117548,-74524.02407217314,-54369.254931122654,-39619.45052378781
-58785.89258025797,-74605.02679407917,-54410.47154789824,-39669.94311451234
-58804.511583389234,-74645.14817537644,-54453.14102806342,-39711.13737954347
-58781.89161800047,-74627.84792516804,-54442.21102502478,-39699.29095498216
-58720.357265515006,-74540.25143864768,-54401.62025709394,-39652.97814047076
-58719.77612015917,-74538.75387176918,-54370.528980556606,-39622.64682324491
-58786.876057014,-74599.0588783096,-54426.65421088389,-39677.5650593716
-58807.12673749051,-74607.12785805797,-54477.01269114169,-39722.15678955994
-58780.058774955134,-74584.53024441365,-54464.629824713455,-39708.56692893111
-58725.09583533953,-74544.40886311638,-54424.3966846939,-39666.45624237731
-58704.68869265184,-74508.33314756551,-54382.129535928914,-39628.99471867022
-58782.74098428977,-74581.66922112337,-54422.2956207151,-39675.62045760399
-58823.44351094288,-74639.09085262906,-54471.06712711658,-39726.87300764001
-58803.86338280003,-74631.37950079197,-54460.67356594486,-39716.41239123493
-58727.93450688536,-74570.47099715126,-54417.93703054632,-39669.83135579006
-58695.97151231427,-74514.61398775745,-54372.60769279095,-39625.15021862391
-58788.08305121458,-74604.46800046778,-54419.09932125799,-39674.14524246994
-58737.72457095678,-74639.53788751816,-54469.59191198253,-39723.11791457152
-58575.07092655551,-74621.54473323164,-54459.28775778863,-39713.1713882889
-58500.57256228597,-74565.68772383782,-54411.16445197636,-39670.03252149016
-58466.173227569256,-74524.3369965955,-54363.68934675329,-39623.451486045306
-58543.53261512907,-74598.16480853138,-54409.82334730904,-39672.7147308248
-58566.95724331823,-74620.71771868679,-54456.98552810973,-39716.47944646829
-58536.44711213674,-74579.43404667784,-54444.64736517041,-39701.3696672165
-58477.77378294156,-74535.73638626772,-54404.25776293967,-39662.030596975164
-58455.48909371962,-74503.08048761851,-54365.61159677644,-39631.16283788238
-58541.02921975008,-74597.33779398655,-54411.09739674299,-39679.8672890505
-58589.08547032899,-74659.43094008339,-54465.70270844731,-39729.845789652565
-58557.25658622463,-74620.98593962025,-54452.0010890962,-39709.75157138724
-58500.86313496389,-74556.36704639996,-54411.09739674299,-39665.1598411989
-58479.67368122026,-74524.60521752897,-54367.42208807732,-39629.307643092594
-58541.38684766136,-74581.44570367882,-54407.67757984133,-39673.631152347465
-58573.573359677,-74602.61280567799,-54457.72313567676,-39717.35116450205
-58545.74543783015,-74578.31645945508,-54445.67554541535,-39702.084923039074
-58490.84955344792,-74542.41955785984,-54411.03034150963,-39668.0655679781
-58484.09932662241,-74539.24561014719,-54374.39583234738,-39635.49907630671
-58552.54036814456,-74604.89268361243,-54413.53373688862,-39677.20743146032
-58571.651109653845,-74617.99080586324,-54458.21487405478,-39718.24523428026
-58554.06028676752,-74585.69253512533,-54445.65319367089,-39701.79435036115
-58500.281989608055,-74550.51088935268,-54408.95162927528,-39664.7128063098
-58487.8544196909,-74520.15722038236,-54371.42305033482,-39631.38635532693
-58556.206054235234,-74582.78680834614,-54413.33257118852,-39677.07332099359
-58604.59758098097,-74649.6185242675,-54474.24107482923,-39735.12080134402
-58590.381871507394,-74635.51457351621,-54459.37716476645,-39722.71558317132
-58529.853347522425,-74580.5516339006,-54418.96521079126,-39685.589335631055
-58507.94863795622,-74530.66254027636,-54377.34626261548,-39646.31732062308
-58595.142793076375,-74613.29693952763,-54419.92633580284,-39691.13256825597
-58639.26513663116,-74667.61167855402,-54474.86692367398,-39738.4288595234
-58604.86580191444,-74636.02866363867,-54463.95927237979,-39724.21315004983
-58544.78431281857,-74573.95786928629,-54418.62993462443,-39680.9178210399
-58517.761053772105,-74524.0911274065,-54373.2335416357,-39636.81782922958
-58598.02616811111,-74575.92482279836,-54416.23829796771,-39679.12968148347
-58638.28165987512,-74630.39602403594,-54468.11669684848,-39730.58339721959
-58621.719017233736,-74619.2648552972,-54456.650251942905,-39718.69226916937
-58574.57918817749,-74563.20668020328,-54410.69506534279,-39674.21229770331
-58545.27605119658,-74524.87343846244,-54363.108201397445,-39635.14144839543
-58613.04654038508,-74586.608956648,-54402.961361761256,-39682.88477455197
-58683.163962741375,-74663.0295709407,-54467.96023463729,-39744.597940993066
-58656.31951765056,-74621.34356753154,-54452.62693794095,-39723.6767081829
-58572.38871722087,-74545.83937476152,-54409.890402542405,-39678.36972217199
-58553.65795536732,-74510.14363886639,-54370.37251834542,-39641.35523335401
-58649.7928082696,-74587.01128804819,-54409.48807114221,-39683.421216418894
-58691.07648027856,-74632.67590197037,-54453.67746993035,-39723.31908027161
-58679.23005571724,-74615.1074308285,-54450.637632684426,-39715.13834180097
-58622.36721782294,-74569.19694771731,-54417.60175437949,-39680.15786172842
-58603.72586294721,-74536.69751127929,-54376.16162015935,-39641.399936842914
-58678.13482023893,-74601.18229403286,-54412.52790838813,-39683.60003037453
-58708.93552409834,-74619.3095587861,-54458.66190894388,-39724.90605412794
-58700.24069550523,-74605.78675339064,-54455.91264437588,-39716.23357727928
-58659.404058385386,-74562.78199705863,-54423.01087653767,-39683.82354781908
-58632.06787491655,-74506.90263592037,-54369.50080031167,-39635.521428051165
-58707.95204734231,-74567.00647676068,-54400.61442859345,-39668.73612031176
-58761.28330961267,-74626.30565480061,-54457.52196997666,-39723.38613550498
-58754.06369615361,-74618.10256458553,-54456.42673449835,-39720.01102209223
-58707.46030896429,-74570.49334889572,-54417.087664257015,-39680.18021347287
-58685.44384067581,-74531.10957516546,-54370.037242178594,-39635.27555886216
-58773.286196385176,-74603.0598405671,-54410.89623104289,-39680.627248361976
-58837.525109949725,-74664.66124828592,-54463.3557752795,-39729.5775687191
-58819.82252834112,-74641.21426835231,-54460.13712407793,-39726.56008321764
-58748.25224259523,-74559.56334585707,-54420.70864685877,-39690.14909149994
-58741.52436751418,-74518.07850814801,-54369.0314136781,-39647.4572595903
-58802.94696127737,-74575.81306407608,-54395.071195968536,-39682.14716698494
-58827.01979005573,-74619.48837274175,-54441.6522314134,-39724.21315004983
-58811.75354859276,-74605.78675339064,-54433.56089992057,-39714.95952784533
-58792.32988266109,-74582.2503664792,-54406.96232401876,-39688.5174141547
-58776.124867930994,-74518.88317094841,-54359.86719845143,-39647.16668691238
-58835.87108086003,-74551.0920347085,-54384.09648944098,-39674.90520178142
-58887.66007276298,-74605.27266326817,-54436.82425461105,-39727.23063555129
-58877.288863335714,-74596.0637445526,-54439.57351917905,-39729.35405127455
-58842.95658385236,-74557.23876443371,-54407.47641414123,-39697.63692589247
-58831.40073196897,-74505.82975218652,-54360.89537869637,-39653.492230593234
-58896.69017752292,-74556.85878477799,-54386.2869603976,-39679.0179227612
-58950.915509571496,-74618.37078551899,-54444.35679249249,-39733.04208910967
-58937.906794298506,-74601.89754985542,-54436.936013333325,-39722.55912096013
-58887.61536927407,-74551.2484969197,-54402.80489955007,-39688.91974555489
-58870.18100859893,-74515.39629881339,-54353.38519255939,-39646.27261713417
-58938.10795999861,-74551.8966975089,-54380.36374811694,-39675.57575411508
-59002.10100437415,-74609.67595692587,-54438.411228467376,-39728.5270367297
-59002.43628054098,-74597.42720096436,-54440.89227210192,-39728.012946607225
-58962.024326565785,-74538.39624385789,-54410.180975220326,-39695.20058574684
-58909.63183756255,-74484.75205716515,-54355.083925138,-39647.12198342347
-58958.872730597584,-74532.04834843258,-54374.440535836286,-39671.48538487976
-59037.95320248047,-74610.25710228171,-54432.57742316454,-39726.35891751754
-59044.27874616132,-74612.7604976607,-54431.146911519405,-39721.70975467083
-58984.890161143565,-74538.73152002472,-54392.21017267826,-39680.60489661752
-58959.92326258698,-74494.3856590254,-54352.69228848128,-39644.28331187765
-59036.16506292404,-74550.68970330831,-54388.29861739858,-39686.505757153725
-59079.3933367006,-74611.66526218239,-54430.31989697456,-39730.6281007085
-59063.50124639288,-74602.81397137808,-54426.54245216161,-39731.18689431988
-59028.520766320325,-74544.25240090518,-54397.57459134753,-39704.29774574015
-59034.55573732326,-74523.91231345086,-54358.794314717576,-39665.29395166563
-59096.87240086465,-74568.68285759483,-54390.042053466095,-39696.38522820297
-59134.93742167204,-74602.43399172236,-54445.07204831506,-39748.19657185037
-59122.48750001044,-74588.08417178204,-54429.4481789408,-39729.73403093029
-59072.46429591946,-74536.54104906811,-54393.32775990103,-39691.870175822994
-59048.36911539664,-74506.05326963107,-54349.94302391327,-39653.13460268195
-59120.92287789856,-74564.72659882625,-54380.1849341613,-39688.115082754506
-59169.940253489054,-74608.67012842538,-54432.51036793117,-39735.41137402193
-59159.92667197307,-74597.42720096436,-54430.34224871901,-39729.89049314147
-59126.44375877902,-74556.18823244431,-54402.17905070532,-39698.53099567068
-59100.6498456776,-74518.41378431485,-54361.70004149676,-39658.6107800735
-59149.35429684571,-74552.05315972009,-54384.72233828573,-39686.72927459828
-59198.52813464739,-74598.27656725366,-54438.05360055609,-39735.6795949554
-59172.60011107924,-74568.63815410592,-54429.53758591862,-39721.799161648654
-59134.69155248303,-74529.18732514231,-54401.95553326077,-39694.50768166872
-59122.24163082142,-74502.49934226267,-54353.966337915226,-39651.97231197028
-59212.18505050958,-74572.59441287452,-54380.05082369457,-39682.52714664068
-59264.6892982351,-74635.98396014977,-54434.03028655414,-39731.6786326979
-59241.89051889069,-74615.53211397315,-54431.68335338633,-39723.85552213854
-59163.14532317464,-74526.32630185202,-54397.14990820288,-39691.244326978245
-59113.34563652821,-74480.7287431632,-54346.16557910032,-39647.94899796832
-59180.8702565277,-74529.96963619825,-54368.13734389989,-39674.48051863677
-59241.37642876821,-74577.8023693326,-54431.973926064245,-39731.99155712027
-59236.570803710325,-74574.20373847529,-54428.95644056278,-39730.0246036082
-59194.86244855672,-74540.07262469204,-54389.684425554806,-39692.98776304576
-59176.39990763664,-74495.97263288172,-54344.48919826618,-39651.27940789216
-59252.8875771627,-74540.18438341432,-54363.62229151992,-39675.95573377082
-59297.21108641757,-74596.89075909743,-54421.26744047016,-39730.136362330486
-59261.71651622254,-74573.22026171927,-54413.4443299108,-39714.13251330048
-59215.604867411246,-74527.73446175271,-54377.07804168201,-39673.16176571391
-59201.09858525975,-74496.17379858182,-54335.1238173394,-39635.02968967315
-59285.297606622895,-74574.6507733644,-54363.21996011972,-39670.54661161263
-59330.85046182281,-74612.24640753823,-54417.66880961285,-39721.21801629281
-59317.48411863853,-74574.27079370867,-54416.35005668999,-39717.84290288006
-59260.6883359776,-74529.63436003141,-54385.57170457503,-39686.505757153725
-59210.486317930976,-74484.81911239853,-54338.49893075216,-39647.0102247012
-59271.28306284941,-74540.00556945868,-54352.75934371464,-39672.06653023559
-59323.966124530576,-74583.0997327685,-54404.14600421739,-39721.82151339311
-59314.1984122036,-74561.21737494676,-54403.52015537264,-39720.5251122147
-59274.43465881761,-74522.77237448364,-54368.3832130889,-39684.49410015275
-59261.44829528908,-74497.73842069368,-54333.04510510506,-39646.36202411199
-59309.549249356896,-74539.98321771422,-54350.09948612445,-39659.996588229726
-59354.87858711226,-74591.3028229836,-54405.33064667352,-39706.219995763306
-59345.624964907765,-74568.28052619463,-54410.0915682425,-39708.14224578646
-59307.04585397791,-74531.4448513323,-54382.621274306926,-39683.73414084127
-59266.20921685806,-74491.14465607937,-54334.69913419475,-39644.819753744574
-59341.66870613918,-74549.32624689654,-54362.46000080824,-39677.408597160415
-59397.19043936616,-74608.29014876964,-54416.99825727919,-39729.30934778564
-59357.47138946908,-74591.21341600579,-54412.77377757714,-39725.44249599487
-59319.629886106246,-74549.86268876347,-54387.20338192027,-39695.89348982495
-59290.08087993633,-74500.73355445071,-54342.81281743203,-39652.82167825958
-59349.78238937645,-74556.52350861115,-54364.1810851313,-39678.86146055001
-59406.51111680402,-74616.02385235118,-54415.92537354534,-39725.91188262843
-59402.28663710197,-74609.98888134824,-54420.932164303325,-39724.25785353874
-59351.54817718842,-74541.97252297074,-54390.26557091065,-39687.37747518748
-59295.89233349471,-74459.06990278601,-54340.15295984185,-39640.148239153415
-59360.62298543728,-74521.63243551641,-54363.37642233091,-39670.52425986818
-59410.24385812806,-74577.44474142132,-54419.948687547294,-39720.63687093698
-59372.60352046532,-74556.03177023314,-54415.00895202267,-39714.53484470068
-59311.00211274649,-74493.64805145837,-54380.36374811694,-39681.878946051474
-59285.76699325645,-74463.76376912162,-54334.095637094455,-39640.57292229807
-59351.19054927714,-74521.83360121651,-54354.77100071562,-39667.95380925582
-59419.4751285881,-74592.62157590647,-54419.16637649136,-39727.25298729575
-59413.507212818535,-74579.59050888903,-54418.138196246415,-39724.45901923884
-59358.052534824914,-74529.85787747597,-54384.1858964188,-39691.892527567456
-59312.74554881401,-74481.84633038596,-54339.08007610799,-39645.93734096734
-59364.93687211715,-74524.02407217314,-54359.24134960668,-39669.20550694531
-59420.74917802205,-74582.0492007791,-54413.62314386644,-39720.43570523688
-59411.96494245112,-74571.45447390729,-54411.09739674299,-39716.90412961294
-59371.19536056464,-74538.50800258017,-54384.789393519095,-39690.93140255587
-59357.91842435818,-74529.32143560905,-54347.30551806754,-39659.28133240716
-59416.23412564208,-74582.78680834614,-54358.21316936173,-39680.98487627327
-59429.53341359299,-74583.0997327685,-54405.26359144016,-39726.60478670654
-59382.50534325902,-74533.72472926673,-54398.17808844782,-39716.41239123493
-59355.19151153464,-74522.4370983168,-54373.05472768006,-39692.54072815666
-59350.31883124338,-74516.15625812486,-54340.19766333076,-39660.28716090765
-59401.66078825722,-74552.41078763138,-54360.26952985162,-39679.24144020575
-59432.39443688327,-74591.03460205015,-54408.05755949707,-39723.56494946063
-59420.59271581087,-74600.48938995473,-54417.48999565721,-39726.51537972872
-59355.10210455681,-74531.28838912111,-54388.09745169848,-39692.36191420101
-59320.07692099535,-74485.44496124327,-54339.81768367501,-39649.80419275811
-59363.52871221647,-74511.37298481143,-54344.35508779944,-39657.04615796163
-59412.881363973785,-74563.60901160348,-54397.798108792085,-39703.15780677293
-59408.45571857163,-74569.53222388413,-54405.26359144016,-39707.27052775271
-59375.86687515579,-74547.87338350694,-54387.62806506492,-39682.6165536185
-59329.79992983341,-74499.45950501676,-54337.91778539632,-39635.61083502899
-59397.346901577344,-74548.85686026298,-54356.402678060855,-39663.148184197926
-59435.61308808483,-74594.58852941854,-54411.49972814319,-39715.2277487788
-59410.95911395063,-74574.8519390645,-54406.06825424055,-39706.28705099667
-59367.88730238525,-74540.51965958114,-54375.80399224806,-39678.28031519417
-59334.873775824766,-74499.59361548348,-54329.51352948112,-39639.723556008765
-59407.22637262659,-74562.98316275873,-54348.91484366832,-39664.73515805425
-59448.95707952465,-74607.50783771371,-54403.96719026175,-39715.98770809027
-59425.443044357664,-74589.42527644936,-54408.594001364,-39714.95952784533
-59369.38486926376,-74544.99000847222,-54380.31904462804,-39685.5669838866
-59321.865060551776,-74500.01829862813,-54337.98484062968,-39646.31732062308
-59381.34305254735,-74534.17176415584,-54350.4794657802,-39663.0140737312
-59438.49646311957,-74598.92476784287,-54404.660094339866,-39717.79819939115
-59423.14081467877,-74605.22795977927,-54407.20819320777,-39723.34143201607
-59364.08750582785,-74558.1998894453,-54372.67474802432,-39689.366780444005
-59325.17311873116,-74505.65093823087,-54329.29001203657,-39649.64773054692
-59370.0107181085,-74522.30298785007,-54338.9236138968,-39660.28716090765
-59432.21562292762,-74593.7615148737,-54402.44727163879,-39718.69226916937
-59420.1233291773,-74595.34848873001,-54408.50459438618,-39722.782638404686
-59381.45481126962,-74548.65569456288,-54386.01873946414,-39699.24625149325
-59349.00007832052,-74499.79478118358,-54336.28610805108,-39649.98300671375
-59390.306102073926,-74534.50704032267,-54343.125741854405,-39663.148184197926
-59421.15150942225,-74580.77515134515,-54399.1392134594,-39718.28993776917
-59408.679236016185,-74582.29506996812,-54405.844736796,-39722.02267909321
-59371.19536056464,-74569.44281690632,-54383.5376958296,-39697.79338810365
-59345.11087478529,-74538.91033398037,-54345.651488977855,-39661.02476847467
-59393.74827072004,-74546.17465092834,-54356.08975363848,-39672.29004768015
-59436.7306753076,-74572.97439253026,-54405.755329818174,-39717.08294356858
-59417.41876809821,-74567.56527037207,-54409.08573974201,-39720.63687093698
-59358.007831336006,-74530.70724376527,-54372.339471857485,-39688.584469388064
-59339.947621816114,-74506.81322894254,-54331.435779504274,-39651.77114627018
-59398.553895777935,-74554.89183126591,-54343.41631453232,-39668.69141682285
-59414.33422736338,-74598.96947133177,-54388.92446624333,-39715.60772843453
-59407.89692496025,-74598.74595388722,-54397.35107390298,-39722.02267909321
-59368.26728204099,-74548.81215677407,-54367.35503284395,-39690.484367666766
-59319.83105180634,-74499.90653990586,-54318.98585784267,-39641.71286126529
-59376.80564842292,-74560.21154644627,-54330.42995100379,-39662.32116965308
-59427.03001821399,-74612.9616633608,-54384.45411735227,-39714.15486504494
-59413.440157585166,-74595.3037852411,-54394.020663979136,-39716.03241157918
-59377.31973854539,-74549.348598641,-54369.29963461157,-39688.450358921335
-59343.38979046224,-74516.9832726697,-54332.19573881576,-39653.156954426406
-59391.51309627451,-74569.19694771731,-54348.62427099041,-39675.75456807072
-59449.20294871366,-74644.11999513149,-54406.6941030853,-39732.10331584255
-59441.69276257668,-74636.54275376115,-54415.56774563405,-39736.35014728906
-59405.549991792446,-74604.19977953432,-54395.89821051338,-39718.75932440273
-59339.321772971365,-74522.839429717,-54338.34246854097,-39662.4105766309
-59386.08162237187,-74564.23486044822,-54345.003288388645,-39676.76039657121
-59434.92018400672,-74625.23277106676,-54395.20530643527,-39727.36474601802
-59417.93285822069,-74609.34068075904,-54399.56389660405,-39731.41041176444
-59366.36738376229,-74544.81119451657,-54373.34530035798,-39702.73312362828
-59314.086653481325,-74492.6869264468,-54326.51839572411,-39657.627303317466
-59358.65603192521,-74524.5381622956,-54336.39786677335,-39671.261867435205
-59418.826927998896,-74597.02486956416,-54401.083815227015,-39731.90215014245
-59399.6714830007,-74598.74595388722,-54402.44727163879,-39733.04208910967
-59366.92617737367,-74558.15518595639,-54380.43080335031,-39707.27052775271
-59343.56860441788,-74535.75873801217,-54338.90126215235,-39669.42902438987
-59388.85323868433,-74579.88108156694,-54345.67384072231,-39681.11898674
-59430.51689034902,-74611.88877962694,-54399.56389660405,-39729.085830341086
-59415.13889016377,-74612.46992498278,-54407.40935890786,-39731.61157746453
-59350.74351438803,-74541.70430203728,-54373.14413465788,-39693.770074101696
-59299.15568818518,-74491.34582177947,-54331.18991031527,-39652.7099195373
-59351.72699114407,-74549.37095038545,-54339.9294423973,-39665.316303410094
-59408.05338717144,-74612.53698021614,-54389.99734997718,-39717.61938543551
-59401.59373302385,-74600.17646553236,-54399.42978613732,-39724.95075761685
-59369.63073845277,-74569.82279656206,-54376.45219283726,-39698.91097532642
-59330.89516531172,-74532.58479029952,-54335.88377665088,-39660.33186439656
-59382.43828802565,-74575.5001396537,-54347.68549772329,-39675.732216326265
-59428.05819845894,-74625.47864025577,-54400.21209719326,-39725.55425471714
-59400.56555277891,-74605.63029117946,-54400.48031812672,-39722.15678955994
-59355.54913944592,-74561.50794762468,-54373.68057652481,-39691.91487931191
-59322.78148207444,-74525.56634254055,-54328.172424813805,-39648.39603285743
-59346.09435154133,-74537.50217407968,-54327.90420388034,-39654.43100386036
-59397.41395681071,-74595.10261954101,-54384.45411735227,-39714.80306563414
-59388.76383170651,-74607.93252085836,-54389.93029474381,-39723.16261806043
-59367.37321226278,-74594.610881163,-54369.94783520077,-39705.30357424064
-59334.091464768826,-74537.79274675761,-54325.37845675689,-39662.72350105328
-59342.96510731759,-74522.66061576136,-54315.9683723412,-39658.83429751806
-59396.7210527326,-74595.28143349665,-54372.47358232422,-39710.53388244318
-59411.29439011746,-74621.83530590955,-54391.7407860447,-39727.744725673765
-59373.162314076704,-74595.9072823414,-54378.776774260616,-39714.2219202783
-59308.94575225661,-74533.74708101118,-54333.49213999417,-39669.33961741205
-59335.18670024713,-74531.28838912111,-54323.43385498928,-39664.53399235416
-59397.346901577344,-74602.88102661146,-54375.78164050361,-39717.1723505464
-59398.10686088882,-74628.54082924615,-54390.60084707748,-39734.15967633244
-59352.53165394445,-74585.44666593631,-54360.247178107165,-39704.25304225124
-59307.55994410038,-74525.81221172956,-54314.9178403518,-39659.437794618345
-59358.052534824914,-74569.64398260642,-54317.93532585327,-39667.417367388894
-59405.92997144818,-74634.866372927,-54371.5348090571,-39718.15582730244
-59384.94168340465,-74630.77600369167,-54381.0343004506,-39729.13053382999
-59344.23915675154,-74597.87423585347,-54362.19177987478,-39709.66216440942
-59317.19354596062,-74569.91220353988,-54322.56213695552,-39669.69724532333
-59365.09333432834,-74595.21437826329,-54326.38428525738,-39677.18507971586
-59425.84537575786,-74642.22009685279,-54385.59405631949,-39731.4774669978
-59401.07964290138,-74614.57098896158,-54388.41037612085,-39731.90215014245
-59350.54234868793,-74581.55746240109,-54362.81762871953,-39704.744780629255
-59307.06820572236,-74567.74408432771,-54323.053875333535,-39667.55147785562
-59340.77463636096,-74580.26106122269,-54318.02473283109,-39672.24534419124
-59407.204020882135,-74638.71087297332,-54371.82538173502,-39726.91771112892
-59409.61800928331,-74655.58644003706,-54386.130498186416,-39735.076097855104
-59368.84842739683,-74604.69151791233,-54367.24327412168,-39710.57858593209
-59285.18584790061,-74520.31368259355,-54311.252154261136,-39656.68853005034
-59313.61726684777,-74534.23881938921,-54305.66421814731,-39655.63799806094
-59377.09622110084,-74608.06663132508,-54364.33754734249,-39712.65729816644
-59372.62587220978,-74622.23763730975,-54373.61352129144,-39723.63200469399
-59337.69009562613,-74588.73237237125,-54351.82057044752,-39700.900280582944
-59310.66683657967,-74561.37383715795,-54312.07916880598,-39660.46597486329
-59351.905805099705,-74588.01711654868,-54312.70501765073,-39665.67393132138
-59398.6209510113,-74634.50874501572,-54367.24327412168,-39716.97118484631
-59392.58598000836,-74639.94021891836,-54380.47550683922,-39723.6767081829
-59358.74543890303,-74610.07828832607,-54359.77779147361,-39701.3696672165
-59317.19354596062,-74560.03273249064,-54316.5718694415,-39658.02963471766
-59336.08077002535,-74561.82087204706,-54311.58743042797,-39658.85664926251
-59389.63554974026,-74614.50393372822,-54361.99061417468,-39709.59510917606
-59410.24385812806,-74624.85279141102,-54382.86714349594,-39723.27437678271
-59359.4606947256,-74605.83145687956,-54357.4308583058,-39698.64275439295
-59300.00505447448,-74578.6517356219,-54312.61561067291,-39662.12000395299
-59332.34802870132,-74588.46415143779,-54308.30172399304,-39663.99755048723
-59358.63368018076,-74605.18325629036,-54357.25204435016,-39710.24330976526
-59349.827092865366,-74601.76343938868,-54368.53967530009,-39717.9770133468
-59316.72415932705,-74571.09684599601,-54343.684535465785,-39694.77590260219
-59282.45893507707,-74541.10080493698,-54309.285200749066,-39662.38822488645
-59328.32471469936,-74590.47580843876,-54310.4698432052,-39669.92076276789
-59385.254607827024,-74658.29100111616,-54364.02462292012,-39723.45319073834
-59374.36930827729,-74627.17737283437,-54372.697099768775,-39728.90701638544
-59340.12643577176,-74594.74499162972,-54349.80891344654,-39707.4716934528
-59287.48807757951,-74547.85103176249,-54305.08307279147,-39669.00434124522
-59315.919496526665,-74558.2445929342,-54302.423215201285,-39671.95477151332
-59375.75511643352,-74620.94123613134,-54359.196646117765,-39726.13540007298
-59377.05151761193,-74630.59718973604,-54377.88270448241,-39740.41816477993
-59339.90291832721,-74616.98497736275,-54358.2802245951,-39722.067382582114
-59293.09836543779,-74565.44185464882,-54316.46011071922,-39681.543669884646
-59338.94179331563,-74594.78969511864,-54315.27546826309,-39682.70596059632
-59400.34203533435,-74659.83327148359,-54372.47358232422,-39738.38415603449
-59369.40722100821,-74620.00246286423,-54381.61544580644,-39739.70290895736
-59307.872868522754,-74571.85680530749,-54359.59897751796,-39710.35506848754
-59256.843835931286,-74525.588694285,-54317.37653224189,-39669.80900404561
-59294.5959323163,-74558.6022208455,-54313.04029381756,-39671.261867435205
-59360.93590985965,-74620.91888438689,-54369.679614267305,-39721.35212675955
-59362.03114533796,-74627.62440772349,-54387.06927145353,-39734.20437982135
-59335.54432815842,-74607.19491329133,-54365.499838054166,-39711.36089698802
-59301.97200798655,-74572.32619194106,-54326.272526535104,-39673.16176571391
-59328.54823214391,-74603.32806150056,-54323.478558478186,-39675.91103028191
-59365.830941895365,-74640.92369567438,-54376.78746900409,-39723.900225627454
-59340.99815380552,-74620.69536694234,-54388.768004032136,-39732.48329549829
-59305.19065918811,-74584.32907871355,-54355.95564317175,-39701.48142593878
-59276.06633616285,-74546.95696198428,-54314.98489558517,-39663.483460364754
-59317.21589770507,-74577.75766584369,-54314.00141882914,-39670.56896335709
-59362.85815988281,-74628.27260831269,-54366.30450085455,-39722.60382444904
-59361.74057266004,-74624.40575652191,-54379.22380914972,-39730.53869373068
-59315.09248198182,-74606.18908479084,-54360.98478567419,-39715.00423133424
-59262.007088900464,-74556.61291558896,-54320.192852043256,-39674.50287038122
-59300.42973761913,-74582.0044972902,-54316.72833165269,-39675.77691981517
-59347.256642253,-74628.20555307931,-54362.57175953052,-39720.94979535935
-59343.74741837352,-74625.3668815335,-54373.390003846886,-39731.76803967572
-59324.301400697404,-74604.44564872333,-54358.90607343985,-39713.48431271128
-59270.3889930712,-74551.15908994188,-54315.1190060519,-39668.244381933735
-59294.61828406076,-74572.14737798541,-54307.16178502581,-39666.12096621048
-59346.98842131954,-74644.05293989813,-54353.89928268186,-39712.94787084435
-59349.42476146517,-74667.58932680957,-54370.30546311205,-39726.627138451
-59322.96029603008,-74622.48350649876,-54353.72046872622,-39706.689382396864
-59253.893405663184,-74524.38170008441,-54300.25509598912,-39653.02284395968
-59281.05077517638,-74552.27667716464,-54292.40963368531,-39649.84889624702
-59338.38299970425,-74628.5184775017,-54349.630099490896,-39704.54361492916
-59328.280011210445,-74627.37853853447,-54365.74570724317,-39720.77098140371
-59295.95938872807,-74601.60697717751,-54349.98772740218,-39705.32592598509
-59256.59796674228,-74563.43019764785,-54311.5203751946,-39668.17732670037
-59291.73490902602,-74565.21833720426,-54303.78667161306,-39661.695320808336
-59350.22942426556,-74627.64675946794,-54358.30257633956,-39712.21026327733
-59338.53946191543,-74631.44655602534,-54373.72528001372,-39728.41527800742
-59285.76699325645,-74606.32319525757,-54353.78752395958,-39712.09850455505
-59239.36477176724,-74547.47105210675,-54311.67683740579,-39670.01016974571
-59275.77576348493,-74568.34758142801,-54308.30172399304,-39669.04904473413
-59338.04772353741,-74635.98396014977,-54363.55523628656,-39721.35212675955
-59330.112854255785,-74634.68755897136,-54377.54742831558,-39729.35405127455
-59279.19558038659,-74591.19106426134,-54354.659241993344,-39701.70494338333
-59230.35701875175,-74549.75093004119,-54313.04029381756,-39660.60008533002
-59267.170341869634,-74575.03075302014,-54307.72057863719,-39660.46597486329
-59331.47631066755,-74637.32506481708,-54361.40946881884,-39715.33950750107
-59331.20808973409,-74647.53981203315,-54381.81661150654,-39733.1761995764
-59296.0934991948,-74609.87712262597,-54363.66699500883,-39714.78071388969
-59245.28798404789,-74556.16588069986,-54316.92949735278,-39669.7643005567
-59274.85934196226,-74567.31940118306,-54309.75458738263,-39664.37753014297
-59315.8524412933,-74620.20362856431,-54355.776829216105,-39710.55623418764
-59312.94671451411,-74627.64675946794,-54370.79720149007,-39717.597033691054
-59280.31316760936,-74593.98503231825,-54354.25691059315,-39695.0217717912
-59238.40364675566,-74555.8529562775,-54312.772072884094,-39658.36491088449
-59271.68539424961,-74571.27565995166,-54299.986875055656,-39651.27940789216
-59321.03804600693,-74617.07438434058,-54347.35022155646,-39700.74381837175
-59322.66972335216,-74645.93048643238,-54373.18883814679,-39725.643661694965
-59283.10713566627,-74616.44853549583,-54356.24621584967,-39710.131551042985
-59221.99746632546,-74534.37292985593,-54315.49898570764,-39667.64088483345
-59239.09655083377,-74548.1416044404,-54300.70213087823,-39655.79446027213
-59307.42583363364,-74627.93733214586,-54360.22482636271,-39715.093638312064
-59312.94671451411,-74639.18025960687,-54383.62710280742,-39736.23838856678
-59272.93709193911,-74618.97428261928,-54361.789448474585,-39717.86525462452
-59231.4299024856,-74573.44377916382,-54322.69624742225,-39680.5154896397
-59255.94976615308,-74572.32619194106,-54306.33477048096,-39668.5126028672
-59307.04585397791,-74633.52526825968,-54353.09461988147,-39718.87108312501
-59291.220818903545,-74628.94316064635,-54367.62325377742,-39735.38902227748
-59260.2860045774,-74610.57002670408,-54348.8254366905,-39718.91578661392
-59215.64957090016,-74571.43212216283,-54306.2677152476,-39675.44164364834
-59241.801111912864,-74583.0997327685,-54296.902334320825,-39667.4620708778
-59293.97008347155,-74621.43297450936,-54350.4794657802,-39716.56885344611
-59302.70961555358,-74632.60884673701,-54373.01002419115,-39736.417202522425
-59272.75827798346,-74608.64777668093,-54358.23552110619,-39722.00032734875
-59229.41824548462,-74582.8985670684,-54320.52812821008,-39684.94113504185
-59239.58828921179,-74590.87813983895,-54292.18611624076,-39666.34448365503
-59293.21012416007,-74629.25608506872,-54342.65635522084,-39715.20539703434
-59316.38888316022,-74647.83038471108,-54374.01585269164,-39738.29474905667
-59255.94976615308,-74614.95096861733,-54346.6796692228,-39713.81958887811
-59199.13163174768,-74569.26400295067,-54308.97227632669,-39678.23561170526
-59234.469739731525,-74595.88493059695,-54294.197773241736,-39668.42319588938
-59293.97008347155,-74665.68942853087,-54340.59999473096,-39716.7253156573
-59280.62609203173,-74652.52425104669,-54357.52026528362,-39728.34822277406
-59256.59796674228,-74634.50874501572,-54344.77977094409,-39715.58537669008
-59215.67192264461,-74587.99476480421,-54319.79052064306,-39690.68553336687
-59218.734111634985,-74549.30389515209,-54296.34354070944,-39667.12679471097
-59296.74169978401,-74644.63408525397,-54349.78656170209,-39721.128609315
-59292.38310961522,-74659.74386450576,-54370.01489043413,-39737.378327534
-59235.16264380964,-74604.33389000106,-54350.390058802375,-39719.20635929184
-59205.36776845071,-74564.79365405961,-54318.69528516475,-39686.12577749798
-59226.95955359454,-74582.8985670684,-54300.5680204115,-39671.59714360203
-59279.4414495756,-74653.2171551248,-54346.72437271171,-39717.73114415778
-59277.98858618601,-74648.63504751147,-54368.9867101892,-39735.00904262174
-59241.309373534845,-74628.18320133486,-54352.66993673682,-39717.79819939115
-59211.33568422028,-74600.3105759991,-54320.952811354735,-39685.879908308976
-59215.8283848558,-74584.73141011375,-54297.192906998745,-39671.48538487976
-59258.028478387416,-74614.52628547268,-54340.264718564125,-39712.03144932169
-59266.54449302489,-74629.39019553545,-54359.5319222846,-39726.87300764001
-59215.40370171115,-74606.12202955747,-54344.53390175509,-39713.14903654445
-59165.38049762017,-74564.77130231516,-54309.70988389372,-39681.320152440094
-59186.65935834162,-74575.00840127569,-54291.98495054066,-39666.79151854415
-59260.66598423314,-74642.84594569754,-54337.73897144068,-39712.38907723297
-59260.37541155522,-74646.24341085475,-54359.5319222846,-39732.10331584255
-59205.77009985091,-74606.03262257966,-54336.39786677335,-39710.690344654366
-59154.74106725944,-74561.32913366905,-54303.56315416851,-39672.35710291351
-59189.74389907646,-74585.24550023621,-54302.37851171238,-39666.05391097712
-59256.77678069792,-74653.19480338035,-54344.39979128836,-39713.26079526672
-59275.61930127374,-74685.15779795144,-54377.94975971577,-39742.94391190337
-59251.4347137731,-74676.21710016932,-54358.07905889501,-39733.3326617876
-59216.56599242282,-74666.24822214225,-54320.75164565464,-39701.01203930522
-59201.29975095985,-74607.97722434727,-54296.41059594281,-39674.32405642558
-59232.793358897376,-74608.9607011033,-54329.51352948112,-39704.78948411816
-59242.09168459079,-74650.95962893483,-54351.77586695861,-39723.11791457152
-59191.46498339951,-74625.47864025577,-54336.84490166246,-39705.035353307176
-59130.62353499217,-74567.74408432771,-54296.34354070944,-39667.17149819988
-59157.44562833854,-74580.26106122269,-54274.86351428789,-39653.44752710433
-59209.83811734177,-74610.39121274844,-54310.73806413866,-39688.91974555489
-59207.46883242951,-74620.53890473115,-54344.66801222182,-39721.08390582608
-59180.37851814968,-74612.42522149388,-54339.19183483027,-39718.40169649145
-59137.73138972896,-74575.36602918697,-54307.54176468156,-39685.09759725304
-59170.633157567165,-74594.4097154629,-54289.52625865058,-39669.18315520086
-59219.53877443538,-74660.90615521744,-54332.910994638325,-39712.21026327733
-59210.128690019694,-74680.66509731593,-54361.81180021904,-39736.50660950025
-59175.63994832515,-74651.49607080175,-54353.98868965968,-39728.303519285146
-59126.64492447912,-74611.03941333764,-54308.48053794868,-39687.13160599848
-59143.47578805397,-74617.76728841869,-54286.68758710475,-39671.48538487976
-59183.4183553956,-74654.51355630321,-54334.60972721693,-39712.94787084435
-59183.775983306885,-74671.50088208925,-54356.89441643888,-39728.21411230732
-59163.10061968573,-74663.25308838525,-54346.56791050052,-39715.093638312064
-59112.80919466128,-74613.38634650545,-54311.63213391687,-39681.70013209583
-59144.45926481,-74624.5622187331,-54295.00243604212,-39668.95963775631
-59206.61946614021,-74693.1820742109,-54344.82447443301,-39720.30159477015
-59207.66999812961,-74706.95074879537,-54368.00323343316,-39745.849638682565
-59173.09184945725,-74668.43869309887,-54351.99938440316,-39730.65045245295
-59135.36210481669,-74637.43682353936,-54315.297820007545,-39691.55725140062
-59170.431991867066,-74645.57285852109,-54307.07237804799,-39685.723446097785
-59215.515460433424,-74686.74477180777,-54347.05964887854,-39728.19176056287
-59182.81485829531,-74662.53783256267,-54365.00809967615,-39743.21213283684
-59140.34654383022,-74651.42901556838,-54351.373535558414,-39731.96920537582
-59109.5011364819,-74635.53692526066,-54322.38332299988,-39702.509606183725
-59138.5584042738,-74645.23758235427,-54303.38434021287,-39685.85755656452
-59212.14034702067,-74705.74375459478,-54346.97024190072,-39728.08000184059
-59222.24333551447,-74712.49398142028,-54371.28893986809,-39745.44730728237
-59171.79544827884,-74666.96347796482,-54351.731163469696,-39721.68740292638
-59121.97340988796,-74617.6555296964,-54314.33669499597,-39687.28806820966
-59131.8081774483,-74617.96845411879,-54291.806136585015,-39673.25117269173
-59165.3134423868,-74670.24918439976,-54326.78661665757,-39713.1266848
-59176.511666358914,-74694.74669632276,-54357.29674783906,-39740.50757175774
-59159.39023010615,-74670.47270184431,-54355.39684956037,-39735.65724321095
-59124.8567849227,-74642.24244859724,-54323.88088987838,-39707.49404519726
-59130.84705243672,-74627.42324202339,-54289.861534817406,-39678.16855647189
-59192.38140492218,-74685.89540551847,-54329.53588122557,-39721.30742327064
-59208.22879174099,-74721.54643792468,-54356.00034666066,-39747.0789846276
-59171.95191049003,-74690.34340266508,-54343.684535465785,-39734.2267315658
-59121.01228487639,-74631.62536998097,-54307.74293038165,-39699.51447242671
-59132.63519199315,-74634.79931769363,-54286.44171791575,-39683.644733863446
-59190.503858387936,-74692.62328059951,-54328.150073069344,-39724.74959191676
-59211.55920166484,-74723.82631585913,-54361.38711707439,-39752.15283061896
-59178.50097161543,-74733.70578690837,-54347.03729713408,-39741.66986246942
-59119.89469765362,-74680.68744906038,-54311.18509902777,-39705.81766436311
-59106.81892714727,-74609.36303250349,-54282.53016263607,-39681.1636902289
-59160.776038262375,-74638.59911425103,-54321.15397705483,-39718.24523428026
-59178.23275068197,-74684.39783863995,-54352.3793640589,-39745.02262413772
-59146.09094215524,-74673.98192572378,-54338.63304121888,-39728.57174021861
-59092.51381069587,-74624.58457047756,-54303.38434021287,-39685.90226005343
-59098.70524390999,-74626.864448412,-54280.38439516835,-39667.08209122206
-59153.62348003668,-74690.2763474317,-54324.99847710115,-39713.59607143355
-59161.93832897405,-74704.80498132766,-54353.49695128167,-39740.64168222448
-59138.13372112915,-74685.64953632945,-54337.671916207306,-39728.43762975188
-59093.65374966309,-74638.08502412857,-54297.30466572102,-39687.17630948738
-59085.20479025898,-74620.94123613134,-54264.469953116175,-39660.9130097524
-59137.709037984496,-74685.76129505174,-54314.42610197379,-39713.93134760039
-59147.6108607782,-74705.09555400557,-54342.09756160946,-39739.56879849063
-59120.76641568738,-74680.374524638,-54329.11119808092,-39726.04599309516
-59078.991005300406,-74631.35714904752,-54288.72159585018,-39684.04706526364
-59100.80630788879,-74638.37559680648,-54271.398993897325,-39668.08791972255
-59148.16965438958,-74697.8312370576,-54317.13066305288,-39714.28897551167
-59151.544767802334,-74715.69028087739,-54346.16557910032,-39743.92738865941
-59108.67412193705,-74685.49307411828,-54336.1743493288,-39732.03626060918
-59071.05613601877,-74629.65841646891,-54305.35129372493,-39697.63692589247
-59086.59059841521,-74632.89941941493,-54283.156011480816,-39678.95086752783
-59120.76641568738,-74697.11598123502,-54320.68459042128,-39724.57077796111
-59126.04142737883,-74713.36569945404,-54349.38423030189,-39754.74563297578
-59124.54386050032,-74710.16939999693,-54345.89735816686,-39747.4813160278
-59102.30387476729,-74700.06641150312,-54316.99655258615,-39721.35212675955
-59080.89090357911,-74660.9732104508,-54283.37952892537,-39691.736065356265
-59122.80042443281,-74690.81278929864,-54325.62432594589,-39731.2763012977
-59119.671180209065,-74665.30944887512,-54347.14905585636,-39744.24031308178
-59095.62070317516,-74631.82653568107,-54335.83907316197,-39730.49399024177
-59057.42157190104,-74597.9636428313,-54298.4669564327,-39696.496986925245
-59080.28740647881,-74614.0121953502,-54277.45631664471,-39676.96156227131
-59150.87421546868,-74694.09849573356,-54330.98874461517,-39730.85161815305
-59153.84699748123,-74725.90502809346,-54355.24038734918,-39761.56291503464
-59104.27082827936,-74684.71076306234,-54339.03537261908,-39744.12855435951
-59069.60327262918,-74653.57478303609,-54299.49513667765,-39707.69521089736
-59076.62172038815,-74654.17828013639,-54267.84506652893,-39682.79536757415
-59134.49038678293,-74676.99941122526,-54304.05489254653,-39716.36768774602
-59122.77807268836,-74670.98679196677,-54330.407599259335,-39736.50660950025
-59067.07752550573,-74646.91396318842,-54314.94019209626,-39720.54746395916
-59035.561565823744,-74606.43495397984,-54286.2629039601,-39689.81381533311
-59058.22623470143,-74620.22598030878,-54264.20173218272,-39667.73029181126
-59098.72759565444,-74658.91684996091,-54306.22301175869,-39709.90803359843
-59107.82475564775,-74680.5756903381,-54342.67870696529,-39746.02845263821
-59083.97544431394,-74668.70691403233,-54328.64181144736,-39737.177161833904
-59050.26901367534,-74640.38725380746,-54298.95869481072,-39706.80114111914
-59054.40408639957,-74640.27549508518,-54271.398993897325,-39677.45330064932
-59113.92678188405,-74697.27244344621,-54314.38139848488,-39716.01005983473
-59135.20564260551,-74713.47745817632,-54346.6796692228,-39743.413298536936
-59091.5973891732,-74658.08983541606,-54330.76522717062,-39724.30255702765
-59033.12522567812,-74606.83728538004,-54293.08018601897,-39683.93530654136
-59054.04645848829,-74621.70119544283,-54269.23087468516,-39664.66810282089
-59135.51856702788,-74691.7292108213,-54326.38428525738,-39722.04503083766
-59126.17553784557,-74682.877920017,-54342.16461684283,-39739.278225812704
-59085.137735025615,-74665.04122794166,-54327.36776201341,-39731.52217048672
-59013.16511787953,-74635.7157392163,-54292.40963368531,-39698.68745788187
-59021.2788011168,-74622.6176169655,-54267.08510721745,-39674.189945958846
-59088.49049669392,-74658.71568426081,-54308.14526178184,-39714.51249295622
-59104.583752701736,-74674.89834724646,-54338.96831738571,-39739.0323566237
-59068.82096157324,-74650.57964927908,-54325.71373292372,-39722.38030700449
-59034.28751638979,-74624.83043966656,-54288.05104351653,-39685.723446097785
-59043.31762114973,-74620.27068379769,-54266.571017094975,-39668.28908542265
-59092.4467554625,-74674.36190537953,-54315.54368919655,-39720.77098140371
-59096.53712469783,-74692.75739106625,-54337.85073016295,-39742.72039445882
-59075.21356048746,-74664.43773084137,-54325.82549164599,-39729.26464429672
-59025.95031570797,-74617.6555296964,-54287.7157673497,-39692.13839675646
-59025.19035639648,-74612.02289009368,-54259.44081061373,-39666.76916679968
-59086.88117109313,-74674.42896061289,-54307.72057863719,-39715.40656273444
-59105.09784282421,-74697.67477484641,-54347.41727678982,-39748.7330137173
-59085.85299084819,-74679.77102753772,-54332.08398009348,-39730.98572861979
-59039.67428680352,-74627.53500074566,-54297.6175901434,-39696.89931832544
-59048.19030144099,-74634.75461420472,-54271.197828197226,-39678.63794310545
-59101.07452882225,-74697.60771961305,-54312.25798276162,-39723.85552213854
-59116.43017726305,-74732.49879270777,-54342.23167207619,-39749.69413872888
-59081.4944006794,-74703.50858014925,-54333.15686382734,-39737.75830718974
-59019.22244062692,-74619.53307623065,-54289.012168528105,-39691.15492000043
-59020.04945517176,-74608.44661098083,-54262.21242692619,-39670.345445912535
-59085.94239782601,-74680.46393161583,-54309.73223563817,-39721.24036803727
-59091.68679615102,-74702.83802781558,-54341.315250553525,-39750.85642944055
-59067.32339469474,-74666.94112622036,-54334.453265005744,-39743.01096713674
-59026.2855918748,-74633.90524791542,-54296.79057559855,-39710.24330976526
-59033.460501844944,-74629.54665774664,-54265.65459557231,-39685.790501331154
-59087.73053738244,-74675.83712051358,-54311.5203751946,-39733.84675191007
-59098.72759565444,-74698.39003066898,-54347.461980278735,-39766.10031915907
-59064.01533651535,-74674.0266292127,-54332.19573881576,-39749.96235966234
-59020.87646971661,-74627.53500074566,-54299.13750876636,-39712.500835955245
-59031.11356867714,-74620.9635878758,-54266.83923802844,-39678.34737042754
-59092.15618278458,-74688.28704217519,-54312.86147986192,-39725.68836518388
-59111.37868301615,-74713.27629247622,-54349.18306460179,-39759.01481616674
-59072.35253719719,-74687.66119333044,-54337.58250922948,-39746.967225905326
-59008.35949282163,-74643.29298058664,-54295.98591279816,-39712.45613246634
-59011.89106844558,-74634.15111710443,-54264.961691494194,-39689.925574055385
-59079.84037158971,-74687.59413809708,-54307.16178502581,-39730.4269350084
-59083.50605768038,-74700.40168766996,-54334.7214859392,-39754.365653320034
-59064.95410978248,-74684.04021072868,-54325.40080850134,-39742.34041480308
-59026.17383315252,-74645.14817537644,-54298.0646250325,-39709.46099870932
-59028.02902794231,-74637.54858226163,-54268.51561886258,-39682.97418152978
-59090.099822294695,-74707.86717031803,-54317.0189043306,-39734.27143505472
-59087.93170308253,-74718.05956578965,-54348.87014017942,-39761.56291503464
-59055.81224630025,-74683.81669328413,-54336.86725340692,-39745.24614158227
-59005.25260034235,-74622.23763730975,-54302.020883801095,-39711.4726557103
-59011.86871670112,-74611.0617650821,-54268.51561886258,-39683.689437352354
-59084.22131350295,-74689.96342300934,-54312.74972113964,-39730.58339721959
-59104.18142130154,-74722.32874898061,-54349.85361693545,-39760.87001095653
-59075.839409332206,-74699.30645219165,-54335.77201792861,-39739.52409500171
-59027.3361238642,-74641.99657940824,-54300.679779133774,-39699.58152766008
-59022.217574383925,-74629.03256762416,-54268.73913630714,-39675.19577445934
-59065.08822024921,-74684.26372817323,-54307.00532281463,-39719.60869069203
-59079.86272333416,-74705.52023715022,-54332.8215876605,-39742.51922875872
-59051.49835962038,-74684.9789839958,-54322.74095091116,-39729.085830341086
-58991.7744984358,-74631.17833509187,-54289.68272086176,-39691.64665837844
-58988.75701293433,-74614.43687849485,-54260.89367400333,-39668.15497495591
-59054.649955588575,-74679.54751009317,-54305.44070070276,-39716.7253156573
-59073.55953139777,-74709.00710928526,-54345.38326804439,-39750.14117361798
-59058.80738005727,-74694.29966143366,-54339.03537261908,-39738.20534207885
-59026.06207443024,-74649.59617252304,-54302.22204950119,-39703.8730625955
-59018.10485340415,-74629.94898914683,-54261.27365365907,-39670.90423952392
-59060.26024344686,-74680.48628336028,-54298.9139913218,-39710.53388244318
-59071.16789474105,-74716.04790878868,-54336.353163284446,-39743.65916772594
-59054.00175499937,-74710.25880697476,-54332.1733870713,-39739.99348163528
-59012.94160043498,-74671.16560592242,-54295.67298837579,-39706.39880971894
-59016.45082431446,-74657.32987610459,-54270.72844156366,-39686.25988796471
-59042.982344982905,-74668.37163786551,-54298.33284596597,-39719.631042436486
-59052.12420846513,-74672.68552454538,-54321.60101194394,-39737.53478974519
