 EXG Channel 0, EXG Channel 1, EXG Channel 2, EXG Channel 3
-18856.55747134179,-26172.864576919623,-34343.053024179106,-17055.878586277795
-18847.43795960402,-26171.925803652503,-34329.95490192829,-17045.350914639344
-18868.64976509211,-26187.236748604388,-34310.84416041901,-17030.71052202112
-18883.468971665978,-26195.37278358612,-34311.82763717504,-17038.75715002503
-18872.047230249314,-26182.31936482422,-34310.195959829805,-17031.604591799332
-18856.758637041883,-26170.45058851845,-34323.852875692,-17041.1711384262
-18855.663401563572,-26173.915108909023,-34329.68668099483,-17051.60940308683
-18876.584634373743,-26188.1308183826,-34320.611872745976,-17047.362571640322
-18881.39025943163,-26186.09680963717,-34310.91121565238,-17042.60165007134
-18869.230910447943,-26175.99382114337,-34311.8499889195,-17048.27899316299
-18846.521538081357,-26164.08034134869,-34323.49524778071,-17051.207071686636
-18841.850023490195,-26166.114350094125,-34325.149276870405,-17047.76490304052
-18860.82665453275,-26180.978260156902,-34317.70614596679,-17049.821263530404
-18870.72847732645,-26188.779018971803,-34317.77320120015,-17048.055475718436
-18867.57688135825,-26189.337812583188,-34329.53021878364,-17048.591917585363
-18846.342724125712,-26178.27369907781,-34340.57198054457,-17054.13515021028
-18840.50891882288,-26177.446684532963,-34332.86062870749,-17043.316905893913
-18858.63618357613,-26188.57785327171,-34332.07831765155,-17047.407275129233
-18860.11139871018,-26185.33685032569,-34328.434983305335,-17046.155577439735
-18847.706180537483,-26177.334925810686,-34332.52535254066,-17045.820301272906
-18830.67415126254,-26173.579832742194,-34356.64288480793,-17062.539406125477
-18837.17850889904,-26184.46513229193,-34356.21820166328,-17074.631699875797
-18851.103645694693,-26190.902434695057,-34342.58363754555,-17057.353801411846
-18854.2999451518,-26191.59533877317,-34341.7566230007,-17051.117664708814
-18840.665381034065,-26184.956870669947,-34346.74106201423,-17057.890243278773
-18815.519668521843,-26176.28439382129,-34353.80421326211,-17055.09627522186
-18824.750938981884,-26191.170655628524,-34352.53016382816,-17055.543310110967
-18842.20765140148,-26204.894626724083,-34329.5525705281,-17044.143920438757
-18840.77713975634,-26202.212417389444,-34329.70903273929,-17046.155577439735
-18825.86852620465,-26192.28824285129,-34344.9082189689,-17060.572452613407
-18807.361281795656,-26186.543844526277,-34349.5573818156,-17065.3780776713
-18808.031834129317,-26192.3329463402,-34336.28044560915,-17046.490853606567
-18826.002636671383,-26204.42524009052,-34338.426213076855,-17046.982591984583
-18827.25433436088,-26206.6380627916,-34342.74009975673,-17051.207071686636
-18815.67613073303,-26201.005423188857,-34338.6050270325,-17050.111836208325
-18793.10086883317,-26190.030716661306,-34334.98404443074,-17053.241080432068
-18788.3846507531,-26189.60603351665,-34326.51273328218,-17046.446150117656
-18807.853020173672,-26206.0345656913,-34326.08805013753,-17049.508339108033
-18814.96087491046,-26213.388289617094,-34341.13077415595,-17056.70560082264
-18805.93077015052,-26208.783830259305,-34344.32707361306,-17052.503472865043
-18786.171828052025,-26200.066649921733,-34343.388300345934,-17041.61817331531
-18786.708269918952,-26205.185199402,-34346.539896314134,-17042.936926238173
-18795.514857234342,-26210.482562837908,-34335.83341072004,-17042.244022160055
-18794.374918267124,-26208.58266455921,-34328.591445516526,-17047.004943729036
-18776.940557591985,-26200.35722259965,-34347.67983528136,-17069.691964351176
-18748.30797294473,-26190.85773120615,-34357.246381908226,-17068.28380445049
-18752.644211369065,-26209.58849305969,-34344.37177710197,-17045.70854255063
-18769.072743543715,-26227.62635083513,-34342.38247184545,-17043.026333215992
-18758.2768509718,-26220.63025482062,-34334.581713030544,-17045.686190806173
-18727.342036645656,-26200.983071444403,-34331.92185544036,-17045.127397194792
-18699.62587352108,-26192.28824285129,-34353.826565006566,-17054.358667654833
-18698.03889966475,-26202.74885925637,-34351.88196323895,-17041.19349017066
-18716.814365007205,-26222.016062976847,-34341.24253287823,-17038.51128083602
-18715.585019062164,-26224.228885677923,-34338.69443401032,-17040.098254692348
-18699.603521776626,-26218.104507697168,-34344.21531489078,-17044.27803090549
-18675.79891393172,-26207.956815714457,-34343.14243115693,-17051.162368197725
-18675.79891393172,-26210.68372853801,-34337.39803283192,-17061.220653202614
-18690.6628239945,-26216.85281000767,-34327.07152689356,-17060.393638657766
-18696.83190546416,-26219.155039686568,-34327.675023993856,-17051.27412692
-18691.55689377271,-26218.95387398647,-34333.64293976342,-17047.18375768468
-18676.51416975429,-26210.504914582365,-34338.11328865448,-17052.5258246095
-18680.917463411984,-26215.60111231817,-34348.81977424858,-17057.063228733925
-18704.096222412136,-26233.281342182323,-34353.33482662855,-17059.208996201636
-18706.241989879847,-26232.253161937377,-34342.8071549901,-17055.543310110967
-18688.539408271245,-26219.80324027577,-34345.422309091366,-17058.2255194456
-18667.64052720553,-26209.52143782633,-34344.572942802064,-17053.174025198703
-18676.26830056528,-26216.47283035193,-34335.006396175195,-17040.433530859176
-18702.576303789177,-26232.499031126383,-34344.729405013255,-17035.337333123367
-18707.292521869247,-26231.649664837085,-34341.53310555615,-17031.448129588145
-18696.96601593089,-26226.12878395662,-34348.39509110393,-17047.60844082933
-18675.709506953892,-26216.51753384084,-34347.79159400363,-17048.033123973983
-18683.912597168997,-26225.88291476761,-34342.38247184545,-17051.832920531382
-18700.452888065924,-26239.986865518917,-34340.97431194476,-17052.03408623148
-18701.16814388849,-26242.557316131275,-34334.04527116362,-17045.88735650627
-18691.959225172905,-26236.499993383884,-34330.468992050766,-17037.818376757907
-18682.57149250168,-26232.87901078213,-34343.09772766801,-17048.457807118633
-18693.12151588458,-26240.76917657485,-34352.12783242796,-17057.733781067585
-18704.18562938996,-26246.08889175521,-34339.74496599972,-17054.738647310573
-18705.25851312381,-26239.986865518917,-34331.430117062344,-17056.638545589274
-18697.8153822202,-26229.57095260274,-34336.43690782034,-17050.67062981971
-18685.588978003143,-26221.971359487936,-34341.48840206723,-17042.4228361157
-18708.99125444785,-26240.38919691911,-34334.00056767471,-17039.874737247796
-18727.3196849012,-26245.77596733284,-34318.91314016737,-17037.70661803563
-18726.738539545364,-26238.95868527397,-34322.17649485785,-17042.311077393424
-18713.796879505742,-26225.99467348989,-34337.97917818775,-17047.407275129233
-18700.11761189909,-26216.405775118565,-34345.154088157906,-17058.67255433471
-18720.01066446432,-26230.73324331441,-34345.86934398048,-17058.650202590252
-18742.60827810863,-26242.66907485355,-34348.37273935947,-17052.41406588722
-18741.17776646349,-26236.47764163943,-34346.11521316948,-17052.07878972039
-18726.2691529118,-26224.85473452267,-34345.71288176929,-17051.27412692
-18713.70747252792,-26218.19391467499,-34353.960675473296,-17055.006868244036
-18726.42561512299,-26226.464060123453,-34348.931532970855,-17048.837786774373
-18744.351714176144,-26238.08696724021,-34349.356216115506,-17040.791158770462
-18750.94547879046,-26242.490260897903,-34360.95677148781,-17050.894147264262
-18735.411016394024,-26232.364920659653,-34364.644809322934,-17052.212900187125
-18721.485879598367,-26226.508763612364,-34352.10548068351,-17050.357705397335
-18746.542185132766,-26244.412510921065,-34345.31055036909,-17060.28187993549
-18761.18257775099,-26246.982961533424,-34344.55059105761,-17062.13707472528
-18763.82008359672,-26247.07236851125,-34347.94805621482,-17065.579243371398
-18754.722923603407,-26242.512612642364,-34363.527222100165,-17073.692926608674
-18744.552879876243,-26237.394063162097,-34358.58748657555,-17080.063173778435
-18758.969755049915,-26248.23465922292,-34346.11521316948,-17078.81147608894
-18779.55571169325,-26260.975153562445,-34347.47866958126,-17078.073868521915
-18781.47796171641,-26256.08012152673,-34348.19392540383,-17069.870778306817
-18768.737467376886,-26244.30075219879,-34350.96554171629,-17064.99809801556
-18755.393475937068,-26236.05295849478,-34349.5573818156,-17068.261452706036
-18773.833665112696,-26247.11707200016,-34344.37177710197,-17070.250757962556
-18791.24567404338,-26257.98001980544,-34340.48257356675,-17073.134132997293
-18788.161133308546,-26252.950877302992,-34326.84800944901,-17061.824150302906
-18779.84628437117,-26247.72056910045,-34328.88201819444,-17060.170121213214
-18781.27679601631,-26254.96253430397,-34334.4028990749,-17070.630737618296
-18808.92590390753,-26272.463950212477,-34343.41065209039,-17077.313909210436
-18816.592552255697,-26269.75938913338,-34344.103556168506,-17068.03793526148
-18812.81510744275,-26265.736075131423,-34337.040404920626,-17061.801798558452
-18796.163057823545,-26252.90617381408,-34322.779991958145,-17058.24787119006
-18793.302034533262,-26250.894516813103,-34335.69930025331,-17057.063228733925
-18815.854944688672,-26264.909060586582,-34338.8061927326,-17050.715333308617
-18836.664418776563,-26272.93333684604,-34346.830468992055,-17061.824150302906
-18841.26887813436,-26272.53100544584,-34355.927628985366,-17066.741534083074
-18825.06386340426,-26264.909060586582,-34363.21429767779,-17063.99226951507
-18811.563409753253,-26256.884784327125,-34340.48257356675,-17049.821263530404
-18833.848098975195,-26268.418284466065,-34332.45829730729,-17055.073923477405
-18853.53998584032,-26279.951784605004,-34345.154088157906,-17077.55977839944
-18861.094875466213,-26284.1539125626,-34342.67304452336,-17070.206054473645
-18847.37090437065,-26270.27347925585,-34331.81009671809,-17054.76099905503
-18847.035628203823,-26271.99456357891,-34339.72261425527,-17060.28187993549
-18876.584634373743,-26291.73115393295,-34338.13564039894,-17065.556891626944
-18889.63805313564,-26292.49111324443,-34332.011262418186,-17064.37224917081
-18879.378602430654,-26277.135464803632,-34320.120134367964,-17056.593842100363
-18857.20567193099,-26257.309467471776,-34325.1045733815,-17055.543310110967
-18853.2494131624,-26257.3988744496,-34337.68860550983,-17059.4772171351
-18874.17064597257,-26274.207386279988,-34337.733308998744,-17060.885377035782
-18884.07246876627,-26280.935261361035,-34336.9062944539,-17059.4772171351
-18880.71970709797,-26281.22583403896,-34339.58850378853,-17053.978687999093
-18859.038514976324,-26271.52517694535,-34331.877151951456,-17046.13322569528
-18849.15904392708,-26273.693296157515,-34336.43690782034,-17053.576356598896
-18861.027820232848,-26286.59025270823,-34329.619625761465,-17054.604536843843
-18858.747942298407,-26285.852645141204,-34325.88688443743,-17049.687153063674
-18844.241660146912,-26278.54362470432,-34324.92575942585,-17049.888318763773
-18826.874354705134,-26271.88280485664,-34341.26488462268,-17064.081676492893
-18817.10664237817,-26272.128674045645,-34339.40968983289,-17053.03991473197
-18835.502128064887,-26288.467799242477,-34327.384451315935,-17035.672609290195
-18844.26401189137,-26292.3570027777,-34329.17259087236,-17026.37428359679
-18833.95985769747,-26282.09755207271,-34339.6555590219,-17024.183812640167
-18809.26118007436,-26269.133540288636,-34356.9111057414,-17032.453958088634
-18796.632444457107,-26267.188938521023,-34360.263867409696,-17043.786292527475
-18810.4905260194,-26279.37063924917,-34355.54764932962,-17041.99815297105
-18812.01044464236,-26281.58346195024,-34347.34455911453,-17035.069112189904
-18811.362244053154,-26280.979964849947,-34351.47963183876,-17036.969010468605
-18788.407002497555,-26265.24433675341,-34368.24344018024,-17050.402408886242
-18777.320537247724,-26261.10926402918,-34360.55444008761,-17058.203167701147
-18801.48277300391,-26280.19765379401,-34355.502945840715,-17060.505397380042
-18813.35154930968,-26290.0547730988,-34347.79159400363,-17059.18664445718
-18805.05905211676,-26285.58442420774,-34347.63513179244,-17055.856234533338
-18786.90943561905,-26275.704953158493,-34358.565134831086,-17062.874682292306
-18787.378822252613,-26281.941089861524,-34362.65550406641,-17083.684156380197
-18799.471116002933,-26286.165569563575,-34340.37081484447,-17066.719182338617
-18804.16498233855,-26288.601909709207,-34338.2026956323,-17050.60357458634
-18790.61982519863,-26281.11407531668,-34337.800364232105,-17050.00007748605
-18761.60726089564,-26264.283211741837,-34338.44856482132,-17049.12835945229
-18758.05333352725,-26267.412455965576,-34335.31932059757,-17054.89510952176
-18784.271929773324,-26288.043116097822,-34344.48353582425,-17070.362516684832
-18783.57902569521,-26283.013973595374,-34328.97142517226,-17055.99034500007
-18778.86280761514,-26279.63886018263,-34336.14633514242,-17059.03018224599
-18762.65779288504,-26270.988735078423,-34351.18905916084,-17070.049592262458
-18758.075685271702,-26270.2511275114,-34344.170611401874,-17074.09525800887
-18777.14172329208,-26283.617470695677,-34337.57684678755,-17052.3246589094
-18788.5858164532,-26291.887616144137,-34347.81394574809,-17048.74837979655
-18777.879330859105,-26282.388124750632,-34360.57679183206,-17056.482083378087
-18756.779284093296,-26271.413418223077,-34372.57967860457,-17069.066115506426
-18760.690839372972,-26281.22583403896,-34381.922707786885,-17090.009700061048
-18782.10381056116,-26297.095572602226,-34377.586469362555,-17072.3294701969
-18794.79960141177,-26300.5600929928,-34366.23178317926,-17061.89120553627
-18789.14461006458,-26291.39587776612,-34373.540803616146,-17079.14675225577
-18764.110656274635,-26276.17433979205,-34374.23370769426,-17083.058307535448
-18769.408019710543,-26285.472665485464,-34374.32311467208,-17091.23904600609
-18786.95413910796,-26299.48720925894,-34372.7137890713,-17086.723993626118
-18788.071726330727,-26296.603834224206,-34372.66908558239,-17079.884359822794
-18778.326365748213,-26291.57469172176,-34370.34450415904,-17083.259473235546
-18756.84633932666,-26283.23749103993,-34365.74004480124,-17084.91350232524
-18763.976545807905,-26295.26272955689,-34378.27937344067,-17095.888208852793
-18776.605281425152,-26303.68933721654,-34372.93730651585,-17080.24198773408
-18774.057182557248,-26303.44346802753,-34372.84789953803,-17072.75415334155
-18756.86869107112,-26296.045040612826,-34368.73517855825,-17073.111781252835
-18725.308027900224,-26280.1529503051,-34356.687588296845,-17066.00392651605
-18720.45769935342,-26283.90804337359,-34357.38049237496,-17062.449999147655
-18728.057292468227,-26290.2559387989,-34351.32316962757,-17063.098199736858
-18726.38091163408,-26289.853607398705,-34356.3076086411,-17065.579243371398
-18704.587960790155,-26275.637897925128,-34354.586524318045,-17063.23231020359
-18681.85623667911,-26266.00429606489,-34349.24445739323,-17053.062266476427
-18689.72405072737,-26277.91777585957,-34345.623474791464,-17053.732818810084
-18710.86880098209,-26292.021726610867,-34336.66042526489,-17061.488874136077
-18710.578228304177,-26290.50180798791,-34337.33097759855,-17054.202205443646
-18695.468449052387,-26281.71757241697,-34343.50005906821,-17053.129321709792
-18678.36936454408,-26274.63206942464,-34368.75753030271,-17074.989327787083
-18674.681326708956,-26275.1014560582,-34364.60010583402,-17064.863987548826
-18691.06515539469,-26285.78558990784,-34347.92570447036,-17037.974838969094
-18704.96794044589,-26296.469723757476,-34354.74298652923,-17038.198356413646
-18697.65892000901,-26295.50859874589,-34372.62438209348,-17049.79891178595
-18665.65122194901,-26276.688429914528,-34368.39990239142,-17041.886394248773
-18663.572509714664,-26279.661211927083,-34356.79934701912,-17046.647315817754
-18676.60357673211,-26290.50180798791,-34348.015111448185,-17046.93788849567
-18685.14194311404,-26296.089744101733,-34355.32413188507,-17052.07878972039
-18665.53946322673,-26280.86820612767,-34361.359102888004,-17063.14290322577
-18635.744587867808,-26264.86435709767,-34375.99949550623,-17072.150656241258
-18636.057512290183,-26272.93333684604,-34380.46984439729,-17081.538388912486
-18640.952544325894,-26278.856549126693,-34368.69047506934,-17078.252682477556
-18628.480270919837,-26269.066485055268,-34361.13558544345,-17065.60159511585
-18609.660102088463,-26259.20936575048,-34356.262905152194,-17053.95633625464
-18587.755392522264,-26250.33572320172,-34345.66817828038,-17049.888318763773
-18593.276273402724,-26260.05873203978,-34338.56032354359,-17049.217766430113
-18613.929285279428,-26278.76714214887,-34355.6594080519,-17063.589938114874
-18615.20333471338,-26279.77297064936,-34371.439739637346,-17076.486894665588
-18596.71844204884,-26269.647630411106,-34375.17248096138,-17079.884359822794
-18577.183017394906,-26258.985848305925,-34356.35231213002,-17064.95339452665
-18591.465782101845,-26269.558223433283,-34349.37856785996,-17057.532615367487
-18607.313168920657,-26277.22487178145,-34340.12494565546,-17049.351876896846
-18607.715500320854,-26277.806017137293,-34344.28237012415,-17049.933022252684
-18594.55032283668,-26270.653458911594,-34348.12687017046,-17057.085580478382
-18576.19954063887,-26260.95280181799,-34352.3066463836,-17060.170121213214
-18587.86715124454,-26268.977078077445,-34350.13852717144,-17063.433475903686
-18611.35883466707,-26284.131560818143,-34352.75368127271,-17071.56951088542
-18605.77089855324,-26277.694258415017,-34353.20071616182,-17073.201188230658
-18577.85356972856,-26256.750673860395,-34344.21531489078,-17050.313001908424
-18555.12184561752,-26245.30658069928,-34354.94415222933,-17048.167234440712
-18569.091685902084,-26263.38914196362,-34358.34161738653,-17052.86110077633
-18583.285043631204,-26275.41438048057,-34347.61278004799,-17048.547214096452
-18575.99837493877,-26272.039267067823,-34349.71384402679,-17055.722124066608
-18559.122807875017,-26263.05386579679,-34366.27648666817,-17056.169158955712
-18535.698179685853,-26249.307542956776,-34350.65261729391,-17038.84655700285
-18545.15296759045,-26259.96932506196,-34339.633207277446,-17032.76688251101
-18561.5814997651,-26269.33470598873,-34346.94222771433,-17033.99622845605
-18562.60968001004,-26266.71955188746,-34349.91500972689,-17033.236269144567
-18549.28804031468,-26256.884784327125,-34357.08991969704,-17041.774635526497
-18535.34055177457,-26253.88965057012,-34374.52428037218,-17057.733781067585
-18552.17141534941,-26266.67484839855,-34373.00436174922,-17043.80864427193
-18574.277290615715,-26275.459083969487,-34358.4086726199,-17035.00205695654
-18578.144142406483,-26272.843929868213,-34355.70411154081,-17034.59972555634
-18563.14612187697,-26259.76815936186,-34358.67689355337,-17038.71244653612
-18553.736037461287,-26254.269630225856,-34368.846937280534,-17048.413103629722
-18567.72822949031,-26262.78564486333,-34365.80710003461,-17050.782388541986
-18592.87394200253,-26275.23556652493,-34362.074358710575,-17050.692981564163
-18604.78742179721,-26280.979964849947,-34360.80030927662,-17054.537481610478
-18592.82923851362,-26269.02178156636,-34363.63898082244,-17058.2255194456
-18575.6854505164,-26255.07429302625,-34357.84987900852,-17052.548176353954
-18590.81758151264,-26266.764255376373,-34352.79838476162,-17053.978687999093
-18617.55026788119,-26283.48336022894,-34362.208469177305,-17070.921310296217
-18624.21108772887,-26283.3045462733,-34365.11419595649,-17063.90286253725
-18615.94094228041,-26275.146159547112,-34350.18323066035,-17042.2216704156
-18606.419099142444,-26270.42994146704,-34357.246381908226,-17052.45876937613
-18622.22178247235,-26280.890557872124,-34362.16376568839,-17059.968955513115
-18640.863137348075,-26289.11599983168,-34357.51460284169,-17059.544272368465
-18642.96420132687,-26283.595118951216,-34350.809079505096,-17048.860138518827
-18632.92826806644,-26271.949860090004,-34348.149221914915,-17038.824205258396
-18626.043930774205,-26268.977078077445,-34364.08601571155,-17055.81153104443
-18649.848538619102,-26286.83612189724,-34369.539841358644,-17066.763885827528
-18661.247928291312,-26287.752543419905,-34354.27359989567,-17053.71046706563
-18658.319849767668,-26282.2540142839,-34354.0053789622,-17052.928156009693
-18646.92046009546,-26273.22390952396,-34362.32022789958,-17055.029219988493
-18637.577430913145,-26270.09466530021,-34364.91303025639,-17053.598708343354
-18654.40829448799,-26280.711743916483,-34361.20264067681,-17050.581222841887
-18665.718277182372,-26282.656345684096,-34365.60593433451,-17057.934946767684
-18665.74062892683,-26278.655383426594,-34358.25221040872,-17045.32856289489
-18662.231405047347,-26276.420208981064,-34360.21916392078,-17045.216804172615
-18660.57737595765,-26279.549453204807,-34367.01409423519,-17060.23717644658
-18680.17985584496,-26294.27925280085,-34371.97618150427,-17062.584109614385
-18697.65892000901,-26301.051831370813,-34362.09671045503,-17054.001039743547
-18700.27407411028,-26294.167494078574,-34359.92859124286,-17053.46459787662
-18682.906768668505,-26279.080066571245,-34363.84014652254,-17059.276051435
-18673.474332508365,-26272.82157812376,-34366.410597134905,-17067.970880028115
-18689.433478049457,-26283.1033805732,-34355.12296618497,-17068.686135850687
-18708.79008874775,-26293.83221791175,-34357.17932667486,-17075.123438253813
-18720.23418190887,-26296.3579650352,-34353.93832372884,-17063.299365436957
-18705.593789290644,-26278.14129330412,-34356.32996038556,-17053.643411832265
-18705.45967882391,-26276.91194735908,-34367.01409423519,-17070.273109707014
-18725.822118022697,-26288.26663354238,-34351.6584457944,-17070.47427540711
-18731.65592332553,-26284.131560818143,-34344.23766663524,-17069.177874228702
-18728.28080991278,-26278.878900871143,-34346.31637886958,-17063.969917770617
-18723.22931566588,-26279.21417703798,-34358.96746623128,-17061.95826076964
-18720.167126675504,-26279.102418315702,-34359.72742554276,-17065.132208482293
-18739.65784784053,-26289.183055065045,-34361.94024824384,-17061.354763669344
-18747.65977235553,-26289.183055065045,-34353.93832372884,-17052.45876937613
-18742.02713275279,-26284.28802302933,-34363.68368431136,-17048.81543502992
-18732.684103570475,-26282.36577300617,-34378.74876007423,-17061.645336347265
-18725.75506278933,-26278.878900871143,-34370.18804194785,-17060.08071423539
-18747.65977235553,-26291.887616144137,-34362.8119662776,-17054.202205443646
-18760.869653328617,-26298.503732502908,-34369.65160008092,-17054.738647310573
-18757.271022471312,-26299.1072296032,-34377.43000715137,-17052.45876937613
-18746.56453687722,-26293.608700467197,-34375.217184450295,-17052.794045542963
-18744.262307198325,-26292.848741155714,-34373.116120471495,-17054.291612421468
-18762.14370276257,-26300.381279037152,-34379.30755368561,-17060.393638657766
-18771.19615926697,-26299.15193309211,-34368.95869600281,-17050.871795519804
-18770.324441233213,-26298.41432552509,-34360.46503310979,-17025.99430394105
-18748.777359578296,-26284.77976140735,-34352.910143483896,-17022.172155639193
-18749.112635745125,-26290.792380665825,-34358.67689355337,-17038.980667469583
-18773.610147668143,-26308.047927385323,-34360.77795753216,-17053.621060087808
-18781.500313460867,-26308.494962274428,-34354.63122780695,-17055.856234533338
-18776.04648781377,-26296.402668524108,-34351.50198358321,-17050.268298419513
-18757.494539915864,-26281.806979394794,-34359.839184265045,-17053.688115321173
-18764.62474639711,-26290.43475275454,-34368.80223379162,-17069.982537029093
-18794.44197350049,-26312.74179372094,-34378.72640832978,-17093.51892394053
-18799.29230204729,-26309.992529152936,-34372.93730651585,-17089.00387156056
-18782.23792102789,-26288.91483413158,-34374.72544607228,-17071.23423471859
-18764.75885686384,-26278.14129330412,-34361.94024824384,-17062.226481703103
-18767.64223189857,-26284.1539125626,-34347.724538770264,-17060.125417724303
-18790.016328098336,-26297.654366213606,-34346.71871026978,-17054.001039743547
-18802.309787548755,-26299.48720925894,-34350.98789346074,-17056.638545589274
-18798.130011335616,-26295.754467934905,-34360.82266102108,-17065.512188138033
-18776.04648781377,-26282.455179984,-34367.32701865757,-17071.681269607696
-18779.06397331524,-26286.81377015278,-34349.80325100461,-17056.102103722347
-18801.572179981733,-26300.96242439299,-34348.05981493709,-17046.580260584386
-18816.950180166983,-26305.90215991761,-34354.31830338458,-17042.37813262679
-18804.5896654832,-26295.91093014609,-34363.79544303363,-17045.932059995182
-18780.5838919382,-26284.17626430705,-34375.73127457277,-17056.37032465581
-18788.89874087557,-26293.34047953373,-34387.577699134075,-17072.86591206383
-18816.838421444707,-26312.808848954304,-34382.213280464806,-17066.339202682877
-18826.91905819405,-26314.68639548855,-34384.04612351014,-17064.75222882655
-18817.620732500643,-26306.237436084444,-34398.39594345044,-17068.350859683855
-18800.72281369243,-26298.66019471409,-34394.1714637484,-17063.14290322577
-18802.62271197113,-26303.91285466109,-34385.208414221815,-17072.977670786106
-18834.2951338643,-26321.79425022533,-34373.42904489387,-17071.457752163144
-18843.124072924147,-26319.380261824164,-34377.00532400672,-17072.687098108185
-18837.4467298325,-26312.63003499866,-34385.74485608874,-17075.972804543115
-18813.262142331856,-26290.390049265632,-34378.68170484086,-17074.00585103105
-18814.603246999177,-26286.14321781912,-34365.918858756886,-17070.38486842929
-18835.792700742808,-26296.894406902124,-34354.22889640676,-17073.402353930756
-18846.07450319225,-26301.54356974883,-34359.14628018693,-17072.642394619274
-18843.884032235623,-26299.643671470127,-34374.07724548307,-17081.404278445756
-18823.611000014665,-26282.49988347291,-34365.829451779064,-17081.270167979023
-18826.51672679385,-26283.5057119734,-34347.23280039225,-17074.4305341757
-18851.26010790588,-26298.54843599182,-34351.52433532767,-17071.01071727404
-18858.81499753177,-26301.32005230428,-34346.87517248096,-17060.438342146677
-18853.271764906855,-26298.28021505836,-34345.24349513573,-17063.925214281706
-18833.26695361936,-26284.77976140735,-34347.67983528136,-17060.23717644658
-18835.97151469845,-26292.49111324443,-34356.08409119655,-17059.05253399045
-18856.91509925307,-26304.56105525029,-34345.623474791464,-17046.04381871746
-18866.235776690934,-26304.941034906034,-34343.29889336811,-17042.579298326888
-18860.69254406602,-26302.661156971597,-34358.25221040872,-17044.41214137222
-18837.983171699427,-26286.992584108422,-34359.4592046093,-17042.4228361157
-18835.07744492024,-26282.96927010647,-34357.447547608324,-17036.633734301777
-18859.5526050988,-26296.514427246384,-34372.982010004765,-17048.100179207348
-18861.36309639968,-26293.184017322543,-34379.37460891898,-17050.00007748605
-18848.44378810451,-26283.461008484486,-34375.060722239105,-17052.391714142766
-18829.57891578423,-26276.017877580867,-34384.82843456607,-17056.727952567097
-18838.98900019992,-26288.26663354238,-34386.30364970012,-17058.650202590252
-18861.407799888588,-26301.76708719338,-34373.9654867608,-17057.152635711747
-18866.97338425796,-26300.425982526063,-34376.29006818415,-17052.86110077633
-18853.38352362913,-26288.713668431483,-34378.30172518513,-17056.3256211669
-18828.796604728297,-26272.128674045645,-34378.74876007423,-17056.057400233436
-18846.96857297046,-26291.39587776612,-34389.745818346244,-17071.301289951956
-18865.56522435728,-26306.617415740184,-34374.501928627724,-17075.637528376286
-18866.124017968657,-26304.1587238501,-34378.637001351955,-17076.442191176677
-18854.143482940613,-26295.754467934905,-34379.866347297,-17067.61325211683
-18834.004561186382,-26284.48918872943,-34377.362951918,-17065.333374182388
-18839.994828700404,-26291.038249854835,-34373.116120471495,-17077.917406310728
-18866.81692204677,-26306.796229695825,-34372.3114576711,-17082.67832787971
-18863.82178828976,-26300.78361043735,-34378.4134839074,-17081.583092401397
-18851.43892186152,-26295.575653979264,-34389.09761775704,-17083.013604046537
-18835.747997253897,-26291.5076364884,-34382.23563220926,-17078.230330733102
-18835.949162953995,-26291.57469172176,-34371.48444312625,-17057.152635711747
-18848.019104959854,-26297.855531913705,-34359.74977728722,-17048.36840014081
-18851.617735817163,-26301.096534859724,-34366.052969223616,-17054.425722888198
-18843.59345955771,-26296.268558057374,-34371.61855359299,-17064.014621259525
-18829.19893612849,-26286.992584108422,-34377.295896684634,-17066.361554427334
-18840.195994400503,-26294.63688071214,-34386.124835744486,-17076.95628129915
-18859.64201207662,-26307.57854075176,-34393.322097459095,-17087.57335991542
-18862.793608044816,-26309.076107630262,-34392.22686198078,-17074.60934813134
-18842.72174152395,-26292.96049987799,-34384.7166758438,-17066.361554427334
-18815.720834221946,-26273.71564790197,-34361.001474976714,-17058.89607177926
-18835.032741431325,-26288.132523075645,-34366.63411457946,-17063.56758637042
-18854.277593407347,-26294.01103186739,-34371.6632570819,-17059.253699690547
-18855.64104981912,-26290.322994032264,-34379.531071130164,-17067.546196883464
-18844.21930840246,-26284.10920907369,-34396.27252772719,-17077.850351077363
-18821.554639524777,-26270.36288623368,-34395.490216671256,-17073.71527835313
-18831.23294487392,-26278.63303168214,-34387.82356832309,-17072.19535973017
-18849.047285204804,-26291.15000857711,-34396.674859127386,-17081.158409256746
-18847.97440147095,-26288.847778898216,-34392.22686198078,-17078.789124344483
-18831.3447035962,-26275.548490947305,-34394.10440851503,-17077.04568827697
-18814.066805132246,-26267.077179798747,-34408.409524966424,-17089.65207214976
-18824.72858723743,-26278.27540377085,-34397.41246669441,-17089.205037260657
-18842.02883744584,-26289.0042411094,-34391.6680683694,-17096.04467106398
-18844.44282584701,-26290.837084154737,-34394.86436782651,-17108.20402004767
-18825.890877949107,-26280.64468868312,-34400.944042318355,-17110.640360193298
-18799.269950302834,-26269.938203089027,-34418.266644271214,-17118.4411190082
-18805.662549217053,-26285.29385152982,-34405.72731563179,-17112.361444516355
-18817.48662203391,-26301.476514515463,-34394.6184986375,-17101.118517055336
-18806.89189516209,-26299.867188914683,-34400.027620795685,-17096.29054025299
-18784.830723384708,-26292.11113358869,-34400.027620795685,-17096.06702280844
-18754.253536969845,-26277.426037481557,-34400.27348998469,-17093.161296029248
-18756.84633932666,-26283.952746862506,-34401.81576035211,-17097.989272831594
-18777.2311302699,-26297.810828424797,-34401.86046384102,-17106.86291538035
-18779.5333599488,-26296.581482479756,-34408.47658019979,-17111.467374738142
-18756.980449793395,-26281.829331139248,-34405.34733597605,-17091.95430182866
-18739.031998995782,-26271.1004938007,-34399.96056556232,-17081.516037168032
-18752.823025324706,-26280.44352298302,-34402.6204231525,-17088.601540160365
-18775.554749435752,-26292.51346498889,-34407.73897263277,-17101.677310666717
-18769.36331622164,-26281.44935148351,-34407.917786588405,-17101.073813566425
-18747.905641544538,-26263.76912161936,-34405.28028074268,-17091.753136128562
-18736.28273442778,-26259.0976070282,-34401.346373718545,-17088.445077949178
-18755.907566059537,-26270.921679845054,-34394.23851898176,-17086.81340060394
-18784.49544721788,-26285.15974106309,-34398.75357136173,-17095.754098386064
-18781.34385124968,-26276.688429914528,-34407.649565654945,-17103.57720894542
-18761.94253706247,-26260.215194250966,-34415.115048303014,-17108.449889236676
-18747.279792699792,-26254.53785115932,-34416.322042503605,-17107.287598525
-18760.80259809525,-26266.831310609738,-34412.58930117956,-17098.548066442974
-18767.061086542737,-26267.837139110223,-34408.700097644345,-17079.705545867153
-18751.370161935112,-26256.661266882573,-34418.91484486042,-17088.333319226902
-18707.69485326944,-26233.52721137133,-34422.893455373465,-17096.759926886552
-18668.176969072458,-26219.62442632013,-34411.33760349007,-17087.506304682054
-18669.808646417696,-26232.119051470647,-34391.846882325044,-17070.76484808503
-18662.36551551408,-26234.108356727167,-34394.37262944849,-17064.640470104274
-18633.844689589107,-26222.977187988425,-34405.61555690951,-17069.624909117807
-18593.99152922529,-26206.41454534704,-34417.797257637656,-17081.538388912486
-18570.4327905694,-26201.67597552252,-34418.66897567141,-17084.198246502667
-18573.87495921552,-26209.52143782633,-34414.13157154698,-17074.47523766461
-18585.564921565645,-26220.697310053984,-34411.561120934624,-17070.407220173744
-18576.356002850054,-26214.885856495603,-34399.42412369539,-17062.584109614385
-18552.797264194163,-26200.46898132193,-34400.318193473606,-17066.4286096607
-18538.35803727604,-26195.596301030677,-34403.71565863081,-17076.88922606578
-18558.608717752544,-26214.371766373133,-34404.29680398665,-17081.00194704556
-18571.840950470087,-26221.5913798322,-34409.750629633745,-17078.833827833394
-18569.80694172465,-26217.50101059688,-34416.67967041489,-17083.751211613562
-18551.009124637734,-26203.15119065657,-34413.21515002431,-17084.108839524848
-18545.33178154609,-26201.51951331133,-34411.18114127888,-17084.95820581415
-18572.399744081467,-26220.78671703181,-34402.888644085964,-17083.95237731366
-18588.96238672285,-26229.258028180368,-34405.92848133189,-17087.707470382153
-18580.424020340924,-26218.68565305301,-34404.16269351992,-17073.022374275013
-18564.35311607756,-26204.42524009052,-34407.42604821039,-17072.41887717472
-18559.6816014864,-26198.18910338749,-34405.52614993169,-17073.80468533095
-18588.09066868909,-26213.79062101729,-34401.838112096564,-17078.744420855575
-18606.419099142444,-26218.2386181639,-34401.48048418528,-17085.360537214343
-18608.20723869887,-26207.53213256981,-34403.82741735309,-17084.421763947223
-18596.696090304387,-26190.70126899496,-34414.17627503589,-17089.33914772739
-18590.97404372383,-26185.962699170435,-34412.20932152383,-17090.613197161343
-18619.673683604444,-26197.183274887,-34397.94890856134,-17070.831903318394
-18627.899125564,-26191.03654516179,-34387.48829215626,-17060.795970057963
-18624.7475295958,-26182.833454946693,-34393.67972537038,-17066.026278260502
-18616.276218447238,-26173.713943208928,-34398.08301902808,-17068.172045728214
-18614.89041029101,-26172.484597263887,-34405.43674295387,-17067.166217227725
-18644.506471694287,-26190.745972483877,-34404.29680398665,-17063.277013692503
-18662.298460280712,-26194.836341719198,-34402.28514698567,-17067.23327246109
-18662.343163769623,-26187.102638137658,-34405.1685220204,-17071.43540041869
-18648.820358374163,-26174.85388217615,-34406.442571454354,-17066.830941060896
-18644.08178854964,-26167.902489650547,-34399.49117892876,-17059.700734579652
-18672.200283074413,-26177.71490546643,-34399.37942020648,-17055.543310110967
-18690.12638212757,-26177.11140836613,-34399.69234462886,-17052.41406588722
-18691.780411217263,-26168.05895186173,-34402.93334757487,-17055.81153104443
-18677.43059127696,-26152.45743423193,-34407.58251042158,-17061.04183924697
-18677.475294765867,-26149.350541752643,-34395.44551318235,-17051.832920531382
-18705.12440265708,-26160.571117469208,-34383.48732989876,-17049.24011817457
-18720.681216797973,-26162.47101574791,-34399.29001322866,-17063.18760671468
-18717.507269085323,-26156.27958253379,-34402.59807140804,-17068.932005039693
-18700.31877759919,-26142.80148062724,-34400.42995219588,-17065.3780776713
-18698.30712059821,-26142.153280038037,-34392.338620703056,-17062.673516592207
-18719.94360923095,-26153.485614476875,-34383.6661438544,-17055.029219988493
-18733.46641462641,-26156.681913933982,-34386.79538807814,-17054.224557188103
-18731.34299890316,-26151.719826664907,-34392.204510236326,-17059.208996201636
-18712.90280972753,-26140.3204369927,-34402.6204231525,-17073.692926608674
-18715.13798417306,-26145.7742626398,-34400.47465568479,-17084.15354301376
-18736.95328676144,-26154.290277277265,-34386.84009156705,-17071.23423471859
-18756.086380015186,-26162.64982970355,-34387.55534738962,-17069.04376376197
-18749.783188078785,-26156.927783122992,-34386.84009156705,-17066.65212710525
-18729.46545236891,-26142.577963182684,-34385.65544911092,-17063.76875207052
-18736.059216983227,-26147.89767836305,-34382.30268744263,-17065.869816049315
-18762.79190335177,-26164.102693093148,-34387.84592006754,-17066.00392651605
-18764.065952785724,-26160.682876191484,-34388.985859034765,-17062.539406125477
-18758.65683062754,-26156.03371334478,-34387.53299564517,-17058.158464212236
-18743.994086264865,-26145.327227750688,-34393.43385618137,-17059.99130725757
-18750.252574712347,-26148.679989418983,-34397.74774286124,-17063.075847992404
-18775.063011057737,-26162.40396051454,-34396.29487947165,-17067.881473050293
-18778.52753144831,-26159.81115815773,-34377.318248429096,-17051.6764583202
-18767.28460398729,-26145.997780084348,-34373.3619896605,-17046.93788849567
-18753.09124625817,-26136.54299217975,-34387.868271812,-17064.975746271106
-18754.36529569212,-26142.019169571304,-34389.20937647932,-17075.23519697609
-18774.303051746258,-26155.989009855868,-34391.221033480295,-17079.43732493369
-18775.174769780013,-26155.676085433493,-34395.132588759974,-17079.43732493369
-18761.361391706632,-26152.770358654307,-34399.93821381786,-17071.167179485223
-18734.00285649334,-26144.254344016837,-34408.25306275524,-17072.262414963534
-18737.33326641718,-26154.31262902172,-34415.20445528084,-17083.304176724458
-18751.593679379665,-26166.673143705502,-34411.561120934624,-17083.594749402375
-18743.368237420116,-26158.06772209021,-34394.1714637484,-17061.51122588053
-18727.878478512583,-26147.338884751665,-34403.06745804161,-17069.602557373353
-18710.80174574873,-26142.197983526945,-34406.4202197099,-17077.202150488156
-18720.07771969768,-26155.51962322231,-34390.99751603574,-17078.163275499737
-18749.984353778884,-26179.972431656413,-34391.95864104732,-17073.42470567521
-18766.72581037591,-26191.170655628524,-34404.9673563203,-17084.66763313623
-18761.964888806928,-26186.25327184836,-34413.32690874659,-17083.795915102473
-18747.19038572197,-26178.16194035553,-34419.808914638634,-17086.76869711503
-18751.124292746103,-26181.89468167957,-34412.34343199056,-17078.90088306676
-18770.99499356687,-26192.176484129013,-34400.36289696251,-17070.161350984734
-18783.75783965085,-26198.099696409667,-34395.6690306269,-17071.18953122968
-18780.5838919382,-26196.55742604225,-34408.58833892207,-17083.885322080296
-18764.3788772081,-26191.193007372975,-34420.41241173892,-17096.42465071972
-18773.94542383497,-26202.2347691339,-34425.08392633008,-17104.113650812345
-18797.14653457958,-26214.28235939531,-34419.20541753834,-17091.864894850838
-18802.421546271034,-26210.32610062672,-34413.55042619115,-17076.08456326539
-18792.69853743297,-26199.91018771055,-34416.12087680351,-17077.984461544092
-18776.67233665852,-26187.259100348845,-34409.258891255726,-17078.56560689993
-18783.28845301729,-26190.81302771724,-34398.26183298371,-17084.600577902864
-18808.61297948515,-26206.57100755823,-34396.451341682834,-17086.38871745929
-18824.12509013713,-26217.724528041428,-34410.08590580057,-17099.039804820994
-18811.630464986614,-26209.52143782633,-34416.63496692598,-17103.510153712054
-18795.67131944553,-26202.413583089543,-34420.25594952774,-17102.459621722654
-18811.272837075336,-26212.941254727997,-34412.16461803491,-17094.033014063003
-18841.53709906782,-26231.33674041471,-34420.61357743902,-17098.324548998422
-18850.72366603895,-26231.984941003917,-34423.38519375148,-17105.47710722412
-18834.183375142024,-26212.24835064988,-34426.26856878622,-17106.77350840253
-18814.938523166005,-26200.22311213292,-34418.22194078231,-17089.115630282835
-18835.27861062033,-26218.886818753104,-34411.76228663472,-17092.28957799549
-18866.369887157667,-26234.600095105183,-34413.796295380154,-17104.225409534625
-18872.293099438324,-26230.48737412541,-34424.346318763055,-17116.58592421841
-18855.194014930014,-26215.109373940155,-34431.141249077475,-17118.57522947493
-18842.38646535712,-26208.068574436737,-34423.40754549594,-17118.10584284137
-18859.127921954147,-26216.226961162924,-34404.09563828655,-17105.544162457485
-18883.02193677687,-26225.458231622964,-34413.237501768774,-17106.34882525788
-18889.16866650208,-26222.28428391031,-34414.33273724708,-17101.1855722887
-18880.093858253225,-26211.37663261612,-34421.66410942842,-17103.711319412152
-18879.870340808677,-26213.94708322848,-34426.24621704176,-17109.969807859638
-18900.411593963097,-26227.916923513047,-34418.24429252676,-17110.886229382304
-18917.443623238043,-26232.029644492824,-34407.69426914385,-17103.42074673423
-18921.55634421782,-26228.22984793542,-34405.257928998224,-17096.06702280844
-18909.21818127849,-26215.57876057372,-34413.28220525768,-17098.033976320505
-18900.79157361884,-26212.583626816708,-34418.87014137151,-17100.894999610784
-18913.68853016955,-26226.28524616781,-34414.53390294718,-17093.80949661845
-18934.14037634616,-26239.00338876288,-34402.59807140804,-17090.367327972333
-18944.980972406986,-26242.892592298103,-34401.81576035211,-17100.023281577025
-18934.766225190902,-26230.08504272521,-34400.25113824024,-17094.748269885575
-18923.54564947434,-26218.506839097365,-34404.69913538684,-17093.56362742944
-18940.55532700483,-26227.96162700196,-34402.888644085964,-17100.067985065936
-18962.5270918044,-26237.841098051205,-34404.60972840902,-17098.90569435426
-18959.777827236398,-26227.402833390577,-34388.94115554585,-17082.007775546048
-18951.865309699217,-26217.47865885242,-34390.28226021317,-17087.215732004133
-18941.918783416604,-26213.43299310601,-34398.75357136173,-17093.474220451622
-18960.73895224797,-26230.0403392363,-34401.346373718545,-17107.24289503609
-18980.05085945736,-26239.53983062981,-34406.0178883097,-17117.725863185628
-18981.637833313685,-26235.538868372307,-34407.649565654945,-17105.968845602136
-18968.94204246307,-26220.47379260943,-34400.56406266261,-17083.70650812465
-18957.05091441285,-26208.69442328148,-34400.20643475133,-17082.074830779413
-18978.396830367667,-26224.56416184475,-34406.24140575426,-17087.483952937597
-19009.77867958292,-26248.56993538975,-34418.53486520468,-17097.67634840922
-19006.962359781548,-26241.640894608605,-34410.4211819674,-17090.970825072625
-18986.08583046029,-26223.87125776664,-34407.157827276926,-17080.979595301105
-18963.063533671324,-26210.236693648894,-34401.88281558547,-17071.301289951956
-18979.1791414236,-26222.41839437704,-34395.42316143789,-17068.95435678415
-18995.29474917588,-26232.87901078213,-34392.85271082553,-17071.055420762947
-18994.42303114212,-26230.375615403133,-34382.88383279846,-17072.016545774524
-18979.84969375726,-26224.117126955647,-34398.23948123926,-17084.28765348049
-18960.80600748134,-26216.226961162924,-34411.65052791245,-17083.23712149109
-18960.113103403222,-26218.305673397263,-34399.42412369539,-17071.301289951956
-18967.600937795756,-26225.547638600787,-34396.607803894025,-17066.987403272084
-18951.910013188128,-26218.52919084182,-34405.39203946496,-17068.775542828505
-18921.332826773265,-26206.57100755823,-34412.63400466848,-17074.028202775502
-18902.02091956388,-26200.737202255397,-34403.603899908536,-17071.077772507404
-18903.138506786647,-26204.04526043478,-34389.812873579605,-17069.647260862264
-18911.78863189085,-26212.270702394333,-34394.149112003935,-17083.57239765792
-18919.25411453892,-26221.747842043384,-34410.59999592305,-17096.737575142095
-18905.93247484356,-26218.19391467499,-34416.81378088162,-17097.65399666476
-18884.139523999635,-26209.32027212623,-34410.801161623145,-17102.01258683355
-18891.157971758603,-26217.81393501925,-34403.156865019424,-17095.038842563492
-18906.3124544993,-26229.168621202545,-34405.72731563179,-17104.3371682569
-18907.5641521888,-26228.945103757997,-34409.86238835602,-17103.979540345616
-18895.270692738377,-26221.81489727675,-34419.42893498289,-17118.307008541466
-18877.07637275176,-26209.812010504247,-34416.97024309281,-17125.593677233897
-18896.857666594704,-26225.50293511188,-34418.31134776012,-17129.05819762447
-18904.50196319842,-26227.358129901662,-34403.96152781982,-17114.14958407278
-18901.39507071913,-26220.25027516488,-34396.9207283164,-17099.218618776635
-18887.715803112485,-26207.42037384753,-34402.79923710814,-17097.162258286746
-18882.127866998657,-26204.76051625735,-34406.91195808792,-17102.57138044493
-18903.250265508923,-26215.623464062628,-34412.119914546005,-17107.77933690302
-18916.16957380409,-26220.272626909333,-34408.76715287771,-17106.795860146984
-18912.95092260253,-26213.276530894826,-34396.674859127386,-17104.158354301257
-18895.337747971746,-26200.91601621104,-34398.79827485064,-17095.19530477468
-18886.41940193408,-26198.747896998877,-34410.48823720077,-17098.123383298323
-18906.3124544993,-26213.56710357274,-34413.28220525768,-17106.214714791146
-18925.199678564037,-26225.480583367415,-34416.05382157014,-17114.618970706342
-18922.13748957366,-26222.306635654764,-34426.58149320859,-17122.643246965796
-18906.64773066613,-26216.204609418462,-34426.179161808395,-17117.100014340882
-18900.32218698528,-26216.562237329752,-34423.943987362865,-17105.85708687986
-18924.4173675081,-26231.694368326,-34416.92553960389,-17096.80463037546
-18938.923649659595,-26230.800298547783,-34404.7214871313,-17090.456734950156
-18938.454263026037,-26222.373690888133,-34405.50379818724,-17086.701641881664
-18920.662274439608,-26205.52047556883,-34409.750629633745,-17087.930987826705
-18910.693396412546,-26200.53603655529,-34412.49989420175,-17092.468391951134
-18935.74970194694,-26217.90334199707,-34405.23557725377,-17094.99413907458
-18945.249193340445,-26219.17739143102,-34407.493103443754,-17100.80559263296
-18942.187004350068,-26215.176429173524,-34407.649565654945,-17097.452830964667
-18932.50869900092,-26209.74495527088,-34416.70202215934,-17096.536409441997
-18922.472765740487,-26204.60405404616,-34409.594167422554,-17107.444060736187
-18934.36389379071,-26211.71190878295,-34408.14130403296,-17110.930932871215
-18938.23074558148,-26214.55058032877,-34397.47952192778,-17094.122421040825
-18917.890658127148,-26205.76634475784,-34403.447437697345,-17096.111726297346
-18879.289195452835,-26195.641004519584,-34418.132533804484,-17108.740461914596
-18849.427264860544,-26197.42914407601,-34417.774905893195,-17116.161241073758
-18841.000657200893,-26210.79548726028,-34419.317176260614,-17121.548011487488
-18824.795642470795,-26211.600150060676,-34421.10531581704,-17117.100014340882
-18807.405985284568,-26209.253216892863,-34415.51737970321,-17099.15156354327
-18779.801580882264,-26203.39705984557,-34419.27247277171,-17096.37994723081
-18762.59073765168,-26202.681804023006,-34420.54652220566,-17101.00675833306
-18767.37401096511,-26208.225036647924,-34404.632080153475,-17093.876551851816
-18770.726772633407,-26209.63319654861,-34404.5203214312,-17102.079642066914
-18761.45079868445,-26206.928635469518,-34412.5222459462,-17106.997025847082
-18746.050446754747,-26204.9840337019,-34411.38230697898,-17101.09616531088
-18737.37796990609,-26200.781905744305,-34400.921690573894,-17097.385775731298
-18754.38764743658,-26210.70608028246,-34391.69042011385,-17094.547104185476
-18769.698592388464,-26222.82072577724,-34412.254025012735,-17105.499458968578
-18763.03777254078,-26217.255141407863,-34426.20151355285,-17108.315778769946
-18735.70158907194,-26200.62544353312,-34417.30551925964,-17105.231238035114
-18737.422673395,-26210.12493492662,-34416.23263552578,-17105.253589779568
-18764.08830453018,-26226.68757756801,-34423.787525151674,-17107.33230201391
-18770.23503425539,-26222.977187988425,-34413.34926049105,-17099.844467621384
-18754.61116488113,-26205.967510457936,-34399.71469637331,-17090.121458783324
-18731.499461114345,-26186.99087941538,-34405.682612142875,-17099.263322265546
-18734.584001849176,-26193.070553907222,-34409.70592614483,-17110.752118915574
-18766.502292931356,-26213.61180706165,-34424.078097829595,-17125.1913458337
-18777.298185503267,-26214.86350475115,-34425.10627807454,-17127.47122376814
-18762.38957195158,-26198.323213854223,-34407.96249007732,-17113.367273016844
-18735.813347794217,-26180.46417003443,-34403.35803071952,-17112.29438928299
-18730.38187389158,-26178.407809544544,-34397.501873672234,-17098.34690074288
-18749.827891567696,-26191.148303884067,-34402.21809175231,-17093.295406495978
-18757.874519571607,-26198.27851036531,-34416.61261518152,-17105.85708687986
-18748.62089736711,-26196.065687664235,-34407.6719173994,-17101.56555194444
-18726.537373845265,-26180.79944620126,-34395.78078934918,-17093.898903596273
-18729.33134190218,-26187.013231159835,-34408.543635433154,-17104.650092679276
-18756.019324781817,-26205.05108893527,-34405.86142609852,-17096.84933386437
-18767.44106619848,-26209.52143782633,-34397.90420507243,-17083.974729058114
-18755.79580733726,-26198.099696409667,-34393.79148409265,-17082.588920901886
-18738.964943762418,-26189.94130968348,-34398.26183298371,-17090.635548905797
-18745.26813569881,-26196.155094642058,-34396.80896959412,-17093.13894428479
-18766.56934816472,-26207.39802210308,-34394.88671957096,-17087.081621537403
-18771.397324967067,-26206.90628372506,-34392.02569628068,-17077.5821301439
-18761.204929495445,-26201.3854028446,-34393.90324281493,-17081.739554612584
-18740.28369668528,-26190.500103294864,-34399.37942020648,-17088.37802271581
-18739.076702484694,-26194.635176019096,-34400.60876615152,-17083.684156380197
-18753.80650208074,-26209.834362248705,-34392.673896869885,-17071.658917863242
-18755.147606748054,-26213.209475661457,-34391.355143947025,-17073.1788364862
-18738.674371084497,-26200.35722259965,-34390.88575731347,-17076.822170832416
-18723.028149965783,-26193.808161474248,-34410.71175464532,-17100.604426932863
-18724.19044067746,-26199.194931887974,-34410.08590580057,-17097.92221759823
-18741.311876930224,-26206.52630406932,-34402.95569931933,-17086.14284827028
-18750.29727820126,-26208.85088549267,-34400.653469640434,-17085.405240703254
-18740.46251064092,-26198.94906269897,-34403.6709551419,-17080.86783657883
-18722.044673209748,-26186.968527670924,-34408.409524966424,-17087.43924944869
-18737.28856292827,-26202.860617978647,-34419.02660358269,-17102.079642066914
-18754.030019525293,-26208.80618200376,-34407.090772043564,-17099.978578088114
-18760.355563206143,-26206.28043488031,-34402.195740007846,-17085.315833725435
-18752.19717647996,-26198.725545254416,-34401.48048418528,-17078.722069111118
-18732.39353089256,-26188.868425949626,-34411.60582442353,-17089.182685516203
-18743.03296125328,-26201.98889994489,-34417.52903670419,-17100.023281577025
-18765.89879583106,-26216.04814720728,-34411.38230697898,-17102.079642066914
-18778.52753144831,-26221.5913798322,-34399.22295799529,-17083.795915102473
-18771.08440054469,-26212.695385538984,-34394.350277704034,-17076.66570862123
-18749.067932256214,-26197.94323419848,-34397.70303937233,-17076.3304324544
-18757.71805736042,-26203.911149968048,-34388.3153067011,-17077.71624061063
-18779.511008204343,-26214.260007650853,-34392.18215849187,-17082.29834822397
-18787.3341187637,-26213.254179150365,-34392.49508291425,-17075.45871442064
-18782.34967975017,-26204.76051625735,-34390.88575731347,-17062.94173752567
-18767.19519700947,-26195.70805975295,-34396.27252772719,-17067.546196883464
-18777.164075036537,-26203.642929034584,-34396.80896959412,-17072.24006321908
-18788.92109262003,-26208.51560932584,-34397.59128065006,-17065.288670693477
-18778.19225528148,-26195.95392894196,-34394.640850381955,-17054.38101939929
-18762.99306905187,-26189.00253641636,-34399.871158584494,-17066.4286096607
-18742.96590601992,-26186.007402659347,-34407.493103443754,-17078.38679294429
-18748.978525278395,-26202.57004530073,-34398.86533008401,-17076.933929554692
-18760.08734227268,-26213.254179150365,-34382.36974267599,-17061.71239158063
-18748.35267643365,-26201.295995866774,-34383.28616419866,-17052.48112112059
-18731.23124018088,-26193.3834783296,-34393.366800948,-17057.890243278773
-18710.37706260408,-26189.00253641636,-34404.02858305319,-17069.96018528464
-18718.066062696704,-26201.921844711527,-34403.62625165299,-17076.08456326539
-18733.824042537697,-26214.103545439662,-34399.78175160668,-17073.737630097585
-18735.25455418284,-26213.164772172546,-34403.29097548616,-17063.209958459134
-18721.55293483173,-26201.05012667777,-34403.71565863081,-17060.192472957668
-18706.01847243529,-26195.50689405285,-34403.04510629715,-17070.586034129385
-18722.245838909846,-26213.209475661457,-34403.71565863081,-17076.71041211014
-18746.11750198812,-26226.508763612364,-34398.86533008401,-17075.212845231636
-18750.14081599007,-26222.41839437704,-34400.653469640434,-17077.202150488156
-18737.93676351747,-26207.733298269904,-34401.25696674072,-17077.89505456627
-18721.597638320643,-26190.00836491685,-34402.50866443022,-17075.10108650936
-18741.08835948567,-26200.066649921733,-34395.44551318235,-17071.94949054116
-18767.597528409664,-26214.84115300669,-34396.607803894025,-17072.396525430268
-18774.39245872408,-26216.405775118565,-34400.18408300687,-17080.979595301105
-18761.406095195543,-26204.49229532389,-34405.63790865397,-17084.421763947223
-18753.60533638064,-26201.22894063341,-34415.6738419144,-17090.389679716787
-18767.061086542737,-26211.37663261612,-34414.39979248045,-17089.629720405308
-18779.689822159984,-26216.65164430757,-34404.38621096447,-17076.308080709947
-18785.881255374105,-26216.070498951736,-34394.506739915225,-17067.590900372375
-18772.269043000822,-26202.90532146756,-34396.27252772719,-17070.161350984734
-18760.690839372972,-26194.858693463648,-34411.33760349007,-17086.902807581762
-18779.220435526426,-26208.560312814752,-34418.95954834933,-17094.748269885575
-18798.53234273581,-26219.937350742504,-34408.90126334444,-17088.86976109383
-18793.324386277724,-26212.516571583343,-34389.49994915723,-17072.843560319372
-18779.399249482067,-26198.18910338749,-34389.5670043906,-17067.94852828366
-18763.79773185226,-26187.39321081557,-34404.94500457585,-17074.2293684756
-18785.38951699609,-26202.65945227855,-34400.42995219588,-17066.85329280535
-18810.445822530488,-26218.663301308552,-34394.48438817077,-17069.80372307345
-18815.027930143828,-26222.41839437704,-34402.44160919686,-17079.102048766857
-18794.66549094504,-26207.822705247727,-34412.14226629046,-17092.28957799549
-18771.129104033604,-26192.24353936238,-34408.3201179886,-17089.964996572136
-18786.305938518755,-26203.55352205676,-34389.58935613505,-17068.10499049485
-18815.38555805511,-26219.512667597854,-34388.3153067011,-17055.74447581106
-18826.91905819405,-26222.440746121498,-34402.95569931933,-17067.4791416501
-18810.602284741675,-26205.65458603556,-34395.44551318235,-17062.85233054785
-18804.79083118329,-26202.39123134509,-34406.174350520894,-17071.793028329972
-18831.43411057402,-26221.85960076566,-34410.443533711856,-17081.963072057137
-18843.21347990197,-26220.67495830953,-34412.45519071283,-17082.119534268324
-18840.10658742268,-26211.309577382755,-34414.064516313614,-17079.14675225577
-18823.67805524803,-26198.770248743327,-34408.81185636662,-17079.124400511315
-18812.546886509288,-26191.684745750998,-34405.839074354066,-17082.410106946245
-18831.25529661838,-26205.43106859101,-34400.83228359607,-17081.337223212387
-18856.177491686045,-26219.75853678686,-34407.4707516993,-17087.260435493044
-18853.53998584032,-26206.101620924663,-34403.313327230615,-17074.452885920153
-18839.25722113338,-26189.740143983385,-34411.80699012363,-17079.01264178904
-18822.42635755853,-26178.966603155925,-34405.39203946496,-17083.23712149109
-18839.659552533576,-26190.70126899496,-34398.37359170599,-17083.438287191188
-18860.06669522127,-26203.4864668234,-34395.04318178215,-17073.80468533095
-18859.68671556553,-26197.183274887,-34393.88089107048,-17061.95826076964
-18845.336895625223,-26185.739181725883,-34396.49604517175,-17065.646298604763
-18840.10658742268,-26187.50496953785,-34402.03927779666,-17075.816342331927
-18857.20567193099,-26199.954891199457,-34394.97612654878,-17076.28572896549
-18869.990869759426,-26201.69832726697,-34394.93142305988,-17071.413048674232
-18869.432076148045,-26195.037507419293,-34396.80896959412,-17071.077772507404
-18859.64201207662,-26189.248405605365,-34414.91388260292,-17083.70650812465
-18845.06867469176,-26181.89468167957,-34408.3201179886,-17076.57630164341
-18855.43988411902,-26190.00836491685,-34395.24434748225,-17064.439304404175
-18870.951994771003,-26193.785809729798,-34394.082056770574,-17060.505397380042
-18877.16577972958,-26194.925748697013,-34404.74383887575,-17067.03210676099
-18860.67019232156,-26179.614803745128,-34412.3210802461,-17070.47427540711
-18847.30384913729,-26170.20471932945,-34425.62036819701,-17086.500476181565
-18855.752808541394,-26171.00938212984,-34403.872120842,-17074.4305341757
-18867.979212758448,-26167.768379183817,-34390.97516429128,-17066.09333349387
-18869.029744747848,-26160.79463491376,-34395.08788527106,-17068.03793526148
-18851.81890151726,-26147.160070796024,-34400.76522836271,-17070.94366204067
-18840.799491500795,-26137.437061957964,-34397.166597505406,-17073.312946952934
-18859.038514976324,-26140.49925094834,-34394.66320212641,-17074.922272553715
-18871.53314012684,-26137.99585556935,-34396.47369342729,-17080.107877267346
-18868.158026714093,-26127.08820427516,-34411.15878953443,-17086.321662225924
-18849.248450904903,-26106.032860998257,-34411.29290000116,-17082.320699968423
-18844.44282584701,-26094.119381203574,-34400.09467602905,-17071.413048674232
-18863.97825050095,-26094.78993353724,-34396.317231216104,-17066.383906171788
-18869.63324184814,-26084.32931713216,-34392.22686198078,-17063.880510792795
-18868.582709858743,-26076.193282150423,-34397.05483878313,-17069.177874228702
-18851.01423871687,-26061.619944765564,-34402.06162954112,-17079.39262144478
-18845.225136902947,-26059.362418575576,-34406.174350520894,-17088.132153526803
-18857.853872520194,-26060.12237788706,-34398.77592310619,-17081.583092401397
-18872.382506416143,-26065.531500045243,-34401.23461499627,-17071.56951088542
-18872.33780292723,-26065.86677621207,-34404.85559759803,-17066.875644549804
-18852.26593640637,-26049.92998241544,-34403.35803071952,-17057.107932222836
-18851.77419802835,-26050.22055509336,-34398.70886787282,-17058.158464212236
-18873.723611083464,-26064.503319800297,-34398.88768182846,-17066.763885827528
-18877.47870415196,-26060.21178486488,-34402.01692605221,-17069.624909117807
-18875.84702680672,-26056.63550575203,-34401.145208018446,-17068.552025383953
-18862.793608044816,-26048.655932981485,-34412.34343199056,-17072.75415334155
-18852.221232917454,-26048.63358123703,-34401.59224290756,-17059.499568879553
-18871.041401748826,-26068.52663380225,-34392.76330384771,-17052.145844953757
-18881.21144547599,-26080.149540919014,-34404.67678364239,-17059.790141557474
-18877.63516636314,-26086.27391889977,-34418.24429252676,-17072.843560319372
-18848.130863682138,-26072.281726870744,-34422.111144317525,-17069.602557373353
-18838.00552344388,-26072.12526465956,-34416.63496692598,-17063.455827648144
-18857.74211379792,-26093.515884103286,-34411.203493023335,-17058.873720034804
-18864.201767945506,-26103.88709353055,-34413.61748142451,-17068.261452706036
-18855.328125396743,-26102.50128537432,-34410.26471975621,-17078.18562724419
-18827.67901750553,-26091.30306140221,-34408.49893194425,-17076.553949898953
-18816.749014466885,-26092.800628280715,-34414.73506864728,-17077.80564758845
-18823.67805524803,-26102.769506307784,-34400.74287661826,-17063.120551481315
-18825.44384306,-26105.78699180925,-34394.48438817077,-17061.846502047363
-18821.889915691605,-26104.535294119756,-34398.70886787282,-17065.579243371398
-18798.15236308007,-26093.02414572527,-34412.0752110571,-17071.793028329972
-18790.75393566536,-26097.31568066069,-34426.022699597204,-17081.67249937922
-18813.709177220964,-26116.15820123651,-34426.29092053067,-17086.18755175919
-18818.470098789945,-26115.42059366949,-34428.45903974283,-17088.221560504622
-18810.31171206376,-26110.79378256724,-34435.34337703507,-17086.500476181565
-18793.25733104436,-26102.948320263426,-34440.26076081524,-17096.87168560883
-18796.207761312457,-26110.50320988932,-34447.547429507664,-17100.20209553267
-18809.462345774456,-26116.71699484789,-34431.58828396658,-17095.754098386064
-18816.05611038877,-26121.343805950142,-34431.834153155585,-17085.896979081273
-18800.76751718134,-26109.87736104457,-34431.16360082193,-17080.152580756258
-18776.828798869705,-26095.57224459317,-34435.4774875018,-17075.436362676188
-18777.409944225543,-26099.439096383943,-34428.36963276501,-17072.24006321908
-18802.19802882648,-26115.48764890285,-34422.111144317525,-17074.18466498669
-18804.634368972107,-26113.47599190188,-34423.69811817385,-17077.649185377264
-18788.563464708743,-26098.612081839092,-34432.951740378354,-17078.163275499737
-18764.557691163744,-26087.03387821125,-34438.36086253654,-17078.99029004458
-18764.31182197473,-26095.72870680436,-34425.754478663745,-17071.077772507404
-18781.612072183143,-26113.520695390787,-34413.7739436357,-17067.322679438912
-18785.72479316292,-26116.60523612562,-34410.53294068968,-17065.132208482293
-18779.35454599316,-26112.850143057127,-34408.0742487996,-17068.95435678415
-18758.56742364972,-26101.38369815156,-34415.13740004747,-17085.3828889588
-18759.34973470565,-26107.55277962122,-34409.750629633745,-17090.590845416886
-18771.263214500334,-26113.07366050168,-34402.30749873012,-17071.457752163144
-18776.448819213965,-26113.587750624152,-34410.4211819674,-17075.883397565292
-18777.834627370197,-26115.35353843612,-34422.93815886237,-17082.27599647951
-18758.880348072096,-26102.702451074416,-34418.266644271214,-17076.66570862123
-18765.988202808883,-26115.130020991568,-34420.54652220566,-17084.891150580785
-18783.93665360649,-26129.055157787225,-34413.84099886906,-17080.24198773408
-18787.24471178588,-26127.75875660881,-34415.897359358954,-17073.29059520848
-18781.05327857176,-26123.35546295112,-34423.0722693291,-17082.074830779413
-18769.832702855198,-26118.572189637685,-34437.712661947335,-17097.989272831594
-18770.86088310014,-26123.199000739933,-34434.47165900131,-17094.323586740924
-18786.73062166341,-26131.82677409968,-34411.6728796569,-17076.3304324544
-18795.96189212345,-26130.105689776625,-34409.03537381117,-17069.110818995337
-18786.23888328539,-26119.93564604946,-34412.96928083531,-17073.3800021863
-18760.176749250502,-26101.78602955175,-34412.38813547947,-17067.255624205547
-18769.36331622164,-26112.336052934654,-34410.91292034542,-17073.08942950838
-18790.82099089873,-26125.76945135229,-34409.728277889284,-17073.983499286594
-18794.173752567025,-26125.724747863384,-34410.8235133676,-17074.922272553715
-18782.19321753898,-26119.041576271247,-34419.04895532715,-17080.554912156455
-18761.71901961792,-26109.27386394428,-34420.41241173892,-17074.29642370897
-18769.49742668837,-26121.522619905787,-34420.54652220566,-17073.75998184204
-18788.83168564221,-26134.97837006788,-34419.54069370517,-17075.995156287572
-18787.82585714172,-26131.737367121863,-34421.44059198387,-17075.391659187277
-18780.29331926028,-26126.194134496945,-34415.51737970321,-17065.087504993382
-18770.65971740004,-26117.342843692644,-34425.1733333079,-17065.3780776713
-18778.14755179257,-26121.902599561527,-34424.65924318543,-17063.925214281706
-18796.94536887948,-26130.2174484989,-34414.39979248045,-17053.397542643255
-18805.84136317269,-26131.71501537741,-34419.51834196071,-17060.66185959123
-18794.95606362296,-26122.97548329538,-34429.040185098675,-17072.41887717472
-18778.751048892864,-26118.32632044868,-34437.15386833595,-17078.163275499737
-18786.23888328539,-26130.2174484989,-34431.25300779975,-17078.275034222013
-18806.221342828438,-26140.23103001488,-34428.10141183155,-17073.80468533095
-18809.574104496733,-26140.946285837446,-34436.304502046645,-17082.790086601985
-18795.64896770108,-26129.92687582098,-34436.68448170239,-17087.215732004133
-18778.50517970385,-26119.041576271247,-34434.426955512405,-17085.96403431464
-18789.81516239824,-26128.295198475746,-34424.01104259623,-17068.596728872864
-18812.81510744275,-26143.449681216443,-34426.46973448631,-17064.931042782195
-18810.937560908504,-26141.70624514893,-34428.95077812085,-17070.541330640477
-18795.11252583415,-26132.07264328869,-34432.7282229338,-17081.694851123673
-18775.822970369216,-26122.751965850828,-34427.073231586604,-17079.61613888933
-18783.422563484022,-26129.390433954053,-34416.18793203687,-17070.94366204067
-18797.168886324034,-26135.64892240154,-34416.880836114986,-17068.730839339594
-18799.82874391422,-26134.79955611224,-34420.635929183474,-17072.977670786106
-18785.344813507178,-26129.010454298317,-34428.43668799838,-17073.692926608674
-18759.416789939023,-26120.74030884985,-34432.57176072261,-17076.50924641004
-18768.49159818788,-26132.966713066904,-34419.16071404942,-17066.339202682877
-18781.18738903849,-26137.21354451341,-34415.22680702529,-17065.132208482293
-18783.1319908061,-26135.157184023523,-34428.50374323175,-17074.85521732035
-18769.81035111074,-26126.372948452587,-34435.321025290614,-17078.498551666566
-18749.134987489582,-26118.92981754897,-34433.66699620092,-17078.364441199832
-18758.165092249525,-26132.36321596661,-34429.598978710055,-17067.926176539204
-18773.85601685715,-26141.12509979309,-34426.805010653145,-17069.736667840083
-18766.77051386482,-26131.446794443946,-34423.943987362865,-17066.070981749413
-18754.00766778084,-26124.27188447379,-34430.13542057698,-17074.2293684756
-18736.930935016982,-26118.862762315603,-34442.451231771855,-17093.250703007066
-18745.55870837673,-26131.40209095503,-34440.350167793054,-17087.66276689324
-18759.26032772784,-26141.77330038229,-34439.456098014845,-17077.783295843994
-18755.99697303736,-26141.28156200428,-34447.86035393004,-17083.438287191188
-18736.774472805795,-26128.74223336485,-34455.2811330892,-17090.85906635035
-18707.56074280271,-26110.83848605615,-34450.90019117596,-17090.680252394708
-18718.490745841355,-26123.914256562504,-34438.04793811416,-17078.118572010826
-18737.13210071708,-26138.442890458453,-34437.19857182486,-17076.397487687766
-18736.50625187233,-26137.682931146974,-34442.942970149874,-17074.4305341757
-18715.830888251174,-26122.819021084197,-34451.682502231895,-17076.308080709947
-18696.69779499743,-26114.34770993563,-34457.5833627681,-17085.539351169988
-18715.920295229,-26131.290332232755,-34452.46481328784,-17087.01456630404
-18727.811423279218,-26138.666407903005,-34437.19857182486,-17077.55977839944
-18722.37994937658,-26132.45262294443,-34433.39877526746,-17077.80564758845
-18702.4645450669,-26119.801535582727,-34447.145098107474,-17086.99221455958
-18676.44711452092,-26108.42449765497,-34444.46288877283,-17089.33914772739
-18689.142905371536,-26126.149431008034,-34426.4250309974,-17083.23712149109
-18712.07579518268,-26145.818966128703,-34431.02949035519,-17075.548121398464
-18709.4159375925,-26139.515774192307,-34434.985749123785,-17067.546196883464
-18689.500533282822,-26122.148468750536,-34433.510533989735,-17071.278938207503
-18676.715335454384,-26114.459468657908,-34428.59315020957,-17071.301289951956
-18692.249797850825,-26128.89869557604,-34429.666033943424,-17077.313909210436
-18711.44994633793,-26143.31557074971,-34430.716565932824,-17093.474220451622
-18702.285731111257,-26131.84912584414,-34427.72143217581,-17079.727897611607
-18685.07488788067,-26123.31075946221,-34430.649510699455,-17070.38486842929
-18672.200283074413,-26119.51096290481,-34432.61646421152,-17072.061249263435
-18689.83580944965,-26135.93949507946,-34436.97505438031,-17077.29155746598
-18710.22060039289,-26151.295143520256,-34441.892438160474,-17084.354708713854
-18707.76190850281,-26147.137719051567,-34440.43957477088,-17075.749287098562
-18685.231350091857,-26128.675178131485,-34431.05184209965,-17064.99809801556
-18676.87179766557,-26128.652826387028,-34440.573685237614,-17075.65988012074
-18698.50828629831,-26149.05996907473,-34444.59699923957,-17087.01456630404
-18721.95526623193,-26163.387437270576,-34440.43957477088,-17092.96013032915
-18713.90863822802,-26151.56336445372,-34434.78458342369,-17092.1331157843
-18690.349899572124,-26133.12317527809,-34429.91190313243,-17087.841580848883
-18683.5102657688,-26133.50315493383,-34424.569836207615,-17080.733726112096
-18705.862010224108,-26151.473957475897,-34413.88570235798,-17066.965051527626
-18726.55972558972,-26163.990934370868,-34408.968318577805,-17068.23910096158
-18735.34396116065,-26168.014248372823,-34418.93719660487,-17067.725010839105
-18720.725920286885,-26155.22905054439,-34425.06157458563,-17076.777467343505
-18702.91157995601,-26142.600314927146,-34421.485295472776,-17081.80660984595
-18714.04274869475,-26147.629457429583,-34408.58833892207,-17066.316850938423
-18727.967885490405,-26153.910297621525,-34415.36091749203,-17066.67447884971
-18731.499461114345,-26151.898640620548,-34417.28316751518,-17068.149693983756
-18717.55197257423,-26142.55561143823,-34425.08392633008,-17070.72014459612
-18703.738594500854,-26137.54882068024,-34430.984786866284,-17078.207978988645
-18719.40716736402,-26150.73634990887,-34429.33075777659,-17078.94558655567
-18736.50625187233,-26159.252364546344,-34424.39102225197,-17078.207978988645
-18731.477109369887,-26149.641114430564,-34413.013984324214,-17076.95628129915
-18717.574324318688,-26138.17466952499,-34421.03826058367,-17089.741479127584
-18707.76190850281,-26134.017245056304,-34433.10820258954,-17091.417859961733
-18729.398397135545,-26155.36316101112,-34432.37059502251,-17082.924197068714
-18749.47026365641,-26171.14349259657,-34425.91094087493,-17081.448981934667
-18748.777359578296,-26170.89762340756,-34429.44251649887,-17086.38871745929
-18723.408129621523,-26151.675123175995,-34424.45807748533,-17078.453848177654
-18715.1156324286,-26147.22712602939,-34427.40850775343,-17075.65988012074
-18739.14375771806,-26163.20862331493,-34415.91971110341,-17068.507321895042
-18754.56646139222,-26171.411713530037,-34413.662184913424,-17074.765810342527
-18748.62089736711,-26164.92970763799,-34422.58053095109,-17081.873665079318
-18732.773510548297,-26155.989009855868,-34429.19664730986,-17090.90376983926
-18719.876553997583,-26148.344713252158,-34417.797257637656,-17094.703566396664
-18735.09809197165,-26157.821852901205,-34408.18600752187,-17081.85131333486
-18753.38181893609,-26167.142530339068,-34402.95569931933,-17075.749287098562
-18761.473150428912,-26174.473902520407,-34417.931368104386,-17086.634586648295
-18742.29535368626,-26161.95692562544,-34419.56304544962,-17074.542292897975
-18728.83960352416,-26150.021094086303,-34423.80987689613,-17072.083601007893
-18743.301182186744,-26158.782977912782,-34414.15392329144,-17077.224502232613
-18757.47218817141,-26165.957887882934,-34413.05868781313,-17075.995156287572
-18760.13204576159,-26168.05895186173,-34423.40754549594,-17080.28669122299
-18745.75987407683,-26162.560422725728,-34435.92452239091,-17091.060232050448
-18737.489728628367,-26160.012323857824,-34435.119859590515,-17086.61223490384
-18757.44983642696,-26172.03756237478,-34427.29674903116,-17076.777467343505
-18778.974566337416,-26183.481655535896,-34427.09558333106,-17077.00098478806
-18773.878368601607,-26177.625498488607,-34427.4755629868,-17078.207978988645
-18759.305031216747,-26166.2261088164,-34432.43765025588,-17080.44315343418
-18748.933821789484,-26158.11242557912,-34421.59705419505,-17077.693888866175
-18769.273909243813,-26169.95885014044,-34417.41727798191,-17076.95628129915
-18779.399249482067,-26173.646887975563,-34417.12670530399,-17074.698755109162
-18777.588758181188,-26169.690629206973,-34427.60967345353,-17077.29155746598
-18762.210757995934,-26154.536146466275,-34440.39487128197,-17083.259473235546
-18758.09803701616,-26148.65763767453,-34428.88372288748,-17081.158409256746
-18780.76270589384,-26158.961791868423,-34421.708812917335,-17077.604481888353
-18798.19706656898,-26164.639134960074,-34433.55523747864,-17089.987348316594
-18793.458496744453,-26155.564326711217,-34443.12178410552,-17099.24097052109
-18774.258348257343,-26141.192155026456,-34442.85356317205,-17094.14477278528
-18775.174769780013,-26143.896716105548,-34433.89051364548,-17095.329415241413
-18795.67131944553,-26156.5254517228,-34423.18402805138,-17092.110764039848
-18800.454592758964,-26155.541974966764,-34425.30744377463,-17091.820191361927
-18796.252464801368,-26154.580849955182,-34438.606731725544,-17098.458659465156
-18782.416734983533,-26146.95890509593,-34450.699025475864,-17104.00189209007
-18784.830723384708,-26150.35637025313,-34438.65143521445,-17091.864894850838
-18810.602284741675,-26164.393265771065,-34420.47946697229,-17089.450906449667
-18822.91809593655,-26168.03660011728,-34421.5747024506,-17088.42272620472
-18819.16300286806,-26162.538070981274,-34430.515400232725,-17093.09424079588
-18797.32534853522,-26145.97542833989,-34440.998368382265,-17100.559723443952
-18800.87927590361,-26151.2727917758,-34443.39000503898,-17103.711319412152
-18824.840345959707,-26165.153225082544,-34431.409470010934,-17100.62677867732
-18835.502128064887,-26166.784902427786,-34430.89537988846,-17092.401336717765
-18831.523517551843,-26159.498233735358,-34445.736938206785,-17102.124345555825
-18812.323369064736,-26148.098844063144,-34457.426900556915,-17114.976598617628
-18809.328235307723,-26147.875326618592,-34445.62517948451,-17097.206961775657
-18831.05413091828,-26159.38647501308,-34431.565932222125,-17085.204075003156
-18843.01231420187,-26163.856823904134,-34432.594112467064,-17081.583092401397
-18832.43993907451,-26154.60320169964,-34429.48721998778,-17087.059269792946
-18816.23492434441,-26144.768434139307,-34429.75544092124,-17095.44117396369
-18816.43609004451,-26145.21546902841,-34426.737955419776,-17096.983444331105
-18833.892802464103,-26155.09494007765,-34427.0285280977,-17095.41882221923
-18844.241660146912,-26158.91708837952,-34430.33658627708,-17095.038842563492
-18828.3942733281,-26144.54491669475,-34436.77388868021,-17094.6365111633
-18809.8423254302,-26135.13483227907,-34437.46679275832,-17099.77741238802
-18818.067767389748,-26146.15424229553,-34438.76319393673,-17109.902752626273
-18830.160061140068,-26155.921954622503,-34436.86329565803,-17105.72297641313
-18822.471061047443,-26151.04927433125,-34444.708757961846,-17095.2847117525
-18800.342834036688,-26139.44871895894,-34445.40166203996,-17091.730784384108
-18765.92114757552,-26123.958960051412,-34442.607693983045,-17084.37706045831
-18759.685010872487,-26131.22327699939,-34444.48524051729,-17090.94847332817
-18766.614051653632,-26144.276695761288,-34438.36086253654,-17083.639452891286
-18750.29727820126,-26140.99098932636,-34425.64271994147,-17070.451923662655
-18719.362463875117,-26128.60812289812,-34426.022699597204,-17077.00098478806
-18684.02435589127,-26116.135849492057,-34432.035318855684,-17081.069002278924
-18672.17793132996,-26124.137774007057,-34435.81276366863,-17085.874627336816
-18681.83388493465,-26139.582829425675,-34433.91286538993,-17086.344013970378
-18672.22263481887,-26132.899657833532,-34429.5766269656,-17083.639452891286
-18652.709561909385,-26126.59646589714,-34434.985749123785,-17082.67832787971
-18624.92634355144,-26119.801535582727,-34434.35990027904,-17085.360537214343
-18623.89816330649,-26131.491497932853,-34435.119859590515,-17088.780354116006
-18637.979762313335,-26145.729559150885,-34426.805010653145,-17081.270167979023
-18635.610477401075,-26142.35444573813,-34425.73212691928,-17082.47716217961
-18625.373378440545,-26139.2699050033,-34436.86329565803,-17094.033014063003
-18606.687320075907,-26135.335997979164,-34456.57753426761,-17108.449889236676
-18611.224724200336,-26145.03665507277,-34444.842868428575,-17107.95815085866
-18622.847631317098,-26150.04344583076,-34421.32883326159,-17095.105897796857
-18617.86319230356,-26143.762605638814,-34416.83613262608,-17080.554912156455
-18602.55224735168,-26133.436099700462,-34434.24814155676,-17084.354708713854
-18585.900197732477,-26126.2164862414,-34438.87495265901,-17089.964996572136
-18594.885599003508,-26134.12900377858,-34428.45903974283,-17092.1331157843
-18618.377282426038,-26147.20477428493,-34422.37936525099,-17087.282787237502
-18627.02740753024,-26154.0220563438,-34427.00617635324,-17078.967938300128
-18615.292741691203,-26146.55657369573,-34437.01975786922,-17082.611272646343
-18588.64946230048,-26129.345730465146,-34424.9274641189,-17076.397487687766
-18595.332633892613,-26137.101785791136,-34414.511551202726,-17075.05638302045
-18619.651331859983,-26156.90543137854,-34418.57956869359,-17090.836714605895
-18624.367549940056,-26159.23001280189,-34427.654376942446,-17097.34107224239
-18608.92249452144,-26149.104672563637,-34436.19274332437,-17107.131136313812
-18597.411346126955,-26147.60710568513,-34451.32487432061,-17122.844412665894
-18622.378244683536,-26172.03756237478,-34443.94879865036,-17114.306046283968
-18645.668762405963,-26184.263966591832,-34438.78554568119,-17101.744365900086
-18640.214936758868,-26172.1269693526,-34433.935217134385,-17095.150601285768
-18629.933134309427,-26167.209585572436,-34443.81468818363,-17101.230275777612
-18613.77282306824,-26164.572079726702,-34457.5833627681,-17110.506249726564
-18627.250924974796,-26176.17263509901,-34457.09162439009,-17109.969807859638
-18653.44716947641,-26192.176484129013,-34450.833135942594,-17105.92414211323
-18660.44326549092,-26197.51855105383,-34465.54058379419,-17115.423633506733
-18646.20520427289,-26187.54967302676,-34469.49684256278,-17119.938685886704
-18624.032273773228,-26170.808216429738,-34461.62902851451,-17113.657845694765
-18633.196488999904,-26177.446684532963,-34457.359845323546,-17101.476144966622
-18654.296535765712,-26192.020021917822,-34454.74469122227,-17099.464487965644
-18666.858216149594,-26199.79842898827,-34459.81853721363,-17106.10295606887
-18662.4549224919,-26194.590472530184,-34461.31610409213,-17107.309950269457
-18646.02639031725,-26181.917033424023,-34452.800089454664,-17093.876551851816
-18659.61625094608,-26195.39513533057,-34446.76511845173,-17097.43047922021
-18685.968957658883,-26216.3387198852,-34443.34530155007,-17102.593732189387
-18689.99227166084,-26214.505876839863,-34427.90024613145,-17086.254606992556
-18680.336318056143,-26203.866446479136,-34438.29380730317,-17085.069964536426
-18670.993288873826,-26195.730411497407,-34436.68448170239,-17085.159371514248
-18697.435402564457,-26213.99178671739,-34434.203438067845,-17091.015528561536
-18720.61416156461,-26223.223057177434,-34422.736993162274,-17083.035955790994
-18725.576248833688,-26216.71869954094,-34417.86431287102,-17089.33914772739
-18715.719129528898,-26205.922806969025,-34422.71464141782,-17100.872647866327
-18706.532562557764,-26201.452458077965,-34428.48139148729,-17111.86970613834
-18716.14381267355,-26205.05108893527,-34414.66801341391,-17101.5879036889
-18733.265248926316,-26209.409679104054,-34405.66026039842,-17089.540313427486
-18734.025208237792,-26204.3358331127,-34403.04510629715,-17087.43924944869
-18733.108786715125,-26201.810085989247,-34422.06644082862,-17101.118517055336
-18722.71522554341,-26195.39513533057,-34426.2238652973,-17105.812383390952
-18741.28952518577,-26208.984995959403,-34421.95468210634,-17104.38187174581
-18764.31182197473,-26219.98205423141,-34428.704908931846,-17113.590790461396
-18767.57517666521,-26219.73618504241,-34440.66309221543,-17115.62479920683
-18756.354600948645,-26209.812010504247,-34449.447327786365,-17106.125307813323
-18746.49748164385,-26201.51951331133,-34448.01681614123,-17103.62191243433
-18767.10579003165,-26216.361071629653,-34435.4774875018,-17101.09616531088
-18788.161133308546,-26227.13461245711,-34444.79816493966,-17094.81532511894
-18790.61982519863,-26225.368824645146,-34454.699987733366,-17098.413955976244
-18775.822970369216,-26216.003443718368,-34452.06248188764,-17103.62191243433
-18770.14562727757,-26214.99761521788,-34450.229638842306,-17101.56555194444
-18799.538171236298,-26236.25412419488,-34451.05665338715,-17099.57624668792
-18816.86077318916,-26243.563144631764,-34451.23546734279,-17091.641377406286
-18817.710139478462,-26240.07627249673,-34458.65624650195,-17087.79687735997
-18801.39336602609,-26223.89360951109,-34443.12178410552,-17079.213807489134
-18799.471116002933,-26217.970397230438,-34438.45026951436,-17084.645281391775
-18829.422453573043,-26235.60592360567,-34445.42401378441,-17086.36636571483
-18846.566241570265,-26240.52330738584,-34443.233542827795,-17078.34208945538
-18846.58859331472,-26234.15306021608,-34438.740842192274,-17077.13509525479
-18835.5468315538,-26224.161830444555,-34440.55133349315,-17080.778429601007
-18834.11631990866,-26223.96066474446,-34442.67474921641,-17091.864894850838
-18861.899538266603,-26240.43390040802,-34430.358938021534,-17084.600577902864
-18889.235721735444,-26253.219098236452,-34425.48625773028,-17078.655013877753
-18896.924721828076,-26253.04028428081,-34434.225789812306,-17085.13701976979
-18878.484532652445,-26236.85762129517,-34434.695176445864,-17087.215732004133
-18865.92285226856,-26224.76532754485,-34424.88276062998,-17083.0806592799
-18901.775050374872,-26246.33476094422,-34422.98286235129,-17077.783295843994
-18929.781786177373,-26261.645705896102,-34425.73212691928,-17076.57630164341
-18940.018885137903,-26258.605868650186,-34426.26856878622,-17080.44315343418
-18932.88867865666,-26249.97809529044,-34437.82442066961,-17090.568493672432
-18930.429986766576,-26249.10637725668,-34445.42401378441,-17089.629720405308
-18964.382286594187,-26270.13936878912,-34444.75346145075,-17087.19338025968
-18993.32779566381,-26279.32593576025,-34438.71849044782,-17081.80660984595
-18998.356938166256,-26268.619450166163,-34438.15969683644,-17080.84548483437
-18998.736917822,-26263.992639063912,-34447.92740916341,-17085.539351169988
-19010.47158366103,-26271.61458392317,-34454.543525522175,-17093.295406495978
-19048.782473657426,-26293.0052033669,-34455.124670878016,-17098.011624576047
-19085.037003163936,-26305.365718050685,-34448.01681614123,-17091.283749495
-19104.326558628865,-26305.67864247306,-34424.994519352265,-17079.839656333883
-19116.865887268294,-26302.281177315854,-34420.21124603882,-17080.554912156455
-19142.10100675833,-26310.01488089739,-34440.372519537515,-17100.62677867732
-19185.530446235,-26323.917665948597,-34429.9789583658,-17091.619025661832
-19226.456490332665,-26334.80296549833,-34423.161676306925,-17080.174932500715
-19255.15613021328,-26336.30053237683,-34417.46198147082,-17083.371231957823
-19276.971432801656,-26334.981779453967,-34413.170446535405,-17083.840618591385
-19314.321197786478,-26349.711579050017,-34413.95275759134,-17091.730784384108
-19382.449314886253,-26383.105085266245,-34416.43380122588,-17086.925159326216
-19439.982705114213,-26398.728954640505,-34410.28707150067,-17066.942699783172
-19480.484066067227,-26395.286785994387,-34398.70886787282,-17061.801798558452
-19500.310063399087,-26381.004021287445,-34395.28905097116,-17066.361554427334
-19527.40037767892,-26379.349992197756,-34394.23851898176,-17065.869816049315
-19581.044564371656,-26393.118666782226,-34392.539786403155,-17064.349897426357
-19619.73543402379,-26389.83296034729,-34392.18215849187,-17065.780409071496
-19639.673190077923,-26375.863120062724,-34400.161731262415,-17069.28963295098
-19645.46229189185,-26359.99338149946,-34413.61748142451,-17076.308080709947
-19650.402027416472,-26349.04102671636,-34404.47561794229,-17070.94366204067
-19698.07829833964,-26366.49773913595,-34410.08590580057,-17080.219635989622
-19728.67783649896,-26366.2742216914,-34426.313272275125,-17082.85714183535
-19737.52912730326,-26354.0701692188,-34432.14707757796,-17085.00290930306
-19740.18898489344,-26340.614419056707,-34423.54165596267,-17077.33626095489
-19763.658316571516,-26343.29662839134,-34416.322042503605,-17070.228406218102
-19815.760232896835,-26364.46373039052,-34411.31525174561,-17068.66378410623
-19853.60173625967,-26372.1750822276,-34421.284129772685,-17067.27797595
-19871.93016671302,-26367.816492058813,-34425.50860947473,-17067.61325211683
-19888.112829698664,-26368.1741199701,-34424.45807748533,-17070.273109707014
-19925.7531673614,-26384.26737597792,-34424.23456004078,-17074.542292897975
-19986.214636113007,-26408.27314952292,-34417.19376053736,-17075.257548720547
-20042.049293762364,-26424.50051599747,-34408.87891159998,-17072.150656241258
-20077.25329127947,-26425.394585775684,-34401.74870511874,-17063.679345092696
-20100.87908516873,-26422.04182410739,-34392.62919338098,-17053.822225787906
-20151.14815844872,-26439.029149893424,-34393.322097459095,-17057.711429323128
-20223.00901687253,-26461.82792923784,-34394.506739915225,-17063.254661948045
-20274.909767497757,-26465.560670561877,-34392.94211780335,-17054.31396416592
-20305.48695391261,-26454.831833223325,-34398.060667283615,-17060.840673546874
-20313.757099361075,-26431.206039334065,-34399.42412369539,-17070.966013785128
-20333.78426239303,-26421.147754329177,-34396.54074866066,-17068.261452706036
-20373.12333263437,-26427.160373587656,-34393.83618758156,-17062.919385781217
-20395.22920790067,-26421.952417129567,-34395.28905097116,-17062.405295658744
-20400.101888191926,-26408.69783266757,-34404.56502492011,-17076.15161849876
-20386.04264092954,-26386.50255042345,-34405.3696877205,-17070.876606807306
-20394.67041428929,-26382.18866374358,-34404.7214871313,-17066.51801663852
-20417.782118056075,-26384.803817844848,-34405.481446442776,-17068.306156194943
-20420.397272157345,-26373.672649106105,-34412.23167326828,-17073.983499286594
-20410.09311796345,-26361.89327977816,-34429.82249615461,-17081.605444145855
-20381.549940294022,-26340.525012078884,-34430.87302814401,-17078.051516777457
-20371.379896566857,-26335.406462598618,-34427.54261822017,-17074.385830686788
-20384.276853117568,-26344.034235958366,-34426.40267925295,-17078.744420855575
-20383.494542061635,-26340.346198123243,-34431.00713861074,-17080.487856923086
-20366.32840231996,-26325.68345376056,-34437.086813102585,-17089.33914772739
-20334.92420136025,-26307.06445062929,-34432.325891533605,-17083.4829906801
-20332.42080598125,-26310.64072974214,-34427.989653109275,-17075.995156287572
-20344.37898926485,-26320.989587424945,-34436.595074724566,-17079.057345277946
-20339.64041944032,-26322.084822903256,-34439.14317359247,-17087.81922910443
-20320.909657586773,-26316.273369344875,-34445.06638587313,-17096.223485019622
-20278.82132277743,-26294.145142334124,-34445.82634518461,-17101.297331010977
-20266.77373251602,-26294.994508623426,-34444.284074817195,-17100.023281577025
-20274.082752952905,-26306.75152620692,-34440.19370558187,-17098.72688039862
-20256.134302155293,-26298.459029014,-34438.98671138129,-17097.05049956447
-20221.37733952729,-26283.595118951216,-34452.77773771021,-17111.892057882793
-20180.965385552096,-26274.274441513357,-34456.48812728979,-17108.740461914596
-20162.94987952112,-26278.63303168214,-34445.28990331768,-17103.66661592324
-20164.916833033185,-26287.931357375543,-34435.544542735166,-17095.552932685965
-20145.828443268358,-26280.39881949411,-34425.396850752455,-17086.165200014737
-20113.485469041523,-26265.534909431328,-34421.552350706144,-17080.957243556648
-20072.760590643957,-26252.05680752478,-34433.89051364548,-17091.350804728365
-20060.713000382544,-26259.96932506196,-34435.4774875018,-17099.442136221187
-20059.57306141532,-26269.53587168883,-34429.71073743233,-17095.99996757507
-20044.753854841456,-26268.53004318834,-34437.01975786922,-17103.599560689876
-20015.11544169372,-26258.762330861373,-34443.34530155007,-17103.934836856704
-19976.5139790194,-26247.78762433381,-34443.993502139274,-17091.797839617473
-19965.85219691422,-26259.0976070282,-34447.16744985193,-17092.51309544004
-19970.031973127363,-26273.04509556831,-34441.51245850473,-17092.826019862416
-19953.42462699707,-26266.63014490964,-34442.16065909394,-17091.015528561536
-19922.75803360439,-26255.834252337725,-34450.564915009134,-17096.24583676408
-19882.681355796023,-26243.00435102038,-34445.40166203996,-17098.436307720698
-19872.91364346905,-26253.174394747544,-34437.93617939189,-17099.77741238802
-19871.907814968567,-26263.00916230788,-34430.358938021534,-17089.71912738313
-19869.963213200957,-26271.81574962327,-34440.88660965999,-17096.938740842194
-19845.130425111107,-26263.34443847471,-34445.602827740055,-17095.731746641606
-19813.905038107045,-26252.347380202697,-34458.38802556849,-17097.318720497933
-19805.5231339363,-26256.23658373792,-34441.49010676028,-17081.76190635704
-19810.172296783006,-26264.506729186385,-34427.31910077561,-17074.028202775502
-19802.79622111276,-26265.66901989806,-34435.678653201896,-17088.04274654898
-19785.227749970883,-26262.606830907684,-34441.847734671566,-17091.060232050448
-19760.082037458666,-26258.359999461176,-34448.44149928588,-17097.76575538704
-19752.974182721875,-26264.01499080837,-34437.95853113634,-17088.71329888264
-19754.04706645573,-26266.786607120823,-34414.064516313614,-17066.316850938423
-19748.414426852996,-26266.697200143004,-34416.14322854796,-17067.70265909465
-19729.86247895509,-26261.824519851747,-34427.4755629868,-17079.23615923359
-19700.447583251906,-26252.81676683626,-34437.287978802684,-17082.410106946245
-19702.839219908623,-26267.412455965576,-34435.90217064645,-17087.841580848883
-19708.918894400467,-26275.28027001384,-34425.91094087493,-17082.81243834644
-19702.638054208524,-26272.307488001286,-34432.90703688944,-17085.852275592362
-19681.582710931627,-26260.25989773988,-34445.044034128674,-17091.52961868401
-19656.92873679742,-26251.363903446665,-34452.08483363209,-17097.65399666476
-19651.765483828247,-26254.53785115932,-34432.57176072261,-17090.34497622788
-19660.59442288809,-26267.792435621315,-34434.04697585666,-17087.66276689324
-19655.833501319117,-26267.948897832503,-34442.47358351632,-17090.2332175056
-19628.899649250467,-26254.82842383724,-34446.25102832926,-17093.5859791739
-19599.104773891544,-26245.77596733284,-34446.4298422849,-17082.991252302083
-19603.73158499379,-26258.29294422781,-34448.10622311905,-17085.494647681076
-19606.7267187508,-26263.12092103016,-34446.98863589628,-17077.3809644438
-19593.561541266627,-26254.940182559512,-34457.15867962345,-17076.88922606578
-19565.26423278621,-26242.356150431177,-34467.552240795165,-17080.219635989622
-19527.467432912283,-26226.061728723256,-34460.37733082502,-17077.80564758845
-19525.76870033368,-26238.6457608516,-34456.75634822325,-17084.15354301376
-19524.29348519963,-26246.781795833325,-34448.91088591944,-17084.600577902864
-19508.490801869728,-26242.93729578701,-34439.72431894831,-17079.906711567248
-19479.299423611097,-26225.726452556428,-34442.898266660966,-17079.102048766857
-19449.906879652368,-26215.377594873626,-34452.15188886546,-17086.14284827028
-19443.335466782508,-26224.85473452267,-34449.872010931016,-17091.015528561536
-19451.695019208797,-26238.57870561823,-34447.994464396776,-17088.04274654898
-19434.864155633943,-26231.87318228164,-34444.46288877283,-17083.371231957823
-19410.344291966478,-26223.312464155253,-34456.018740656225,-17098.212790276146
-19383.343384664466,-26218.506839097365,-34463.998313426775,-17109.522772970533
-19374.13446594888,-26221.77019378784,-34452.06248188764,-17098.05632806496
-19365.68550654477,-26219.19974317548,-34444.77581319521,-17091.95430182866
-19345.010142923613,-26208.381498859108,-34441.42305152692,-17093.675386151717
-19308.88972388384,-26190.455399805956,-34449.939066164385,-17100.09033681039
-19274.82566533395,-26180.41946654552,-34461.539621536685,-17108.76281365905
-19276.14441825681,-26198.61378653214,-34468.37925534001,-17122.53148824352
-19269.751819342597,-26201.51951331133,-34459.952647680366,-17112.00381660507
-19242.639153318305,-26189.270757349823,-34451.34722606507,-17102.213752533647
-19206.205809856157,-26175.59148974317,-34453.40358655496,-17101.073813566425
-19166.799684381447,-26162.0239808588,-34460.5337930362,-17105.47710722412
-19167.157312292733,-26175.256213576344,-34467.127557650514,-17114.082528839415
-19167.336126248378,-26185.94034742598,-34475.42005484344,-17122.307970798967
-19140.491681157557,-26177.1784635995,-34472.246107130784,-17114.663674195253
-19098.380994603755,-26164.05798960424,-34477.92345022243,-17118.508174241564
-19049.251860290988,-26148.88115511908,-34466.54641229468,-17113.657845694765
-19048.2460317905,-26161.755759925338,-34464.80297622716,-17112.987293361104
-19046.52494746744,-26169.780036184795,-34465.09354890508,-17109.656883437263
-19029.24704900349,-26169.51181525133,-34466.74757799478,-17111.53442997151
-19000.882685289704,-26166.91901289452,-34477.65522928897,-17111.2885607825
-18975.71462103303,-26165.242632060366,-34472.58138329761,-17107.354653758368
-18978.79916176786,-26180.57592875671,-34463.35011283757,-17097.989272831594
-18984.208283926044,-26194.25519636336,-34463.841851215584,-17096.71522339764
-18974.75349602145,-26196.55742604225,-34468.960400695854,-17099.75506064356
-18953.74285623346,-26190.678917250505,-34476.090607177095,-17106.460583980155
-18935.03444612437,-26189.89660619457,-34472.40256934197,-17105.365348501844
-18949.51837653141,-26213.00830996136,-34462.523098292724,-17101.81142113345
-18960.962469692528,-26226.218190934444,-34463.372464582026,-17100.29150251049
-18957.162673135124,-26223.71479555545,-34454.78939471119,-17079.593787144877
-18937.806062436823,-26210.504914582365,-34455.86227844504,-17078.207978988645
-18924.484422741465,-26207.33096686971,-34458.29861859067,-17089.629720405308
-18947.59612650825,-26226.2405426789,-34455.79522321167,-17091.887246595295
-18963.64467902716,-26233.92954277153,-34450.67667373141,-17083.035955790994
-18961.163635392622,-26227.80516479077,-34452.57657201011,-17078.163275499737
-18948.15492011964,-26219.17739143102,-34461.62902851451,-17084.399412202765
-18947.1714433636,-26225.59234208969,-34469.161566395946,-17093.295406495978
-18973.94883322106,-26245.61950512165,-34474.34717110958,-17102.884304867304
-18985.303519404355,-26246.558278388773,-34458.8350604576,-17091.931950084203
-18985.01294672644,-26239.070443996246,-34450.788432453686,-17083.013604046537
-18980.05085945736,-26232.94606601549,-34455.594057511575,-17087.886284337794
-18981.503722846952,-26234.220115449443,-34462.97013318183,-17090.546141927975
-19009.510458649453,-26249.665170868066,-34459.10328139106,-17092.021357062025
-19030.543450181896,-26256.52715641584,-34452.77773771021,-17086.656938392753
-19030.63285715972,-26246.602981877684,-34454.118842377524,-17085.449944192165
-19025.804880357373,-26243.026702764837,-34469.34038035159,-17100.403261232765
-19020.93220006612,-26240.92563878604,-34463.93125819341,-17098.995101332082
-19048.46954923505,-26257.309467471776,-34453.47064178832,-17089.070926793924
-19075.80573270389,-26270.653458911594,-34445.87104867352,-17086.38871745929
-19078.46559029408,-26264.797301864302,-34455.124670878016,-17089.137982027292
-19062.618203475264,-26249.911040057068,-34463.32776109311,-17096.71522339764
-19059.53366274043,-26244.993656276903,-34465.40647332746,-17103.91248511225
-19084.589968274828,-26256.661266882573,-34448.21798184133,-17099.35272924337
-19108.640445308734,-26264.327915230744,-34450.788432453686,-17100.067985065936
-19114.49660235603,-26260.95280181799,-34458.38802556849,-17100.62677867732
-19099.655044037707,-26246.29005745531,-34446.92158066292,-17088.176857015715
-19095.564674802383,-26242.15498473108,-34442.51828700522,-17083.57239765792
-19118.87754426927,-26260.10343552869,-34446.631007985,-17084.198246502667
-19140.55873639092,-26278.07423807076,-34445.02168238422,-17083.192418002178
-19145.811396337915,-26280.220005538467,-34442.71945270532,-17076.196321987667
-19130.12047173029,-26265.91488908707,-34453.11301387704,-17086.56753141493
-19127.795890306938,-26269.11118854418,-34466.300543105666,-17094.100069296368
-19151.958126063124,-26292.893444644626,-34453.24712434377,-17082.700679624162
-19164.65391691374,-26304.44929652802,-34446.586304496086,-17080.711374367642
-19163.0222395685,-26305.388069795143,-34444.75346145075,-17080.018470289528
-19150.482910929077,-26297.274386557867,-34445.40166203996,-17082.81243834644
-19145.029085281974,-26296.06739235728,-34445.334606806595,-17081.024298790016
-19166.08442855888,-26310.30545357531,-34449.13440336399,-17082.2312929906
-19176.500341475054,-26310.88659893115,-34454.29765633317,-17087.886284337794
-19168.69958266015,-26303.130543605155,-34462.34428433708,-17095.217656519133
-19147.912460316715,-26292.51346498889,-34460.64555175848,-17096.268188508533
-19139.754073590528,-26289.183055065045,-34462.67956050391,-17098.57041818743
-19165.011544825025,-26309.925473919568,-34471.66496177494,-17098.05632806496
-19178.5790537094,-26314.95461642201,-34455.37054006702,-17088.04274654898
-19165.92796634769,-26297.006165624403,-34450.72137722032,-17080.86783657883
-19145.096140515347,-26279.102418315702,-34459.81853721363,-17083.035955790994
-19144.49264341505,-26276.040229325325,-34458.38802556849,-17085.51699942553
-19167.470236715108,-26289.2054068095,-34450.922542920416,-17083.773563358016
-19173.88518737378,-26287.68548818654,-34456.219906356324,-17086.746345370575
-19164.095123302355,-26277.090761314725,-34467.976923939816,-17092.803668117962
-19147.130149260774,-26266.831310609738,-34480.270383390234,-17103.711319412152
-19139.55290789043,-26267.367752476664,-34473.74367400929,-17103.957188601158
-19153.3215824749,-26278.36481074868,-34469.34038035159,-17098.592769931885
-19162.93283259068,-26281.49405497242,-34464.02066517123,-17097.966921087136
-19154.41681795321,-26276.3531537477,-34474.4365780874,-17101.00675833306
-19126.07480598388,-26259.79051110632,-34467.93222045091,-17094.6365111633
-19118.94459950264,-26262.651534396595,-34462.657208759454,-17094.36829022983
-19135.753111333022,-26274.72147640246,-34469.161566395946,-17100.58207518841
-19134.747282832537,-26270.2511275114,-34464.98179018281,-17093.988310574092
-19121.760919304004,-26265.13257803113,-34469.27332511822,-17106.259418280057
-19095.743488758028,-26254.493147670408,-34472.939011208895,-17116.407110262768
-19083.941767685625,-26249.86633656816,-34467.418130328435,-17108.852220636873
-19090.177904388656,-26255.16370000407,-34462.8360227151,-17098.65982516525
-19093.39655559022,-26260.52811867334,-34473.25193563127,-17111.176802060225
-19074.39757280321,-26251.22979297993,-34474.01189494275,-17105.67827292422
-19045.38500850022,-26238.981037018424,-34476.87291823303,-17099.844467621384
-19038.791243885906,-26246.602981877684,-34474.10130192057,-17099.28567401
-19045.2956015224,-26259.52229017285,-34461.51726979223,-17090.2332175056
-19048.871880635248,-26266.764255376373,-34469.80976698516,-17093.541275684987
-19027.414205958157,-26254.29198197031,-34467.95457219536,-17092.848371606873
-18993.148981708167,-26237.97520851793,-34466.524060550226,-17099.688005410197
-18994.80301079786,-26251.453310424487,-34474.14600540948,-17107.935799114206
-19014.67371161863,-26272.39689497911,-34472.96136295335,-17102.079642066914
-19012.81851682884,-26273.87211011316,-34469.45213907387,-17100.1350402993
-18996.680557332107,-26264.283211741837,-34473.31899086464,-17099.33037749891
-18968.964394207527,-26249.86633656816,-34470.03328442971,-17093.965958829638
-18965.58928079477,-26255.94601106,-34472.3355141086,-17095.24000826359
-18980.54259783537,-26270.2511275114,-34469.094511162584,-17097.385775731298
-18988.32100490582,-26279.25888052689,-34472.22375538632,-17106.32647351342
-18972.71948727602,-26272.687467657022,-34470.90500246346,-17106.48293572461
-18952.044123654858,-26265.44550245351,-34481.63383980201,-17115.267171295545
-18944.75745496243,-26268.932374588538,-34484.00312471428,-17117.01060736306
-18957.05091441285,-26283.371601506664,-34474.123653665025,-17109.522772970533
-18963.08588541578,-26290.032421354343,-34472.514328064244,-17093.362461729343
-18957.252080112947,-26289.47362774296,-34475.665924032444,-17087.215732004133
-18937.18021359208,-26282.36577300617,-34485.92537473743,-17099.889171110295
-18946.769111963407,-26298.324918547263,-34492.45208411838,-17111.2885607825
-18967.33271686229,-26312.47357278748,-34477.02938044422,-17101.833772877904
-18968.09267617377,-26309.724308219476,-34473.989543198295,-17103.86778162334
-18959.95664119204,-26305.11984886168,-34471.620258286035,-17105.76767990204
-18943.997495650947,-26299.196636581026,-34483.75725552526,-17102.81724963394
-18951.910013188128,-26308.27144482988,-34482.05852294666,-17105.007720590558
-18977.32394663381,-26326.68928226105,-34486.841796260094,-17113.188459061203
-18983.76124903694,-26328.611532284205,-34487.71351429386,-17106.684101424707
-18976.116952433225,-26317.167439123088,-34470.77089199673,-17090.635548905797
-18963.197644138058,-26305.58923549524,-34468.178089639914,-17095.530580941508
-18979.51441759043,-26317.167439123088,-34467.03815067269,-17098.27984550951
-18998.55810386635,-26327.35983459471,-34460.15381338046,-17091.976653573114
-19003.52019113543,-26326.2645991164,-34459.237391857794,-17095.61998791933
-19006.694138848085,-26326.86809621669,-34459.99735116927,-17092.5354471845
-19000.770926567428,-26324.521163048885,-34476.04590368818,-17091.507266939552
-19013.220848229037,-26334.177116653576,-34466.03232217221,-17087.14867677077
-19034.186784528112,-26343.02840745788,-34459.70677849135,-17091.864894850838
-19036.176089784632,-26338.75922426692,-34463.975961682314,-17087.01456630404
-19034.16443278365,-26334.73591026496,-34468.55806929566,-17089.741479127584
-19021.938028566605,-26322.59891302573,-34471.06146467465,-17092.915426840238
-19037.04780781839,-26329.662064273605,-34469.72036000733,-17091.216694261635
-19064.361639542774,-26343.83307025827,-34460.48908954729,-17078.47619992211
-19072.609433246784,-26343.34133188025,-34451.43663304289,-17073.201188230658
-19065.233357576533,-26334.2665236314,-34457.20338311236,-17072.66474636373
-19047.977810857035,-26320.65431125812,-34464.624162271524,-17084.66763313623
-19067.02149713296,-26334.02065444239,-34473.90013622047,-17097.92221759823
-19090.356718344297,-26342.380206868675,-34467.4851855618,-17088.154505271257
-19094.312977112888,-26335.07118643179,-34460.26557210273,-17082.365403457334
-19088.479171810053,-26328.92445670658,-34460.26557210273,-17088.37802271581
-19080.34313682832,-26327.49394506144,-34465.69704600538,-17095.128249541314
-19098.716270770583,-26338.803927755827,-34459.796185469175,-17094.81532511894
-19118.743433802538,-26345.59885807024,-34461.04788315867,-17088.37802271581
-19119.659855325208,-26340.346198123243,-34462.07606340362,-17085.56170291444
-19107.88048599726,-26330.57848579627,-34466.4346535724,-17076.308080709947
-19096.01170969149,-26325.325825849275,-34469.13921465149,-17076.46454292113
-19107.25463715251,-26334.73591026496,-34467.418130328435,-17088.28861573799
-19126.3653786618,-26346.09059644825,-34473.92248796493,-17091.730784384108
-19124.331369916366,-26340.21208765651,-34475.800034499174,-17089.22738900511
-19100.92909347166,-26322.01776766989,-34474.54833680968,-17080.532560411997
-19069.748409956504,-26303.957558150003,-34467.59694428408,-17074.765810342527
-19080.901930439704,-26319.67083450208,-34459.170336624426,-17080.465505178632
-19101.73375627205,-26333.75243350893,-34463.39481632648,-17087.461601193143
-19108.796907519925,-26341.30732313482,-34475.62122054353,-17095.2847117525
-19091.29549161142,-26329.282084617866,-34469.11686290704,-17086.209903503644
-19065.16630234317,-26316.072203644777,-34470.65913327446,-17084.354708713854
-19076.74450597101,-26328.388014839653,-34462.74661573728,-17079.19145574468
-19092.234264878545,-26338.334541122265,-34463.30540934866,-17082.47716217961
-19081.661889751183,-26328.052738672824,-34467.37342683953,-17092.401336717765
-19068.6531744782,-26320.09551764673,-34471.10616816356,-17095.396470474778
-19049.028342846435,-26310.0595843863,-34476.96232521085,-17096.71522339764
-19054.66098244917,-26320.3637385802,-34464.24418261578,-17087.66276689324
-19063.53462499793,-26324.297645604333,-34448.37444405251,-17075.995156287572
-19061.88059590824,-26322.844782214732,-34460.48908954729,-17084.444115691676
-19043.82038638835,-26311.288930331342,-34468.312200106644,-17093.76479312954
-19022.988560556005,-26301.76708719338,-34465.25001111627,-17102.794897889486
-19034.76792988395,-26314.284064088355,-34462.8360227151,-17097.564589686943
-19052.403456259188,-26326.376357838675,-34462.05371165916,-17088.109801782346
-19053.029305103937,-26325.8622677162,-34457.33749357909,-17083.0806592799
-19034.790281628404,-26312.25005534292,-34449.313217319635,-17081.22546449011
-19027.01187455796,-26317.70388099001,-34467.552240795165,-17091.0825837949
-19043.932145110623,-26336.702863777027,-34473.02841818672,-17088.84740934937
-19051.15175856969,-26340.07797718978,-34463.30540934866,-17086.165200014737
-19049.31891552436,-26337.64163704415,-34461.1819936254,-17079.057345277946
-19040.15470029768,-26335.764090509903,-34465.54058379419,-17080.57726390091
-19029.090586792303,-26333.35010210873,-34468.28984836219,-17088.04274654898
-19039.86412761976,-26338.267485888897,-34468.043979173184,-17081.00194704556
-19051.554089969886,-26342.179041168576,-34467.50753730626,-17075.90574930975
-19045.943802111604,-26335.138241665158,-34454.699987733366,-17070.13899924028
-19037.137214796214,-26333.908895720117,-34468.55806929566,-17085.919330825727
-19026.1401565242,-26327.270427616888,-34471.888479219495,-17088.020394804527
-19036.66782816265,-26328.92445670658,-34465.83115647211,-17089.115630282835
-19047.597831201296,-26333.283046875364,-34473.83308098711,-17097.29636875348
-19032.555107182878,-26321.078994402767,-34469.45213907387,-17083.393583702276
-19021.535697166408,-26315.066375144288,-34471.66496177494,-17078.587958644388
-19014.83017382981,-26312.74179372094,-34473.49780482028,-17087.707470382153
-19032.353941482776,-26323.135354892656,-34471.95553445286,-17083.57239765792
-19045.899098622693,-26328.94680845104,-34474.4365780874,-17088.266263993533
-19043.10513056578,-26328.052738672824,-34483.19846191388,-17098.391604231787
-19028.95647632557,-26323.850610715224,-34500.65517433348,-17115.848316651383
-19005.263627202945,-26313.92643617707,-34488.51817709424,-17111.84735439388
-19005.2859789474,-26315.87103794468,-34468.40160708447,-17093.451868707165
-19013.15379299567,-26319.02263391288,-34463.640685515486,-17092.356633228854
-19016.14892675268,-26328.142145650643,-34477.20819439986,-17106.885267124806
-18993.528961363907,-26318.73206123496,-34473.29663912018,-17104.24776127908
-18980.229673413,-26315.245189099933,-34473.00606644226,-17098.615121676343
-18993.461906130546,-26326.622227027685,-34468.91569720694,-17095.888208852793
-19001.01679575644,-26333.528916064373,-34473.7883774982,-17102.347863000377
-18987.67280431662,-26327.762165994904,-34485.99242997079,-17103.711319412152
-18953.69815274455,-26310.88659893115,-34492.139159696,-17110.282732282012
-18932.12871934518,-26304.96338665049,-34483.17611016943,-17102.459621722654
-18961.61067028173,-26333.215991642,-34468.06633091764,-17090.702604139162
-18970.216091897026,-26336.479346332475,-34464.02066517123,-17082.387755201788
-18955.75451323444,-26324.118831648688,-34475.91179322145,-17083.035955790994
-18926.943114631547,-26309.83606694175,-34480.91858397944,-17089.205037260657
-18902.15503003061,-26303.1081918607,-34483.19846191388,-17094.837676863393
-18912.12390805768,-26317.480363545463,-34481.387970613,-17093.921255340727
-18929.111233843712,-26332.1654596526,-34487.57940382712,-17104.359520001355
-18920.88579188416,-26324.342349093244,-34499.93991851091,-17117.301180040977
-18893.013166548397,-26307.60089249622,-34512.25572970578,-17111.176802060225
-18873.63420410564,-26297.58731098024,-34491.9379939959,-17096.447002464178
-18890.71093686949,-26311.937130920545,-34478.28107813372,-17090.702604139162
-18892.007338047904,-26314.574636766272,-34488.40641837197,-17095.91056059725
-18880.630300120152,-26310.21604659749,-34483.95842122536,-17098.615121676343
-18857.295078908814,-26300.11305810369,-34497.324764409634,-17110.2380287931
-18846.07450319225,-26307.310319818294,-34503.82912204613,-17117.100014340882
-18851.953011983995,-26317.88269494566,-34502.085685978614,-17120.072796353437
-18849.27080264936,-26318.620302512685,-34496.27423242023,-17119.804575419974
-18834.429244331037,-26313.010014654403,-34498.330592910126,-17121.749177187583
-18801.773345681828,-26298.66019471409,-34510.17701747144,-17125.660732467262
-18783.869598373127,-26298.30256680281,-34508.25476744828,-17125.3925115338
-18792.43031649951,-26312.11594487619,-34500.409305144465,-17123.71613069965
-18795.00076711187,-26318.0615089013,-34503.38208715702,-17126.06306386746
-18780.203912282457,-26315.02167165538,-34503.35973541257,-17127.784148190516
-18755.773455592807,-26308.02557564087,-34509.66292734897,-17130.62281973634
-18745.08932174317,-26314.35111932172,-34506.89131103651,-17137.171880861748
-18755.885214315083,-26331.740776507948,-34505.28198543572,-17139.183537862722
-18760.13204576159,-26340.100328934237,-34499.381124899526,-17128.566459246453
-18752.53245264679,-26336.278180632376,-34496.430694631425,-17119.983389375615
-18728.571382590697,-26320.1625728801,-34498.15177895448,-17119.46929925314
-18722.067024954205,-26322.800078725824,-34497.52593010973,-17128.90173541328
-18743.412940909024,-26341.26261964591,-34493.9943544858,-17131.315723814456
-18752.845377069163,-26344.190698169557,-34495.00018298628,-17132.589773248408
-18752.30893520224,-26343.520145835897,-34496.989488242805,-17133.573250004443
-18744.32936243169,-26340.413253356608,-34500.31989816665,-17132.969752904148
-18753.203004980445,-26349.44335811655,-34499.515235366256,-17131.516889514554
-18776.3817639806,-26364.35197166824,-34493.32380215214,-17131.539241259008
-18786.551807707765,-26367.391808914163,-34485.41128461496,-17128.432348779723
-18785.881255374105,-26362.519128622906,-34482.6396683025,-17124.81136617796
-18787.579987952708,-26366.60949785823,-34487.557052082666,-17124.05140686648
-18794.95606362296,-26375.05845726233,-34492.720305051844,-17127.71709295715
-18822.67222674754,-26390.905844081142,-34481.83500550211,-17116.228296307123
-18848.82376776025,-26400.58414943029,-34482.46085434686,-17119.91633414225
-18862.34657315571,-26402.03701281989,-34485.76891252624,-17119.156374830767
-18853.00354397339,-26389.94471906957,-34492.027400973726,-17112.04852009398
-18865.11818946817,-26400.31592849683,-34490.95451723987,-17113.09905208338
-18899.606931162707,-26419.918408384136,-34479.4880723343,-17110.327435770923
-18918.471803482986,-26420.208981062053,-34483.421979358434,-17112.24968579408
-18926.36196927571,-26412.698794925072,-34493.52496785223,-17124.967828389148
-18920.617570950697,-26398.907768596146,-34491.13333119552,-17118.329360285923
-18930.27352455539,-26398.907768596146,-34476.89526997748,-17103.24193277859
-18967.80210349585,-26414.956321115056,-34468.5357175512,-17098.95039784317
-18991.249083429462,-26423.69585319708,-34474.883612976504,-17106.19236304669
-19002.91669403514,-26426.445117765084,-34480.85152874608,-17103.756022901063
-18998.669862588627,-26415.313949026346,-34485.70185729288,-17112.182630560714
-19011.633874372703,-26416.94562637158,-34484.18193866991,-17109.3886625038
-19043.01572358796,-26425.4392892646,-34468.178089639914,-17092.311929739946
-19062.595851730806,-26425.305178797866,-34467.14990939497,-17090.747307628073
-19069.01080238948,-26420.633664206704,-34478.54929906718,-17102.370214744835
-19066.01566863247,-26414.352824014764,-34489.63576431701,-17105.76767990204
-19081.05839265089,-26421.72889968501,-34490.17220618394,-17111.780299160517
-19109.91449474269,-26431.3401498008,-34472.022589686225,-17094.01066231855
-19123.616114093795,-26430.535487000405,-34469.04980767367,-17085.852275592362
-19132.02037000899,-26428.099146854776,-34468.893345462486,-17097.788107131495
-19127.4159106512,-26420.454850251062,-34479.73394152331,-17104.225409534625
-19140.961067791115,-26427.18272533211,-34471.70966526385,-17097.05049956447
-19166.151483792244,-26433.776489946427,-34461.09258664758,-17093.51892394053
-19175.98625135258,-26430.78135618941,-34469.31802860714,-17093.161296029248
-19170.28655651648,-26423.07000435233,-34476.06825543264,-17096.201133275168
-19154.148597019743,-26414.64339669268,-34474.05659843166,-17088.42272620472
-19161.859948856825,-26417.4373647496,-34462.321932592626,-17084.37706045831
-19190.58194048189,-26430.9378184006,-34455.01291215574,-17082.2312929906
-19199.679100475205,-26429.686120711103,-34462.29958084817,-17077.850351077363
-19191.18543758219,-26418.040861849888,-34471.15087165247,-17081.448981934667
-19175.71803041912,-26407.93787335609,-34474.4365780874,-17088.355670971356
-19188.03384161399,-26417.347957771774,-34462.70191224836,-17079.705545867153
-19206.22816160061,-26423.22646656352,-34449.20145859736,-17070.966013785128
-19211.458469803158,-26418.823172905824,-34459.729130235806,-17069.28963295098
-19205.669367989227,-26412.140001313688,-34465.56293553864,-17072.709449852642
-19184.301100289955,-26398.348974984765,-34474.905964720965,-17078.967938300128
-19184.010527612038,-26401.120591297225,-34469.34038035159,-17082.566569157432
-19201.377833053808,-26412.162353058146,-34460.26557210273,-17067.03210676099
-19207.546914523475,-26414.375175759214,-34466.97109543933,-17064.707525337642
-19195.99106264008,-26405.74740239947,-34471.73201700831,-17068.194397472667
-19171.918233861717,-26389.65414639165,-34463.14894713747,-17071.32364169641
-19175.807437396936,-26396.27026275042,-34459.43855755789,-17073.87174056432
-19198.67327197472,-26412.698794925072,-34456.26460984524,-17061.220653202614
-19199.030899886,-26409.726012912517,-34461.71843549233,-17061.488874136077
-19180.814228154926,-26396.896111595168,-34465.98761868329,-17067.456789905642
-19153.1204167748,-26380.28876546488,-34466.05467391666,-17059.141940968268
-19158.797759866447,-26391.41993420362,-34468.80393848466,-17069.46844690662
-19178.84727464286,-26407.110858811244,-34471.57555479712,-17079.884359822794
-19172.968765851117,-26399.734783140997,-34459.662075002445,-17073.961147542137
-19152.13694001877,-26389.18475975809,-34471.329685608114,-17079.884359822794
-19125.471308883585,-26381.294593965365,-34473.989543198295,-17087.483952937597
-19123.97374200508,-26388.26833823542,-34458.320970335124,-17076.643356876775
-19137.161271233712,-26401.411163975143,-34452.107185376546,-17067.814417816928
-19131.819204308893,-26400.248873263467,-34458.27626684622,-17066.562720127433
-19110.18271567616,-26387.44132369057,-34465.026493671714,-17077.71624061063
-19081.86305545128,-26372.28684094988,-34468.42395882892,-17089.070926793924
-19077.25859609349,-26374.18673922858,-34471.77672049722,-17095.038842563492
-19090.960215444597,-26389.05064929136,-34466.099377405575,-17091.95430182866
-19088.322709598862,-26391.732858625997,-34465.13825239399,-17086.053441292457
-19063.73579069803,-26379.99819278696,-34472.60373504207,-17089.115630282835
-19042.702799165585,-26375.483140406985,-34477.36465661105,-17102.57138044493
-19040.0429415754,-26381.629870132198,-34473.363694353546,-17106.259418280057
-19043.82038638835,-26386.70371612355,-34456.018740656225,-17089.607368660854
-19030.38698797071,-26381.60751838774,-34463.61833377103,-17085.673461636718
-19005.19657196958,-26369.716390337515,-34455.57170576712,-17072.28476670799
-18974.3288128768,-26356.372398897696,-34458.92446743542,-17080.84548483437
-18965.94690870606,-26360.88745127767,-34453.69415923287,-17084.75704011405
-18981.459019358044,-26383.59682364426,-34459.84088895808,-17088.690947138184
-18979.357955379244,-26389.40827720264,-34473.63191528701,-17100.00092983257
-18952.4241033106,-26378.50062590845,-34478.10226417807,-17103.130174056314
-18910.626341179173,-26360.574526855296,-34470.01093268525,-17090.4343832057
-18902.669120153085,-26367.861195547724,-34463.12659539301,-17083.639452891286
-18899.67398639608,-26374.41025667313,-34464.7359209938,-17087.215732004133
-18878.12690474116,-26365.60366935774,-34470.45796757436,-17090.747307628073
-18849.62843056064,-26356.93119250908,-34480.270383390234,-17089.786182616495
-18823.38748257011,-26354.718369808004,-34488.78639802771,-17097.072851308927
-18819.38652031261,-26363.569660612306,-34481.611488057555,-17099.218618776635
-18814.603246999177,-26366.16246296912,-34480.426845601425,-17097.609293175854
-18790.61982519863,-26359.3228291658,-34480.136272923504,-17102.593732189387
-18752.44304566897,-26343.855422002725,-34484.15958692546,-17101.52084845553
-18716.590847562653,-26336.30053237683,-34492.5414910962,-17102.929008356215
-18711.40524284902,-26350.35977963922,-34504.99141275781,-17104.895961868282
-18709.12536491458,-26360.239250688464,-34502.01863074525,-17104.67244442373
-18689.545236771733,-26357.35587565373,-34503.851473790586,-17110.48389798211
-18656.41995148897,-26345.800023770335,-34505.70666858037,-17121.682121954218
-18627.92147730845,-26344.436567358563,-34507.83008430363,-17128.834680179916
-18617.97495102584,-26355.21010818602,-34496.96713649835,-17122.442081265697
-18612.09644223409,-26361.2227274445,-34493.97200274134,-17115.870668395837
-18593.49979084728,-26355.098349463744,-34499.11290396606,-17118.68698819721
-18559.838063697585,-26344.280105147376,-34510.10996223807,-17127.448872023688
-18521.23660102327,-26333.238343386456,-34518.89419780901,-17141.82104370845
-18510.261894495718,-26340.904991734624,-34517.262520463766,-17151.901680457795
-18507.914961327908,-26350.85151801724,-34514.2003314734,-17144.81617746546
-18502.03645253616,-26359.434587888078,-34515.384973929526,-17139.518814029554
-18478.857693536007,-26353.26550641841,-34503.11386622356,-17141.798691963995
-18454.673106035367,-26351.1197389507,-34517.41898267496,-17155.969697948658
-18453.913146723884,-26361.870928033703,-34501.526892367234,-17139.183537862722
-18464.910204995896,-26375.1255124957,-34491.26744166225,-17127.806499934974
-18461.46803634978,-26378.83590207528,-34498.73292431032,-17129.035845880015
-18444.45835881929,-26377.628907874696,-34507.38304941452,-17130.511061014065
-18430.64498074591,-26380.445227676064,-34499.82815978863,-17127.404168534777
-18455.678934535856,-26406.194437288577,-34500.52106386674,-17131.092206369904
-18485.205588961315,-26430.379024789218,-34492.854415518574,-17130.712226714164
-18494.772135588188,-26435.92225741413,-34482.036171202206,-17122.643246965796
-18498.6166356345,-26435.94460915859,-34497.145950454,-17136.68014248373
-18510.105432284527,-26444.125347629237,-34501.750409811786,-17139.63057275183
-18547.745769947265,-26467.751141518493,-34494.55314809718,-17126.040712123002
-18580.31226161865,-26476.49067360052,-34480.628011301524,-17117.3905870188
-18604.876828775028,-26477.20592942309,-34478.325781622625,-17131.00279939208
-18608.766032310254,-26465.873594984245,-34483.75725552526,-17132.18744184821
-18627.273276719246,-26474.166092177165,-34483.80195901418,-17111.132098571314
-18686.17012335898,-26508.096040260323,-34476.00120019927,-17105.588865946396
-18732.728807059382,-26522.311749733897,-34460.48908954729,-17109.098089825882
-18765.004726052848,-26523.786964867948,-34472.380217597514,-17138.356523317878
-18773.990127323883,-26510.06299377239,-34476.76115951075,-17120.43042426472
-18787.803505397264,-26500.31763318988,-34465.62999077201,-17108.494592725587
-18845.18043341404,-26519.607188654805,-34455.52700227821,-17113.993121861593
-18889.995681046927,-26522.60232241181,-34454.074138888616,-17096.49170595309
-18926.22785880898,-26525.463345702094,-34462.29958084817,-17092.848371606873
-18950.14422537616,-26524.59162766834,-34466.54641229468,-17109.746290415085
-18972.071286686813,-26523.83166835686,-34468.11103440655,-17114.48486023961
-19017.870011075735,-26535.521630706982,-34456.91281043444,-17103.130174056314
-19051.039999847413,-26532.63825567225,-34454.118842377524,-17094.52475244102
-19069.368430300765,-26525.575104424373,-34466.859336717054,-17090.188514016692
-19071.938880913127,-26513.214589740583,-34467.95457219536,-17098.391604231787
-19078.48794203853,-26504.87738905876,-34452.26364758774,-17096.111726297346
-19121.44799488163,-26523.362281723297,-34453.82826969961,-17106.32647351342
-19148.98534405057,-26525.82097361338,-34458.253915101755,-17107.77933690302
-19158.104855788333,-26517.68493863165,-34476.9399734664,-17114.238991050603
