 EXG Channel 0, EXG Channel 1, EXG Channel 2, EXG Channel 3
-8831.55421394756,-5385.652826506237,-21636.533336226148,-19402.431774429297
-10779.665205438758,-6540.880386934327,-21254.20674731812,-19900.294530426807
-8259.193093680513,-4638.5681198320535,-20795.727765050862,-18197.091602932407
-3522.3890569673845,-982.7391484664856,-20811.776317569773,-15224.175479909836
-4132.166997452617,-1676.76081380377,-21544.757073492656,-16269.70067855128
-8866.579397509027,-5432.926766029211,-21637.13683332644,-19433.835975389004
-10767.192932032696,-6557.890064464816,-21254.117340340297,-19908.60937936418
-8205.303037798767,-4625.738218514707,-20794.2078464279,-18189.447306328693
-3479.7195768022034,-975.631293729698,-20829.54595441174,-15223.974314209738
-4159.749050110466,-1723.0065730818003,-21568.047591215087,-16311.118461026965
-8891.56864781006,-5470.276531014029,-21648.13389159845,-19463.85436819248
-10748.84214983489,-6556.168980141757,-21255.972535130088,-19911.202181720997
-8158.833761076184,-4603.095901381481,-20812.40216641452,-18172.57173926493
-3440.402858305318,-953.3019010188464,-20850.668352922006,-15215.704168761276
-4186.057053334362,-1748.5546169942163,-21571.64622207239,-16345.09311259903
-8911.014665486176,-5484.983978865621,-21640.04256010563,-19480.104086411488
-10747.143417256286,-6556.459552819676,-21255.68196245217,-19915.31490270077
-8131.855205518628,-4584.163973827836,-20807.998872756823,-18160.859425170354
-3407.9928288451238,-933.3194414758016,-20842.867594107105,-15197.040462141093
-4239.768295260465,-1796.4544053619393,-21577.189454697305,-16389.506028831725
-8960.300262010129,-5517.908098448289,-21638.746158927224,-19504.601598334502
-10741.26490846454,-6545.730715481129,-21252.53036648397,-19896.874713525143
-8080.401489782512,-4542.075639018493,-20820.873477563084,-18118.368758960816
-3379.203781986688,-907.9502115190282,-20864.50408273984,-15173.369964762924
-4275.151106733216,-1827.0539435212545,-21595.18260898383,-16403.81114528312
-8988.172887345898,-5540.259842903596,-21659.108598126008,-19505.2050954348
-10735.40875141725,-6539.986317156115,-21267.327221313382,-19886.07882095323
-8032.2334804813245,-4505.575240322976,-20821.29816070773,-18083.25416842153
-3334.5673483094392,-881.3516356172128,-20875.389382289577,-15147.3748859614
-4312.880851373774,-1864.046080594788,-21607.81134460108,-16435.528270665203
-9019.152405160952,-5569.093593250942,-21647.37393228697,-19518.794956063623
-10733.195928716175,-6554.179674885235,-21246.92007862569,-19883.01663196285
-7993.162631173448,-4494.55583030651,-20800.91336976449,-18062.891729222745
-3309.8239671974147,-880.2340483944474,-20859.4749402374,-15136.958973045228
-4363.261683376037,-1926.3403923917283,-21575.401315140884,-16473.995622872786
-9060.190207980895,-5620.614364220424,-21619.07662380655,-19546.53347093266
-10724.74696931207,-6562.941558711715,-21241.9132878677,-19888.068126209757
-7955.209369088337,-4481.725928989164,-20814.83850656015,-18054.10749365181
-3284.968827363113,-881.4857460839446,-20895.774173232818,-15142.301039970049
-4420.526852670533,-1991.451023990038,-21633.8064234026,-16537.496928870314
-9099.931609622432,-5658.701736772267,-21672.13966514345,-19576.39540152495
-10695.175611397695,-6545.976584670137,-21274.94916617265,-19860.240204362894
-7885.360167665502,-4435.055486566483,-20838.911335338515,-18009.538115207924
-3233.470408138085,-847.153466600593,-20918.52824908832,-15127.817109563008
-4445.896082627307,-2016.820253946812,-21655.42056029088,-16578.22180726788
-9116.807176686189,-5665.943701975787,-21669.323345342083,-19595.68495698988
-10681.250474602042,-6526.128235593825,-21266.097875368345,-19862.184806130503
-7841.282527599636,-4395.403491902768,-20844.78984413026,-17998.295187746906
-3207.4529775921083,-824.1982250449927,-20933.79449055129,-15131.61690612041
-4501.574278065476,-2055.108792198753,-21679.67220302489,-16637.141005652073
-9166.67391856598,-5687.155507463874,-21705.26495042621,-19631.40304462946
-10695.510887564527,-6517.589869211897,-21293.814038492925,-19873.047753935785
-7819.713094200265,-4358.523113551511,-20869.5779287312,-17989.667414387157
-3204.4354920906417,-799.9465823109845,-20961.264784486862,-15137.4730631677
-4580.788860415085,-2092.838536839311,-21687.47296183979,-16684.034965519306
-9241.574614235711,-5721.42073171386,-21698.648834067444,-19661.488492666304
-10726.199832701664,-6524.541261737498,-21291.131829158287,-19884.26832965235
-7813.991047619706,-4342.09458137686,-20860.637230949076,-17985.8452660853
-3202.312076367388,-789.5530211392667,-20955.274516972844,-15140.669362624809
-4628.442779593799,-2121.716990675568,-21691.38451711947,-16724.290457283314
-9278.92437922053,-5738.4080574998925,-21703.454459125336,-19685.449562722395
-10722.511794866536,-6513.030113343015,-21284.426305821697,-19877.11577142665
-7771.075698265517,-4304.655409414221,-20856.971544858403,-17954.396361636682
-3170.237323074022,-767.7600702953423,-20948.166662236057,-15125.961914773216
-4666.35133819,-2164.028842929464,-21648.37976078746,-16764.83652172524
-9288.356815380672,-5755.373031541471,-21643.95411538531,-19700.58169371864
-10685.20673337063,-6500.110805047847,-21238.53817445495,-19878.32276562724
-7701.002979398129,-4262.835295538342,-20818.750061839823,-17934.793881749378
-3153.6970321770946,-763.96027373794,-20945.61856336815,-15137.070731767504
-4722.498920261732,-2217.695381366656,-21663.73540922825,-16812.289275203857
-9300.69497832,-5773.187371872351,-21644.892888652437,-19699.642920451515
-10674.58965475436,-6499.753177136562,-21239.20872678861,-19856.865090950145
-7678.628883198367,-4255.861551268286,-20819.35355894012,-17909.96109365953
-3116.5484328923744,-744.8942357175632,-20928.698292815483,-15110.919190754796
-4739.575653025586,-2236.0685153089184,-21645.228164819266,-16827.823737600298
-9324.253716975894,-5793.326293626582,-21625.46922272077,-19717.121984615565
-10649.689811431148,-6486.744461863574,-21210.28556946344,-19848.393779801583
-7607.237411408117,-4208.408797789669,-20791.235064415345,-17870.82318911829
-3069.0286241803915,-724.1741686074935,-20919.57878107772,-15095.496487080633
-4778.512391866731,-2289.176260134728,-21635.862783892488,-16872.124895110715
-9349.488836465936,-5827.747980087755,-21610.38179521344,-19739.76430174879
-10628.05332279841,-6493.3829299668,-21200.16022922519,-19851.321858325227
-7557.951814884164,-4193.656646449166,-20781.44500034392,-17859.02146804589
-3039.814894177305,-720.0390958832617,-20912.56033331875,-15097.575199314975
-4822.925308099426,-2339.17711248125,-21647.150414842417,-16919.197668933593
-9388.80555496282,-5854.413611222936,-21622.94347559732,-19757.086903701653
-10631.204918766609,-6483.749328106562,-21213.504220665007,-19845.30923906675
-7520.691456877167,-4155.412811686136,-20801.78508779825,-17836.937944524045
-3023.051085835825,-704.2140608089043,-20942.914002289057,-15098.55867607101
-4884.794936751716,-2385.2217060591825,-21654.90647016841,-16973.400649237712
-9439.722828832011,-5887.6730069724335,-21602.2010567428,-19791.44153492946
-10620.163157005689,-6468.639548854774,-21163.68218227413,-19835.429768017504
-7478.491363345548,-4117.884232745675,-20755.047590142203,-17807.2548278874
-3010.243536262934,-688.4560809679128,-20920.91988574504,-15093.194257401736
-4925.83273957166,-2411.395598816347,-21644.244688063227,-17004.626036241774
-9463.147457021172,-5898.290085588705,-21591.31575719306,-19807.735956637374
-10603.734624831037,-6456.435496382177,-21157.53545254892,-19836.860279662644
-7430.725685444557,-4080.243895082938,-20759.56264252217,-17794.0002434254
-2987.556515640797,-667.2442754798265,-20917.231847909912,-15094.200085902225
-4967.652853447539,-2444.7444015436654,-21621.24474301872,-17048.14488269626
-9481.83351538581,-5913.869251474053,-21567.287631903608,-19827.472546991416
-10592.067014225366,-6455.384964392778,-21145.554917520876,-19848.192614101485
-7381.685958109612,-4047.833865622743,-20747.26918307176,-17779.47160952945
-2962.924893251049,-649.0499554932065,-20924.51851660234,-15101.263237150102
-5019.799473261771,-2489.045559054084,-21643.104749096008,-17103.4878019676
-9503.827631929831,-5932.421199371958,-21568.181701681817,-19842.761140198843
-10563.61324353376,-6439.291708384956,-21136.86008892776,-19829.39479701457
-7331.528643551904,-4010.84172854921,-20735.2439445548,-17745.854585868667
-2938.2038638834792,-628.6428128055111,-20899.46221106794,-15080.74433574013
-5050.242549209899,-2511.68787618731,-21614.449812704304,-17119.022264364037
-9528.861585719776,-5946.41339140098,-21536.509279788646,-19851.433617047504
-10538.042847876888,-6413.4977952835325,-21100.06911755432,-19808.272398504305
-7268.384965465661,-3954.113001121641,-20709.38297622001,-17702.045166736265
-2895.355569762656,-587.1132716075506,-20881.536112014783,-15061.521835508567
-5075.276502999843,-2526.395324038902,-21578.284690175617,-17145.263212354566
-9540.216271903071,-5947.866254790575,-21500.45591598224,-19851.16539611404
-10535.405342031165,-6411.530841771465,-21069.201358461545,-19804.696119391458
-7249.34127918974,-3945.172303339518,-20685.131333486,-17683.604977560637
-2908.4983955023763,-606.2687166057488,-20872.863635166126,-15061.007745386094
-5149.417239358097,-2592.802356815619,-21580.095181476496,-17184.334061662445
-9585.053871280415,-5986.691234909444,-21501.21587529372,-19869.784399245316
-10526.688161693592,-6411.083806882359,-21074.18579747508,-19804.33849148017
-7203.564906545271,-3910.638858156068,-20692.842685323085,-17668.562253542215
-2888.135956303592,-588.8567076750645,-20894.90245519906,-15067.93678616724
-5192.131423012188,-2622.2843077521693,-21603.676271876844,-17223.114338292402
-9626.00226712254,-6002.963304872907,-21511.900009143355,-19886.88348375362
-10533.70660945256,-6400.690245710641,-21075.72806784249,-19794.839000086668
-7182.956598157478,-3881.581590364169,-20702.163362760944,-17642.097788107134
-2883.598552179164,-577.5020214917686,-20898.27756861181,-15062.773533198064
-5255.811542965358,-2673.6486165104648,-21590.108762992477,-17270.455333048743
-9659.172255894217,-6030.187729619472,-21476.65130813733,-19902.82027755025
-10518.37331275622,-6393.940018885139,-21035.338465611752,-19784.288976703763
-7125.445559673973,-3837.7051159984017,-20665.171225687413,-17602.71401437688
-2871.6627206400303,-564.8732858745201,-20876.81989393472,-15066.573329755463
-5305.343008678318,-2706.326866904124,-21571.534463350115,-17313.191868447288
-9672.806820011952,-6030.902985442041,-21475.53372091457,-19906.50831538538
-10481.291768704865,-6361.7311551250405,-21036.34429411224,-19767.68163057347
-7063.6429862550485,-3789.090071808109,-20664.32185939811,-17578.305909431685
-2837.7774760457846,-544.1755705089057,-20881.469056781418,-15058.906681407296
-5329.996982812522,-2728.6786113594308,-21569.478102860223,-17332.682589612315
-9700.835907558909,-6053.00886070834,-21465.52013939859,-19924.479117927447
-10468.35010866524,-6355.852646333296,-21025.168421884588,-19761.33373514816
-7020.392360734029,-3758.3564231820615,-20655.51527208272,-17552.601403308083
-2831.3401736426563,-542.6780036304002,-20885.87235043912,-15069.121428623372
-5381.920085182201,-2770.3869665130337,-21580.76573381016,-17382.59403498102
-9732.105998051882,-6060.161418934038,-21485.99433731965,-19935.118548288174
-10463.365669651708,-6334.685544334119,-21031.181041143067,-19749.19673790893
-6982.103822482089,-3714.658762771936,-20659.315068640124,-17520.861926181547
-2819.069065936693,-529.9598610353305,-20898.99282443438,-15066.618033244376
-5441.129856244309,-2817.9738304583825,-21593.930911294334,-17427.92337273638
-9770.752164215108,-6088.101099503172,-21503.89808462836,-19956.57622296527
-10458.69415506055,-6331.489244877011,-21064.462788637014,-19751.498967587828
-6950.699621522382,-3695.6150764960144,-20708.175982019424,-17507.428527763906
-2815.2916211237457,-535.6148523825232,-20945.082121501226,-15068.473228034169
-5504.497051775104,-2873.85319159665,-21619.121327295463,-17467.68712612237
-9810.493565856645,-6112.509204448367,-21517.465593512727,-19963.77348467988
-10451.921576490591,-6322.146215694692,-21077.71737309901,-19734.891621457533
-6905.325580278109,-3659.58406443406,-20706.25373199627,-17474.616166903517
-2797.7902052152403,-526.2718232002048,-20947.67492385804,-15062.706477964695
-5528.011086942088,-2896.540212218787,-21632.062987335084,-17485.56852168662
-9828.866699798906,-6129.608288956677,-21521.39950053686,-19977.67626973108
-10430.30743960231,-6313.227869657025,-21074.386963175173,-19738.28908661474
-6857.515198888207,-3626.950517529311,-20725.833860139115,-17467.485960422273
-2794.7950714582294,-528.5517011346461,-20976.799246883304,-15096.50231558112
-5588.293741738051,-2945.758753509373,-21642.836528162545,-17562.749095290794
-9850.167912264817,-6137.386696027123,-21508.34608177496,-20009.952188724543
-10409.028578880856,-6294.094776403282,-21052.817529775803,-19741.328923860663
-6806.664980252383,-3583.409319330373,-20693.3344237011,-17443.144910710445
-2777.114841594081,-508.81511078061,-20960.10249377519,-15094.736527769152
-5635.902957427855,-2980.5157161373754,-21637.315647282085,-17599.741232364326
-9873.994871854173,-6155.044574146817,-21525.60162849446,-20020.16693594062
-10382.80998263478,-6277.465078528533,-21080.98072778949,-19722.419348051477
-6751.210302258766,-3542.1032955769656,-20733.96989512085,-17404.78931722514
-2759.814591385674,-497.3486658750375,-21019.625189259677,-15083.98533868615
-5666.569550820536,-3003.5380129263417,-21677.8170082351,-17618.24847677332
-9891.943322651783,-6164.767582984875,-21523.657026726847,-20025.888982521177
-10358.37952594513,-6259.04724109736,-21058.56192810082,-19712.38341479104
-6694.883906231393,-3495.6116671099267,-20716.4908309568,-17380.068287857568
-2740.234463242825,-479.5790290330683,-21002.0567181178,-15092.769574257083
-5703.293466960606,-3032.9976121184363,-21658.616859747992,-17655.48648303586
-9899.185287855302,-6168.209751630992,-21528.663817484838,-20026.850107532755
-10342.509787381863,-6250.106543315237,-21079.483160910982,-19703.532123986737
-6650.001603365136,-3465.459163839718,-20735.17688932144,-17343.567889162052
-2726.935175291917,-477.3215028430823,-21019.04404390384,-15073.88235019235
-5761.653871733412,-3087.625275567207,-21663.33307782806,-17689.371727630107
-9929.20368065878,-6191.0308827198605,-21511.0282911096,-20039.81411931683
-10305.070615419225,-6223.887947069162,-21057.444340878053,-19679.57105393065
-6590.076576480458,-3422.409704018796,-20713.76391813325,-17312.05192948007
-2727.9857072813165,-484.4070058354147,-21007.1082123647,-15090.690862022742
-5825.289288197671,-3143.817561127849,-21670.686801753855,-17742.03243756681
-9950.214320446768,-6206.699455583032,-21526.22747733921,-20034.896735536666
-10280.03666162928,-6207.951153272528,-21062.31702116931,-19651.9890012728
-6539.67339273374,-3385.5740291564503,-20720.916476358947,-17277.36202208543
-2718.9556025213724,-478.70731099931135,-21024.31905559529,-15091.98726320115
-5860.537989203691,-3172.8524771752927,-21660.62851674897,-17766.261728556365
-9981.842038851028,-6228.5371099158665,-21516.88444815689,-20061.20473876056
-10265.195103310956,-6197.892868267641,-21051.9681634865,-19649.351495427072
-6502.547145193475,-3354.438049130207,-20712.176944276925,-17247.36598102641
-2719.0226577547382,-480.6519127669231,-21016.09361363573,-15085.281739864558
-5911.365856095059,-3217.667724808184,-21650.23495557725,-17782.51144677537
-10011.07812059857,-6257.102639329749,-21498.77953514809,-20040.26115420594
-10264.636309699574,-6212.913240541607,-21033.192698144045,-19629.32433239512
-6461.062307484425,-3338.054220444468,-20701.89514182748,-17204.517686905587
-2721.2131287113584,-503.7636165337106,-21025.190773629045,-15075.894007193328
-5975.761231870799,-3287.382815764286,-21667.24463310774,-17810.026444199855
-10037.207309866824,-6287.456308300056,-21504.09925032845,-20012.27677014789
-10248.587757180663,-6210.946287029539,-21035.271410378387,-19555.027133825675
-6430.79804549194,-3327.191272639188,-20714.501525700274,-17113.747252672583
-2735.4288381849337,-527.9258522898975,-21055.477387365983,-15022.4956896896
-6030.768874975309,-3338.031868700012,-21685.595415305543,-17769.43567626902
-10100.328636208613,-6335.4455036456,-21525.31105581654,-19975.99988889693
-10269.307824290732,-6230.906394828128,-21067.16734971611,-19502.74640354472
-6412.022580149482,-3315.1213306333225,-20744.274049314743,-17034.689132534164
-2759.121687307559,-549.3164717336264,-21099.353861731757,-14979.15565719076
-6122.388675497613,-3410.898555624313,-21726.096776258564,-17771.067353614253
-10163.829942206135,-6377.533838454943,-21549.294477617084,-19937.957219834
-10296.688711248484,-6248.340755503268,-21076.68919285407,-19444.94479238329
-6411.597897004831,-3309.3098770749425,-20763.83182571314,-16966.18103577865
-2803.445196562433,-582.9781988833188,-21123.60550446576,-14958.726162758609
-6204.598391604232,-3477.4620506122174,-21747.621506169024,-17776.275310072342
-10211.193288706934,-6417.766978474496,-21575.781294796623,-19914.93492304503
-10296.241676359376,-6260.790677164874,-21095.419954707617,-19402.677643618303
-6381.579504201353,-3306.4041502957525,-20769.710334504885,-16912.87212525274
-2813.2352606338577,-617.131664411028,-21126.46652775604,-14946.34329633037
-6265.126915589204,-3550.8428276589907,-21737.67497988641,-17800.705766761992
-10254.17569329449,-6474.428650668699,-21558.436341099303,-19918.891181813626
-10280.46134477393,-6276.168677350125,-21082.54534990136,-19378.44835262875
-6335.691372834608,-3291.65199895525,-20762.624831512552,-16875.947043412572
-2813.995219945338,-636.4659233648686,-21127.584114978807,-14944.353991073847
-6298.542773549888,-3590.830098489535,-21730.790642594176,-17814.80971751329
-10260.724754419894,-6481.648264127764,-21545.33821884849,-19915.381957934136
-10262.155266065034,-6262.958796377039,-21066.049762493345,-19372.860416514923
-6288.417433311633,-3248.244911223044,-20760.54611927821,-16849.683743677586
-2823.8076357612176,-638.2317111768378,-21143.3420948198,-14968.516226830034
-6382.115946068281,-3646.664756138892,-21736.467985685824,-17881.239102034462
-10314.2348306459,-6500.356674236856,-21545.204108381764,-19933.710388387488
-10262.043507342758,-6242.708115900531,-21060.283012423875,-19354.934317461768
-6269.932540647094,-3220.931079498658,-20757.528633776743,-16821.60995264172
-2845.3323656716784,-645.1384002135278,-21141.866879685746,-14968.382116363302
-6433.3684961043,-3672.9057041294222,-21732.28820947268,-17890.582131216783
-10350.95874678597,-6512.71718892064,-21533.31298033154,-19930.51408893038
-10253.438085727465,-6225.452569181034,-21044.256811649426,-19335.980038163667
-6227.844205837751,-3172.0254626304463,-20731.10887183057,-16783.477876600966
-2850.763839574318,-637.3376413986256,-21129.0369783684,-14976.741668789587
-6486.565647907931,-3702.097082388053,-21720.21826746682,-17937.721960273026
-10368.460162694477,-6505.05054057247,-21519.611360980434,-19945.33329550425
-10230.862823827603,-6188.6839495520535,-21037.59599180174,-19338.885764942857
-6178.960940713995,-3115.944935792081,-20746.196299337906,-16775.74417301943
-2844.482999382377,-618.7186382673548,-21142.716245975047,-15004.63664586981
-6524.563613481952,-3718.7044285183465,-21727.840212326075,-17990.38267020973
-10366.940244071511,-6483.659921128741,-21526.16042210584,-19960.308964289303
-10175.96693944537,-6134.659783203577,-21028.320017852788,-19324.178317091264
-6103.523803177333,-3052.197760605545,-20729.276028785232,-16752.766579719377
-2825.059333450715,-602.6477340039891,-21131.76389119195,-15024.30618099048
-6556.146628397301,-3743.626623586014,-21694.178485176384,-18034.77323469797
-10356.390220688609,-6473.9592640351375,-21491.470514711204,-19969.450827771525
-10114.320828237633,-6094.203125739471,-21019.78165147086,-19318.702139699715
-6001.555144972223,-2978.504059136398,-20727.286723528712,-16725.810375906276
-2778.858277661596,-575.6021232130674,-21139.162318606654,-15043.819253899965
-6552.682108006729,-3744.610100342048,-21705.555523104136,-18074.20171191713
-10345.415514161054,-6463.0963162298585,-21496.611415935924,-19998.19517114105
-10060.967214222816,-6055.176979920505,-21023.58144802826,-19326.12291885888
-5923.033466700729,-2919.8530816856724,-20735.57922072163,-16715.84149787921
-2765.380175755045,-570.5059254772575,-21155.657906014672,-15084.857056719908
-6585.673282822762,-3772.348615211084,-21721.15704073394,-18137.703017914657
-10350.779932830326,-6460.458810384132,-21524.439337782784,-20027.431252888597
-10027.529004517675,-6024.108055127627,-21041.373436614685,-19334.996561407635
-5872.406765509459,-2876.669511398019,-20768.52569204875,-16709.962989087464
-2775.103184593104,-582.0170738717406,-21211.96195029759,-15117.423548391287
-6643.072562583991,-3816.09097911012,-21761.144311564483,-18186.675690016236
-10375.81388662027,-6466.382022664789,-21535.749320477167,-20036.841337304275
-10002.495050727732,-5993.262647779304,-21049.35300938523,-19322.25606706811
-5824.954012030842,-2827.7862462742623,-20795.01250922829,-16689.555846399766
-2782.0769288631595,-571.0200155997295,-21260.129959598777,-15141.630487636388
-6682.523391547607,-3822.796502446712,-21805.95955919737,-18218.236353187127
-10401.741910188426,-6460.2799964284895,-21591.13694323742,-20053.67220087912
-9988.07817555406,-5962.081964264151,-21096.04580355237,-19323.97715139117
-5795.427357605381,-2776.64545496052,-20816.380776927566,-16681.129238740115
-2804.071045407182,-558.6595009159447,-21261.78398868847,-15170.330127517002
-6738.939194552803,-3844.52239805727,-21794.895445692,-18269.175978800773
-10409.475613769962,-6445.058458454426,-21569.522806349138,-20067.21735801904
-9940.178387186335,-5914.338638107614,-21081.204245234043,-19311.504877985102
-5713.84349034351,-2704.5387273476995,-20812.91625653699,-16648.942726724476
-2788.536583010743,-544.7120123758331,-21261.73928519956,-15194.134735361904
-6772.444459491308,-3875.837192039155,-21781.417343785448,-18327.49168008467
-10406.972218390967,-6446.623080566297,-21552.915460218843,-20090.88785539721
-9889.19405808378,-5883.180306336917,-21059.1207217122,-19305.089927326437
-5643.949585431765,-2656.326014557602,-20799.706375563903,-16625.786319468774
-2783.7086062083968,-547.2824629881934,-21267.573090502392,-15214.698340260786
-6803.848660451014,-3908.358980221627,-21761.85956738705,-18368.037744526595
-10392.085956583736,-6445.483141599077,-21523.14293660437,-20102.17548634714
-9832.241813211658,-5854.860646112043,-21039.942924969542,-19312.175430318766
-5572.446354919238,-2605.5428511551445,-20771.856101972597,-16613.314046062715
-2777.1818968274474,-546.2542827432493,-21237.86762212129,-15241.475730118244
-6830.111960186,-3933.236471800384,-21744.179337522903,-18405.96865486725
-10396.042215352323,-6446.287804399468,-21498.64542468136,-20113.64193125271
-9793.863867981896,-5830.430189422392,-21003.82250592977,-19293.444668465218
-5512.476624545649,-2566.9637402252843,-20761.70840998989,-16588.14598180604
-2778.0089113722934,-553.6974136468666,-21255.54785198544,-15266.442628674822
-6856.64348085445,-3959.16449536854,-21754.61760218353,-18442.22318437376
-10391.303645527798,-6445.974879977093,-21509.888352142378,-20123.54375404641
-9749.093323837917,-5800.076520452085,-21003.04019487384,-19292.28237775354
-5452.50689417206,-2518.7286756907315,-20755.874604687047,-16578.579435179166
-2783.887420164039,-562.6828149179,-21245.489566980552,-15305.625236704976
-6891.623960927005,-3992.31213239576,-21719.055976755142,-18493.92276929889
-10398.031520608843,-6454.312080658923,-21468.716438855703,-20145.89549850172
-9706.133270994816,-5777.434203318859,-20967.567976423263,-19290.38247947484
-5387.7985939739465,-2481.133041516905,-20731.66766544195,-16560.295708214726
-2785.943780653928,-575.3562540240591,-21243.92494486868,-15335.487167297266
-6933.108798636055,-4027.136150257129,-21734.903363573954,-18538.38038902049
-10404.558229989796,-6453.619176580808,-21485.63670940837,-20163.55337662141
-9664.380212352302,-5741.447894745815,-20987.68454643304,-19288.70609864069
-5336.791913126936,-2432.406238604336,-20762.69188674592,-16553.009039522298
-2803.8475279626286,-585.5262977512239,-21264.242680578554,-15372.032269481691
-6983.891962038513,-4059.121496572673,-21721.112337245027,-18579.77581975172
-10426.73116048946,-6452.814513780417,-21464.9166422983,-20170.147141235728
-9649.359840078336,-5712.055350787085,-20970.451351458,-19274.6021478894
-5291.261409671475,-2385.132299081361,-20742.32944754713,-16514.899315225997
-2815.828062990673,-593.2823530772154,-21246.3165815254,-15385.80094406616
-7032.954041117912,-4097.588848780257,-21705.57787484859,-18621.283009205225
-10442.310326374807,-6463.766868563517,-21452.109092725408,-20182.93233906416
-9620.391979264255,-5702.041769271108,-20958.20259549649,-19271.58466238793
-5233.79507467688,-2356.1197347783727,-20730.12539507453,-16503.365815087058
-2820.767798515296,-615.164710898961,-21256.79954967493,-15422.48015671732
-7077.679881772981,-4147.030907515396,-21718.63129361049,-18668.780466172757
-10458.045954471345,-6481.804726338951,-21471.95744180172,-20195.00228107003
-9590.6641591387,-5685.300312674083,-20979.548511451307,-19254.843205790905
-5188.711606110526,-2326.503673375091,-20759.09325588861,-16473.8391606616
-2840.213816191413,-638.4552286213909,-21270.992907404056,-15440.182738325924
-7107.541812365272,-4167.862733347743,-21705.08613647057,-18688.807629204708
-10465.69025107506,-6482.89996181726,-21448.085778723453,-20209.79913589944
-9554.789609287933,-5662.92621647432,-20953.10639776068,-19253.211528445667
-5125.657335002105,-2286.047015910985,-20735.400406765988,-16452.470892962327
-2845.9582145164272,-652.4250689059578,-21263.817997433904,-15468.949433439904
-7151.753562897869,-4208.721722212044,-21682.89085422645,-18727.543202345754
-10471.367594166708,-6487.459717686143,-21413.127650395352,-20203.02655732949
-9524.5476990399,-5646.207111621751,-20913.20853390796,-19235.55365032597
-5072.303720987287,-2247.5573119589462,-20693.51323765674,-16424.15123273745
-2850.003880262838,-660.4716969098683,-21245.377808258272,-15484.662709791985
-7196.367644830661,-4245.535045329934,-21668.67514475288,-18770.413848211032
-10481.716451849516,-6486.073909529914,-21405.729222980648,-20211.47551673359
-9482.8393438863,-5607.896221625355,-20914.21436240845,-19221.874382719325
-5018.99481046138,-2200.1269102247848,-20694.1837899904,-16411.29897967565
-2866.7453368598626,-668.5406766582342,-21240.527479711476,-15525.83462307866
-7242.635755853147,-4277.1627637341935,-21674.88892971145,-18814.87146793264
-10509.65613241865,-6504.737616150095,-21410.020757916067,-20235.74951121205
-9470.523532691424,-5600.095462810453,-20919.645836311083,-19222.41082458625
-4985.914228667525,-2174.444755845637,-20720.00005483628,-16403.29705516065
-2884.179697535002,-686.3103135002034,-21261.672229966192,-15554.064876325712
-7272.832962612268,-4302.017903568495,-21661.120255126985,-18834.4962995644
-10513.277115020408,-6507.531584207009,-21380.13647557932,-20236.062435634427
-9436.280660185894,-5578.078994521975,-20883.391306804577,-19207.79278371248
-4923.441102914942,-2130.8588541577883,-20682.113847984536,-16366.28256634266
-2898.127186075114,-707.4103602660132,-21242.69559892364,-15579.143533604569
-7322.900870192155,-4351.303500092447,-21645.00464737471,-18882.373736187667
-10529.660943706149,-6528.475168761632,-21380.27058604605,-20253.139168398284
-9409.011531950418,-5570.43469791826,-20880.195007347465,-19203.613007499334
-4888.080643186646,-2109.155310291685,-20680.035135750197,-16354.771417948175
-2923.7646369653507,-732.0196309113063,-21265.94141315716,-15603.99867343887
-7356.249672919474,-4385.1663929422375,-21663.62365050598,-18895.3600997162
-10538.713400210549,-6541.908567179271,-21380.85173140189,-20248.132377640293
-9384.37990956067,-5560.421116402283,-20867.119236841118,-19182.468257244615
-4840.940814130404,-2085.775385591434,-20670.692106567876,-16310.6490743934
-2942.6071575411747,-766.1283929501049,-21255.972535130088,-15609.765423508336
-7414.140691058718,-4442.990355848116,-21645.295220052627,-18930.78761467786
-10562.406249333171,-6565.959044213181,-21360.4445887142,-20254.86025272134
-9362.631662205657,-5554.3861453993495,-20865.46520775142,-19171.2253297836
-4798.785424087694,-2061.344928901783,-20682.896159040472,-16287.60442585998
-2978.4146521585767,-804.4616346909565,-21269.227119592088,-15647.47281640444
-7466.28731087295,-4493.5276500615655,-21636.242763548227,-18968.89733897416
-10569.46940058105,-6583.795736288516,-21363.015039326558,-20257.184834144693
-9321.41504543007,-5541.28802314854,-20889.314519085237,-19147.577184149886
-4754.573673555097,-2039.8425507357776,-20711.104060543068,-16260.849387746975
-3001.9733908144703,-833.5636059717663,-21295.91510247172,-15663.901348579093
-7504.329979935883,-4525.267127188102,-21657.94630741433,-18983.448324614565
-10584.310958899374,-6590.903591025304,-21369.69821091869,-20249.227613118604
-9292.044853215795,-5520.098569404909,-20886.185274861487,-19117.58114309086
-4709.64666719993,-2012.9086986671327,-20723.57633394913,-16226.762977452634
-3028.9295946275706,-867.247684865914,-21310.73430904559,-15681.268654020863
-7554.710811938145,-4573.94922661176,-21672.117313399,-18997.6863858326
-10591.128240958244,-6604.180527231757,-21379.80119941249,-20225.84768841835
-9258.181960366006,-5511.247278600607,-20880.262062580838,-19085.48403805304
-4667.804201579595,-1995.2955240363508,-20722.14582230399,-16193.816506125511
-3051.7060222275286,-903.3904556501456,-21323.050120240467,-15705.2073723325
-7589.400719332782,-4621.491387068199,-21665.210624362306,-19032.26453450496
-10592.223476436551,-6619.290306483545,-21364.289088760503,-20230.742720454065
-9229.079989085198,-5506.665170987269,-20873.98122238889,-19075.470456537063
-4619.747951000685,-1971.8932475916445,-20716.624941423528,-16174.43754368276
-3067.173429390601,-931.7771711083856,-21327.27459994252,-15734.48815756895
-7627.13046397334,-4660.517532887165,-21662.707228983312,-19065.076895365342
-10609.881354556246,-6640.658574182818,-21365.071399816443,-20251.44043581968
-9200.000369548845,-5490.504859746082,-20871.76839968781,-19071.380087301743
-4583.873401149917,-1950.457924659005,-20710.992301820792,-16159.171302219786
-3103.6738280861173,-969.1939913265696,-21318.378605649308,-15763.254852682932
-7668.838819126942,-4699.610733939497,-21636.533336226148,-19084.96994793057
-10616.922154059668,-6650.2251208096895,-21340.41742568224,-20253.67561026521
-9168.685575566957,-5477.160868306264,-20856.144530313555,-19059.53366274043
-4541.561548896021,-1927.9273662480557,-20719.642426924995,-16142.251031667118
-3133.71457263405,-1003.6827330211084,-21335.65650411326,-15799.50938218944
-7722.7735784975985,-4752.338499109566,-21645.04935086362,-19129.94165777465
-10617.503299415506,-6659.322280802999,-21339.50100415957,-20249.09350265187
-9120.115234865574,-5454.31738547294,-20849.193137787955,-19032.62216241624
-4478.037891154038,-1893.6397902536144,-20701.939845316392,-16112.433804563738
-3147.080915818324,-1033.4552566355774,-21319.675006827714,-15829.080740103813
-7760.346860926969,-4798.427796176409,-21625.782147143145,-19165.592690180863
-10610.596610378816,-6663.971443649703,-21317.328073659908,-20243.77378747151
-9069.421478440938,-5427.204719448652,-20829.5683061562,-19005.308330691856
-4419.63278289232,-1861.2744642823295,-20691.97096728933,-16081.498990237593
-3154.904026377681,-1054.912931312672,-21319.898524272267,-15845.688086234104
-7765.174837729316,-4808.530784670208,-21624.35163549801,-19167.961975093123
-10610.730720845548,-6672.308644331532,-21323.65361734076,-20253.697962009664
-9034.999791979766,-5412.676085552703,-20827.824870088683,-19002.939045779596
-4360.423011830212,-1823.388257430584,-20693.71440335684,-16057.873196348331
-3175.266465576466,-1081.9585421035936,-21334.42715816822,-15870.76674351296
-7816.405036020879,-4848.942738645404,-21629.47018497827,-19195.99106264008
-10618.822052338368,-6669.17940010779,-21311.673082312715,-20235.14601411176
-8996.688901983369,-5380.735442726069,-20826.88609682156,-18960.73895224797
-4318.625249698788,-1791.9393529819672,-20701.157534260456,-16023.78678605399
-3207.855308992304,-1111.3734378067777,-21331.56613487794,-15897.14180197022
-7869.199856424315,-4894.562649078685,-21616.550876683104,-19231.4409293462
-10626.667514642182,-6673.582693765485,-21294.99868094905,-20232.888487921773
-8964.189465545353,-5356.304986036419,-20811.284579191757,-18942.119949116703
-4276.313397444892,-1760.3563380666185,-20687.88059805401,-16004.564285822427
-3234.275070938477,-1135.0662869294033,-21322.60308535136,-15932.30109599842
-7902.392196940446,-4921.563556380696,-21591.06988800405,-19259.693534337704
-10623.582973907349,-6675.08026064399,-21281.0735441534,-20236.95650541264
-8913.652171331903,-5321.8832995752455,-20798.90171276352,-18920.50581222842
-4216.50012928249,-1713.8647095995796,-20682.98556601829,-15969.583805749871
-3255.553931659929,-1152.813572026917,-21334.069530256933,-15950.853043896324
-7931.874147876996,-4937.8132745997045,-21601.731670109235,-19270.176502487244
-10625.996962308522,-6667.726536718194,-21289.477800068595,-20229.446319275656
-8888.685272775325,-5300.738549320526,-20813.5644571262,-18904.83723936525
-4175.7305473960105,-1684.0474824962,-20700.151705759967,-15950.294250284942
-3281.2807895279875,-1177.6463601167632,-21369.0947138184,-15977.78689596497
-7962.965424414328,-4962.958987111925,-21627.07854832155,-19287.56615967347
-10621.951296562112,-6661.646862226351,-21310.30962590094,-20223.05372036144
-8845.300536787574,-5271.167191406154,-20841.07945455068,-18880.69735535352
-4123.025133970396,-1648.7987814901808,-20729.67836018543,-15913.905610311702
-3286.93578087518,-1189.939819567182,-21385.053859359487,-15978.904483187736
-7987.10530842606,-4984.595475744663,-21635.95219087031,-19300.01608133508
-10621.951296562112,-6659.635205225373,-21312.768317791026,-20219.76801392651
-8796.171402474809,-5231.89517639818,-20819.800593829223,-18850.14252068311
-4069.448002511025,-1607.0680745921225,-20728.784290407217,-15887.821124532358
-3315.4342550556967,-1213.4538547341651,-21395.80504844249,-16016.947152250666
-8019.068302997149,-5004.42147307652,-21626.47505122126,-19324.53594500255
-10618.933811060646,-6651.74503943265,-21300.787782762975,-20215.81175515792
-8757.860512478414,-5200.9603620720345,-20809.116459979592,-18831.18824138501
-4015.6473536071007,-1561.8728473034917,-20706.924284329925,-15860.172016641143
-3344.178598425221,-1237.5043317680754,-21381.723449435645,-16049.9383270667
-8071.661957700487,-5047.515636386352,-21624.128118053453,-19365.05965770002
-10626.39929370872,-6656.997699379647,-21297.993814706067,-20214.649464446244
-8725.405779529308,-5182.631931618683,-20822.952189797423,-18810.937560908504
-3979.281065378316,-1543.6338238279611,-20735.467461999357,-15837.864975674747
-3380.4331279317294,-1279.2797421550445,-21412.27828410605,-16071.887740121812
-8110.911620964006,-5084.775994393349,-21620.820059874062,-19375.632032827383
-10633.10481704531,-6668.173571607301,-21285.25332036654,-20207.9215893652
-8692.01227331308,-5165.35403315473,-20802.70150932092,-18784.406040240054
-3945.194655083973,-1527.0488294421232,-20725.72210141684,-15814.46269923004
-3404.193032287721,-1308.1134925023905,-21388.02664137204,-16090.149115341796
-8142.673449834997,-5112.0898261177335,-21600.815248586565,-19386.562035866027
-10641.889052616243,-6677.404842067343,-21267.8189596914,-20201.99837708454
-8659.870464786347,-5147.07030619029,-20784.864817245583,-18761.98724055138
-3899.0830062726745,-1502.8865936859363,-20711.93107508792,-15787.9758820505
-3444.962614174201,-1356.5050192481303,-21391.155885595785,-16128.95174371621
-8190.237962035891,-5154.804009771826,-21594.95909153928,-19419.97789382671
-10645.48768347355,-6679.192981623767,-21254.944354885145,-20210.134412066272
-8615.770472976026,-5122.170462867077,-20765.418799569467,-18748.442083411468
-3844.7682672462784,-1475.349244516998,-20700.263464482246,-15768.082829485278
-3471.9188179873013,-1394.391226099876,-21397.257911832086,-16162.635822610358
-8224.413779308055,-5193.763100357425,-21596.568417140057,-19443.49192899369
-10621.303095972908,-6670.744022219661,-21258.565337486903,-20184.00522279802
-8552.984422801068,-5087.882886872636,-20786.69766029092,-18706.42080383549
-3780.037615303709,-1439.47469466623,-20726.01267409476,-15737.215070392498
-3483.899353015346,-1419.6486973343729,-21405.14807762481,-16187.62507291139
-8243.68098302853,-5220.674600681616,-21585.05726874557,-19460.47925477973
-10608.473194655562,-6672.12983037589,-21233.35256974132,-20180.965385552096
-8507.900954234714,-5069.800325608293,-20769.1515408935,-18692.406260062013
-3735.200015926363,-1418.9110897673477,-20712.847496610582,-15723.245230107932
-3511.034370784089,-1453.5786454175288,-21411.786545728035,-16224.483099518193
-8271.68771883103,-5248.010784150456,-21604.23506548823,-19487.14488591491
-10600.80654630739,-6670.185228608279,-21258.274764808983,-20184.22874024257
-8458.995337366503,-5034.953956002469,-20780.81915149917,-18673.139056341537
-3683.075747856587,-1379.4602608037308,-20739.066092856658,-15701.29581705282
-3539.8681211314347,-1480.7136631862716,-21446.00706648911,-16256.490797578192
-8300.275599989367,-5270.8095634948695,-21619.9036383514,-19503.37225238946
-10589.161287446175,-6661.244530826156,-21273.96568941661,-20169.498940646525
-8418.80690083586,-5009.070635923224,-20809.541143124243,-18643.92532633845
-3649.883407340456,-1357.287330304066,-20770.2020728829,-15671.0986102937
-3577.217886116253,-1509.6144687669837,-21476.539549415054,-16271.779390785625
-8333.870271905693,-5292.468403872062,-21635.39339725893,-19508.691967569823
-10594.302188670898,-6663.077373871491,-21272.49047428256,-20162.882824287757
-8385.23458066399,-4976.884123907581,-20812.648035603528,-18617.86319230356
-3625.922337284367,-1322.709181631706,-20788.99988996981,-15658.380467698633
-3637.478189167761,-1543.3879546389526,-21501.417040993816,-16319.813289620077
-8384.407566119144,-5321.078636774854,-21645.406978774903,-19538.19627025083
-10603.71227308658,-6664.820809939005,-21296.630358294293,-20171.935280792157
-8359.820647218305,-4951.4925422063525,-20835.022131803293,-18608.96719801035
-3604.2858486516297,-1292.422567894765,-20801.44981163142,-15649.99856352789
-3694.877468928989,-1580.2012777568434,-21511.475325998705,-16370.775266978178
-8443.259709269967,-5364.77629718498,-21663.511891783703,-19585.96194815182
-10612.29534295742,-6670.006414652636,-21303.93937873118,-20185.86041758781
-8331.098655593236,-4924.893966304537,-20830.574134656687,-18602.48519211831
-3578.2684181056525,-1263.5441140585085,-20803.841448288134,-15645.796435570292
-3742.956071252355,-1611.0243333607118,-21502.53462821658,-16417.87039254551
-8489.460765059086,-5395.241724877564,-21629.917219867377,-19624.00461721476
-10618.397369193715,-6670.900484430848,-21261.9180991552,-20195.29285374795
-8294.464146430988,-4896.6637130574845,-20796.666538317982,-18590.05762220116
-3561.437554530806,-1251.4071168192766,-20785.98240446835,-15652.345496695698
-3798.5448597127033,-1658.0077002057674,-21479.15470351633,-16472.475704249824
-8519.501509607018,-5419.605126333849,-21592.79097232711,-19649.910289038457
-10614.48581391404,-6676.354310077943,-21246.54009896995,-20210.022653344
-8256.130904690135,-4879.721090760361,-20782.45082884441,-18587.24130239979
-3520.60091741096,-1231.0223258760366,-20771.2526048723,-15642.108397735168
-3827.266851337773,-1695.5809826351383,-21473.410305191315,-16510.764242501766
-8545.898919808737,-5454.250330239574,-21580.877492532432,-19678.76639113025
-10582.701633298591,-6665.558417506029,-21217.66164513369,-20198.89148460525
-8187.198124789968,-4842.974822875836,-20770.000907182803,-18559.45808404185
-3452.673966011282,-1193.1808225132015,-20778.02518344226,-15620.71777829144
-3847.2716626252727,-1727.655735928504,-21489.101229798944,-16552.785522077742
-8570.798763131948,-5483.03937709801,-21596.389603184416,-19710.483516512337
-10558.651156264685,-6652.46029525522,-21234.134880797254,-20192.14125777975
-8136.124388709592,-4811.212994004845,-20788.597558569614,-18542.35899953353
-3408.1716428007658,-1170.1808774686906,-20776.415857841475,-15606.457365328952
-3860.235674409351,-1751.169771095487,-21480.562863417013,-16571.248062997827
-8570.262321265021,-5486.168621321753,-21587.493608891204,-19707.89071415552
-10543.586080501806,-6642.178492805779,-21219.1592120122,-20187.00035655503
-8086.682329974453,-4775.696072065362,-20772.70546826189,-18520.92367660089
-3354.795677041492,-1136.3850398522663,-20811.910428036503,-15589.872370943114
-3873.087927471152,-1766.6148265141044,-21541.940753691288,-16593.95743536442
-8596.123289599811,-5495.779871437535,-21624.262228520183,-19722.776975962755
-10538.892214166191,-6623.514786185598,-21248.976439115577,-20181.434772185657
-8049.801951623196,-4741.006164670725,-20795.101916206117,-18501.14238275795
-3330.119351162833,-1114.368571563789,-20815.30789319371,-15587.145458119569
-3935.069314845719,-1809.1278444680984,-21534.58702976549,-16650.730866280897
-8654.1931216947,-5526.446464830216,-21628.777280900154,-19752.549499577224
-10539.89804266668,-6608.494413911631,-21268.26599458051,-20165.85560630031
-7996.5377445862,-4689.97713207926,-20820.06881476269,-18459.344620626525
-3272.943588846158,-1067.8769430967502,-20832.719902124398,-15550.890928613058
-3957.3093005787496,-1831.4125336900397,-21542.611306024948,-16676.77064857133
-8682.24456098611,-5547.948842996221,-21625.35746399849,-19778.7680958233
-10530.018571617436,-6605.432224921254,-21258.67709620918,-20175.95859479411
-7950.671964963909,-4666.284282956634,-20804.86962853308,-18449.93453621084
-3233.9844982605578,-1058.8915418257168,-20833.971599813893,-15554.400152492542
-4002.325713911738,-1887.202487850486,-21557.45286434327,-16729.4984137414
-8715.481604991151,-5586.349139970439,-21632.28650477964,-19803.131497279584
-10523.581269214304,-6613.747073858628,-21252.35155252833,-20173.164626737194
-7900.268781217192,-4641.429143122333,-20792.68792780494,-18422.665407975364
-3193.281971607444,-1037.813846804362,-20836.49734693734,-15534.015361549302
-4040.100162041207,-1929.71550580448,-21568.338163893004,-16763.83069322475
-8757.25701537812,-5621.866061909922,-21632.979408857755,-19821.83990738868
-10523.380103514208,-6610.059036023502,-21255.05611360742,-20159.75358006401
-7863.70132728831,-4609.15322412887,-20813.07271874818,-18393.78695413911
-3161.363680525265,-1005.6496865331752,-20862.000687360847,-15514.658750851006
-4082.501421272924,-1953.743631093935,-21589.05823100308,-16799.548780864334
-8796.104347241444,-5640.462713296737,-21648.983257887758,-19853.60173625967
-10529.817405917336,-6605.991018532636,-21254.139692084755,-20178.17141749518
-7846.065800913072,-4584.231029061202,-20822.728672352878,-18399.799573397588
-3161.8107154143718,-988.371788069223,-20870.06966710921,-15529.254439980325
-4150.227206972505,-1992.5909629572584,-21575.93775700781,-16852.6788774346
-8828.93905984629,-5652.733821002701,-21617.24378076122,-19866.252823621373
-10509.83494637429,-6584.913323511282,-21234.268991263987,-20154.99265849503
-7786.54310542859,-4534.766618581608,-20808.378852412567,-18353.19618620827
-3130.6076801547624,-955.693537675564,-20881.156132359047,-15510.054291493214
-4203.156137842672,-2027.616146518725,-21598.80359158559,-16893.40375583217
-8867.071135887043,-5680.561742849558,-21630.632475689945,-19882.770762773845
-10502.592981170772,-6580.599436831408,-21238.471119221584,-20145.202594423605
-7751.9426050117745,-4507.564545579498,-20801.628625587065,-18333.101967942952
-3114.3132584468435,-938.080363044782,-20872.260138065834,-15506.410957146998
-4249.55835933189,-2059.8473620232776,-21589.438210658816,-16932.87693654024
-8910.791148041624,-5708.859051329977,-21612.08052779204,-19913.817335822267
-10504.291713749377,-6581.49350660962,-21209.525610151963,-20147.19189968013
-7714.972819682696,-4474.595722507921,-20787.63643355804,-18304.402328062337
-3090.061615712836,-910.6771243425756,-20876.015231134323,-15484.3050818807
-4302.688455902155,-2098.5382316754144,-21601.10582126449,-16966.11398054528
-8940.697782122825,-5732.842473130521,-21618.51783019517,-19926.46842318397
-10494.16637351112,-6580.934712998237,-21222.86960159178,-20149.382370636748
-7670.872827872376,-4447.036021594528,-20795.526599350764,-18284.39751677484
-3054.6117490067186,-890.5158508438886,-20870.919033398517,-15470.223482873856
-4332.975069639096,-2134.7927611819223,-21575.75894305217,-16991.282044801956
-8955.58404393006,-5754.7248309522665,-21578.575262853537,-19925.507298172397
-10463.142152207154,-6570.764669271072,-21178.92607199265,-20129.69048377162
-7615.194632434205,-4421.376218959835,-20756.098122131603,-18259.922356596275
-3017.418446233088,-880.1446414166262,-20838.911335338515,-15460.522825780254
-4365.966244455129,-2178.870401247788,-21560.11272193345,-17030.554059809932
-8985.870657667001,-5785.570238300591,-21563.689001046303,-19954.162234564094
-10457.755381793426,-6571.837553004927,-21166.990240453517,-20131.389216350224
-7559.82936141841,-4388.943837755184,-20760.90374718949,-18234.70958885069
-2974.726614323451,-866.7782982323525,-20863.051219350247,-15458.15354086799
-4407.24991646408,-2232.581643173891,-21578.59761459799,-17085.33818546989
-9010.681094012392,-5816.348590415549,-21572.294422661595,-19980.134961621163
-10446.691268288048,-6577.358433885388,-21182.211778427576,-20136.150137919205
-7508.777977082489,-4366.9720729556175,-20760.523767533752,-18217.07406247545
-2931.1630643800577,-853.1437341146153,-20859.340829770663,-15448.832863430129
-4442.096286069905,-2279.3638443188484,-21582.26330068866,-17127.515927257053
-9044.275765928718,-5849.496227442769,-21570.461579616254,-20005.95122646704
-10426.082959900255,-6564.2379598901225,-21159.03301942742,-20122.06853891236
-7449.747019976023,-4330.561081237922,-20737.747339933798,-18186.45217257168
-2889.9017441155606,-835.9999461173948,-20848.63434417657,-15440.272145303745
-4474.819239952474,-2309.426940611236,-21564.247794657684,-17161.2000061512
-9077.646920400492,-5869.054003841163,-21537.939791433782,-20019.31756965132
-10420.763244719892,-6557.979471442637,-21124.030187610413,-20113.798393463898
-7408.999789833998,-4300.4085779677125,-20713.607455922065,-18155.15973033425
-2859.99511003436,-821.5160157103558,-20829.054216033725,-15414.746453135784
-4501.216650154192,-2344.1391997503283,-21539.325599590014,-17166.29620388701
-9089.269827517252,-5882.5097540032575,-21511.072994598508,-20006.286502633877
-10399.05970085379,-6545.2166253586565,-21100.13617278769,-20090.239654808003
-7357.948405498077,-4266.724499073565,-20699.65996738195,-18120.402767706248
-2838.582138846176,-810.764826627353,-20826.17084099899,-15412.95831357936
-4575.446793490266,-2406.031180147073,-21541.381960079903,-17234.446672731243
-9145.305650866703,-5919.5465945657015,-21510.53655273158,-20040.752892583954
-10399.417328765074,-6541.707401479173,-21110.79795489287,-20085.83636115031
-7318.966963168021,-4234.023896935451,-20723.598685693585,-18091.457258636627
-2816.6774292799746,-794.9844950419063,-20870.47199850941,-15405.157554764455
-4623.905375469372,-2444.409125376836,-21597.015452029165,-17271.505865038143
-9185.605846119624,-5946.502798378801,-21563.37607662393,-20061.67412539412
-10390.476630982952,-6530.375067040332,-21144.23616459801,-20081.92480587063
-7275.649282413636,-4197.992884873496,-20737.65793295597,-18072.659441549717
-2787.083719621148,-771.8280877862081,-20879.52445501381,-15400.66485412894
-4644.781904790629,-2460.927064529308,-21590.488742648216,-17294.66227229384
-9179.43676464996,-5936.422161629458,-21549.45093982827,-20054.56627065733
-10372.751697629894,-6519.869747146338,-21134.021417381933,-20079.041430835896
-7231.3481249032175,-4164.577026912812,-20735.221592810347,-18058.28726986495
-2763.9496641099054,-753.9690439664179,-20875.121161356117,-15398.13910700549
-4699.051940328114,-2510.100902330983,-21586.62189085745,-17340.751569360684
-9221.30158201475,-5978.666958649988,-21546.276992115618,-20081.053087836877
-10356.837255577717,-6520.71911343564,-21134.937838904603,-20070.391305731693
-7176.452240520984,-4129.641250329167,-20766.558738536685,-18027.62067647227
-2731.2714137162466,-734.6794885014879,-20911.219228651436,-15389.667795856927
-4739.933280936871,-2556.681937775843,-21621.06592906308,-17385.790334438127
-9232.410399009035,-6000.23639204936,-21570.30511740507,-20090.105544341277
-10311.932600967002,-6501.474261459621,-21154.18269088062,-20044.15035774116
-7104.926658264,-4092.202078366528,-20766.2011106254,-17988.102792275287
-2701.744759290786,-727.4375232979684,-20929.324141660232,-15384.37043242102
-4771.918627252416,-2593.629371360465,-21635.2592867922,-17413.953532451815
-9253.711611474946,-6018.5201190138005,-21566.974707481237,-20101.10260261328
-10305.584705541696,-6504.156470794257,-21133.976713893026,-20048.978334543503
-7067.174561878987,-4073.2030955795167,-20743.335276047623,-17974.6917456021
-2683.684549770898,-719.1673778495048,-20920.1375746891,-15383.968101020826
-4824.177005788923,-2640.4115725054235,-21631.884173379443,-17461.160416741423
-9286.255751401872,-6048.426753095002,-21564.583070824512,-20126.36007384778
-10294.073557147212,-6501.831889370906,-21148.170071622146,-20050.654715377656
-7029.467168982884,-4049.711412156989,-20771.20790138339,-17959.492559372495
-2669.066508897127,-714.7417324473539,-20945.23858371241,-15382.51523763123
-4889.354692620599,-2699.86721275654,-21655.152339357417,-17508.590818475583
-9326.488891421424,-6080.9708930219285,-21577.234158186217,-20137.33478037533
-10278.963777895426,-6493.226467755612,-21151.43342631262,-20028.59354360027
-6978.594598602605,-4010.7299698269335,-20777.64520378652,-17918.924143186112
-2654.6943372123646,-705.6222207095886,-20965.57867116674,-15378.84955154056
-4937.209777499411,-2736.2111492408694,-21674.061915166607,-17551.28265038522
-9365.872665151675,-6102.49562293239,-21603.720975365755,-20168.291946445937
-10282.51770526382,-6487.638531641785,-21164.218624141053,-20039.165918727627
-6945.0893336641,-3979.035196189308,-20777.1534654085,-17904.954302901544
-2630.643860178454,-690.4677379688904,-20964.81871185526,-15379.922435274417
-4966.423507502497,-2762.7873733982296,-21670.217415120296,-17582.95507227839
-9374.299272811328,-6100.618076398144,-21586.80070481309,-20173.03051627046
-10246.12906529058,-6457.083696971381,-21147.343057077294,-20024.23495343148
-6871.507390917229,-3921.2559367723393,-20762.468369301365,-17871.180817029574
-2600.625467374977,-665.8361155791421,-20966.986831067425,-15385.353909177054
-5025.655630309061,-2809.904850710017,-21653.54301375664,-17647.171634098486
-9406.083453426774,-6122.791006897808,-21565.61125106946,-20204.27825501898
-10216.40124516502,-6432.586185048364,-21139.18467035111,-20021.48568886348
-6809.481300053752,-3871.143325703541,-20775.90176771901,-17853.25471797642
-2582.0511677326167,-648.2452926928154,-20999.262750060887,-15403.123546019024
-5074.494191943907,-2835.475246366888,-21700.347566646047,-17698.155963201043
-9442.829721311298,-6129.138902323116,-21612.058176047587,-20227.3229035524
-10209.673370083972,-6409.876812681772,-21174.120446934758,-20021.73155805249
-6769.024642589646,-3825.970450159365,-20797.94058775194,-17836.222688701473
-2567.7907547701307,-631.7497052847988,-21017.702939236515,-15409.113813533046
-5120.829358199759,-2868.1087932716364,-21713.87037204151,-17743.440597467496
-9468.690689646088,-6142.3711350406575,-21610.761774869177,-20246.746569484065
-10205.583000848652,-6409.809757448406,-21166.073818930843,-20027.878287777698
-6738.179235241322,-3807.999647617298,-20798.07469821867,-17829.20424094251
-2563.5662750680776,-635.4600948643798,-21008.78459319885,-15424.715331162852
-5181.9390275405685,-2926.178625366524,-21693.97731947629,-17800.214028383976
-9504.766405196951,-6170.534333054345,-21580.07282973204,-20268.00307846106
-10190.137945430037,-6397.069263108881,-21135.764853449447,-20021.932723752587
-6687.306664861044,-3769.55464715417,-20759.6520495,-17804.863191230677
-2547.227149871248,-628.8439785056089,-20989.09270633372,-15427.978685853326
-5218.394722747174,-2961.337919394722,-21681.14741815894,-17829.025426986867
-9528.705123508587,-6192.595504831732,-21570.34982089398,-20284.789238547
-10173.128267899549,-6392.442452006633,-21122.309103287356,-20022.93855225308
-6640.07742882698,-3743.268995674729,-20765.91053794748,-17782.310281075275
-2535.3360218210246,-629.6933447949106,-21011.958540911502,-15428.045741086691
-5271.033080939422,-3008.008361817403,-21678.28639486866,-17870.934947840567
-9560.064620979383,-6216.042484765349,-21558.8386724995,-20307.811535335964
-10167.33916608562,-6392.196582817624,-21113.815440394337,-20027.654770333145
-6602.839422564438,-3714.0552656716422,-20756.58986050962,-17763.51246398836
-2528.7422572067094,-624.1501121699944,-21003.3084158073,-15440.897994148494
-5324.252584487508,-3052.17540886109,-21670.396229075937,-17926.814308978835
-9584.673891624678,-6230.369952961201,-21553.474253830227,-20327.88340185683
-10136.493758737295,-6365.419192960167,-21107.780469391404,-20019.4740318625
-6548.72584923814,-3667.0942505710423,-20758.4003518105,-17748.402684736575
-2518.818082668553,-613.7789027427319,-21022.53091603886,-15461.238081602824
-5359.523637237983,-3078.6398742961737,-21686.131857172477,-17962.8900245297
-9611.116005315303,-6249.793618892863,-21568.002887726176,-20347.150605577302
-10123.038008575202,-6360.859437091284,-21117.50347822946,-20019.809308029333
-6496.825098612917,-3635.712401355792,-20770.626756027552,-17723.636951880093
-2500.9590388487627,-611.4990248082906,-21044.12270118269,-15464.59084327112
-5394.571172543904,-3116.771950336928,-21697.24067416676,-17999.211609269572
-9604.030502322972,-6249.704211915042,-21572.383829639417,-20350.12338758986
-10071.628996327996,-6334.014992000461,-21116.29648402888,-20013.39435737066
-6420.404484320222,-3589.8466217335013,-20767.273994359257,-17708.9295040285
-2467.721994843721,-597.3950740569919,-21047.27429715089,-15482.226369646356
-5436.257175953052,-3160.559017724874,-21707.097793471552,-18063.249357134027
-9621.107235086827,-6269.150229591159,-21565.23127141372,-20380.857036215908
-10035.374466821488,-6312.780834767918,-21104.584169934293,-20005.280674133384
-6354.511541665976,-3545.344298522985,-20770.067962416168,-17684.32023338321
-2450.444096379769,-594.8469751890868,-21063.345201414253,-15502.25353267831
-5477.540847962004,-3199.294590865921,-21722.4757936568,-18115.843011837365
-9655.663032014732,-6293.401872325168,-21600.12234450845,-20414.205838943224
-10030.79235920815,-6308.243430643491,-21150.025266411933,-20019.809308029333
-6318.793454026396,-3514.185966752287,-20821.029939774267,-17683.73908802737
-2439.1788171742937,-587.2250303298272,-21114.21777179453,-15522.97359978838
-5515.628220513848,-3230.6317365922614,-21757.188052795897,-18165.37447755033
-9667.24123564258,-6291.412567068644,-21612.594617914518,-20435.39529268685
-10020.2646875697,-6291.4349188131,-21154.227394369533,-20042.58573562929
-6286.472831544022,-3481.083033213977,-20815.28554144925,-17693.283282909786
-2452.075773725006,-590.778957698221,-21130.55689699136,-15563.542015974765
-5594.216954018707,-3283.717129673616,-21781.50675076327,-18240.163414497783
-9712.458814675669,-6313.853718501773,-21623.54697269761,-20467.917080869327
-10010.295809542637,-6278.269741328924,-21159.72592350553,-20038.987104771983
-6243.646889167654,-3441.363983316897,-20832.809309102217,-17667.176445385987
-2452.2322359361933,-585.6604082179557,-21150.271135600942,-15571.298071300756
-5644.955413932254,-3318.697609746172,-21782.71374496385,-18275.926205626278
-9742.991297601617,-6332.115093721759,-21624.19517328682,-20484.345613043977
-9988.480506954254,-6261.595339965265,-21163.212795640564,-20033.957962269546
-6201.022112491383,-3408.8198433899697,-20843.046408062743,-17646.836357931657
-2451.360517902436,-586.9791611408187,-21155.970830437047,-15587.41367905303
-5683.243952184195,-3348.604243827372,-21775.963518138356,-18311.644293265857
-9764.426620534256,-6339.848797303295,-21610.42649870235,-20494.739174215694
-9978.176352760358,-6252.319366016312,-21139.89992617368,-20031.543973868367
-6146.7744286983525,-3365.077479490933,-20806.478954133865,-17619.477822718363
-2446.7113550557324,-587.8508791745758,-21149.645286756197,-15601.65174027106
-5741.537301723636,-3402.941334598224,-21781.93143390792,-18363.522692146624
-9773.79200146103,-6353.461009676577,-21618.629588917447,-20505.803287721075
-9935.886852250916,-6230.101732027738,-21158.60833628277,-20016.34478763876
-6086.670587858032,-3333.315650619942,-20852.07651282269,-17595.784973595735
-2431.892148481864,-594.779919955721,-21191.75597330999,-15615.979208466912
-5783.223305132783,-3453.210407878209,-21804.68550976342,-18414.35055903799
-9781.346891086923,-6369.598969173309,-21638.165013571383,-20521.40480535088
-9886.377738282412,-6205.626571849176,-21165.67148753065,-20007.538200323368
-6018.296601569248,-3288.880382642792,-20844.02988481878,-17573.38852565152
-2424.29255536706,-597.551536268179,-21185.51983660696,-15635.559336609762
-5811.095930468551,-3480.2560186691308,-21796.30360559268,-18451.70032402281
-9786.376033589368,-6376.796230887918,-21608.928931823844,-20535.911087502373
-9858.505112946645,-6200.060987479805,-21127.986446379,-20005.839467744765
-5965.0994497656175,-3261.5441991739517,-20818.88417230656,-17553.04843819719
-2397.0010753871293,-589.5719634976344,-21164.77741775244,-15631.826595285724
-5845.808189607643,-3517.7622458651363,-21763.580651710112,-18482.098696482022
-9814.89685951434,-6399.259734065501,-21585.9960420127,-20551.55730862109
-9849.273842486602,-6190.963827486495,-21118.17403056312,-20003.179610154584
-5928.263774903271,-3233.202187204622,-20821.722843852385,-17535.211746121855
-2418.48110180868,-610.1802718854275,-21193.722926822054,-15655.854720575182
-5923.771074267755,-3581.509421051672,-21791.78855321271,-18531.71956917281
-9852.76071462163,-6421.70088549863,-21606.671405633857,-20553.68072434434
-9833.985249279172,-6173.574170300266,-21129.863992913248,-19979.37500230968
-5889.662312228956,-3198.4452245766192,-20819.577076384678,-17507.1826585749
-2440.944604986263,-626.6758592934441,-21180.71421154907,-15679.3017005088
-5987.115918054094,-3630.9067762979007,-21771.98490762531,-18571.81859872563
-9890.043424373082,-6450.780505034984,-21581.12336172144,-20564.78954133863
-9832.75590333413,-6180.324397125769,-21097.78923961988,-19968.981441137963
-5854.413611222936,-3179.0662621338683,-20794.58782608364,-17467.50831216673
-2445.43730562178,-645.7866008027316,-21181.42946737164,-15672.372659727653
-6018.274249824793,-3674.20210530783,-21760.92079411993,-18582.45802908636
-9893.91027616385,-6471.969958778615,-21569.50045460468,-20560.006268025198
-9795.27202788258,-6182.000777959916,-21093.94473957357,-19964.265223057893
-5796.38848261696,-3164.761145682472,-20792.97850048286,-17464.624937131994
-2424.7395902561657,-654.5931881181226,-21171.348830622297,-15704.20154383201
-6055.333442131691,-3725.253489643752,-21761.524291220223,-18653.22365203186
-9897.687720976795,-6488.622008397819,-21576.36244015246,-20597.60190219902
-9750.523835483054,-6159.827847460252,-21103.488934455985,-19970.300194060823
-5735.99406909872,-3127.7019533755724,-20812.73744258135,-17449.02341950219
-2425.633660034378,-671.3122929706923,-21197.52272337946,-15729.280201110863
-6093.242000727892,-3763.787897084701,-21764.809997655157,-18679.93398665595
-9927.549651569088,-6515.1088255773575,-21572.339126150506,-20602.02754760117
-9741.672544678751,-6160.520751538366,-21101.14200128818,-19955.056304342303
-5679.712376560256,-3091.156851191145,-20794.54312259473,-17406.800974226117
-2426.1924536457605,-685.6397611665442,-21204.071784504868,-15735.44928258053
-6144.02516413035,-3813.721694197857,-21773.81775067064,-18713.03692019426
-9941.854768020485,-6525.524738493531,-21559.79979751108,-20595.99257659824
-9710.916544308251,-6145.098047864205,-21081.472466167503,-19924.14384176062
-5622.894242154866,-3063.239522366467,-20797.650015074018,-17361.471636470753
-2414.368380828903,-693.7981478927312,-21194.169961711166,-15725.614515020194
-6186.046443706327,-3860.548598831725,-21753.6341254275,-18738.85318504014
-9957.791561817116,-6544.970756169648,-21546.32169560453,-20596.84194288754
-9673.81264851244,-6129.228309300936,-21078.41027717713,-19908.00588226389
-5555.213159944196,-3017.463149721998,-20799.79578254173,-17332.414368678852
-2407.372284814392,-692.2111740364044,-21209.0562235184,-15746.893375741647
-6218.61293537771,-3883.973227020887,-21745.36397997904,-18766.85992084264
-9966.754611343697,-6547.697668993195,-21528.46265178474,-20599.2112277998
-9628.3715520348,-6093.39846293908,-21055.365628643707,-19882.7931145183
-5488.51555448956,-2965.271826418856,-20786.69766029092,-17297.61270256194
-2397.0010753871293,-689.3501507461251,-21216.29818872192,-15751.520186843896
-6249.927729359595,-3914.930393091488,-21751.86833761553,-18791.491543232387
-9975.941178314826,-6557.0183464310585,-21537.7833292226,-20600.64173944494
-9612.94884836064,-6089.844535570685,-21054.20333793203,-19877.87573073813
-5446.538978402493,-2936.572186538242,-20766.31286934768,-17276.423248818308
-2428.1594071578274,-716.2616510703148,-21206.99986302851,-15784.153733748644
-6330.148140209692,-3981.002149701375,-21748.11324454704,-18854.657573063087
-10008.708835686308,-6578.923055997259,-21518.471422013212,-20617.22673383078
-9591.647635894731,-6071.896084773074,-21044.97206747199,-19866.72221025493
-5407.579887816893,-2905.123282089625,-20775.208863640888,-17252.551585740042
-2431.333354870481,-723.0565813847281,-21206.418717672677,-15794.994329809468
-6361.887617336228,-4007.198394202994,-21728.48841291528,-18874.148294228115
-10026.903155672928,-6594.435166649243,-21504.21100905073,-20622.34528331105
-9561.785705302442,-6053.679413041999,-21012.025596144867,-19847.142082112085
-5356.439096503151,-2867.594703149164,-20746.889203416016,-17221.281495247065
-2436.764828773121,-730.7232297328985,-21190.86190353178,-15806.349015992764
-6400.891411410739,-4044.0787725542514,-21712.082232485085,-18904.189038776047
-10024.399760293933,-6592.959951515192,-21488.274215254096,-20620.4677367768
-9526.31348685187,-6034.501616299345,-21004.358947796696,-19837.419073274028
-5314.820148327369,-2839.1409324575584,-20752.4994912743,-17200.807297326006
-2453.685099325788,-747.0847066741833,-21214.733566610048,-15821.123519077722
-6447.047763710948,-4081.450889283525,-21723.7274913463,-18930.94407688905
-10043.08581865857,-6609.12026275638,-21509.329558530997,-20625.34041706805
-9496.563314981857,-6021.694066726454,-21027.560058541305,-19821.929314366495
-5253.464609797551,-2804.6298390185643,-20757.238061098826,-17165.335078875432
-2449.6617853238326,-763.9826254823954,-21200.495505392017,-15831.047693615878
-6500.244915514579,-4144.706326092044,-21697.039508466663,-18974.37351636571
-10044.89630995945,-6615.870489581882,-21451.371485158383,-20614.253951818224
-9459.884102330698,-5996.056615836217,-20983.52712196435,-19795.174276253496
-5207.777644130903,-2773.449155503411,-20745.034008626222,-17140.18936636321
-2462.4469831522683,-781.126413479616,-21235.855965120318,-15852.125388637232
-6511.599601697874,-4144.415753414125,-21722.028758767698,-18977.078077444803
-10064.789362524672,-6623.447730952231,-21483.96032857422,-20630.078986892586
-9438.739352075978,-5981.840906362642,-20993.13837208013,-19791.88856981857
-5160.59311158575,-2737.038163785716,-20759.428532055445,-17115.177764317723
-2476.796803092576,-790.3800356841131,-21240.013389589,-15871.504351079984
-6571.904608238293,-4188.359283013258,-21724.48745065778,-19024.10614777877
-10083.073089489111,-6623.246565252133,-21493.23630252317,-20633.90113519444
-9420.723846045,-5958.259815962293,-20991.88667439064,-19784.11016274812
-5107.641828971127,-2688.0207881952274,-20751.85129068509,-17090.188514016692
-2487.0562537975616,-796.34795145368,-21249.892860638247,-15899.175810715657
-6632.0308008230695,-4232.951013201597,-21717.22313370981,-19081.907758940197
-10097.288798962689,-6625.884071097859,-21461.29565969654,-20646.88749872297
-9374.90276991162,-5920.865347488564,-20973.80411312629,-19765.42410438348
-5059.339709203209,-2646.5583022306328,-20762.021334412257,-17075.86104582084
-2507.9998383521843,-808.6637626485542,-21258.274764808983,-15936.167947789188
-6677.2260281117,-4260.756583303998,-21717.08902324308,-19125.247791439037
-10140.829997161629,-6651.5215219880965,-21461.00508701862,-20689.311109699145
-9386.615084006202,-5924.911013234975,-20967.0985897897,-19790.458058173423
-5032.316450156743,-2622.843101363552,-20754.019409897257,-17067.970880028115
-2534.665469487365,-833.7200681829535,-21280.85002670885,-15963.995869636045
-6729.931441537314,-4303.8730983582855,-21744.536965434192,-19149.722951617598
-10149.793046688204,-6658.204693580234,-21497.863113625423,-20675.162455458936
-9354.026240590363,-5909.242440371805,-21008.02463388737,-19765.96054625041
-4978.202876830444,-2586.409757901401,-20778.338107864634,-17032.386902855265
-2536.006574154684,-840.3585362861796,-21281.78879997597,-15970.9696139061
-6776.288959537621,-4345.648508745255,-21730.96945654982,-19184.256396801044
-10152.542311256208,-6655.768353434605,-21473.52206391359,-20665.7300192988
-9298.817431785756,-5866.103573573062,-20978.319165506266,-19724.051025396708
-4916.310896433699,-2544.0532021585946,-20776.326450863657,-16999.41807978369
-2539.336984078525,-855.0436323933163,-21289.746021002054,-15989.029823425988
-6799.601829004506,-4370.548352068467,-21708.707119072333,-19203.255379588056
-10165.103991640091,-6669.447621041253,-21446.00706648911,-20675.05069673666
-9274.74460300739,-5859.330995003104,-20957.733208862926,-19718.038406138232
-4863.650186496996,-2513.8336436550194,-20744.92224990395,-16971.92543410366
-2557.196027898315,-882.3574641177016,-21285.76741048901,-16016.634227828292
-6831.96715497579,-4408.367503686846,-21709.847058039555,-19225.3389031099
-10166.556855029685,-6682.970426436714,-21451.14796771383,-20673.776647302708
-9232.49980598686,-5840.622584894012,-20972.57476718125,-19703.97915887584
-4801.624095633519,-2474.494573413679,-20779.38863985403,-16949.953669304094
-2554.5138185636783,-887.2301444089585,-21303.648806053257,-16036.750797838067
-6869.808658338626,-4443.124466314848,-21723.63808436848,-19266.44376116321
-10173.642358022018,-6686.837278227482,-21454.925412526776,-20681.108019484047
-9211.891497599066,-5830.541948144669,-20965.62337465565,-19698.68179543993
-4756.98766195627,-2445.0796777104947,-20769.889148460526,-16921.656360823676
-2564.5721035685665,-904.5527463618216,-21312.947131746667,-16047.770207854535
-6900.0505685866565,-4475.512144030588,-21724.21922972432,-19281.218264248164
-10180.079660425146,-6698.840164999982,-21457.33940092795,-20673.977813002803
-9154.916900982487,-5799.271857651694,-20953.844005327705,-19664.908309567967
-4685.283265743646,-2400.532651011068,-20747.4479970274,-16886.877046451216
-2582.1852781993484,-932.09009553076,-21308.05209971096,-16080.113182081364
-6957.919234981446,-4529.625717356887,-21717.20078196535,-19334.39306430734
-10193.334244887144,-6712.765301795638,-21448.64457233484,-20694.78728709069
-9128.407732058491,-5783.29036036615,-20967.657383401085,-19665.265937479253
-4646.078305969037,-2370.9389413522413,-20771.02908742775,-16876.70700272405
-2617.702200138832,-962.1755435676032,-21330.180326721707,-16125.219002392174
-7021.018209578778,-4575.759717912641,-21719.7265290888,-19385.46680038772
-10208.175803205468,-6715.80513904156,-21418.71558650918,-20695.83781908009
-9103.262019546271,-5765.09604037953,-20934.733263818416,-19645.708161080856
-4600.10076762447,-2337.36662118037,-20751.471311029352,-16841.078322062294
-2628.4757409662893,-972.8820291616952,-21308.633245066794,-16127.968266960175
-7039.078419098666,-4593.976389643716,-21683.47199958229,-19385.153875965345
-10198.765718789784,-6714.262868674144,-21403.27053109056,-20678.805789805152
-9058.089144002097,-5738.318650522072,-20931.51461261685,-19614.996864199267
-4531.3244499354905,-2288.572763034435,-20732.449976497886,-16795.033728484363
-2634.6895259248645,-988.7964712138738,-21302.68768104168,-16143.189804934242
-7074.505934060328,-4632.957831973771,-21676.833531479067,-19410.70191987776
-10206.298256671222,-6732.792464827593,-21398.599016499404,-20687.52297014272
-9014.883221969989,-5719.006743312686,-20901.56327504674,-19603.575122782604
-4506.379903123368,-2281.330797830916,-20724.02336883824,-16803.415632655102
-2683.617494537532,-1036.0927624813037,-21296.295082127464,-16197.504543960637
-7141.31529823724,-4688.479565200754,-21663.556595272614,-19463.69790598129
-10215.440120153442,-6736.078171262524,-21370.838149885916,-20686.85241780906
-8970.738526670757,-5691.067062743552,-20886.81112370624,-19582.408020783427
-4437.558881945477,-2236.6943641536677,-20732.67349394244,-16773.79957125182
-2685.9197242164287,-1054.2870824679237,-21316.165782948232,-16225.26541057413
-7155.262786777353,-4709.914888133394,-21663.62365050598,-19493.604540062493
-10227.822986581685,-6750.740915625205,-21373.43095224273,-20719.86594436955
-8944.184654257853,-5679.60061783798,-20882.0278503928,-19590.141724364963
-4395.805823302963,-2215.05787552093,-20709.405327964465,-16766.647013026122
-2717.502739131777,-1087.3229607728674,-21297.63618679478,-16264.626832559925
-7204.682493768036,-4752.249092131745,-21640.7578159282,-19531.893078314435
-10237.769512864294,-6761.872084363948,-21343.770187350536,-20726.37030200604
-8930.393627928928,-5676.896056758887,-20866.31457404072,-19593.472134288804
-4371.48712533559,-2198.33877066836,-20718.547191446687,-16763.22719612446
-2749.4880854473217,-1111.0381616399482,-21310.51079160104,-16300.233161477228
-7248.469561155983,-4776.076051721103,-21627.95026635531,-19554.20011928083
-10239.490597187352,-6744.460075433264,-21341.53501290501,-20701.604569149564
-8883.454964572784,-5628.437474779782,-20853.97641110139,-19542.733674375257
-4307.583487937866,-2135.128037348752,-20698.587083648097,-16703.43627970651
-2772.197457813914,-1125.298574602434,-21310.51079160104,-16311.207868004783
-7310.674465975102,-4829.474369224831,-21634.58873445853,-19592.84628544405
-10261.909396876026,-6765.62717743244,-21348.017018797043,-20718.12250830204
-8862.600786995983,-5616.25577405164,-20863.69941993945,-19551.160282034907
-4271.731289831554,-2106.115473045764,-20711.17111577644,-16706.409061719067
-2798.907792438006,-1144.945757978649,-21305.325186887407,-16354.838473181544
-7347.554844326359,-4855.178875348434,-21622.11646105248,-19631.537155096197
-10258.668393930006,-6757.044107561602,-21337.243477969587,-20729.16427006296
-8811.21412649323,-5577.34138695495,-20866.38162927409,-19538.53154641766
-4205.7265884550325,-2055.734641043501,-20716.557886190163,-16686.806581831763
-2808.8766704650725,-1153.774697038495,-21331.54378313348,-16394.691633545357
-7360.988242743999,-4857.05642188268,-21644.62466771897,-19658.247489720285
-10245.21264376791,-6735.2288049732215,-21352.12973977682,-20735.802738166185
-8765.50480908213,-5535.230700401152,-20886.2299783504,-19534.01649403769
-4156.463343675536,-2011.25466957744,-20763.40714256849,-16684.482000408414
-2831.22841492038,-1166.4481361446544,-21373.386248753817,-16441.429131201403
-7406.116414799263,-4887.588904808629,-21666.28350809616,-19711.087013612632
-10251.78405663777,-6735.005287528669,-21366.32309750594,-20755.47227328685
-8717.783834670048,-5491.689502202214,-20883.905396927046,-19520.62779910896
-4095.1748603790834,-1950.904959548111,-20752.41008429648,-16666.377087399615
-2845.667641838508,-1164.2129616991238,-21368.424161484734,-16481.729326454322
-7450.551682776414,-4902.184593937945,-21662.90839468341,-19757.57864207967
-10273.040565614769,-6729.037371759102,-21355.638963656304,-20779.433343342946
-8704.596305441417,-5463.213379766153,-20872.528358999298,-19527.42272942337
-4067.034014109852,-1914.3822091081397,-20758.333296577133,-16657.6822588065
-2885.4537469689544,-1186.9223340657156,-21398.37549905485,-16514.161707658972
-7499.680817089179,-4930.995992540836,-21684.09784842704,-19787.75349709433
-10285.959873909937,-6725.125816479424,-21366.9936498396,-20777.421686341964
-8669.682880602228,-5426.355353159351,-20869.175597331,-19497.113763941976
-4027.024391534853,-1870.885714398112,-20760.3002500892,-16625.94278167996
-2931.900671947082,-1214.4820349791094,-21411.786545728035,-16545.521205129768
-7547.647660690268,-4960.07561207719,-21692.457400853327,-19806.95364558144
-10290.31846407872,-6724.164691467845,-21368.31240276246,-20767.0504769147
-8634.747104018583,-5405.031788948988,-20878.429219535497,-19479.23236837773
-3976.621207788135,-1835.011164547344,-20765.26233735828,-16597.75723192182
-2939.3214511062447,-1226.4625700071538,-21407.20443811469,-16551.89145229953
-7569.865294678842,-4987.478850779396,-21676.341793101048,-19815.20143928545
-10287.926827422005,-6737.083999763013,-21357.449454957183,-20768.52569204875
-8587.339054028876,-5387.0386346624655,-20864.057047850736,-19463.250871092187
-3935.516349734825,-1821.7565800853467,-20761.10491288959,-16594.315063275702
-2977.006492257892,-1273.0212537075583,-21378.080115089437,-16611.43649952847
-7598.631989792823,-5021.073522695723,-21616.126193538454,-19860.307259596266
-10266.066821344712,-6729.149130481378,-21304.632282809293,-20779.2545293873
-8534.1642539697,-5358.674270948681,-20829.009512544813,-19456.43358903332
-3869.176372191474,-1783.1551174110316,-20734.61809571005,-16575.405487466513
-2995.156108755601,-1306.9288500462592,-21403.67286249076,-16648.674505791012
-7631.667868097767,-5065.6652528840605,-21659.890909181944,-19894.97481524644
-10257.729620662883,-6739.520339908641,-21338.56223089245,-20781.31088987719
-8488.186715625134,-5343.206863785608,-20870.65081246505,-19450.733894197216
-3822.751798957801,-1762.1444776230428,-20776.77348575276,-16570.46575194189
-3010.869385107683,-1331.806341625016,-21423.29769412252,-16687.03009927632
-7664.502580702613,-5098.276448044354,-21649.27383056567,-19932.95042907601
-10251.2699665153,-6732.747761338683,-21327.632227853803,-20781.512055577285
-8447.998279094492,-5312.137938992732,-20871.410771776533,-19433.433643988807
-3776.014301301754,-1726.8063696392023,-20788.776372525263,-16555.579490134656
-3032.729391184973,-1348.972481366692,-21441.67082806478,-16716.15442230158
-7682.272217544582,-5100.466919000974,-21677.48173206827,-19944.998019337418
-10252.946347349449,-6719.873156532426,-21351.682704887717,-20787.725840535863
-8409.083891997801,-5274.2740838854415,-20873.042449121767,-19419.9331903378
-3716.1339779059854,-1674.6821015694263,-20792.15148593801,-16529.78557703323
-3056.3104815853217,-1369.357272309932,-21457.58527011696,-16753.995925664418
-7737.637488560377,-5139.224843886476,-21696.88304625548,-19990.05913615932
-10266.469152744909,-6721.840110044493,-21380.13647557932,-20793.93962549444
-8385.726319042005,-5248.70368822857,-20905.340719859687,-19398.98960578318
-3691.5917624940594,-1649.1117059125552,-20817.38660542805,-16504.483402309823
-3097.9070780166485,-1403.4660343487303,-21474.371430202893,-16772.905501473608
-7786.118422283938,-5178.496858894451,-21688.72465952929,-20010.33216838028
-10280.528400007295,-6732.278374705122,-21359.148187535782,-20795.548951095217
-8343.50387376593,-5221.166339059632,-20877.535149757285,-19377.75544855064
-3642.037945036644,-1615.9417171408793,-20790.944491737428,-16487.22785559033
-3131.5241016774303,-1432.2774329516212,-21462.122674241386,-16813.764490337908
-7816.762663932164,-5204.491937695973,-21691.00453746373,-20039.36708442773
-10284.529362264797,-6742.269604476644,-21357.918841590745,-20800.108706964103
-8301.013207556392,-5197.451138192551,-20872.08132411019,-19361.41632335381
-3596.9097729813784,-1587.689112149371,-20792.799686527214,-16474.666175206446
-3167.3762997837425,-1473.2481805381992,-21461.9662120302,-16854.042333846373
-7853.17365564986,-5241.9311096586125,-21662.23784234975,-20056.600279402766
-10267.072649845202,-6735.80995032906,-21338.785748337003,-20785.60242481261
-8253.627509311142,-5175.926408282091,-20866.471036251907,-19339.10928238741
-3548.182970068809,-1565.0691467606005,-20797.426497629465,-16451.912099350942
-3195.4724425640634,-1509.4356548113412,-21484.02738380759,-16893.5378662989
-7890.456365401312,-5282.164249678165,-21692.39034561996,-20095.13468684372
-10270.2242458134,-6750.271528991643,-21374.682649932223,-20802.790916298734
-8210.019255878837,-5153.9993469714345,-20894.76834473233,-19326.03351188105
-3497.6903793442702,-1535.989527224246,-20826.32730321017,-16433.96364855333
-3225.4461318786302,-1539.9681377372906,-21504.14395381736,-16922.908058513174
-7916.5184994362,-5300.380921409241,-21688.94817697384,-20111.473812040545
-10261.685879431472,-6739.319174208543,-21358.142359035297,-20788.955186480904
-8178.480944452399,-5131.669954260583,-20896.243559866376,-19307.97330236117
-3469.9742162196894,-1517.862262470992,-20840.87828885058,-16420.68671234688
-3263.3770422192865,-1575.149783509944,-21513.01759636612,-16952.16649200517
-7965.24530234877,-5341.642241673737,-21693.016194464708,-20130.629257038745
-10268.100830090145,-6746.784656856616,-21356.644792156792,-20780.5062270768
-8144.550996369243,-5110.368741794675,-20892.80139122026,-19276.65850837928
-3431.909195412302,-1489.6767127128498,-20843.29227725176,-16390.19893290984
-3305.331266561898,-1609.437359504385,-21522.91941915982,-16979.614434196286
-8011.021674993239,-5372.107669366321,-21696.5701218331,-20149.203556681103
-10273.80052492625,-6744.0353922886125,-21368.62532718484,-20775.96882295237
-8100.451004558922,-5072.303720987287,-20897.27174011132,-19254.99966800209
-3388.6585698912827,-1457.4902006972077,-20850.578945944184,-16375.580892036069
-3340.937595479202,-1650.0281274352226,-21549.11566366144,-17022.529783550475
-8034.088675271115,-5400.44968133565,-21712.14928771845,-20171.17532148067
-10253.996879338849,-6736.346392195987,-21369.76526615206,-20767.58691878163
-8055.21107378138,-5046.509807885863,-20901.384461091096,-19231.083301434912
-3347.285490904509,-1433.909110296859,-20854.378742501587,-16353.117388858484
-3368.564351625961,-1681.6558458394825,-21539.54911703457,-17042.55694658243
-8060.821361639662,-5424.388399647284,-21696.614825322013,-20172.04703951443
-10252.07462931569,-6743.901281821881,-21356.84595785689,-20754.242927341813
-8012.139262216004,-5026.795569276282,-20890.588568519182,-19199.41087954174
-3305.934763662191,-1413.0549327200572,-20846.0191900753,-16319.768586131167
-3394.2688577495646,-1715.8763666005573,-21542.611306024948,-17055.52095836651
-8097.746443479829,-5466.230865267618,-21696.03367996617,-20189.593158911845
-10247.738390891362,-6750.38328771392,-21346.07241702943,-20747.492700516308
-7983.841953735585,-5017.229022649411,-20876.104638112145,-19185.642204957272
-3269.3226062443982,-1398.2804296350992,-20841.727655139883,-16309.889115081922
-3447.1754368752763,-1770.68284400497,-21525.758090705647,-17114.037825350504
-8148.864883049117,-5511.694313489713,-21649.027961376665,-20232.48615652158
-10237.322477975187,-6750.00330805818,-21295.624529793804,-20744.60932548157
-7912.5175371787,-4977.353510541143,-20834.776262614283,-19153.70156213064
-3225.8931667677366,-1383.5506300390518,-20829.143623011547,-16307.877458080944
-3477.9537889902344,-1809.26195493483,-21520.17015459182,-17149.599450778896
-8164.511104167832,-5533.33080212245,-21639.215545560783,-20238.141147868773
-10234.796730851738,-6760.083944807523,-21284.11338139932,-20747.425645282943
-7886.053071743617,-4972.726699438894,-20836.43029170397,-19152.896899330248
-3171.623131230251,-1359.5001530051416,-20823.01924503079,-16290.107821238977
-3508.5980306384604,-1852.8702083671344,-21528.55205876256,-17188.49148613113
-8208.968723889438,-5572.602817130425,-21645.51873749718,-20274.01569771954
-10224.514928402295,-6750.2491772471885,-21285.94622444465,-20743.91642140346
-7819.131948844427,-4922.234108714355,-20839.067797549706,-19114.11662270029
-3115.810825325349,-1316.1377687618458,-20835.335056225667,-16264.068038948542
-3533.922557106323,-1872.8973713990893,-21536.106948388453,-17224.83542261546
-8228.10181714318,-5582.839916090956,-21631.884173379443,-20293.39466016229
-10215.060140497702,-6740.213243986756,-21271.283480081973,-20743.58114523663
-7788.2194862627375,-4895.344960134621,-20822.37104444159,-19104.01363420649
-3097.817671038827,-1293.0260649950585,-20835.156242270023,-16269.41010587336
-3585.935066453823,-1901.9993426798992,-21522.24886682616,-17271.908196438337
-8291.73723360744,-5616.814567663022,-21586.91246353537,-20325.98350357813
-10243.491559444852,-6751.880854592426,-21209.279740962957,-20753.795892452705
-7770.092221509483,-4876.122459903057,-20765.508206547285,-19095.184695146643
-3081.4785458419974,-1281.581971833941,-20797.426497629465,-16262.88339649241
-3653.258520753208,-1964.7630411104012,-21512.905837643844,-17318.37747316092
-8340.665202220107,-5661.160428662352,-21597.373079940447,-20348.044675355515
-10245.83849261266,-6758.318156995554,-21226.758805127003,-20747.15742434948
-7741.459636862235,-4863.225503352345,-20791.615044071084,-19077.3032995824
-3053.181237361579,-1268.6403117943182,-20812.3127594367,-16253.450960332271
-3697.403216052439,-2008.5724602428036,-21526.96508490623,-17360.264642270165
-8380.496010839464,-5698.018455269153,-21615.14271678242,-20378.577158281467
-10242.061047799712,-6760.039241318613,-21252.35155252833,-20756.76867446526
-7690.542362993046,-4825.875738367527,-20801.628625587065,-19061.545319741406
-3012.478710708465,-1236.297337567489,-20814.570285626687,-16249.204128885762
-3738.686888061391,-2042.6812222816015,-21520.28191331409,-17412.143041150935
-8423.657229382663,-5733.758894653189,-21600.032937530632,-20418.117394222903
-10233.746198862338,-6755.591244172007,-21222.51197368049,-20754.33233431963
-7668.034156326552,-4811.682380638406,-20783.2554916448,-19053.34222952631
-2990.037559275336,-1225.255575806567,-20811.821021058684,-16241.202204370762
-3766.917141308444,-2070.509144128459,-21498.77953514809,-17435.63472457346
-8435.973040577537,-5739.235072044739,-21562.526710334627,-20419.592609356954
-10210.07570148417,-6736.793427085094,-21197.388612912728,-20737.881450400528
-7594.519268813046,-4757.837028245572,-20770.850273472104,-19010.1363074942
-2928.9502416789824,-1177.1546217387463,-20813.162125726,-16209.10509933294
-3800.712978924869,-2099.6334671537243,-21527.52387851761,-17467.329498211086
-8466.52787524794,-5762.547941511624,-21585.16902746785,-20433.629504874887
-10204.264247925788,-6733.910052050359,-21203.892970549223,-20729.92422937444
-7559.44938176267,-4736.2452431017455,-20761.5519477787,-18985.884664760197
-2889.6111714376416,-1153.8417522718612,-20794.96780573938,-16182.618282153402
-3823.355296058094,-2127.260223300484,-21502.95931136123,-17484.294472252666
-8489.684282503638,-5783.066842921597,-21550.099140417475,-20437.94339155476
-10182.292483126224,-6718.844976287482,-21169.605394554783,-20707.348967474576
-7490.315436162405,-4689.865373356984,-20756.20988085388,-18944.75745496243
-2859.324557700701,-1141.7047550326297,-20836.02796030378,-16181.38893620836
-3885.9848840218647,-2184.033654216964,-21563.59959406848,-17537.871603712036
-8541.428570917675,-5825.758674831232,-21594.15442873889,-20466.128941312905
-10196.239971666331,-6736.838130574004,-21199.646139102715,-20713.16042103296
-7472.434040598159,-4682.757518620196,-20768.34687809311,-18928.50773674342
-2840.9737755028937,-1132.8981677172385,-20832.3175707242,-16164.20044472223
-3936.96921312442,-2231.598166417857,-21558.8386724995,-17569.00758373828
-8571.290501509966,-5855.307681001149,-21589.438210658816,-20476.991889118184
-10179.476163324853,-6734.468845661741,-21195.689880334125,-20700.62109239353
-7417.806377149389,-4653.230864194735,-20782.02614569976,-18900.143373029638
-2802.50642329531,-1115.3967518087331,-20856.41275124702,-16149.425941637272
-3966.875847205621,-2269.573780247424,-21556.71525677625,-17597.729575363348
-8598.738443701082,-5883.515582503746,-21581.25747218817,-20493.06279338155
-10168.032070163736,-6729.2385374592,-21181.83179877184,-20694.161438245945
-7372.342928927294,-4628.018096449148,-20750.24196508431,-18876.182302973542
-2760.663957674976,-1098.878812656261,-20817.78893682825,-16129.04115069403
-3994.390844630104,-2308.5775743219347,-21541.65018101337,-17622.24943903082
-8618.966772433136,-5906.269658359249,-21578.821132042543,-20504.506886542666
-10138.058380849168,-6714.508737863152,-21183.82110402836,-20682.449124151364
-7297.352826279739,-4579.693624936775,-20764.86000595808,-18841.045360689805
-2713.2112041963583,-1074.8059838778954,-20842.50996619582,-16122.04505467952
-4024.6551066225898,-2343.669813116767,-21548.98155319471,-17668.53990179776
-8620.777263734015,-5910.941172950408,-21550.523823562125,-20511.838258724005
-10109.38109271301,-6697.677874288306,-21152.88628970221,-20667.80873153314
-7247.307270444307,-4550.792819356063,-20739.893107401505,-18818.514802278853
-2674.140354888482,-1057.7516028584962,-20837.61493416011,-16108.254028350597
-4064.2176943084833,-2387.5462874825344,-21551.954335207265,-17696.904265511545
-8655.690688573204,-5942.859464032586,-21559.285707388604,-20522.388282106916
-10101.893258320482,-6699.488365589186,-21172.064086444865,-20654.53179532669
-7211.008037448888,-4529.335144678968,-20760.322601833654,-18791.24567404338
-2653.8002674341524,-1046.7768963309404,-20841.92882083998,-16097.23461833413
-4110.642267542156,-2426.8406542349644,-21543.21480312524,-17728.531983915804
-8693.219267513665,-5974.911865581497,-21544.39944558137,-20532.58067757853
-10099.456918174854,-6705.65744705885,-21144.07970238682,-20643.646495776957
-7165.343423526696,-4507.363379879401,-20738.46259575637,-18760.467321928423
-2621.5690519295995,-1037.143294470703,-20854.289335523765,-16083.287129794018
-4155.993957041974,-2479.4790124272126,-21557.676381787824,-17771.983775136923
-8730.390218542841,-6010.115863098606,-21536.956314677755,-20563.314326204578
-10075.585255096586,-6687.105499160945,-21131.585077236305,-20635.73397823977
-7102.35620765164,-4454.12152458686,-20721.65408392597,-18729.06312096872
-2583.03464448865,-1005.761445255452,-20828.853050333622,-16075.620481445849
-4189.968608614041,-2510.369123264447,-21520.37132029192,-17809.91468547758
-8742.527215782073,-6020.308258570226,-21516.660930712336,-20575.36191646599
-10059.290833388666,-6683.775089237105,-21130.26632431344,-20643.49003356577
-7051.126009360077,-4430.518082442055,-20724.51510721625,-18715.94264697345
-2548.232978371737,-994.1161863942368,-20838.129024282574,-16073.85469363388
-4243.344574373314,-2565.8685047469744,-21549.36153285045,-17865.659936149113
-8780.636940078371,-6053.657061297544,-21525.73573896119,-20597.579550454564
-10042.616432025008,-6673.985025165681,-21125.32658878882,-20626.88268743547
-7006.62368614956,-4400.522041383033,-20730.550078219185,-18688.31589082669
-2520.06978035805,-982.1356513661924,-20848.187309287467,-16062.455303961671
-4271.463068898091,-2594.2328684607587,-21540.711407746247,-17881.01558458991
-8792.013978006122,-6065.503485858856,-21510.245980053664,-20596.394907998438
-10019.2141555803,-6668.173571607301,-21097.386908219687,-20617.33849255305
-6937.199167871377,-4359.506590307545,-20704.599702906573,-18656.30819276669
-2487.011550308651,-967.5399622368768,-20860.41371350452,-16064.310498751462
-4312.858499629319,-2638.71283992682,-21552.55783230756,-17929.49651831347
-8806.229687479698,-6085.575352379722,-21512.63761671038,-20613.98573088476
-9983.83134410755,-6654.740173189661,-21107.1322688022,-20610.118879093992
-6882.303283489142,-4333.578566739388,-20724.67156942744,-18638.717369880364
-2458.7589453171427,-962.8460959012624,-20883.436010293488,-16067.79737088649
-4350.834113458885,-2682.790479992685,-21566.21474816975,-17973.8423793128
-8838.639716939893,-6114.274992260336,-21517.53264874609,-20633.3199898386
-9992.392062233934,-6659.188170336267,-21121.973827120524,-20605.76028892521
-6853.469533141796,-4302.531993690967,-20744.60932548157,-18612.92345677894
-2451.137000457883,-948.183351538581,-20903.2843593698,-16056.912071336756
-4419.364561958857,-2727.605727625576,-21605.777335855644,-18008.398176240706
-8897.491860090717,-6141.477065262445,-21549.383884594907,-20653.07893193709
-9995.923637857872,-6641.150312560834,-21139.69876047358,-20594.89734111993
-6833.330611387564,-4262.74588856052,-20770.15736939399,-18586.39193611049
-2454.1544859593496,-921.0930372587488,-20941.975229021937,-16054.207510257664
-4489.034949426049,-2755.4112977279783,-21621.982350585746,-18053.973383185075
-8945.05637229161,-6150.708335722487,-21558.6375067994,-20671.250900179257
-10006.831289152062,-6628.052190310024,-21144.99612390949,-20602.31812027909
-6811.224736121266,-4226.804283476386,-20755.315811075667,-18576.55716855016
-2455.495590626668,-910.1853859645588,-20925.56904859174,-16062.544710939494
-4559.465296204722,-2801.187670372447,-21609.934760324333,-18098.96744477361
-8987.748204201247,-6168.142696397626,-21535.145823376875,-20679.99043226128
-9989.732204643751,-6609.410835434299,-21119.80570790836,-20584.704945648307
-6757.692308150806,-4185.0065213449625,-20737.568525978157,-18543.364828034024
-2425.186625145272,-885.2408391524363,-20904.938388459494,-16045.803254342469
-4590.0871861084925,-2822.0418479492487,-21578.75407680918,-18118.614628149822
-9006.188393376875,-6186.158202428604,-21511.721195187714,-20698.98941504829
-9974.443611436322,-6607.108605755402,-21099.353861731757,-20585.464904959787
-6706.864441259438,-4153.803486085354,-20730.48302298582,-18523.42707197989
-2407.9757819146853,-886.0678536972825,-20917.70123454347,-16065.65160341878
-4629.24744239419,-2873.9425985744715,-21613.04165280362,-18185.80397198248
-9021.097006928563,-6212.287391696857,-21534.8328989545,-20732.561735220163
-9941.653602320386,-6600.268971952078,-21096.671652397115,-20590.471695717777
-6646.939414374759,-4124.701514804544,-20733.56756372065,-18512.407661963425
-2385.981665370663,-881.0163594503832,-20931.983999250413,-16074.726411667636
-4687.093757044525,-2927.877357945128,-21604.927969566343,-18236.69889410721
-9053.909367788956,-6233.923880329595,-21518.56082899104,-20746.620982482556
-9926.655581790876,-6582.700500810207,-21095.576416918804,-20582.06743980258
-6611.713065113195,-4090.503345787925,-20734.95337187688,-18495.263873966203
-2376.526877466068,-871.2039436345034,-20930.598191094185,-16076.916882624257
-4735.664097745907,-2969.853934032194,-21592.388640926914,-18277.53553122706
-9068.862684829555,-6242.775171133897,-21484.45206695224,-20752.7006569744
-9894.916104664338,-6558.694727265207,-21061.959393258025,-20563.64960237141
-6543.517892780053,-4043.9893655764304,-20706.924284329925,-18460.685725293843
-2335.9584612796857,-848.1592951010819,-20919.66818805554,-16072.51358896656
-4768.163534183924,-2997.21246924549,-21592.478047904737,-18311.510182799124
-9097.472917732348,-6262.310595787835,-21485.21202626372,-20775.030049685247
-9886.780069682609,-6553.777343485039,-21059.7689223014,-20568.96931755177
-6501.206040526157,-4011.244059949405,-20698.85530458156,-18438.15516688289
-2316.3559813923816,-838.5927484742103,-20911.75567051836,-16068.870254620346
-4815.392770217988,-3040.93248140007,-21596.9483967958,-18350.71514257373
-9130.441740803926,-6285.087023387793,-21506.13325907389,-20790.89978824852
-9883.807287670052,-6551.944500439704,-21077.35974518773,-20568.030544284647
-6457.731897560585,-3980.3763008566266,-20727.30907527317,-18419.31264630707
-2307.951725477186,-840.1573705860819,-20966.09276128921,-16082.258949549074
-4883.3420733621215,-3098.443519883576,-21642.72476944027,-18406.90742813437
-9172.731241313368,-6305.069482930838,-21539.12443388992,-20807.462430889896
-9864.85300837195,-6524.831834415417,-21103.10895480025,-20556.02765751215
-6411.530841771465,-3934.734038678889,-20742.687075458416,-18400.00073909769
-2291.88082121382,-820.8678151211519,-20967.92560433455,-16090.394984530803
-4911.058236486702,-3113.039209012891,-21624.99983608721,-18439.540975039123
-9196.982884047377,-6319.061674959859,-21519.11962260242,-20833.993951558343
-9849.966746564716,-6516.852261644872,-21075.88453005368,-20562.53201514864
-6352.008146286982,-3899.10535801713,-20717.27314201273,-18378.364250464947
-2272.21128609315,-819.8396348762077,-20953.57578439424,-16098.933350912734
-4954.2194550299,-3163.0177096149578,-21613.779260370644,-18483.305690682613
-9206.549430674248,-6340.072314747848,-21494.91268335732,-20843.49344295185
-9821.065940984005,-6518.416883756743,-21059.5230531124,-20559.26866045817
-6296.173488637625,-3879.301712429728,-20718.413080979957,-18360.41579966733
-2247.154980558751,-825.1593500565708,-20966.74096187841,-16105.147135871308
-4985.757766456338,-3209.5763933153626,-21611.365271969476,-18517.39210097696
-9215.803052878744,-6360.077126035349,-21494.890331612867,-20846.957963342426
-9789.37116734638,-6507.777453396017,-21072.464713152018,-20538.436834625823
-6239.534168187877,-3845.461171324393,-20747.15742434948,-18320.98732244817
-2222.858634335832,-815.0787133072273,-20995.909988392592,-16092.56310374297
-5023.152234930067,-3245.8979780552363,-21635.795728659123,-18542.135482088983
-9244.457989270448,-6386.4968879815215,-21507.049680596552,-20855.205757046435
-9772.540303771531,-6506.1234243063245,-21074.65518410864,-20523.952904218782
-6190.449737364022,-3820.293107067717,-20762.021334412257,-18290.074859866483
-2210.028733018486,-822.2312715329256,-21023.78261372836,-16089.813839174967
-5068.079241285234,-3296.815251924426,-21664.58477551756,-18575.57369179412
-9253.845721941678,-6398.03038812046,-21523.45586102675,-20851.76358840032
-9744.6006232024,-6490.52190667652,-21082.254777223443,-20504.752755731675
-6129.720047678954,-3773.488554178304,-20755.71814247586,-18251.115769280885
-2198.316418923905,-813.2682220063475,-21029.079977164267,-16093.56893224346
-5127.020791413879,-3343.061011202456,-21667.93753718585,-18621.372416183047
-9291.59781832669,-6420.113911642303,-21523.20999183774,-20869.868501409117
-9727.948573583197,-6470.003005266548,-21067.45792239403,-20490.067659624536
-6089.5986663816775,-3742.799609041168,-20738.641409712007,-18219.82332704345
-2204.1278724822846,-828.0427250913054,-21037.77480575738,-16098.687481723724
-5199.8427748492695,-3413.737227170137,-21670.507987798213,-18665.02537310426
-9330.713371123478,-6459.22946443909,-21526.674512228317,-20874.517664255814
-9709.955419296672,-6472.104069245347,-21087.08275402579,-20466.844197135477
-6035.507444799834,-3714.5470040496593,-20756.96984016536,-18183.41233532576
-2180.0103402150085,-822.3430302552022,-21045.933192483568,-16091.289054309018
-5210.549260443361,-3430.8810151673574,-21669.99389767574,-18673.250815063813
-9325.170138498564,-6460.391755150767,-21517.24207606817,-20870.248481064857
-9685.904942262763,-6465.934987775682,-21074.54342538636,-20468.09589482497
-5990.938066355952,-3692.441128783361,-20756.545157020708,-18171.968242164643
-2163.2018283846173,-825.4946262234005,-21054.315096654307,-16097.815763689969
-5254.269272597941,-3478.244361668153,-21667.55755753011,-18704.923236956984
-9352.61808068968,-6483.57051415092,-21518.605532479945,-20872.41660027702
-9659.596939038864,-6449.75232479004,-21076.89035855417,-20443.39721720185
-5915.299763119193,-3643.58021540406,-20753.68413373043,-18123.375549718803
-2139.978365895553,-820.7784081433307,-21055.343276899253,-16091.534923498026
-5314.551927393905,-3538.8846443754014,-21675.33596460056,-18751.414865424023
-9377.42851703507,-6506.615162684341,-21523.031177882094,-20876.551673001253
-9632.014886381015,-6438.107065928825,-21073.425838163595,-20421.00076925764
-5871.110364331051,-3620.110883725987,-20751.337200562622,-18088.79740104645
-2144.448714786615,-834.8153036612634,-21072.10708524073,-16093.010138632077
-5355.634433702759,-3578.9836739282223,-21676.7664762457,-18775.15241803556
-9403.021264436396,-6532.3420205524,-21500.05358458204,-20890.65562375255
-9622.023656609495,-6438.174121162191,-21032.65625627712,-20425.605228615437
-5824.909308541931,-3585.510383309172,-20716.66964491244,-18074.38052587277
-2127.8413686563217,-827.573338457744,-21040.054683691826,-16102.66609223677
-5395.0182074330105,-3612.846566778013,-21645.89871715292,-18810.4905260194
-9420.500328600448,-6541.148607867791,-21476.696011626245,-20895.17067613252
-9591.781746361465,-6418.214013363602,-21026.084843407258,-20404.66164406081
-5768.471153792281,-3550.8875311479014,-20737.143842833502,-18043.33395282435
-2129.718915190568,-842.0349171203277,-21069.246061950453,-16126.940086715233
-5446.315460957941,-3660.433430723361,-21656.40403704692,-18865.56522435728
-9441.980355021997,-6553.173846384746,-21480.987546561664,-20916.85186825417
-9567.239530949537,-6396.823393919873,-21028.34236959724,-20405.55571383902
-5722.761836381178,-3510.6543911283484,-20733.07582534264,-18032.8062811859
-2121.158197064185,-833.250681549392,-21086.725126114503,-16138.451235109716
-5489.789603923512,-3689.736567704269,-21679.985127447264,-18899.11519278469
-9485.20862879856,-6577.358433885388,-21509.50837248664,-20942.936354033514
-9568.245359450026,-6392.420100262178,-21051.9681634865,-20405.37689988338
-5681.500516116681,-3472.9469982322453,-20752.00775289628,-17999.390423225217
-2134.859816415288,-839.5762252302438,-21096.96222507504,-16143.994467734632
-5557.448334389727,-3739.245681672774,-21679.76161000271,-18926.69724544254
-9494.998692869984,-6575.97262572916,-21494.53270370158,-20914.549638575278
-9525.821748473852,-6358.758373112485,-21039.428834847076,-20365.03200114155
-5612.455977494237,-3425.2260238201648,-20738.887278901017,-17951.55769009086
-2123.058095342886,-844.605367732688,-21105.99232983498,-16150.297659671029
-5603.112948311919,-3785.3126269951617,-21681.34858385904,-18971.154865164142
-9514.847041946296,-6594.859849793894,-21488.85536060993,-20936.29788593029
-9498.664378960657,-6353.326899209846,-21036.858384234714,-20359.198195838715
-5564.779706571067,-3405.4447299772182,-20753.86294768607,-17927.484861312492
-2114.832653383333,-851.3555945581907,-21119.023396852423,-16148.934203259256
-5627.54340500157,-3810.614801718569,-21679.314575113603,-18975.647565799663
-9533.421341588655,-6617.099835526924,-21489.14593328785,-20930.08410097171
-9473.138686792694,-6344.967346783561,-21032.27627662137,-20337.204079294694
-5512.297810590007,-3371.6041888718837,-20759.20501461089,-17896.30417779734
-2120.934679619632,-865.2136761204811,-21133.79789993738,-16167.083819756965
-5691.961132521765,-3871.165677447996,-21696.167790432908,-19030.07406354833
-9553.359097642791,-6636.098818313935,-21488.318918743007,-20943.0928162447
-9448.10473300275,-6329.589346598309,-21018.48525029245,-20326.83286986743
-5457.111353529854,-3325.1349121493,-20744.2964010592,-17862.77656111438
-2121.4934732310144,-863.4702400529671,-21134.200231337574,-16174.661061127314
-5735.681144676345,-3905.2744394867946,-21706.06961322661,-19059.086627851324
-9566.256054193504,-6640.3680015048985,-21514.6269219669,-20941.79641506629
-9423.6742763131,-6311.596192311788,-21038.15478541312,-20310.627855137333
-5413.480748353094,-3289.707397187638,-20752.61124999657,-17832.71346482199
-2123.505130231992,-862.151487130104,-21142.04569364139,-16179.980776307675
-5792.2310581482725,-3949.575596997213,-21693.28441539817,-19099.16330565969
-9582.6622346237,-6643.653707939829,-21499.11481131492,-20942.019932510848
-9387.151525873129,-6277.286264572891,-21040.099387180733,-20286.53267461451
-5355.813247658401,-3242.768733831493,-20769.77738973825,-17802.069223173767
-2125.472083744059,-863.023205163861,-21172.108789933776,-16195.001148581645
-5824.909308541931,-3968.708690250957,-21728.466061170824,-19126.45478563962
-9599.761319132009,-6652.12501908839,-21520.706596458745,-20955.96742105096
-9364.151580828617,-6262.556464976843,-21042.64748604864,-20285.996232747584
-5306.594706367816,-3203.7649397569826,-20769.30800310469,-17784.85837994318
-2129.651859957202,-872.0756616682604,-21179.306051648386,-16218.403425026348
-5858.0345938246965,-4003.398597645593,-21706.62840683799,-19155.735570876077
-9611.60774369332,-6662.853856426937,-21497.751354903143,-20963.00822055438
-9348.32654575426,-6256.789714907374,-21024.63198001766,-20289.706622327165
-5258.247883110987,-3171.8913521637146,-20752.00775289628,-17768.98864137991
-2126.0085256109865,-873.7520425024084,-21160.95526945058,-16234.429625800803
-5914.696266018899,-4050.001984834908,-21691.9209589864,-19206.11640287833
-9636.127607360791,-6680.869362457916,-21495.58323569098,-20979.079124817745
-9306.059396989274,-6226.838377337263,-21041.06051219231,-20268.96420347264
-5202.301466739353,-3132.351116222276,-20783.97074746737,-17748.760312647857
-2141.677098474157,-896.0143799798942,-21204.11648799377,-16276.69677456579
-5963.244254975826,-4094.973694678986,-21720.19591572236,-19265.348525684894
-9654.947776192164,-6699.935400478292,-21510.91653238732,-21007.82346818727
-9280.489001332404,-6223.083284268771,-21043.005113959924,-20276.80966577645
-5145.528035822873,-3105.976057765014,-20780.05919218769,-17732.287076984296
-2145.409839798193,-915.505101144922,-21200.2049327141,-16300.769603344155
-6013.535680000267,-4147.075611004307,-21710.58466560658,-19308.53209597255
-9666.257758886548,-6715.134586707901,-21499.6736049263,-21012.092651378232
-9246.089666615686,-6204.307818926313,-21040.948753470035,-20260.537595812988
-5090.766261907371,-3065.050013667347,-20775.410029340987,-17703.2298091924
-2152.495342790525,-926.5692146502988,-21206.552828139404,-16318.427481463848
-6070.890256272585,-4199.512803496457,-21716.93256103189,-19351.49214881565
-9688.453041130668,-6733.775941583627,-21491.269349011105,-21022.486212549957
-9218.999352335852,-6189.84624026373,-21011.3103403223,-20247.10419739535
-5045.503979385374,-3034.1599028301125,-20765.530558291743,-17677.79352400226
-2166.867514475288,-944.1600375366256,-21212.49839216452,-16332.620839192969
-6117.024256828339,-4242.405801106191,-21712.5739708631,-19380.571768352005
-9723.366465969855,-6766.05186057709,-21488.9224158433,-21042.848651748736
-9214.216079022415,-6192.819022276285,-21014.484288034957,-20249.29466835197
-5008.891821967581,-3011.0034955744145,-20770.82792172765,-17652.87132893459
-2184.123061194785,-963.471944746011,-21225.01536905949,-16342.299144542116
-6154.642242746621,-4276.112231744794,-21701.33104340208,-19397.894370304868
-9716.839756588908,-6765.068383821057,-21456.73590382766,-21028.051796919324
-9168.171485444484,-6169.573208042766,-20974.2511480154,-20223.545458739456
-4952.744239895849,-2979.0628527477807,-20736.138014333013,-17628.172651311477
-2192.0579304764187,-986.851869446262,-21200.786078069938,-16371.758743734212
-6208.621705606188,-4339.233558086581,-21678.08522916856,-19454.51133901016
-9735.83873937592,-6789.945875399813,-21436.932258240256,-21045.374398872187
-9131.13464488204,-6157.547969525811,-20964.68460138853,-20213.26365629001
-4890.427576354454,-2946.406954098577,-20730.68418868592,-17601.462316687386
-2208.553517884436,-1012.2210994030356,-21202.775383326458,-16397.39619462445
-6260.544807975866,-4384.29467490848,-21661.56729001609,-19492.1516766729
-9740.97964060064,-6791.443442278319,-21415.18401088524,-21042.803948259825
-9095.014225842266,-6131.5081872353785,-20942.914002289057,-20193.92939733617
-4831.351915759077,-2901.6364099545967,-20707.32661573012,-17571.46627562836
-2202.406788159226,-1016.8479105052842,-21185.16220869568,-16415.992846011264
-6300.643837528687,-4423.186710260715,-21651.106673611008,-19533.39064519294
-9754.725963440653,-6810.107148898501,-21408.411432315283,-21066.76501831592
-9059.251434713771,-6118.700637662487,-20932.833365539715,-20194.823467114387
-4779.160592455935,-2876.5354009312878,-20713.495697199785,-17565.543063347704
-2205.826605060888,-1032.628242090731,-21196.807467556893,-16450.19101502788
-6323.4426168731,-4451.282853041035,-21649.407941032405,-19569.935747377367
-9754.301280296002,-6812.431730321852,-21409.66313000478,-21075.01281201992
-9026.9308122314,-6100.551021164778,-20946.28911570181,-20193.258845002518
-4727.304545319623,-2837.7774760457846,-20750.44313078441,-17548.33222011712
-2227.8877768382763,-1051.7389836000186,-21247.54592747044,-16481.4387537764
-6389.782594416452,-4498.2215163971805,-21695.988976477263,-19622.64116080298
-9780.31871084198,-6816.25387862371,-21448.398703145827,-21092.20130350605
-9002.25448635274,-6067.984529493396,-20970.786627624828,-20185.212216998603
-4681.997559308715,-2787.5307545102546,-20760.859043700584,-17523.14180411599
-2250.1948178046728,-1054.3988411902,-21260.241718321053,-16504.997492432296
-6430.708638514118,-4507.251621157125,-21685.573063561093,-19646.60223085907
-9808.437205366756,-6815.695085012328,-21447.39287464534,-21104.539466445385
-8985.781250689179,-6036.759142489332,-20973.6029474262,-20175.109228504807
-4644.15605594588,-2741.799085354696,-20760.0990843891,-17505.215705062834
-2270.6466639812784,-1059.3832802037336,-21284.560416288423,-16530.590239833622
-6481.3800431943,-4535.548929637544,-21735.05982578514,-19684.08610631062
-9824.172833463292,-6809.749520987216,-21476.606604648427,-21112.02730083791
-8967.944558613844,-6014.541508500756,-20990.500866234408,-20176.204463983115
-4603.654694992864,-2704.516375603244,-20780.528578821253,-17491.111754311532
-2303.0566934414737,-1085.0207310939709,-21300.765431018524,-16568.744667618834
-6549.48580854962,-4593.417596032333,-21730.32125596061,-19733.461109812397
-9846.65868838533,-6833.017686965191,-21468.38116268887,-21113.927199116613
-8939.49078792224,-6005.779624674276,-21000.33563379474,-20153.24922242752
-4552.133924023381,-2674.587389777588,-20807.77535531227,-17459.372277184997
-2310.633934811823,-1104.109120858803,-21328.28042844301,-16581.462810213903
-6580.532381598042,-4629.515663327654,-21746.59332592408,-19751.744836776837
-9858.505112946645,-6852.419001152397,-21489.90589259933,-21118.866934641235
-8893.021511199655,-5986.04303432024,-20995.21708431448,-20125.667169769666
-4495.136975662348,-2645.597177219054,-20790.005718470304,-17423.788300012147
-2321.8098070394763,-1128.2937083594452,-21323.36304466284,-16596.729051676877
-6608.628524378362,-4661.880989298938,-21719.32419768861,-19769.00038349633
-9848.290365730569,-6845.914643515903,-21461.45212190773,-21103.37717573371
-8861.170275350843,-5964.160676498495,-20995.61941571467,-20115.206553364584
-4437.469474967656,-2600.7595778417085,-20804.44494538843,-17394.842790942526
-2327.196577453205,-1136.5638538079088,-21342.58554489441,-16609.201325082937
-6650.515693487608,-4696.302675760112,-21732.019988539218,-19794.48137217538
-9854.66061290033,-6849.714440073305,-21460.40158991833,-21102.50545769995
-8822.278239998608,-5938.791446541721,-20987.371622010665,-20086.998651861984
-4387.893305765785,-2568.2824931481478,-20804.377890155065,-17358.90118585839
-2358.9360545797413,-1171.0302437579924,-21361.830396870424,-16633.408264328034
-6706.640923814884,-4748.829275230083,-21739.619581654024,-19829.32774178121
-9857.611043168432,-6855.369431420498,-21456.758255572116,-21091.374288961208
-8772.813829519013,-5909.041274671707,-20979.660270173583,-20053.851014834763
-4317.1947380536485,-2522.327306548036,-20792.509113849297,-17320.47853713972
-2359.0254615575627,-1184.173069497713,-21354.387265966805,-16656.877596006107
-6739.118008508445,-4781.70869132384,-21723.77219483521,-19859.256727606866
-9871.62558694191,-6869.831010083081,-21446.968191500688,-21098.124515786712
-8739.956765169713,-5895.183193109417,-20971.39012472512,-20044.798558330367
-4267.596217107322,-2495.371102734936,-20787.904654491504,-17309.01209223415
-2382.9418281247413,-1210.6151831883412,-21342.093806516383,-16691.075765022728
-6784.3579392859865,-4812.151767271968,-21695.787810777165,-19891.979681489436
-9895.497250020177,-6881.140992777467,-21426.67280753527,-21118.017568351934
-8714.028741601556,-5871.378585264514,-20959.92367981955,-20042.853956562754
-4225.127902642239,-2454.467410381724,-20803.550875610217,-17295.355176371955
-2408.6016307594336,-1225.8143694179498,-21372.246309786595,-16727.35264627369
-6839.0079544792125,-4850.239139823812,-21732.668189128424,-19941.511147202396
-9909.556497282563,-6881.006882310735,-21444.64361007733,-21127.18178357861
-8688.659511644782,-5849.339765231582,-20975.502845704897,-20036.237840203983
-4185.565314956345,-2429.455808336236,-20807.59654135663,-17285.36394660043
-2438.374154373903,-1258.8278959784384,-21364.51260620506,-16760.477931556456
-6878.391728209464,-4886.516021074775,-21703.745031803257,-19969.651993471623
-9902.58275301251,-6882.772670122704,-21416.61452253038,-21131.60742898076
-8630.500272572073,-5815.163947959417,-20934.040359740306,-20014.511944593425
-4123.159244437128,-2390.6978834507327,-20767.989250181825,-17259.74884745465
-2429.9028432253413,-1264.8852187258267,-21342.85376582787,-16782.404992867112
-6893.83678362808,-4907.526660862764,-21695.5195898437,-19997.39050834066
-9912.261058361655,-6895.200240039854,-21424.19176390073,-21144.929068676123
-8610.875440940314,-5811.922945013398,-20956.95089780699,-20018.848183017755
-4090.90567718812,-2373.7999646425205,-20805.69664307793,-17255.345553796953
-2474.628683880411,-1304.358399433899,-21376.51549297756,-16828.56134516732
-6951.705450022871,-4951.559597439718,-21707.47777312729,-20038.942401283075
-9919.525375309631,-6894.440280728374,-21421.107223165895,-21145.823138454336
-8569.79293463146,-5776.964816685298,-20944.54567963429,-19997.85989497422
-4031.673554381556,-2321.474530872647,-20790.58686382614,-17226.78002438307
-2484.4410996962906,-1310.9521640482146,-21377.543673222503,-16851.918918123116
-6975.711223567871,-4971.989091871869,-21711.992825507263,-20063.77518937292
-9921.268811377146,-6898.798870897159,-21436.127595439862,-21160.86586247276
-8528.442207389142,-5751.193255328329,-20957.82261584075,-19992.98721468296
-3975.257751376361,-2281.107280386362,-20804.64611108853,-17209.144498007834
-2506.748140662687,-1332.186321280756,-21407.964397426174,-16888.531075540912
-7012.278677496753,-5000.353455585654,-21722.811069823638,-20098.21922757855
-9922.229936388723,-6896.764862151726,-21430.919638981777,-21161.268193872955
-8503.810584999394,-5733.647135930913,-20954.179281494533,-19983.95710992302
-3938.131503836096,-2252.3182335279266,-20798.11940170758,-17190.726660576664
-2538.085286389028,-1359.678966960784,-21389.300690805994,-16912.894476997197
-7052.355355305119,-5035.266880424843,-21692.52445608669,-20111.853791696285
-9918.072511920038,-6894.797908639659,-21398.04022288802,-21140.1904988516
-8457.654232699184,-5705.1263100059405,-20926.396063136588,-19946.629696682656
-3883.325026431683,-2214.4543784206367,-20791.324471393167,-17145.77730247704
-2566.159077424893,-1390.189098142278,-21398.688423477222,-16925.746730058996
-7100.813937284224,-5076.729366389438,-21684.81310424961,-20134.473757085056
-9934.948078983794,-6908.611286713039,-21389.166580339264,-21142.403321552672
-8422.964325304547,-5679.0641759710525,-20912.739147274395,-19920.47815566995
-3834.285299096739,-2172.7907267559444,-20783.34489862262,-17110.416842748742
-2591.774176570675,-1407.869328006426,-21401.884722934334,-16946.287983213424
-7134.229795244908,-5099.7069596894935,-21689.037583951664,-20148.84592876982
-9950.080209980037,-6919.764807196237,-21393.458115274683,-21147.90185068868
-8396.253990680456,-5664.401431608371,-20911.59920830717,-19908.341158430718
-3794.186269543919,-2147.890883432732,-20793.917273749983,-17091.261397750546
-2621.412589718412,-1441.061668522557,-21411.16069688329,-16973.825332382363
-7186.354063314684,-5149.149018424633,-21684.120200171496,-20181.546530907934
-9949.454361135287,-6924.212804342843,-21382.37165002485,-21134.781376693416
-8356.46788555001,-5643.413143564838,-20914.70610078646,-19879.038021449807
-3746.755867809757,-2121.2699557864617,-20807.574189612173,-17062.628813103296
-2645.418363263412,-1474.9245613723472,-21425.66697903478,-16997.294664060435
-7235.52790111636,-5196.020626547412,-21694.178485176384,-20210.022653344
-9958.17154147286,-6930.136016623499,-21388.09369660541,-21125.12542308872
-8322.269716533388,-5624.280050311095,-20918.66235955505,-19847.65617223456
-3706.522727790205,-2101.6004206657917,-20808.557666368208,-17032.722179022097
-2690.792404507685,-1522.511425317696,-21435.233525661653,-17029.32471386489
-7285.8193261408,-5241.573481747328,-21698.470020111803,-20229.33456055338
-9968.967434044773,-6945.178740641921,-21403.18112411274,-21122.10793758725
-8290.3067219623,-5608.186794303274,-20941.48349064392,-19829.998294114863
-3664.903779614423,-2077.616998865247,-20839.73834988336,-17014.304341590923
-2714.351143163579,-1549.73585006426,-21466.97300278819,-17055.029219988493
-7311.30031481985,-5264.640482025205,-21724.53215414669,-20245.45016830566
-9970.576759645552,-6947.793894743192,-21418.49206906463,-21122.174992820623
-8255.996794223403,-5588.092576037953,-20944.29981044529,-19818.598904442657
-3618.5909651030265,-2048.73854502899,-20837.88315509357,-17005.140126364247
-2749.9574720808832,-1589.767824383715,-21474.662002880814,-17110.57330495993
-7366.330309668817,-5315.155424494198,-21716.798450565155,-20298.62496836483
-9974.376556202957,-6947.078638920622,-21400.94594966721,-21129.014626623943
-8218.781139705317,-5558.76708731259,-20926.016083480845,-19808.048881059756
-3570.7582319686694,-2012.036980633376,-20825.25441947632,-16986.25290229951
-2760.3733849970563,-1598.5073564657398,-21466.97300278819,-17123.20204057718
-7381.484792409515,-5318.351723951308,-21712.283398185184,-20301.888323055307
-9985.954759830804,-6949.067944177144,-21406.93621718123,-21136.189536594095
-8191.780232403306,-5536.661212046291,-20950.088912259213,-19796.649491387547
-3530.7262576492144,-1978.285846505862,-20852.16591980051,-16966.873939856763
-2794.2362778468464,-1621.3284875546085,-21487.827180364988,-17157.623727038354
-7421.650877195701,-5338.781218383458,-21707.25425568274,-20328.68806465722
-9978.891608582928,-6934.315792836642,-21396.96733915417,-21127.89703940118
-8147.054391748237,-5500.51844126206,-20938.488356886908,-19772.375496909084
-3490.314303674019,-1949.0274130138653,-20861.151321071546,-16951.227718738046
-2832.860092265617,-1658.208865905865,-21499.561846204026,-17198.59447462493
-7474.088069687852,-5384.915218939212,-21715.16677321992,-20368.451818043213
-9991.565047689086,-6945.715182508849,-21401.37063281186,-21142.112748874755
-8115.180804154969,-5480.156002063275,-20926.99956023688,-19766.452284628427
-3448.0695066534886,-1921.6018225672035,-20850.198966288444,-16936.72143658655
-2873.0485287962592,-1699.9619245483786,-21517.39853827936,-17241.442768745754
-7517.293991719961,-5424.522510114016,-21728.51076465973,-20401.24182715915
-9995.230733779756,-6955.415839602451,-21403.71756597967,-21151.746350734997
-8083.888361917539,-5466.096754800887,-20941.170566221543,-19762.540729348748
-3402.33783749793,-1892.61161000867,-20861.84422514966,-16923.668017824653
-2890.907572616049,-1724.2582707712977,-21522.45003252626,-17275.238606362178
-7530.123893037306,-5442.9179958007335,-21716.30671218714,-20421.31369368001
-9972.096678268514,-6944.239967374799,-21383.600995969893,-21138.581173250812
-8018.554212874676,-5427.539995615482,-20921.43397586751,-19721.637036995537
-3341.965775724146,-1858.9051793700671,-20857.284469280778,-16894.543694799388
-2917.282631073312,-1754.366070552596,-21517.465593512727,-17305.793441032583
-7574.514457525547,-5480.4242229967385,-21707.88010452749,-20449.879223093896
-9977.572855660064,-6949.514979066251,-21381.432876757728,-21143.789129708905
-7979.595122289076,-5398.750948757047,-20907.84411523868,-19711.265827568277
-3301.196193837666,-1825.8916528095783,-20839.492480694356,-16882.607863260255
-2976.604160857697,-1803.8081292877357,-21513.710500444235,-17362.81274113807
-7647.336440960938,-5537.979964969154,-21688.47879034028,-20504.61864526494
-9989.419280221377,-6958.276862892732,-21349.55928916446,-21148.974734422536
-7943.072371849105,-5376.533314768471,-20892.197894119967,-19688.46704822386
-3267.3556527323312,-1808.5019956233496,-20840.811233617216,-16862.401886272655
-3006.4884431944424,-1836.17345525902,-21510.91653238732,-17380.91765414687
-7669.487019716146,-5561.382241413861,-21689.86459849651,-20504.886866198405
-9985.105393541502,-6964.691813551404,-21365.67489691673,-21136.86008892776
-7909.589458655055,-5362.094087850343,-20910.66043504005,-19663.298983967183
-3233.224538949077,-1785.2785331342857,-20860.61487920462,-16834.551612681345
-3050.4766762824866,-1873.5008684993827,-21532.30715183105,-17405.30340734761
-7711.553002781035,-5594.39576797435,-21695.67605205489,-20515.459241325767
-9987.251161009212,-6964.580054829127,-21358.164710779754,-21124.454870755064
-7866.115315689482,-5327.560642666894,-20898.121106400624,-19632.632390574505
-3189.4151198166755,-1751.6391577290483,-20866.001649618345,-16811.909295548117
-3085.814784266327,-1905.977953192944,-21537.090425144484,-17443.100207221534
-7746.131151453394,-5618.937983386277,-21679.001650691232,-20546.818738796563
-9975.06946028107,-6950.207883144365,-21331.54378313348,-21125.594809722283
-7829.12317861595,-5301.699674332103,-20887.52637952881,-19630.330160895606
-3151.7077269205724,-1729.332116762652,-20876.775190445805,-16819.352426451736
-3108.814729310838,-1932.0177354833768,-21566.88530050341,-17487.89310310997
-7759.25162544866,-5631.298498070061,-21706.00255799324,-20563.917823304877
-9969.190951489323,-6953.962976212857,-21368.13358880682,-21134.60256273777
-7780.508134425657,-5273.603531551782,-20913.588513563696,-19619.668378790426
-3105.4396158980867,-1699.2690204702642,-20886.6323097506,-16811.641074614654
-3142.4764564605307,-1966.037090544354,-21568.829902271023,-17536.105815900068
-7798.97067534574,-5670.212885166751,-21697.24067416676,-20605.93910288085
-9971.247311979212,-6960.489685593807,-21347.614687396846,-21146.605449510276
-7751.137942211383,-5260.103077900777,-20897.651719767066,-19611.73350950879
-3067.106374157235,-1680.471203383351,-20866.493387996365,-16797.22419944098
-3181.5696575128627,-2006.940782897566,-21540.912573446345,-17570.48279887233
-7848.010402680684,-5711.116577519962,-21672.609051777014,-20633.923486938893
-9965.905245054397,-6957.0922204366,-21318.959751005143,-21134.49080401549
-7702.075863131984,-5231.850472909269,-20870.06966710921,-19582.89975916145
-3024.012210847403,-1658.9241217284348,-20849.32724825469,-16779.767487021385
-3211.431588105153,-2042.8823879817,-21529.73670121869,-17596.276711973755
-7875.994786738728,-5738.542167966624,-21666.641136007445,-20644.205289388334
-9972.476657924257,-6971.822020032647,-21330.09091974389,-21141.084568629813
-7663.51910394658,-5213.052655822356,-20889.627443507605,-19564.705439174824
-2982.5497248828087,-1642.18266513141,-20885.42531555001,-16760.768504234376
-3249.0719257678898,-2090.6927693716016,-21584.431419900822,-17632.665351946995
-7914.596249413044,-5776.853057963021,-21702.403927135936,-20666.42292337691
-9976.902303326406,-6975.219485189854,-21353.113216532853,-21136.27894357192
-7638.574557134457,-5193.047844534855,-20912.47092634093,-19546.421712210384
-2960.980291483437,-1626.245871334776,-20908.15703966105,-16748.87737618415
-3300.100958359356,-2130.925909391154,-21600.681138119835,-17665.365954085108
-7958.249206334259,-5799.920058240898,-21712.19399120736,-20669.596871089565
-9969.034489278138,-6957.896883236991,-21361.159844536764,-21100.89613209917
-7582.203457618172,-5148.120838179689,-20918.975283977423,-19494.498609840703
