 EXG Channel 0, EXG Channel 1, EXG Channel 2, EXG Channel 3
1247.227340606134,10617.883279071246,-76785.14889301645,-47522.0662381728
1403.5554413265518,10730.02198100352,-76949.54597348523,-47669.163068433176
1512.0731606570675,10816.970266934666,-77016.46709638443,-47764.0238719015
1334.197978281734,10702.529335323494,-76800.05750656813,-47646.34193734431
1213.7220756676288,10601.566505618872,-76715.92554043836,-47541.64636631565
1242.6675847372514,10608.897877800213,-76774.26359346672,-47554.14099146616
1403.890717493381,10727.071550735422,-76948.51779324029,-47669.36423413328
1503.7136082307827,10818.937220446733,-76998.0716106977,-47732.32909826387
1309.7228181031726,10695.957922453634,-76787.2276052508,-47612.47904449452
1201.9874098285925,10603.019369008469,-76716.7525549832,-47524.34611610724
1243.0922678819022,10617.168023248676,-76784.43363719388,-47553.55984611033
1414.127816453912,10730.60312635936,-76959.98423814586,-47684.56342036289
1512.3637333349864,10808.431900552738,-77007.21347417992,-47762.63806374527
1325.8831293443598,10684.580884525882,-76787.7193436288,-47617.66464920815
1214.5490902124752,10592.04466248091,-76726.363805099,-47527.09538067525
1267.768593760561,10612.80943307989,-76810.6298816955,-47548.3742413967
1437.641851620895,10732.391265915783,-76969.48372953937,-47680.38364414974
1510.7097042452938,10803.268647583564,-76988.9744507044,-47738.5652349669
1307.8452715689268,10675.774297210492,-76777.66105862393,-47604.09714032378
1206.8600901198497,10592.33523515883,-76718.11601139499,-47537.17601742459
1261.9347884577262,10619.067921527378,-76800.41513447942,-47587.37803547121
1463.927503100336,10748.21630099014,-76978.20090987693,-47745.2707583035
1529.373410865475,10815.18212737824,-76974.02113366379,-47847.73115488663
1315.3778094503652,10684.15620138123,-76751.77773854468,-47701.68485661565
1213.4985582230756,10602.013540507978,-76697.19477858482,-47583.600590658265
1262.940616958215,10622.778311106958,-76778.06339002412,-47611.58497471631
1440.636985377906,10746.852844578369,-76964.07460738119,-47756.91601716471
1510.3967798229194,10814.064540155476,-76982.13481690107,-47843.48432344012
1326.8889578448484,10687.68777700517,-76774.33064870008,-47701.95307754912
1243.8298754489274,10606.439185910129,-76727.77196499967,-47593.36830298523
1291.9531812612036,10627.472177442573,-76799.34225074557,-47587.66860814913
1462.5863984330176,10746.137588755795,-76971.5177382848,-47690.66544659918
1507.9157361883804,10799.80412719299,-76957.43613927795,-47760.514648022014
1301.5644313769856,10664.754887194023,-76753.27530542319,-47650.18643739062
1237.1914073457012,10594.52570611545,-76731.10237492352,-47614.60246021777
1298.9939807646251,10628.589764665336,-76800.75041064626,-47633.10970462677
1473.67286368285,10749.9373853132,-76967.98616266086,-47764.716775979614
1501.992523907724,10792.47275501165,-76948.78601417375,-47826.094666253884
1290.835594038438,10649.756866664511,-76747.37444488698,-47673.61106557978
1234.7997706889837,10579.415926863663,-76720.3064823516,-47601.0349513334
1298.815166808983,10618.464424427084,-76790.44625645236,-47638.20590236258
1480.6019044639952,10745.914071311245,-76972.1212353851,-47754.70319446364
1503.9371256753357,10786.504839242083,-76954.88804041005,-47794.1316716828
1299.195146464723,10648.549872463927,-76747.28503790915,-47637.60240526228
1222.1486833272795,10579.930016986134,-76715.7020229938,-47565.56273288283
1282.5654485899745,10611.758901090492,-76801.80094263566,-47586.66277964864
1472.5552764600843,10742.449550920672,-76982.55950004573,-47715.38647596675
1491.3977970359083,10779.709908927667,-76959.40309279003,-47770.63998826027
1286.7675765475724,10641.509072960504,-76763.64651485045,-47647.30306235589
1235.6267852338297,10583.014557720966,-76739.55133432763,-47596.51989895343
1308.225251224667,10623.225345996065,-76816.59779746507,-47632.8414836933
1501.6795994853496,10758.609862161858,-76990.04733443825,-47752.57977874039
1506.3958175654195,10788.650606709793,-76948.47308975138,-47766.43786030267
1291.617905094374,10649.9133288757,-76748.87201176549,-47611.204995060565
1242.332308570422,10594.57040960436,-76729.26953187818,-47566.45680266104
1318.3729432073765,10635.027067068466,-76827.61720748154,-47620.5927277318
1507.1781286213552,10769.472809967136,-77023.70906158794,-47762.03456664498
1529.4181143543858,10801.011121393576,-76985.37581984709,-47780.92179070971
1330.2417195131443,10667.906483162224,-76775.85056732304,-47620.34685854278
1261.6665675242623,10606.86386905478,-76749.05082572113,-47534.04677320085
1324.9443560772368,10650.360363764808,-76831.6405214835,-47551.995223998456
1523.673716029372,10788.85177240989,-77015.5283231173,-47677.43321388164
1516.25293687021,10801.122880115852,-76953.8151566762,-47692.721807089074
1308.44876866922,10664.888997660755,-76764.67469509538,-47538.69593604755
1267.9921112051145,10620.118453516776,-76773.36952368851,-47476.53573471734
1355.722708192195,10664.933701149666,-76851.64533277099,-47523.27323237339
1533.7543527787154,10791.75749918908,-77013.56136960523,-47662.323434629856
1499.6232389954614,10798.194801592208,-76939.04065359123,-47646.632510022224
1291.7296638166504,10655.970651623087,-76749.1625844434,-47503.91662167509
1247.070878394947,10607.512069643984,-76747.48620360925,-47472.80299339331
1331.4040102248205,10653.19903531063,-76852.9417339494,-47511.35975257871
1523.5843090515507,10783.12972582933,-77022.63617785409,-47637.93768142911
1497.6562854833944,10784.537885730017,-76937.74425241283,-47628.72876271353
1293.9871900066364,10642.53725320545,-76748.112052454,-47495.087682615245
1257.911474455771,10593.363415403774,-76750.23546817726,-47465.76219388988
1350.6265104563845,10645.577090451372,-76862.68709453191,-47543.14393319416
1552.30630067662,10783.889685140812,-77035.3319687047,-47694.50994664549
1525.2606898856986,10782.168600817751,-76957.88317416706,-47684.67517908516
1319.7811031080607,10636.211709524598,-76769.50267189773,-47525.64251728565
1264.5052390700864,10587.753127545491,-76741.94297098434,-47476.02164459487
1344.1892080532562,10646.717029418593,-76844.09044314509,-47533.68914528956
1538.671736558883,10784.403775263285,-77028.00059652336,-47676.360330147785
1483.351169031998,10769.65162392278,-76920.22048475988,-47653.56155080337
1280.06205321098,10629.52853793246,-76728.0625376776,-47513.192595624045
1248.0767068954358,10587.775479289949,-76731.50470632371,-47498.373389050175
1340.2776527735773,10638.558642692406,-76841.31882683263,-47551.570540853805
1521.7514660062154,10770.009251834066,-77013.40490739404,-47701.28252521545
1467.2579130241768,10748.439818434694,-76920.22048475988,-47681.65769358369
1285.6723410692623,10613.34587494682,-76756.04692173564,-47511.15858687861
1274.6529310527958,10585.249732166498,-76757.99152350325,-47457.134420530136
1368.351443809443,10643.721895661582,-76858.73083576332,-47513.57257527979
1543.343251150042,10767.684670410714,-77010.20860793693,-47659.46241133958
1467.5708374465512,10741.287260208996,-76882.71425756387,-47643.57032103185
1262.359471602377,10606.729758588048,-76708.25889209019,-47494.327723303766
1234.9562329001706,10571.056374437378,-76729.113069667,-47430.02175450585
1339.5623969510077,10635.29528800193,-76846.72794899083,-47479.39675800762
1518.1975386378217,10768.042298321998,-77011.05797422623,-47605.4382449911
1439.4299911773196,10735.252289206062,-76889.75505706729,-47551.03409898688
1259.4760965676423,10601.611209107785,-76723.30161610861,-47406.41831236104
1247.7190789841509,10573.872694238746,-76739.12665118297,-47370.05202413226
1355.2756733030883,10637.709276403104,-76853.32171360514,-47434.73797258592
1531.0050882107123,10765.918882598744,-77003.79365727826,-47580.98543655699
1442.38042144542,10728.010324002544,-76874.44411211541,-47537.06425870231
1250.803619718983,10592.201124692096,-76716.81961021658,-47381.87609694911
1238.040773635003,10563.9932231895,-76732.59994180202,-47373.53889626729
1338.4895132171528,10633.037761811944,-76841.74350997728,-47468.3549962467
1508.8768611999585,10763.683708153214,-76996.55169207475,-47614.42364626213
1405.768264027627,10709.078396448898,-76850.6395042705,-47570.99420678547
1210.458720977154,10573.068031438355,-76679.42514174285,-47402.99849545938
1191.9961800570704,10545.441275291596,-76710.89639793593,-47364.17351534051
1310.2145564811894,10613.77055809147,-76850.10306240358,-47442.38226918964
1485.2287155662436,10740.862577064345,-77005.04535496776,-47568.60257012875
1388.6244760304066,10685.944340937656,-76847.77848098023,-47496.11586286019
1196.5782876704084,10545.016592146943,-76669.65742941588,-47322.95689856493
1185.1565462537465,10521.815481402336,-76688.03056335814,-47289.272819670776
1296.870565041371,10593.341063659318,-76818.27417829921,-47379.395053314576
1459.188933275811,10719.31549540943,-76959.20192708993,-47520.43456082756
1340.188245795756,10657.959956879611,-76812.50742822974,-47463.77288863336
1168.526848378998,10528.833929161305,-76676.40765624138,-47327.96368932292
1172.7960315699615,10513.455928976053,-76705.71079322229,-47304.82963381167
1296.2670679410778,10595.1515549602,-76836.66966398593,-47391.554402298265
1467.056747324079,10720.298972165465,-76965.97450565989,-47523.1167701622
1350.067716845002,10657.557625479416,-76810.78634390669,-47464.97988283395
1185.8270985874055,10536.210004831551,-76680.2521562877,-47353.51173323533
1193.0690637909252,10523.648324447671,-76730.43182258986,-47356.037480358784
1337.3272225054768,10610.19427897862,-76869.83965275761,-47436.235539464426
1507.0440181546237,10733.218280460633,-76985.8228547362,-47578.63850338919
1353.1746093242896,10653.288442288453,-76805.64544268197,-47539.1206191922
1168.526848378998,10528.02926636091,-76671.82554862804,-47399.64573379108
1184.821270086917,10522.88836513619,-76715.2549881047,-47350.24837854486
1326.8889578448484,10611.468328412571,-76859.6919607749,-47412.20741417497
1477.1150323289671,10726.356294912852,-76989.8238169937,-47522.82619748428
1350.224179056189,10646.806436396411,-76823.4374312684,-47454.00517630639
1185.8270985874055,10521.301391279863,-76686.1977203128,-47330.04240155726
1198.008799315548,10518.37331275622,-76737.94200872684,-47331.87524460259
1363.2775978180885,10615.581049392347,-76883.51892036425,-47452.66407163908
1505.479396042752,10726.110425723842,-76981.06193316722,-47581.20895400154
1331.8510451139266,10634.043590312433,-76789.06044829614,-47468.377347991154
1167.1186884783135,10510.103167307756,-76665.12002529146,-47329.5730149237
1188.4199009442211,10502.36946372622,-76702.73801120973,-47330.40002946855
1335.3379172489545,10592.849325281302,-76854.75222525028,-47434.112123741164
1484.1111283434784,10701.724672523103,-76975.13872088656,-47568.26729396192
1341.9540336077257,10612.76472959098,-76800.0798583126,-47471.46188872599
1194.7230928806175,10503.330588737796,-76698.91586290787,-47342.98406159688
1243.9192824267486,10513.344170253777,-76751.6659798224,-47332.29992774724
1393.1395284103785,10609.09904350031,-76877.90863250598,-47418.01886773335
1504.9876576647353,10712.69937905066,-76959.87247942359,-47522.35681085072
1333.974460837181,10614.754034847503,-76772.94484054385,-47418.26473692236
1187.749348610562,10505.40930097214,-76669.09863580449,-47294.8160522957
1223.8474159058828,10515.132309810198,-76725.5144388097,-47302.75092157733
1384.7799759840937,10612.854136568802,-76891.18556871243,-47402.68557103701
1509.502710044707,10717.415597130728,-76983.56532854622,-47511.06917990079
1346.4690859876976,10625.996962308522,-76778.93510805788,-47379.4844602924
1211.196328544179,10520.384969757197,-76672.83137712853,-47260.55082804571
1237.4372765347096,10525.190594815089,-76731.39294760143,-47287.14940394752
1396.9393249677807,10629.886165843744,-76879.13797845102,-47423.11506546916
1526.8700154864807,10727.920917024723,-76954.41865377649,-47550.25178793095
1356.5050192481303,10624.499395430015,-76762.01483750521,-47426.0431439928
1220.6064129598633,10521.36844651323,-76670.99853408319,-47318.643011885055
1248.814314462461,10528.386894272197,-76728.08488942205,-47330.869416102105
1414.9995344876688,10633.9094798457,-76900.5509496392,-47435.944966786505
1540.3257656485755,10723.495271622573,-76987.3204216147,-47552.97870075449
1349.2183505557002,10608.249677211008,-76770.06146550912,-47433.352164429685
1217.9242036252265,10509.253801018454,-76665.9470398363,-47315.08908451666
1250.3342330854218,10520.161452312645,-76724.9109417094,-47322.35340146464
1411.7138280527388,10623.046532040422,-76895.67826934795,-47434.2462342079
1520.3433061055312,10708.765472026524,-76971.80831096272,-47548.21777918552
1356.3709087813984,10602.66174109718,-76773.88361381098,-47430.8934725396
1245.618015005352,10511.22075453052,-76672.40669398388,-47293.58670635065
1280.5090881000865,10527.693990194082,-76718.8089154731,-47276.35351137561
1432.992688774191,10637.306945002909,-76872.03012371423,-47379.4844602924
1518.6445735269278,10717.16972794172,-76925.33903424014,-47451.92646407205
1329.4370567127537,10600.694787585117,-76736.44444184833,-47304.80728206722
1236.520855012042,10512.539507453384,-76677.07820857504,-47196.35661797007
1284.9347335022371,10526.956382627057,-76738.50080233823,-47200.491690694296
1446.1355145139116,10637.955145592112,-76907.32352820916,-47294.57018310668
1519.3374776050423,10710.285390649486,-76948.5624967292,-47370.47670727691
1327.134827033857,10587.887238012225,-76737.60673256002,-47256.12518264356
1216.8066164024613,10500.022530558412,-76663.15307177938,-47174.67542584842
1254.20108487619,10513.500632464962,-76731.32589236807,-47196.84835634808
1424.7895985590933,10626.332238475352,-76902.89788280701,-47294.4137208955
1512.8107682240927,10699.73536726658,-76945.54501122773,-47345.66627093152
1322.820940353983,10576.599607062291,-76747.35209314253,-47179.793975328685
1234.7550672000727,10491.03712928738,-76685.12483657895,-47077.95942759031
1278.9221142437596,10504.850507360758,-76742.76998552919,-47097.89718364444
1452.4387064503082,10622.063055284389,-76914.6549003905,-47199.28469649371
1529.1275416764668,10691.912256707225,-76955.916220655,-47247.63151975054
1346.7373069211612,10567.122467413245,-76754.3705409015,-47105.45207327033
1238.6889742242067,10479.525980892897,-76667.98104858173,-47006.83617673352
1268.5732565609524,10496.669768890117,-76718.58539802855,-46992.240487604206
1426.4659793932417,10604.785156820437,-76893.3983914135,-47093.67270394239
1481.2724567976545,10659.524578991482,-76910.09514452162,-47135.17989339589
1285.7393963026282,10527.492824493984,-76705.59903450002,-46992.17343237084
1189.135156766791,10439.248137384431,-76659.53208917762,-46916.95981227873
1243.6063580043744,10456.838960270758,-76741.31712213959,-46966.89360939188
1430.735162584205,10575.750240772992,-76914.56549341268,-47118.23727109877
1473.896381127403,10625.080540785855,-76920.68987139344,-47167.90284727846
1258.6267302783408,10482.051728016344,-76702.24627283172,-47011.507691324674
1161.240179686568,10392.53299147284,-76626.04917598357,-46895.50213760163
1209.072912820925,10405.876982912658,-76670.43974047182,-46891.67998929977
1380.2425718596664,10522.821309902823,-76840.31299833214,-46995.74971148369
1420.475711879219,10567.770668002448,-76844.15749837847,-47042.88954053993
1218.170072814235,10430.799177980323,-76645.51754540415,-46892.73052128917
1146.46567660161,10358.468932922951,-76611.54289383208,-46801.84832833389
1221.2546135490672,10389.29198852682,-76707.02954614515,-46843.19905557622
1428.7905608165934,10527.738693682992,-76896.39352517051,-46985.84788868998
1466.185029290322,10575.012633205966,-76870.644315558,-47050.86911331047
1250.423640063243,10444.299631631333,-76643.37177793644,-46887.72373053119
1182.7649095970285,10387.950883859505,-76612.12403918791,-46797.042703276005
1255.0280994210364,10434.30840185981,-76715.0091189157,-46843.26611080958
1453.9362733288135,10575.660833795171,-76916.26422599128,-46991.10054863698
1503.825366953059,10620.252563983508,-76893.5548536247,-47010.121883168445
1299.8880505428376,10488.511382163928,-76666.43877821432,-46826.7034681682
1222.752180427573,10431.246212869431,-76634.40872840986,-46736.80475196896
1294.0765969844576,10476.754364580436,-76723.32396785307,-46777.0378919885
1499.064445384079,10615.71515985908,-76902.62966187355,-46921.20664372524
1515.604736281006,10653.131980077264,-76872.99124872581,-46960.18808605529
1312.002696037614,10521.569612213329,-76676.34060100802,-46803.36824695686
1252.2117796196676,10467.1207627202,-76653.05008328559,-46730.16628386573
1329.7946846240384,10512.025417330911,-76737.49497383773,-46752.29451087648
1532.1003236890226,10648.438113741651,-76928.24476101932,-46878.984198449165
1543.6114720835058,10675.126096621289,-76886.46935063235,-46917.89858554585
1321.904518831315,10535.1371210977,-76681.48150223274,-46776.97083675514
1272.77538451855,10484.93510305108,-76669.63507767142,-46711.21200456763
1356.4379640147645,10532.94665014108,-76761.85837529402,-46774.35568265387
1544.3043761616202,10667.459448273115,-76925.92017959597,-46919.3738006799
1531.2509573997208,10681.429288557683,-76877.95333599488,-46932.69544037527
1324.0502862990245,10545.955365414067,-76698.64764197441,-46772.299322163984
1286.2758381695555,10498.79318461337,-76709.08590663504,-46739.82223747042
1397.2298976456998,10559.031135920422,-76804.84077988158,-46831.307927526
1560.732908336271,10696.941399209669,-76950.39533977454,-46927.44278042827
1526.0430009416343,10701.747024267555,-76881.97664999684,-46902.49823361615
1315.064885027991,10559.209949876064,-76704.5037990217,-46750.77459225352
1275.7258147866503,10513.143004553676,-76701.93334840934,-46706.20521380964
1358.9413593937588,10561.601586532784,-76796.86120711103,-46749.38878409729
1545.1313907064666,10694.862686975324,-76976.41277032052,-46878.358349604416
1520.3433061055312,10701.389396356271,-76917.24770274732,-46897.37968413588
1324.743190377139,10563.747354000492,-76729.49304932273,-46743.44322007218
1296.423530152265,10522.88836513619,-76727.54844755512,-46691.29660025795
1390.859650475937,10579.371223374752,-76819.95055913336,-46757.48011559012
1567.3937281839524,10711.112405194332,-76984.07941866868,-46884.68389328526
1515.247108369721,10705.725634780603,-76900.66270836147,-46865.08141339796
1304.716027345184,10569.067069180855,-76709.37647931295,-46705.311144031424
1276.0163874645696,10531.449083262574,-76711.20932235829,-46656.9643207746
1369.8490106879487,10584.57917983284,-76822.4316027679,-46715.50353950304
1555.726117578282,10714.59927732936,-77009.71686955892,-46866.042538409536
1528.0099544537013,10712.252344161552,-76939.95707511391,-46869.26118961111
1342.289309774555,10584.310958899374,-76753.23060193426,-46703.94768761965
1300.2233267096672,10542.356734556764,-76750.1684129439,-46631.46098035109
1386.255191118144,10596.04562473841,-76846.57148677963,-46670.12949825877
1567.8184113286034,10724.054065233957,-77010.00744223683,-46797.15446199828
1516.63291652595,10707.64788480376,-76914.81136260169,-46765.102060449375
1315.8471960839267,10569.111772669768,-76730.8118022456,-46618.89929996721
1277.6927682987175,10534.623030975226,-76740.33364538357,-46583.09180534981
1377.3815485693872,10594.257485181986,-76859.40138809699,-46626.34243087083
1565.1585537384217,10726.959792013144,-77032.96268379244,-46760.83287725841
1529.4851695877517,10712.162937183732,-76932.64805467702,-46731.26151934404
1331.1804927802675,10577.136048929222,-76743.73111054077,-46562.75171789548
1295.1718324627675,10538.13225485471,-76749.05082572113,-46510.15806319214
1395.5535168115518,10598.14668871721,-76869.70554229087,-46549.89946483368
1575.9320945658797,10731.385437415294,-77039.48939317338,-46669.30248371392
1519.2704223716764,10708.944285982168,-76921.2039615159,-46630.83513150634
1318.2835362295552,10570.721098270547,-76739.43957560534,-46474.84230695276
1279.8608875108823,10538.601641488272,-76741.38417737297,-46428.52949244136
1381.2484003601553,10603.600514364303,-76857.94852470739,-46492.32137111681
1559.5482658801398,10737.107483995853,-77007.7275643024,-46614.11602665377
1474.4551747387857,10704.719806280114,-76885.10589422059,-46573.83818314531
1294.1213004733684,10574.878522739236,-76732.5105348242,-46424.48382669495
1278.0727479544578,10550.157493371666,-76743.61935181849,-46383.51307910837
1386.411653329331,10612.67532261316,-76861.97183870935,-46433.17865528807
1564.4209461713967,10738.895623552278,-77019.50693363034,-46549.36302296675
1472.3988142488977,10698.64013178827,-76899.61217637207,-46499.04924619785
1308.6052308804074,10579.550037330397,-76745.47454660828,-46357.58505554021
1292.9813615061476,10557.555920786372,-76745.5639535861,-46330.51709300483
1400.090920935979,10624.588802407838,-76854.48400431681,-46394.53248912484
1576.6249986439943,10751.27848998052,-77018.18818070748,-46528.06181050084
1483.0158928651683,10707.446719103662,-76880.03204822923,-46486.4205105806
1291.4390911387316,10572.911569227168,-76713.06451714809,-46352.35474733768
1283.9289050017485,10548.905795682169,-76738.05376744912,-46317.329563776206
1397.0734354345127,10623.068883784876,-76873.48298710382,-46367.46452658946
1579.2401527452653,10754.295975481984,-77027.3300441897,-46490.13090016018
1483.932314387836,10701.657617289737,-76888.19043495541,-46426.54018718484
1310.393370436832,10573.671528538647,-76731.59411330153,-46298.59880192266
1298.9939807646251,10554.694897496092,-76747.64266582044,-46288.8757930846
1411.445607119275,10631.62960191126,-76878.62388832854,-46363.55297130978
1584.0457778031562,10756.687612138703,-77027.2853407008,-46473.36709181871
1469.9177706143585,10698.64013178827,-76871.40427486948,-46370.81728825776
1303.7325505891504,10574.230322150031,-76720.41824107389,-46204.78853044374
1303.7772540780609,10558.0923626533,-76751.55422110013,-46175.32893125164
1422.8449967914817,10632.903651345212,-76881.75313255229,-46247.48036235337
1574.635693387472,10748.059838778954,-77021.07155574222,-46371.152564424585
1459.5912646760064,10683.105669391833,-76865.01167595526,-46318.26833704333
1288.9803992486477,10557.153589386176,-76731.32589236807,-46194.79730067221
1287.326370158955,10540.881519422714,-76773.23541322177,-46193.21032681588
1424.5884328589957,10622.398331451215,-76909.15637125449,-46272.55901963222
1580.961237068324,10740.929632297712,-77045.41260545404,-46412.704457367
1462.318177499554,10673.852047187334,-76883.56362385317,-46328.10310460367
1293.0260649950585,10551.498598038985,-76740.06542445009,-46171.61854167206
1286.4993556141087,10536.031190875912,-76784.29952672715,-46151.81489608466
1427.7847323161045,10620.230212239054,-76938.83948789113,-46233.68933602445
1586.9068010934354,10736.056952006456,-77055.22502126993,-46349.7395932364
1449.935311071314,10656.48474174556,-76876.88045226103,-46284.472499426905
1291.0591114829913,10533.37133328573,-76754.6164100905,-46187.84590814661
1305.520690145575,10526.531699482406,-76789.44042795186,-46189.23171630284
1432.1433224848895,10613.792909835924,-76915.83954284663,-46230.80596098971
1577.4296614443854,10725.506928623548,-77025.20662846645,-46309.59586019467
1421.392133401887,10640.123264804275,-76842.41406231094,-46208.4542165344
1270.137878672824,10521.860184891246,-76729.5154010672,-46087.15129937545
1286.3652451473768,10508.516193451427,-76779.49390166925,-46082.83741269558
1430.578700373018,10595.263313682475,-76934.92793261146,-46179.08402432013
1582.4811556912848,10715.605105829847,-77036.69542511647,-46288.026426795295
1436.90424405387,10635.161177535198,-76845.92328619043,-46197.59126872913
1295.037721996036,10525.45881574855,-76725.89441846542,-46083.28444758469
1311.7568268486057,10524.005952358955,-76772.18488123237,-46108.47486358582
1462.5640466885625,10617.637409882238,-76924.1096882951,-46224.61452777559
1592.69590290736,10720.097806465365,-77025.78777382229,-46336.485008774405
1433.7079445967609,10626.86868034228,-76849.07488215863,-46236.34919361463
1294.1660039622789,10515.17701329911,-76742.94879948483,-46117.79554102368
1314.5954983944296,10514.238240031988,-76785.59592790555,-46136.30278543267
1461.6476251658949,10607.981456277545,-76933.51977271077,-46221.52998704076
1594.4169872304187,10709.950114482655,-77024.9831110219,-46314.80381665276
1439.9217295553362,10614.15053774721,-76833.87569592902,-46195.33374253914
1329.3252979904769,10511.645437675172,-76746.36861638649,-46065.31364504262
1360.9083129058258,10520.206155801554,-76796.05654431065,-46067.48176425479
1505.5911547650285,10621.683075628647,-76943.57805771567,-46149.892646061504
1610.756112427248,10717.750873297558,-77020.66922434203,-46244.23935940735
1439.2064737327664,10618.15150000471,-76829.04771912667,-46169.115146293065
1308.873451813871,10516.004027843956,-76742.54646808463,-46112.140549676486
1345.418553998298,10535.092417608788,-76802.69501241387,-46134.64875634298
1520.5444718056287,10654.271919044486,-76984.30293611324,-46238.65142329352
1648.1952843898875,10756.8887778388,-77057.90723060456,-46356.0427851728
1480.2442765527103,10658.742267935548,-76847.77848098023,-46259.10326947013
1343.3621935084095,10560.685165010114,-76753.29765716764,-46149.84794257259
1366.228028086189,10564.41790633415,-76816.86601839853,-46168.51164919277
1527.8758439869696,10669.582863996373,-76990.04733443825,-46273.073109754696
1654.029089692723,10763.057859308465,-77059.51655620534,-46360.6919480195
1479.6631311968722,10655.210692311608,-76852.56175429365,-46226.04503942073
1356.2367983146669,10563.52383655594,-76764.62999160647,-46129.53020686271
1393.4301010882975,10571.726926771036,-76831.26054182775,-46158.58747465462
1555.1896757113548,10674.276730331983,-76990.82964549419,-46238.1149814266
1635.5441970281836,10752.999574303578,-77036.00252103836,-46318.26833704333
1454.897398340392,10636.77050313598,-76833.5851232511,-46212.81280670319
1353.93456863577,10545.41892354714,-76753.5658781011,-46127.25032892828
1380.5331445375857,10550.04573464939,-76805.22075953732,-46115.44860785587
1539.0070127257125,10654.137808577754,-76954.82098517669,-46196.38427452854
1613.3042112951532,10729.530242625504,-76990.89670072755,-46253.00124323383
1426.1754067153224,10611.602438879305,-76793.9778320763,-46129.66431732945
1324.519672932586,10518.708588923048,-76737.65143604892,-46043.05130756513
1373.894676434359,10531.538490240397,-76813.64736719697,-46040.838484864056
1549.9370157643575,10640.793817137936,-76983.58768029067,-46150.47379141734
1631.8114557041474,10712.766434284023,-77013.13668646058,-46199.42411177446
1437.6194998764397,10590.725909558048,-76796.59298617757,-46039.49738019674
1335.0249928265805,10503.710568393535,-76734.03045344717,-45949.86688493096
1382.7459672386608,10519.356789512252,-76798.60464317855,-45969.80464098509
1553.1333152214663,10637.888090358743,-76969.39432256155,-46054.316586770605
1635.499493539273,10708.139623181776,-77011.23678818188,-46133.397058653485
1445.643776135895,10592.961084003578,-76791.6756023974,-45988.44599586082
1325.4137427107985,10504.73874863848,-76717.3113485946,-45841.08094466698
1379.41555731482,10522.217812802532,-76780.16445400292,-45798.0091331016
1550.9651960093015,10632.031933311457,-76951.5129269973,-45897.47439592772
1612.1866240723878,10691.308759606927,-76967.20385160492,-45957.019443156656
1420.8109880460488,10567.301281368886,-76769.34620968656,-45813.6106507314
1335.8967108603372,10487.617312385715,-76730.54358131213,-45710.56910879244
1386.32224635151,10507.309199250842,-76805.17605604841,-45706.14346339029
1558.0730507460894,10623.538270418438,-76975.45164530893,-45765.42028968576
1611.0690368496223,10674.477896032084,-76977.79857847674,-45755.96550178117
1414.261926920644,10542.781417701412,-76774.04007602217,-45577.59858102782
1332.2980800030327,10464.036221985369,-76730.74474701223,-45486.5375741169
1389.0491591750574,10484.733937350982,-76803.58908219208,-45508.33052496082
1566.49965840574,10605.209839965086,-76973.59645051914,-45615.52949136848
1602.016580345223,10654.383677766762,-76970.55661327322,-45648.20774176213
1401.7673017701272,10524.296525036874,-76764.54058462866,-45503.86017606976
1333.7956468815385,10454.40262012513,-76725.42503183187,-45415.481378493474
1400.962638969736,10481.805858827336,-76808.7299834168,-45439.1295241272
1587.1750220268991,10602.751148075004,-76984.83937798017,-45562.30998782039
1608.69975193736,10642.291384016442,-76960.3195143127,-45587.43334858815
1397.6322290458954,10504.761100382935,-76747.15092744243,-45412.642706947656
1321.9492223202255,10437.147073405633,-76708.43770604584,-45325.89558671661
1384.4670515617197,10468.059535987322,-76782.75725635974,-45324.73329600493
1559.7270798357822,10585.629711822236,-76958.37491254508,-45436.98375665948
1573.2945887201536,10615.022255780968,-76935.9114093675,-45465.10225118426
1371.547743266552,10479.45892565953,-76732.80110750212,-45318.11717964616
1306.97355353517,10413.051892882811,-76701.08398212004,-45258.974463817416
1378.0744526475016,10445.663088043106,-76785.21594824981,-45281.95205711747
1555.5026001337292,10567.725964513536,-76958.28550556726,-45400.28219226387
1561.6940333478492,10593.631636337235,-76928.93766509744,-45429.16064610012
1362.5846937399738,10465.153809208132,-76730.6106365455,-45276.14060355909
1314.6402018833403,10413.163651605088,-76706.20253160031,-45198.33418111017
1389.8761737199038,10454.78259978087,-76787.31701222861,-45247.23979797838
1564.4209461713967,10577.068993695855,-76955.37977878808,-45381.48437517695
1563.1916002263547,10593.452822381596,-76921.27101674928,-45406.76419815591
1376.3980718133537,10467.567797609308,-76734.11986042498,-45263.28835049729
1326.8666061003933,10418.840994696737,-76708.21418860128,-45207.7219137814
1383.0588916610352,10455.050820714334,-76778.04103827967,-45243.17178048752
1568.6454258734498,10577.292511140407,-76956.9667526444,-45379.24920073142
1563.3704141819971,10587.32844440084,-76900.148618239,-45393.55431718282
1358.6507867158398,10443.07028568629,-76701.84394143152,-45225.558605856735
1306.0571320125025,10389.157878060088,-76691.4503802598,-45150.14382006453
1388.1327376523898,10437.169425150089,-76785.68533488338,-45169.50043076282
1576.1556120104328,10569.75997325897,-76959.33603755666,-45289.95398163247
1565.2703124606985,10578.834781507823,-76904.32839445215,-45290.95981013296
1371.4583362887308,10445.059590942812,-76708.05772639009,-45130.49663668831
1330.867568357893,10397.942113631025,-76700.7040024643,-45045.470600780325
1413.5690228425292,10445.73014327647,-76792.23439600879,-45067.57647604662
1581.8329551020809,10573.291548882908,-76957.30202881123,-45185.10194839263
1552.30630067662,10568.731793014023,-76887.02814424374,-45176.78709945525
1356.5720744814962,10427.133491889655,-76696.14424659542,-45035.00998437524
1310.9968675371251,10379.05488956629,-76694.33375529453,-45020.5260539682
1396.4252348453088,10426.753512233916,-76797.95644258935,-45106.17793872094
1589.3878447279749,10560.349888843286,-76963.18053760297,-45274.17365004703
1549.8252570420811,10550.403362560672,-76876.88045226103,-45294.22316482344
1351.0735453454906,10412.62720973816,-76687.18119706884,-45145.76287815128
1312.06975127098,10369.175418517045,-76686.42123775736,-45139.21381702589
1399.6885895357836,10418.2598493409,-76794.02253556521,-45230.31952742572
1598.0379698321783,10553.353792828775,-76953.39047353154,-45376.99167454144
1552.8874460324582,10540.233318833509,-76862.70944627636,-45333.22695889795
1344.904463875826,10402.881849155649,-76682.8449586445,-45124.30520347419
1305.2524692121112,10367.029651049335,-76685.84009240151,-45042.58722574559
1399.0180372021243,10421.63496275365,-76786.84762559505,-45098.801863050685
1581.184754512877,10551.94563292809,-76937.31956926818,-45244.66934736602
1520.6115270389948,10529.99621987298,-76842.14584137748,-45250.25728347985
1315.713085617195,10384.709880913482,-76671.19969978329,-45114.82806382514
1285.87350676936,10344.56614787175,-76687.0023831132,-45092.87865077003
1397.453415090253,10418.326904574264,-76803.45497172534,-45166.08061386116
1600.7648826557258,10557.868845208746,-76976.05514240923,-45311.27754584284
1542.024498227179,10535.785321686904,-76846.16915537944,-45298.00060963638
1316.8306728399602,10396.444546752518,-76650.30081871759,-45136.352793735605
1276.195201420212,10358.62539513414,-76664.18125202433,-45086.01666522225
1373.5370485230744,10416.136433617645,-76788.54635817365,-45136.73277339134
1557.6483676014386,10543.94370841309,-76952.94343864244,-45265.50117319837
1487.0392068671235,10512.450100475562,-76847.71142574685,-45224.01633548932
1298.815166808983,10382.362947745676,-76677.5922986975,-45076.3383598731
1283.9289050017485,10356.591386388704,-76684.0519528451,-45048.51043802624
1401.9684674702248,10423.937192432546,-76796.14595128846,-45103.51808113076
1581.184754512877,10552.415019561651,-76948.20486881792,-45218.83073077568
1499.2656110841765,10514.349998754264,-76829.7406232048,-45170.39450054104
1314.4613879276978,10383.212314034978,-76675.26771727417,-45022.403600502446
1319.6022891524185,10367.543741171809,-76706.20253160031,-45007.226766017295
1457.1102210414674,10440.63394554066,-76839.68714948739,-45069.20815339186
1632.5490632711726,10570.38582210372,-76985.420523336,-45185.414872815
1518.5551665491066,10518.775644156414,-76838.52485877572,-45101.68523808542
1316.875376328871,10384.1510873021,-76668.07045555956,-44918.89267192992
1300.6703615987733,10360.458238179472,-76684.72250517875,-44878.77129063264
1412.7196565532277,10434.73308500446,-76800.95157634636,-44945.60300655401
1581.274161490698,10557.824141719835,-76950.84237466364,-45051.41616480544
1479.5960759635063,10505.342245738775,-76820.39759402246,-45002.04116130366
1309.87928031436,10381.62534017865,-76666.72935089223,-44884.00159883519
1313.2543937271112,10364.794476603804,-76696.94890939581,-44887.71198841477
1433.3279649410208,10437.30353561682,-76819.59293122208,-44979.130623236975
1592.6064959295388,10554.583138773816,-76956.25149682183,-45073.61144704955
1490.995465635713,10497.69794913506,-76822.0292713677,-44970.12287022149
1330.0182020685916,10379.568979688762,-76684.99072611221,-44801.25544086164
1321.323373475477,10362.872226580648,-76706.29193857813,-44780.40126328484
1436.3901539313977,10433.794311737336,-76831.01467263875,-44886.95202910328
1588.0467400606562,10548.481112537518,-76961.57121200219,-45014.17815854289
1467.0790990685343,10480.867085560214,-76817.33540503209,-44945.31243387609
1306.861794812893,10362.313432969266,-76687.6505837024,-44811.470188077714
1318.037667040547,10358.223063733943,-76725.22386613177,-44802.30597285104
1447.9236540703362,10440.745704262938,-76852.42764382693,-44879.03951156611
1603.6706094349158,10564.082630167322,-76977.23978486536,-44989.05479777513
1472.9576078602802,10490.74655660946,-76819.63763471099,-44899.53606123162
1308.0911407579351,10368.124886527645,-76691.07040060406,-44758.27303627408
1316.1377687618458,10358.446581178498,-76724.68742426485,-44761.35757700892
1454.9421018293026,10444.724314775982,-76867.82799575663,-44854.3855374319
1618.6909817088822,10567.70361276908,-76976.30101159823,-44966.21131494181
1471.8847241264257,10492.333530465788,-76790.69212564136,-44867.66247363835
1303.866661055882,10369.331880728232,-76662.88485084592,-44729.43928592674
1313.7014286162173,10362.134619013625,-76700.92751990886,-44709.59093685042
1444.1685610018446,10443.338506619752,-76837.74254771978,-44803.64707751836
1587.3314842380864,10552.28090909492,-76953.94926714293,-44936.03645992714
1444.056802279568,10470.026489499389,-76791.16151227492,-44859.34762470098
1305.2971727010215,10357.61956663365,-76687.51647323566,-44742.13507677736
1334.8685306153932,10358.200711989488,-76741.04890120613,-44750.29346350354
1473.4940497272075,10450.15578867862,-76871.09135044711,-44826.93759524079
1611.3596095275414,10558.360583586764,-76968.18732836096,-44949.24634090022
1466.028567079135,10473.088678489768,-76795.2742332547,-44906.93448864633
1319.35641996341,10358.67009862305,-76683.69432493381,-44814.95706021274
1328.1183037898904,10345.52727288333,-76720.15002014041,-44834.29131916658
1468.308445013576,10441.170387407588,-76860.92130671995,-44942.45141058581
1608.856214148547,10558.874673709235,-76970.40015106203,-45062.77085098873
1465.961511845769,10480.531809393384,-76790.91564308591,-44957.27061715968
1327.3359927339543,10376.618549420662,-76686.10831333499,-44819.71798178172
1346.0891063319573,10377.557322687784,-76735.68448253686,-44802.84241471797
1497.8350994390369,10474.876818046192,-76879.58501334013,-44874.41270046386
1634.538368527695,10576.75606927348,-76990.2708518828,-44970.6146085995
1480.2889800416208,10486.11974550721,-76809.89227412848,-44862.20864799126
1334.3097370040105,10380.82067737826,-76698.6029384855,-44722.30907944549
1345.0385743425577,10382.966444845968,-76744.24520066324,-44722.7561143346
1497.4551197832966,10486.231504229489,-76890.60442335659,-44820.58969981548
1630.3809440590078,10589.00482523499,-76982.53714830127,-44926.42520981136
1477.2267910512437,10491.752385109949,-76792.77083787571,-44779.39543478435
1342.132847563368,10387.325035014754,-76711.43283980284,-44591.35020868185
1369.647844987851,10397.986817119934,-76769.39091317546,-44591.9760575266
1533.5084835897069,10500.31310323633,-76915.34780446862,-44809.25736537664
1658.342976372597,10593.274008425951,-76981.01722967831,-44963.48440211826
1489.3637882904754,10491.55121940985,-76781.90789007043,-44837.15234245686
1359.1425250938566,10392.175363561557,-76695.25017681721,-44738.26822498658
1390.4349673312863,10396.712767685982,-76759.0197037482,-44776.19913532724
1552.552169865629,10499.016702057925,-76916.5547986692,-44906.1968810793
1661.6733862964377,10593.788098548424,-76991.74606701685,-45007.6738009064
1493.4541575257967,10491.21594324302,-76806.40540199344,-44880.55943018907
1372.5982752559514,10397.0033403639,-76728.21899988878,-44756.50724846211
1407.7128657952387,10408.693302714028,-76778.71159061333,-44722.84552131242
1556.9554635233242,10507.957399840046,-76930.92697035396,-44782.7705481971
1652.3527088585747,10593.206953192586,-76989.06385768221,-44872.17752601833
1479.1713928188556,10480.822382071305,-76795.40834372144,-44747.70066114672
1360.6177402279068,10386.743889658916,-76719.0547846621,-44562.09177518985
1386.1210806514125,10406.458128268496,-76773.54833764414,-44495.32711450185
1550.4511058868295,10511.645437675172,-76935.35261575611,-44597.74280759607
1652.308005369664,10594.413947393174,-76988.48271232638,-44702.93011700274
1467.7496514021936,10488.623140886206,-76782.08670402608,-44577.849755030846
1371.6371502443733,10407.374549791164,-76722.5640085416,-44521.41160028119
1423.515549125141,10427.468768056486,-76784.88067208299,-44477.6021811488
1586.0797865485893,10541.306202567364,-76941.72286292588,-44483.05600679589
1659.7064327843707,10615.536345903438,-76976.72569474288,-44522.7080014596
1467.2802647686322,10496.848582845758,-76772.11782599901,-44361.52957219238
1360.260112316622,10409.945000403524,-76705.53197926664,-44257.25868430838
1400.225031402711,10427.78169247886,-76778.6221836355,-44267.11580361317
1577.9661033113127,10542.51319676795,-76953.412825276,-44389.15632833914
1659.9299502289236,10610.998941779011,-76978.06679941021,-44469.689663611614
1479.4396137523192,10494.099318277757,-76772.20723297683,-44327.08553398676
1390.3902638423758,10413.34246556073,-76718.11601139499,-44236.0915823092
1444.3250232130315,10430.039218668846,-76788.45695119584,-44270.6026757482
1614.1088740955445,10544.27898457992,-76954.19513633194,-44455.98804426051
1676.8502207815911,10610.507203400994,-76974.73638948637,-44598.7262843521
1486.8380411670255,10488.578437397297,-76776.49876791224,-44487.32518998685
1393.2736388771104,10406.949866646512,-76725.62619753196,-44388.59753472776
1433.1491509853784,10427.647582012129,-76794.60368092105,-44342.88821731666
1600.9213448669132,10544.480150280018,-76969.68489523946,-44441.77233478693
1673.117479457555,10605.925095787656,-76987.923918715,-44492.86842261177
1474.186953805322,10478.855428559236,-76784.23247149379,-44347.69384237455
1381.9189526938144,10396.779822919349,-76741.51828783969,-44268.16633560257
1444.57089240204,10419.422140052577,-76816.19546606488,-44294.921373715566
1617.282821808198,10541.596775245283,-76980.07845641118,-44430.70822128156
1668.401261377485,10600.67243584066,-76985.77815124729,-44507.1064838298
1481.3395120310204,10478.698966348047,-76797.50940770023,-44404.62373550222
1413.8148920315375,10409.67677947006,-76761.21017470481,-44336.62972886917
1464.0169100781573,10437.549404805828,-76825.87377141402,-44364.68116816058
1628.0340108912003,10554.85135970728,-76987.00749719233,-44516.76243743449
1661.047537451689,10597.677302083648,-76975.42929356448,-44636.92541562622
1472.1305933154338,10464.12562896319,-76780.58913714757,-44526.0607631279
1398.5039470796523,10392.48828798393,-76751.10718621101,-44461.26305595196
1451.835209350015,10423.043122654331,-76819.95055913336,-44437.92783474062
1622.3343160550971,10543.630783990717,-76993.46715133991,-44451.27182618044
1645.5577785441612,10581.651101309191,-76986.9180902145,-44427.64603229118
1448.3036337260764,10449.932271234067,-76793.128465787,-44256.47637325244
1410.3056681520543,10390.856610638692,-76767.8709945525,-44158.75454649384
1478.7467096742046,10426.373532578174,-76821.71634694534,-44112.329973260166
1637.1088191400552,10547.497635781485,-76989.26502338231,-44159.715671505415
1647.591787289594,10574.297377383396,-76968.05321789422,-44153.14425863556
1451.6563953943726,10440.790407751849,-76765.65817185142,-43970.57520992461
1396.7158075232278,10379.501924455397,-76753.00708448971,-43864.38207201744
1471.6165031929618,10413.543631260827,-76825.56084699165,-43897.41795032239
1632.6608219934492,10531.717304196038,-76990.2261483939,-44016.77626571373
1643.8813977100133,10558.874673709235,-76965.25924983731,-44018.29618433669
1448.638909892906,10431.469730313986,-76749.1178809545,-43819.05273426208
1382.835374216482,10367.76725861636,-76712.88570319244,-43721.44266622576
1451.768154116649,10396.91393338608,-76798.06820131162,-43742.69917520275
1640.0592494081557,10520.496728479471,-76977.70917149892,-43856.29074052462
1651.9950809472898,10545.150702613675,-76945.05327284972,-43856.46955448027
1460.485334454219,10414.2588870834,-76737.65143604892,-43701.72842761617
1401.096749436468,10357.66427012256,-76718.71950849528,-43634.82965646144
1471.9964828487018,10395.192849063022,-76809.5793497061,-43665.89858125432
1650.3187001131416,10522.217812802532,-76983.1182936571,-43786.86622224644
1634.4266098054184,10537.75227519897,-76933.58682794415,-43772.20347788376
1440.7487441001826,10405.049968367812,-76742.79233727364,-43615.98713588562
1413.770188542627,10361.799342846793,-76725.02270043167,-43550.78709730948
1504.6970849868162,10411.666084726585,-76821.49282950078,-43582.6383331583
1677.3196074151526,10537.327592054318,-76987.9686222039,-43680.561325617
1649.5810925461165,10545.843606691791,-76919.79580161523,-43654.27567413756
1451.991671561202,10410.123814359167,-76723.86040972,-43482.25664880951
1397.5875255569847,10361.173494002043,-76712.01398515869,-43426.73491558253
1469.738956658716,10403.977084633958,-76802.31503275812,-43499.55689901792
1644.306080854664,10530.398551273174,-76959.44779627894,-43648.48657232363
1602.6424291899716,10530.331496039807,-76885.66468783196,-43649.58180780194
1394.7265022667054,10393.91879962907,-76708.01302290118,-43485.52000349999
1360.1036501054348,10351.606947375172,-76709.64470024643,-43388.2899151194
1444.8838168244145,10399.05970085379,-76804.59491069257,-43401.25392690348
1621.2390805767873,10527.962211127546,-76962.80055794724,-43561.29241720348
1583.4199289584076,10523.84949014777,-76882.0437052302,-43594.50710946407
1384.3105893505324,10387.928532115047,-76700.63694723093,-43458.07206130887
1350.581806967474,10343.068580993246,-76703.74383971022,-43415.67080207716
1436.054877764568,10393.807040906791,-76809.44523923937,-43459.569628187375
1620.4567695208514,10522.664847691638,-76973.86467145261,-43538.02425122551
1589.4325482168852,10517.523946466918,-76886.894033777,-43517.41594283771
1406.125891938912,10385.849819880705,-76714.11504913749,-43387.46290057456
1382.5895050274737,10347.80715081777,-76711.23167410275,-43335.562149949335
1461.5358664436185,10400.669026454572,-76815.83783815359,-43361.80309793986
1635.6783074949155,10527.649286705171,-76976.41277032052,-43477.89805864073
1573.182829997877,10508.516193451427,-76871.02429521373,-43435.11681975327
1378.1415078808675,10374.852761608692,-76691.606842471,-43275.39125387565
1346.066754587502,10338.397066402087,-76701.24044433123,-43250.98314893045
1443.8109330905595,10396.243381052422,-76814.36262301954,-43314.59621365026
1630.2915370811866,10523.156586069654,-76977.37389533209,-43433.95452904159
1564.9126845494134,10498.74848112446,-76865.32460037763,-43399.175214669136
1374.4311183012867,10367.879017338635,-76693.39498202741,-43252.12308789767
1367.03269088658,10339.581708858215,-76715.09852589351,-43194.50029069189
1470.4989159701963,10399.39497702062,-76833.02632963972,-43237.192122601526
1641.601519775572,10526.598754715773,-76982.671258768,-43347.90031288866
1566.5443618946508,10494.367539211218,-76862.30711487617,-43306.14725424615
1385.3387695954764,10362.648709136094,-76687.96350812477,-43159.49745887488
1374.7663944681162,10337.27947917932,-76705.68844147783,-43147.02518546882
1473.024663093646,10397.785651419836,-76832.46753602833,-43220.11538983767
1647.8823599675131,10523.961248870046,-77003.88306425608,-43323.40280096565
1590.214859272821,10492.333530465788,-76893.57720536915,-43273.066672452296
1416.608860088451,10364.347441714695,-76718.02660441716,-43157.86578152964
1378.4991357921524,10336.363057656654,-76704.30263332161,-43157.64226408509
1474.9469131168023,10401.943075888525,-76817.51421898774,-43227.960852141485
1644.2613773657536,10528.096321594276,-76971.16011037352,-43345.843952398776
1554.988510011257,10487.259684474431,-76843.82222221163,-43290.03164649387
1370.899542677348,10356.323165455242,-76686.13066507944,-43130.015507938326
1360.193057083256,10330.551604098271,-76707.36482231198,-43095.549117988245
1479.059634096579,10400.892543899125,-76828.98066389331,-43163.3866624101
1654.56553155965,10528.476301250015,-76980.95017444494,-43304.62733562319
1559.8164868136034,10486.0750420183,-76846.4373763129,-43252.23484661995
1395.0170749446245,10364.414496948064,-76698.91586290787,-43111.687077484974
1404.829490760504,10344.409685660565,-76717.46781080579,-43085.222612049896
1520.3209543610758,10417.611648751694,-76826.00788188075,-43151.406127382055
1679.8006510496916,10542.04381013439,-76957.43613927795,-43233.347622555215
1564.5774083825838,10488.869010075214,-76815.83783815359,-43132.2283306394
1391.0161126871244,10365.532084170827,-76683.49315923371,-42990.56297428167
1405.678857049806,10358.37952594513,-76734.14221216943,-42998.34138135212
1537.665908058394,10438.689343773049,-76863.75997826576,-43055.13716401305
1680.9405900169124,10552.102095139277,-76973.86467145261,-43155.56355185075
1556.0166902562012,10482.387004183174,-76815.0778788421,-43067.38591997456
1391.1502231538564,10358.111305011667,-76673.09959806199,-42913.36004893304
1391.932534209792,10343.783836815815,-76698.82645593006,-42902.96648776132
1513.6154310244838,10420.62913425316,-76837.69784423088,-42977.1966310974
1670.211752678365,10537.819330432336,-76970.44485455095,-43101.0252953798
1557.7824780681703,10473.64747210115,-76804.7290211593,-43040.22855046136
1405.835319260993,10353.976232287436,-76680.34156326551,-42914.34352568907
1425.2142817037443,10343.627374604628,-76719.32300559556,-42907.01215350773
1551.6804518318716,10426.0606081558,-76847.71142574685,-43007.84087274562
1699.4925379148171,10537.70757171006,-76960.7665492018,-43134.10587717365
1562.655158359427,10466.383155153177,-76792.54732043116,-43040.58617837264
1402.3707988704205,10347.941261284504,-76668.58454568202,-42893.89167951247
1413.0549327200572,10337.033609990312,-76701.48631352023,-42878.49132758276
1540.929262748869,10418.148090618624,-76838.45780354236,-42965.8419449141
1681.9911220063118,10530.309144295352,-76954.61981947659,-43062.89321933904
1548.8864837749582,10454.64848931414,-76781.99729704825,-42947.60292143857
1399.3086098800434,10337.324182668232,-76672.25023177269,-42823.23781528924
1419.224014189722,10333.882014022114,-76721.9605114413,-42836.15712358441
1571.1041177635334,10423.981895921455,-76871.60544056958,-42928.73804911829
1718.5809276796494,10530.309144295352,-76983.36416284612,-43051.22560873337
1576.6473503884497,10448.121779933188,-76792.97200357581,-42940.60682542406
1423.0014590026688,10340.833406547716,-76666.19290902531,-42783.11643399196
1427.047124749079,10337.48064487942,-76702.62625248746,-42773.88516353192
1562.1187164925,10423.244288354432,-76851.42181532644,-42870.444699578846
1704.0075902947892,10527.537527982897,-76951.9599618864,-42978.47068053135
1545.7125360623047,10442.53384381936,-76765.27819219568,-42878.78190026068
1399.353313368954,10335.983078000912,-76660.47086244475,-42756.51785809015
1427.0024212601688,10332.85383377717,-76708.34829906802,-42754.21562841125
1579.866001590014,10430.73212274696,-76855.33337060611,-42852.7644697147
1712.143625276521,10537.394647287683,-76947.19904031743,-42937.38817422249
1552.7756873101816,10444.992535709443,-76764.76410207321,-42828.57988221406
1419.4251798898197,10335.67015357854,-76666.95286833678,-42722.45379954026
1448.2589302371655,10336.877147779123,-76721.08879340754,-42723.0349448961
1599.3343710105862,10434.174291393078,-76872.56656558116,-42811.01141107218
1718.2232997683643,10532.343153040783,-76941.49934548132,-42886.40384511994
1552.7533355657265,10435.850672227223,-76746.74859604223,-42757.52368659063
1421.3474299129762,10331.155101198568,-76647.52920240513,-42648.40247015983
1448.2142267482552,10333.189109944,-76701.59807224252,-42670.12836577039
1595.311057008631,10431.715599502992,-76857.81441424065,-42775.4497856438
1713.2165090103758,10524.520042481428,-76933.5644761997,-42868.43304257787
1555.1896757113548,10425.814738966792,-76738.16552617139,-42755.33321563402
1431.9868602737022,10327.489415107895,-76646.07633901553,-42642.74747881264
1463.0110815776684,10336.072484978737,-76696.07719136206,-42645.78731605856
1619.406237531452,10438.622288539684,-76849.63367577,-42758.41775636885
1726.336983005641,10525.168243070631,-76919.37111847058,-42851.82569644758
1550.540512864651,10412.62720973816,-76729.04601443362,-42718.92222391632
1434.4679039082414,10316.827633002717,-76648.75854835016,-42600.79325447002
1473.963436360769,10329.1881476865,-76705.71079322229,-42611.94677495322
1629.3974673029743,10436.387114094152,-76861.81537649815,-42721.69384022878
1730.1591313074985,10524.609449459247,-76923.34972898361,-42777.30498043358
1564.823277571592,10416.315247573286,-76731.90703772391,-42654.25862720712
1463.636930422417,10324.80720577326,-76658.30274323258,-42547.77491662204
1499.6455907399168,10335.826615789723,-76718.09365965053,-42552.71465214666
1651.5256943137283,10441.349201363231,-76878.19920518389,-42658.03607202006
1741.1114860905989,10519.736769167992,-76927.59656043012,-42744.31380561755
1568.891295062458,10405.11702360118,-76725.98382544325,-42599.340391080426
1463.3240060000428,10320.22509815992,-76647.05981577156,-42499.31633464293
1497.1645471053778,10337.52534836833,-76705.15199961091,-42527.79245707899
1658.2535693947757,10441.97505020798,-76863.60351605457,-42639.193551444245
1742.1620180799985,10512.561859197838,-76905.33422295263,-42705.108845842944
1559.3918036689524,10390.744851916415,-76709.84586594653,-42570.886620388825
1458.3619187309646,10308.289266620788,-76642.5894668805,-42472.98597967458
1504.4512157978077,10329.165795942044,-76708.14713336792,-42510.87218652632
1675.240895180809,10446.132474676666,-76879.40619938448,-42633.42680137477
1758.5234950212832,10521.927240124613,-76907.27882472024,-42692.815386392525
1575.149783509944,10410.414387037086,-76700.32402280856,-42545.20446600967
1466.6097124349728,10326.237717418398,-76649.92083906184,-42455.64102597726
1513.5036723022072,10344.119112982646,-76729.98478770076,-42488.14046241528
1713.685895643937,10464.036221985369,-76916.73361262484,-42630.00698447311
1787.5360593242715,10534.757141441958,-76924.22144701736,-42684.25466826614
1579.3295597230865,10410.77201494837,-76705.7554967112,-42495.8294625079
1475.4610032392743,10330.059865720255,-76658.5933159105,-42396.47595840407
1527.6970300313271,10353.596252631694,-76727.88372372196,-42419.23003425956
1711.4954246873172,10471.725222077994,-76890.4479611454,-42531.68166061422
1768.8276492151797,10531.158510584655,-76896.68409784843,-42585.81758568497
1568.1089840065222,10407.218087579977,-76699.80993268608,-42436.57498795688
1473.4269944938417,10336.47481637893,-76661.36493222296,-42354.74525150601
1531.2062539108103,10358.75950560087,-76739.6630930499,-42396.54301363743
1717.7986166237138,10475.21209421302,-76916.91242658049,-42511.16275920424
1774.7061580069255,10531.158510584655,-76919.9522638264,-42564.71753891916
1559.4365071578632,10407.978046891458,-76698.1559035964,-42413.10565627881
1473.2705322826544,10336.541871612297,-76645.96458029325,-42262.20902946103
1536.4812656022627,10363.498075425396,-76730.4094708454,-42150.58441765123
1715.6528491560043,10489.181934497588,-76907.94937705391,-42228.1673226556
1767.5535997812271,10545.687144480604,-76906.02712703076,-42270.59093363177
1570.8135450856144,10419.578602263762,-76701.44161003132,-42109.92659448703
1483.6193899654616,10352.366906686651,-76660.02382755565,-42018.91029106502
1536.3918586244415,10382.117078556666,-76733.51636332468,-42042.55843669873
1708.5896979081272,10505.11872829422,-76907.74821135381,-42168.845792871216
1741.5138174907945,10552.28090909492,-76897.28759494872,-42158.72045263296
1544.2373209282543,10424.607744766206,-76701.66512747588,-41966.227229383854
1484.602866721495,10359.161837001067,-76677.45818823078,-41888.778434846216
1543.92439650588,10388.643787937615,-76753.34236065655,-41926.88815914252
1709.662581641982,10508.60560042925,-76921.27101674928,-42028.87916909208
1713.9317648329456,10542.982583401512,-76891.99023151281,-42037.41753547401
1497.9692099057688,10408.983875391948,-76700.92751990886,-41879.681274852905
1424.5213776256296,10346.62250836164,-76683.31434527806,-41801.98661112626
1497.4327680388417,10378.876075610648,-76781.05852378113,-41830.41803007341
1702.5770786496496,10507.867992862224,-76986.13577915858,-41951.09509838761
1733.333079020152,10550.805693960869,-76955.46918576589,-41992.42347388548
1505.635858253939,10413.431872538553,-76724.95564519831,-41833.16729464141
1421.9732787577248,10347.0918949952,-76693.79731342761,-41753.14804949141
1488.6485324679056,10383.078203568246,-76787.56288141762,-41782.71940740578
1668.468316610851,10506.88451610619,-76956.54206949974,-41887.79495809018
1673.8103835356694,10526.732865182505,-76912.84440908962,-41857.26247516424
1468.9119421138696,10391.303645527798,-76719.59122652904,-41667.09383333848
1401.9237639813143,10330.037513975802,-76702.53684550963,-41587.81219575551
1479.5960759635063,10372.259959251876,-76794.80484662115,-41595.65765805932
1671.016415478756,10502.0788910483,-76960.14070035705,-41671.9888653742
1669.7423660448037,10516.205193544054,-76910.47512417736,-41647.51370519563
1468.7554799026825,10383.033500079337,-76721.06644166309,-41472.36543564385
1418.866386278437,10334.172586700031,-76710.13643862444,-41411.05460060294
1505.5911547650285,10379.412517477576,-76806.33834676008,-41484.077749738426
1704.365218206074,10511.734844652992,-76971.45068305143,-41651.26879826412
1682.4605086398733,10524.296525036874,-76906.11653400857,-41650.68765290829
1482.2559335536878,10387.213276292478,-76717.98190092825,-41480.23324969212
1418.5311101116074,10336.541871612297,-76693.86436866097,-41424.55505425394
1490.5931342355177,10384.799287891305,-76778.15279700194,-41464.87760125132
1688.5848866206277,10512.919487109124,-76948.92012464048,-41616.80240831404
1670.368214889552,10513.813556887337,-76880.5461383517,-41623.552635139546
1466.38619499042,10373.37754647464,-76687.22590055775,-41466.598685574376
1429.6399271058951,10329.165795942044,-76676.65352543039,-41413.58034772639
1518.7563322492042,10380.619511678162,-76779.69506736935,-41474.60061008938
1701.0571600266887,10510.75136789696,-76951.40116827503,-41616.064800747015
1668.8482962665912,10509.544373696372,-76874.08648420412,-41559.91721867528
1478.9702271187575,10372.639938907616,-76695.47369426176,-41391.49682420454
1446.7390116142049,10326.595345329684,-76691.83035991555,-41364.1159372468
1546.025460484679,10382.832334379236,-76790.55801517464,-41427.86311243333
1723.8559393711018,10511.31016150834,-76946.99787461733,-41546.90850340229
1667.015453221256,10496.580361912294,-76849.16428913645,-41509.35757271738
1471.728261915238,10363.028688791836,-76669.97035383826,-41358.304483688415
1445.1073342689676,10329.366961642145,-76676.58647019703,-41346.905094016205
1541.2645389156985,10383.1005553127,-76791.6308989085,-41431.81937120192
1730.5167592187834,10515.333475510295,-76954.17278458748,-41557.190305851735
1673.0057207352784,10501.251876503453,-76846.77265247973,-41515.28078499804
1474.2316572942327,10365.934415571024,-76676.34060100802,-41370.59794313883
1441.1957789892888,10329.344609897687,-76686.354182524,-41339.37255613477
1548.4170971413969,10388.844953637714,-76802.02446008021,-41413.24507155956
1739.882140145557,10523.22364130302,-76950.55180198573,-41549.70247145921
1661.5839793186165,10494.948684567056,-76825.87377141402,-41492.54906088699
1464.866276367459,10362.2463777359,-76651.55251640709,-41340.04310846843
1447.0519360365793,10332.42915063252,-76668.02575207064,-41322.34052685983
1544.1255622059778,10391.907142628092,-76793.46374195382,-41394.55901319492
1729.332116762652,10522.284868035898,-76953.0104938758,-41526.79193339252
1660.9134269849571,10491.439460687574,-76829.69591971587,-41477.10400546837
1477.9867503627245,10358.871264323148,-76652.55834490756,-41322.76521000448
1454.4950669401965,10331.937412254503,-76660.6496764004,-41307.99070691952
1556.0390420006563,10394.857572896191,-76773.45893066633,-41387.36175148031
1729.466227229384,10517.65805693365,-76935.08439482265,-41528.44596248221
1653.6714617814378,10479.749498337447,-76816.82131490963,-41487.40815966227
1470.6553781813834,10349.125903740634,-76655.2405542422,-41353.38709990825
1463.5698751890511,10326.818862774237,-76675.93826960782,-41333.762268276485
1570.9029520634356,10394.701110685004,-76793.48609369827,-41400.79514989795
1741.6702797019816,10517.546298211371,-76935.08439482265,-41508.463502939165
1651.9950809472898,10479.637739615173,-76808.41705899443,-41453.2323423901
1480.154869574889,10353.95388054298,-76663.53305143512,-41319.859483225286
1474.2093055497774,10333.502034366376,-76697.23948207372,-41307.40956156368
1597.4568244763404,10409.699131214516,-76818.72121318833,-41380.47741418808
1759.0375851437552,10534.377161786218,-76942.66163619299,-41500.97566854664
1651.3245286136305,10484.108088506233,-76802.00210833576,-41429.04775488946
1475.2374857947214,10355.607909632672,-76646.94805704929,-41287.80708167638
1475.5280584726404,10338.508825124363,-76662.72838863473,-41272.7420059135
1592.181812784888,10411.979009148958,-76785.10418952754,-41354.90701853121
1756.48948627585,10538.0875513658,-76920.71222313789,-41494.71718009916
1645.2001506328763,10483.21401872802,-76774.46475916682,-41414.85439716034
1487.1956690783106,10358.647746878594,-76631.68181558631,-41259.77799412942
1489.252029568199,10339.67111583604,-76653.43006294132,-41244.0870695218
1614.3547432845526,10412.96248590499,-76782.1761110039,-41333.985785721045
1770.4369748159618,10530.219737317531,-76913.02322304527,-41462.97770297262
1654.8784559820242,10471.41229765562,-76750.77191004419,-41366.17229773668
1489.2073260792884,10337.972383257436,-76618.91896950234,-41228.44084840308
1496.538698260629,10318.347551625677,-76654.16767050835,-41214.53806335188
1617.662801463938,10400.19963982101,-76788.7251721293,-41313.779808733445
1768.850000959635,10519.267382534432,-76913.6043684011,-41438.90487419425
1649.3575751015635,10454.44732361404,-76751.28600016666,-41344.15582944821
1486.0110266221795,10333.61379308865,-76625.80330679457,-41207.40785687064
1488.4026632788973,10322.884955750103,-76666.88581310342,-41199.04830444435
1630.827978948114,10406.324017801764,-76806.85243688256,-41290.019904377456
1785.5467540677494,10518.440367989584,-76931.0610808207,-41403.5220627215
1652.665633280949,10449.909919489612,-76764.87586079548,-41307.18604411913
1489.9002301574028,10332.831482032714,-76634.38637666541,-41168.76169070741
1497.477471527752,10321.923830738526,-76673.77015039565,-41171.68976923106
1631.856159193058,10410.34733180372,-76816.03900385369,-41281.615648462255
1775.3543585961295,10525.8834988932,-76924.37790922855,-41419.280042562496
1637.175874373421,10451.183968923566,-76753.45411937883,-41337.56206483389
1489.3414365460203,10340.9898687589,-76631.86062954196,-41204.21155741353
1511.0002769232128,10334.463159377952,-76677.7934643976,-41185.570202537805
1640.7968569751808,10417.29872432932,-76812.127448574,-41266.68468316611
1769.498201548839,10520.27321103492,-76918.18647601444,-41369.43565242716
1627.564624257639,10438.331715861765,-76753.58822984555,-41262.01316857495
1477.1373840734225,10331.266859920845,-76635.45926039926,-41131.0095943224
1494.0353028816346,10329.94810699798,-76675.51358646317,-41121.82302735127
1633.1302086270105,10417.946924918524,-76822.2304370678,-41215.901519763655
1757.8305909431683,10519.93793486809,-76922.32154873866,-41326.60971005079
1605.2575832912426,10428.608707023706,-76753.118843212,-41228.284386191895
1493.0071226366906,10322.28145864981,-76655.6428856424,-41112.50234991341
1524.5677858075842,10324.94131623999,-76693.5514442386,-41127.54507393183
1656.3983746049853,10423.19958486552,-76824.62207372452,-41222.69645007807
1772.9850736838669,10524.251821547963,-76904.73072585234,-41304.57089001786
1616.4334555188962,10426.82056746728,-76716.08200264955,-41181.859812958224
1481.6300847089392,10318.101682436669,-76615.74502178968,-41057.42765157553
1517.3034688596094,10321.543851082784,-76662.61662991246,-41075.8454890067
1664.8473340090914,10416.047026639822,-76816.10605908705,-41179.33406583477
1778.7071202644254,10513.79120514288,-76899.43336241643,-41282.733235685024
1617.5733944861167,10420.785596464348,-76721.62523527446,-41175.10958613272
1492.8059569365928,10317.76640626984,-76632.15120221987,-41074.30321863928
1517.482282815252,10323.957839483955,-76681.21328129928,-41085.7473118004
1664.9590927313675,10426.418236067086,-76833.20514359536,-41182.30684784733
1773.8567917176238,10518.306257522852,-76907.94937705391,-41257.855744106266
1608.6774001929043,10412.984837649446,-76714.62913925995,-41119.81137035029
1487.86622141197,10319.666304548538,-76622.20467593726,-41015.07109583272
1529.6863352878495,10335.156063456066,-76675.35712425198,-41038.3839652996
1687.1543749754876,10438.331715861765,-76830.61234123855,-41156.95996963501
1793.012236715822,10524.408283759152,-76896.41587691497,-41246.50105792297
1618.1768915864102,10421.63496275365,-76697.57475824056,-41114.17873074755
1492.2248115807547,10328.56229884175,-76617.10847820145,-40999.8272061142
1529.9545562213132,10339.157025713566,-76681.39209525491,-41017.95447086745
1697.7938053362138,10442.869119986191,-76842.95050417788,-41140.9114171161
1800.008332730333,10533.0360571189,-76900.05921126118,-41232.2853484494
1616.3216967966196,10424.384227321652,-76700.74870595321,-41090.55293685829
1499.3103145730872,10332.295040165787,-76633.20173420927,-41002.62117417112
1553.9826815107683,10345.370810672142,-76703.07328737657,-41032.97484314142
1717.3739334790628,10456.50368410393,-76847.06322515765,-41163.84430692725
1794.0180652163108,10534.779493186414,-76882.35662965258,-41220.70714482154
1605.726969924804,10419.82447145277,-76685.77303716815,-41060.020453932346
1504.7864919646374,10333.703200066471,-76624.32809166051,-40973.42979591248
1545.2207976842878,10350.891691552602,-76680.76624641016,-41010.1313603081
1707.4497589409066,10455.83313177027,-76831.4393557834,-41135.61405368019
1780.4505563319394,10518.84269938978,-76872.92419349244,-41208.704258049045
1589.5443069391615,10403.015959622378,-76673.1443015509,-41063.82025048974
1489.4978987572074,10320.538022582296,-76609.66534729784,-40965.629037097584
1537.5317975916623,10337.838272790705,-76672.42904572834,-40983.19750823945
1702.6441338830157,10451.58630032376,-76843.53164953372,-41107.674373111055
1776.7625184968138,10524.184766314598,-76882.13311220803,-41183.33502809227
1601.346028011564,10404.088843356234,-76684.76720866766,-41030.51615125134
1518.1975386378217,10322.460272605453,-76625.40097539437,-40950.16162993451
1573.0040160422343,10344.029706004823,-76686.98003136874,-40986.23734548537
1747.526436749272,10455.050820714334,-76859.78136775272,-41107.8531870667
1810.781873557791,10516.249897032963,-76886.2458331878,-41175.95895242202
1617.9086706529465,10400.333750287742,-76677.97227835325,-41041.937892668
1524.0313439406568,10324.561336584253,-76623.29991141557,-40945.19954266543
1582.034120802179,10352.657479364572,-76696.01013612868,-40948.41819386699
1740.9550238794118,10467.344280164752,-76860.92130671995,-41037.26637807684
1784.0715389336992,10519.1332720677,-76875.91932724944,-41090.82115779176
1594.662856419427,10397.070395597268,-76680.47567373225,-40955.28017941477
1505.4570442982963,10324.717798795438,-76634.81105981006,-40891.33183852814
1554.5638268666062,10348.678868851528,-76703.47561877676,-40923.87597845506
1712.0542182987,10461.532826606372,-76871.31486789166,-41050.09627939419
1747.4593815159062,10512.785376642392,-76868.76676902376,-41110.08836151223
1547.411268640908,10388.219104792966,-76669.99270558271,-40938.49401932884
1469.4260322363416,10322.750845283372,-76641.1366034909,-40857.51364916726
1521.9749834507686,10354.087991009712,-76711.9022264364,-40902.641821222525
1683.8463167961022,10475.770887824405,-76874.62292607104,-41031.142000096086
1722.917166103979,10520.921411624124,-76884.56945235365,-41067.88826798061
1544.0808587170673,10398.165631075575,-76690.53395873714,-40905.502844512805
1457.7137181417606,10326.349476140676,-76646.61278088245,-40831.51857036574
1517.6834485153497,10351.584595630717,-76706.42604904487,-40870.63412316253
1690.2612674547754,10477.000233769446,-76870.75607428027,-40998.888432847074
1717.888023601535,10521.010818601944,-76863.78233001022,-41035.612348987146
1520.902099716914,10390.387224005131,-76668.47278695974,-40895.04222810772
1453.511590184163,10321.94618248298,-76645.24932447069,-40825.237730173794
1521.9526317063132,10357.32899395573,-76731.92938946837,-40867.72839638333
1706.4439304404175,10487.684367619082,-76902.58495838463,-41008.32086900722
1738.563387222694,10524.74355992598,-76881.28374591873,-41034.40535478656
1547.053640729623,10397.450375253007,-76693.37263028296,-40862.36397771406
1484.3346457880314,10344.342630427198,-76662.348408979,-40810.99966895577
1549.3111669196091,10382.72057565696,-76733.22579064677,-40867.616637661056
1723.72182890437,10505.252838760953,-76898.69575484941,-41010.33252600819
1730.5391109632387,10533.684257708104,-76867.22449865633,-41020.07788659071
1534.022573712179,10401.160764832588,-76677.90522311989,-40839.140515225
1477.539715473618,10346.264880450355,-76659.08505428852,-40768.30783704613
1545.8689982734918,10384.218142535468,-76757.43272989187,-40808.07159043212
1726.336983005641,10507.063330061834,-76942.66163619299,-40938.1140396731
1732.595471453127,10525.056484348355,-76904.12722875206,-40951.413327624
1529.373410865475,10392.421232750565,-76711.38813631394,-40793.565308280624
1481.67478819785,10343.225043204431,-76697.91003440738,-40741.32928148857
1560.1294112359776,10387.05681408129,-76780.65619238093,-40783.082340131084
1740.1503610790207,10511.22075453052,-76944.67329319398,-40921.35023133162
1720.3467154916186,10523.84949014777,-76874.55587083768,-40927.31814710119
1520.6115270389948,10387.705014670491,-76680.52037722115,-40750.2699792707
1474.5669334610625,10336.9889065014,-76680.47567373225,-40703.10779847
1556.7766495676815,10381.401822734097,-76776.34230570107,-40751.45462172683
1735.367087765585,10502.101242792754,-76953.0104938758,-40887.464986737374
1717.306878245697,10507.51036495094,-76903.59078688512,-40866.11907078255
1530.2674806436871,10375.545665686806,-76721.60288353001,-40678.297362124606
1485.7875091776264,10327.46706336344,-76713.9585869263,-40606.77177986762
1565.9408647943576,10374.495133697406,-76814.13910557498,-40649.82123968855
1739.5245122342722,10499.866068347224,-76979.45260756643,-40810.2844131332
1709.1931950084204,10506.705702150548,-76907.07765902016,-40828.07640171962
1512.833119968548,10378.71961339946,-76723.54748529762,-40643.11571635195
1486.7262824447494,10334.172586700031,-76720.2617788627,-40583.99535226767
1570.1876962408658,10381.96061634548,-76802.6279571805,-40640.32174829504
1749.180465838965,10507.68917890658,-76966.55565101572,-40783.35056106455
1706.399226951507,10496.110975278732,-76885.1505977095,-40778.94726740685
1513.6601345133945,10359.988851545912,-76708.32594732357,-40635.85139940398
1492.1577563473888,10329.299906408776,-76719.81474397359,-40590.32089594852
1587.7338156382818,10388.554380959797,-76820.7775736782,-40635.940806381805
1760.7363177223583,10513.902963865155,-76973.48469179687,-40771.25826731423
1718.3574102350965,10500.31310323633,-76874.15353943748,-40756.72963341828
1498.9750384062577,10360.078258523734,-76673.345467251,-40594.92535530631
1454.7856396181155,10317.297019636277,-76664.06949330206,-40523.869159682894
1554.697937333338,10371.969386573955,-76779.00216329124,-40576.75338706415
1740.9773756238671,10497.809707857336,-76952.11642409759,-40731.7180313728
1693.3011047006971,10478.207227970031,-76861.70361777587,-40716.362382932
1514.867128713981,10353.551549142783,-76681.83913014403,-40584.08475924549
1489.766119690671,10322.460272605453,-76679.35808650948,-40563.18587817978
1589.924286594902,10381.513581456373,-76783.9195470714,-40639.33827153901
1766.2571986028197,10503.241181759977,-76943.84627864913,-40779.59546799606
1699.559593148183,10479.168352981613,-76842.79404196668,-40742.31275824461
1526.2888701306429,10352.90334855358,-76682.71084817778,-40585.40351216836
1513.3248583465647,10318.638124303596,-76701.55336875361,-40572.19363119527
1604.4752722353069,10377.445563965508,-76808.23824503878,-40655.31976882455
1770.280512604775,10501.31893173682,-76959.44779627894,-40798.2815263607
1712.3894944655294,10475.480315146484,-76860.25075438629,-40748.83946762556
1530.7145155327937,10349.930566541025,-76682.5990894555,-40601.94380306528
1510.665000756383,10322.348513883177,-76692.18798782682,-40582.877765044905
1610.9125746384352,10383.569941946262,-76801.53272170218,-40655.9456176693
1782.4175098440064,10506.236315516988,-76951.46822350839,-40791.08426464609
1700.2524972262977,10468.752440065437,-76834.61330349605,-40740.14463903244
1525.439503841341,10342.755656570873,-76679.73806616523,-40603.17314901032
1524.344268363031,10321.543851082784,-76706.89543567842,-40603.59783215497
1651.9950809472898,10391.169535061066,-76825.47144001382,-40666.42858581884
1815.2075189599416,10509.387911485186,-76961.57121200219,-40781.696531974856
1715.6752009004597,10464.460905130018,-76824.68912895789,-40714.21661546429
1538.8729022589807,10338.553528613273,-76674.57481319604,-40569.824346283
1528.0770096870674,10312.71491202294,-76699.38524954143,-40565.08577645848
1641.7132784978485,10380.373642489152,-76819.30235854416,-40654.537457768616
1803.8304810321904,10503.732920137993,-76959.60425849012,-40798.14741589397
1705.3933984510184,10456.615442826203,-76807.79121014968,-40742.24570301124
1527.6523265424164,10332.227984932422,-76657.11810077645,-40595.037114028586
1524.4560270853076,10315.66534229104,-76683.67197318935,-40581.760177822136
1646.407144833463,10390.364872260676,-76815.0778788421,-40663.45580380628
1803.2940391652637,10507.80093762886,-76951.87055490859,-40778.902563917945
1696.2515349687976,10450.40165786763,-76809.95932936184,-40702.906632769904
1551.4345826428632,10331.400970387574,-76675.40182774089,-40569.73493930519
1560.1964664693437,10314.61481030164,-76691.74095293772,-40559.85546825593
1665.0708514536443,10382.899389612605,-76805.42192523742,-40630.57638771253
1808.3455334121627,10497.31796947932,-76936.98429310136,-40748.280674014175
1684.4498138963957,10428.96633493499,-76790.28979424117,-40665.04277766261
1522.891404973436,10303.953028196458,-76653.67593213034,-40537.88370345637
1524.478378829763,10286.98805415488,-76685.46011274579,-40551.11593617391
1643.791990732192,10362.58165390273,-76819.0788410996,-40647.2954925651
1794.8003762722465,10476.59790236925,-76945.20973506091,-40758.89775263045
1665.85316250958,10411.39786379312,-76790.2227390078,-40662.11469913897
1509.5921170225283,10302.32135085122,-76659.08505428852,-40524.47265678318
1529.9098527324024,10294.2300193584,-76688.27643254715,-40516.314270057
1672.625741079538,10376.305624998287,-76834.07686162912,-40618.12646605092
1833.3794872021065,10490.50068742045,-76951.57998223067,-40757.78016540768
1687.310837186675,10411.755491704404,-76771.76019808772,-40652.48109727873
1527.6523265424164,10292.263065846331,-76643.1929639808,-40517.94594740224
1528.4793410872628,10282.160077352532,-76671.46792071676,-40530.19470336374
1649.245816379287,10362.961633558469,-76804.37139324802,-40628.36356501145
1783.1327656665762,10469.668861588105,-76917.71708938088,-40747.02897632468
1641.5791680311163,10390.208410049489,-76750.8166135331,-40645.23913207521
1491.7107214582827,10276.527437749795,-76637.85089705598,-40524.5173602721
1501.858413440992,10269.46428650192,-76676.87704287494,-40520.024659636576
1644.6413570214936,10361.844046335704,-76809.95932936184,-40607.2858699901
1794.0404169607662,10468.707736576527,-76915.19134225743,-40716.78706607665
1653.7161652703485,10380.127773300144,-76745.98863673075,-40615.33249799401
1521.1032654170117,10270.492466746864,-76638.32028368954,-40508.35704903091
1554.1391437219554,10268.681975445985,-76681.45915048828,-40511.37453453238
1696.2291832243425,10355.965537543958,-76839.64244599848,-40598.21106174124
1822.36007718564,10460.526998105885,-76935.95611285641,-40691.507243097694
1666.7695840322476,10381.155953545089,-76751.9118490114,-40579.45794814324
1530.2674806436871,10276.236865071878,-76639.03553951212,-40460.41255717428
1548.215931441299,10271.140667336069,-76678.48636847573,-40470.42613869025
1687.981389520334,10359.139485256612,-76824.4879632578,-40583.95064877876
1815.9898300158775,10453.866178258202,-76913.67142363447,-40691.86487100898
1664.020319464245,10362.156970758078,-76732.19761040182,-40586.20817496874
1531.697992288827,10258.60133869664,-76631.88298128641,-40464.56998164296
1550.1605332089107,10254.55567295023,-76683.18023481134,-40466.13460375484
1699.0902065146215,10352.031630519825,-76836.13322211901,-40554.71456703122
1818.716742839425,10450.02167821189,-76919.14760102602,-40650.80471644458
1651.726860013826,10351.38342993062,-76734.41043310291,-40525.88081668387
1527.473512586774,10252.253443271333,-76642.25419071368,-40402.87916694632
1559.660024602416,10255.0697630727,-76695.11606635047,-40413.78681824051
1720.6149364250823,10352.590424131206,-76848.3372745916,-40524.42795329428
1838.1851122599976,10442.600899052728,-76924.26615050629,-40603.24020424369
1667.2166189213538,10334.91019426706,-76736.19857265933,-40489.82745287746
1549.0429459861457,10235.132007018568,-76654.21237399726,-40400.15225412277
1588.6725889054048,10245.950251334936,-76706.56015951159,-40416.51373106405
1738.0492971002218,10347.315412439752,-76863.78233001022,-40508.17823507527
1835.748772114369,10430.0615704133,-76929.6082174311,-40590.81263432654
1655.2584356377645,10323.890784250592,-76737.83025000457,-40460.59137112992
1539.0293644701678,10232.02511453928,-76669.34450499351,-40364.43416648319
1588.963161583324,10246.911376346514,-76730.14124991193,-40395.19016685369
1752.5108757628057,10359.273595723344,-76891.65495534599,-40537.146095889344
1846.9916995753888,10449.462884600507,-76954.5080607543,-40636.343137782
1666.3672526320522,10345.259051949866,-76761.7689683162,-40497.82937739246
1548.3053384191203,10254.332155505675,-76672.07141781705,-40354.50999194503
1576.8038125996368,10264.233978299377,-76727.36963359948,-40347.08921278587
1725.465264971884,10367.946072572002,-76898.06990600466,-40471.364911957375
1814.3134491817293,10450.245195656444,-76952.33994154214,-40544.81274423751
1638.2264063628206,10343.940299027005,-76749.18493618786,-40411.79751298398
1537.5317975916623,10256.41086774002,-76671.87025211695,-40342.35064296134
1576.446184688352,10268.03377485678,-76733.49401158023,-40382.49437600307
1729.7791516517582,10374.42807846404,-76903.34491769611,-40528.563026018506
1813.4193794035173,10449.842864256249,-76952.38464503105,-40610.52687293612
1634.694830738882,10336.720685567938,-76759.64555259295,-40481.95963882919
1537.4647423582962,10258.13195206308,-76706.58251125604,-40411.52929205052
1582.5258591801953,10279.70138546245,-76770.93318354287,-40450.55543786949
1748.0852303606548,10392.801212406304,-76944.22625830487,-40561.1742211788
1827.5680336437267,10462.15867545112,-76986.44870358094,-40633.32565228053
1616.2099380743432,10341.682772837015,-76773.95066904434,-40492.88964186784
1505.0100094091904,10258.958966607925,-76704.52615076616,-40378.672227701216
1548.3947453969415,10283.769402953316,-76761.00900900472,-40405.293155347485
1714.110578788588,10404.1558985896,-76931.15048779851,-40536.14026738886
1776.8295737301796,10468.126591220687,-76959.78307244576,-40601.76498910964
1592.2041645293432,10352.322203197742,-76769.36856143101,-40463.16182174228
1498.528003517151,10280.573103496206,-76707.58833975653,-40387.70233246116
1538.962309236802,10305.51765030833,-76769.7708928312,-40426.92964398023
1695.8492035686022,10417.097558629222,-76936.91723786798,-40564.59403808046
1748.3758030385738,10473.088678489768,-76943.42159550448,-40625.50254172117
1562.1187164925,10350.869339808149,-76748.98377048776,-40481.55730742899
1485.6757504553498,10281.489525018877,-76719.2112468733,-40414.47972231862
1561.3364054365643,10313.497223078874,-76805.95836710434,-40481.33378998444
1737.356393022107,10436.275355371876,-76961.90648816901,-40644.27800706363
1769.520553293294,10482.45405941654,-76947.64607520653,-40702.68311532535
1562.699861848338,10355.339688699209,-76738.63491280496,-40562.69413980176
1477.5844189625286,10283.210609341932,-76700.97222339777,-40485.91589759778
1534.4249051123743,10304.869449719126,-76785.46181743883,-40496.756493658606
1714.3564479775964,10422.864308698692,-76960.20775559041,-40644.94855939729
1757.20474209842,10469.98178601048,-76956.98910438885,-40686.79102501763
1562.1857717258658,10346.264880450355,-76768.83211956407,-40526.59607250644
1494.0353028816346,10280.55075175175,-76731.77292725717,-40467.319246210966
1556.8213530565922,10307.953990453958,-76801.75623914674,-40504.17727281777
1732.9978028533226,10430.150977391122,-76970.17663361748,-40644.90385590838
1761.6303875005708,10474.78741106837,-76944.80740366071,-40690.2555454082
1562.9010275484356,10346.443694405996,-76749.90019201043,-40545.32683435999
1494.6835034708386,10280.662510474029,-76730.67769177887,-40494.47661572416
1579.1730975118992,10318.302848136766,-76832.22166683932,-40545.30448261553
1774.527344051283,10443.651431042128,-76999.18919792047,-40697.22928967825
1774.9743789403892,10477.380213425186,-76953.39047353154,-40719.17870273336
1567.729004350782,10345.035534505312,-76755.68929382435,-40535.64852901084
1490.5037272576965,10275.052222615746,-76734.07515693607,-40450.98012101414
1551.568693109595,10306.948161953467,-76820.86698065604,-40490.4085982333
1740.2174163123866,10429.793349479836,-77003.3242706447,-40626.93305336632
1763.5973410126378,10457.420105626596,-76980.92782270048,-40640.09823085049
1580.022463801201,10328.294077908287,-76784.29952672715,-40484.23951676364
1523.4054950959082,10274.471077259908,-76763.17712821688,-40452.18711521472
1595.4451674753627,10315.464176590942,-76840.82708845462,-40516.09075261244
1764.849038702135,10438.242308883942,-76997.33400313069,-40656.86203919197
1756.4224310424845,10455.050820714334,-76940.71703442538,-40661.019463660654
1549.087649475056,10321.923830738526,-76742.45706110682,-40482.16080452929
1490.9060586578917,10269.576045224196,-76743.08290995157,-40433.16578068326
1592.7406063962708,10312.401987600564,-76873.14771093699,-40520.40463929232
1801.8411757756685,10441.68447753006,-77039.44468968447,-40676.553926057095
1771.7780794832802,10450.312250889809,-76932.60335118811,-40683.393559860415
1545.444315128841,10310.65855153305,-76719.77004048468,-40516.046049123535
1490.77194819116,10256.723792162396,-76716.97607242776,-40468.88386832284
1575.2391904877652,10299.594438027672,-76813.93793987489,-40522.28218582657
1754.7684019527917,10426.44058781154,-76984.01236343532,-40663.45580380628
1735.501198232317,10429.502776801915,-76929.94349359792,-40663.90283869539
1540.772800537682,10294.922923436514,-76743.68640705185,-40535.87204645539
1498.43859653933,10249.794751381249,-76736.93618022636,-40525.746706217134
1580.7824231126815,10293.291246091276,-76848.38197808052,-40593.40543668335
1796.7673297843137,10423.803081965814,-77032.29213145879,-40745.4643542128
1787.0443209462549,10429.145148890631,-76944.58388621616,-40768.39724402395
1557.02251875669,10288.686786733484,-76734.07515693607,-40612.69499214828
1500.7855297071374,10241.189329765955,-76716.21611311629,-40561.15186943435
1587.4432429603628,10287.65860648854,-76814.98847186429,-40635.33730928151
1771.9345416944675,10416.091730128734,-76982.00070643434,-40768.88898240197
1736.238805799342,10411.219049837477,-76896.05824900369,-40740.05523205462
1546.986585496257,10279.23199882889,-76718.67480500636,-40593.67365761682
1515.314163603087,10240.205853009922,-76720.1053166515,-40542.532866303074
1608.096254837067,10294.341778080676,-76828.44422202637,-40590.14208199288
1793.9733617274,10423.646619754629,-77000.46324735442,-40733.55087441813
1747.7723059382804,10410.928477159558,-76897.42170541546,-40713.858987553
1549.7134983198046,10272.638234214572,-76711.38813631394,-40579.54735512106
1516.029419425657,10232.650963384029,-76712.32690958105,-40548.27726462809
1604.564679213128,10290.050243145257,-76804.57255894812,-40614.30431774906
1791.693483792959,10422.596087765229,-76969.43902605046,-40760.1718020644
1733.4224859979734,10400.11023284319,-76876.56752783866,-40725.0125080362
1536.995355724735,10265.239806799866,-76701.66512747588,-40568.90792476034
1508.832157711048,10231.622783139084,-76712.61748225898,-40530.95466267523
1613.6394874619828,10295.526420536808,-76821.49282950078,-40603.41901819933
1793.0792919491878,10429.167500635089,-76977.88798545457,-40757.06490958511
1734.5400732207386,10407.329846302251,-76880.05439997368,-40719.08929575554
1553.2897774326536,10274.046394115256,-76721.49112480774,-40573.75825330714
1537.665908058394,10243.603318167128,-76732.86816273548,-40547.47260182769
1637.175874373421,10306.590534042183,-76840.35770182106,-40628.22945454472
1810.1560247130424,10437.482349572463,-76988.05802918173,-40760.1718020644
1730.3602970075965,10400.28904679883,-76868.3420858791,-40715.02127826468
1550.2722919311873,10268.860789401626,-76716.17140962738,-40575.97107600821
1538.157646436411,10246.307879246222,-76741.29477039514,-40556.14507867635
1639.6792697524154,10312.871374234126,-76844.69394024539,-40634.37618426993
1813.0617514922324,10437.661163528104,-76999.14449443156,-40771.30297080314
1732.43900924194,10397.986817119934,-76875.40523712698,-40699.86679552398
1553.8709227884915,10270.134838835578,-76718.94302593984,-40553.10524143044
1546.83012328507,10248.878329858582,-76739.93131398337,-40530.84290395295
1654.2526071372756,10312.558449811751,-76850.08071065912,-40621.41217248585
1819.5437573842717,10435.984782693957,-76991.25432863884,-40756.57317120709
1731.1202563190766,10393.114136828675,-76863.71527477686,-40694.63648732144
1555.413193155908,10269.598396968651,-76718.25012186171,-40556.05567169854
1539.118771447989,10247.470169957896,-76742.14413668444,-40539.85065696844
1651.7045082693708,10317.520537080827,-76857.52384156274,-40606.32474497852
1814.0675799927208,10436.655335027615,-76994.4729798404,-40724.364307447
1714.8928898445238,10385.022805335857,-76859.31198111916,-40650.93882691131
1548.5512076081286,10261.21649279791,-76709.30942407959,-40506.032467607554
1551.4569343873186,10249.526530447783,-76738.38904361594,-40488.32988599895
1666.9707497323454,10319.2863248928,-76864.78815851071,-40572.19363119527
1825.4446179204724,10439.628117040173,-76996.90931998604,-40703.130150214456
1718.0221340682667,10386.028633836346,-76842.81639371114,-40613.142027037386
1549.73585006426,10261.395306753551,-76702.22392108726,-40486.25117376461
1542.7844575386594,10242.12810303308,-76739.88661049445,-40474.33769396993
1661.0698891961445,10318.772234770327,-76868.67736204593,-40556.59211356546
1822.874167308112,10435.515396060397,-77003.88306425608,-40678.6996935248
1711.4507211984064,10377.95965408798,-76850.34893159258,-40589.00214302565
1547.4559721298183,10256.902606118038,-76707.02954614515,-40435.75858304007
1545.3549081510198,10241.211681510413,-76741.1606599284,-40434.61864407285
1672.625741079538,10332.339743654698,-76862.55298406517,-40521.85750268192
1823.1200364971205,10449.30642238932,-76986.9180902145,-40637.59483547149
1690.887116299524,10374.852761608692,-76837.69784423088,-40553.66403504182
1531.7426957777377,10256.83555088467,-76713.28803459264,-40429.03070795903
1550.1158297200002,10253.84041712766,-76744.40166287443,-40425.90146373528
1682.9298952734346,10338.508825124363,-76873.97472548184,-40528.04893589603
1824.818769075724,10444.433742098065,-76984.1688256465,-40656.95144616979
1679.0406917382113,10366.068526037756,-76821.5822364786,-40552.524096074594
1518.3763525934642,10251.448780470942,-76702.49214202072,-40428.00252771408
1533.9778702232684,10250.26413801481,-76741.94297098434,-40428.51661783656
1677.1407934595102,10342.2415664484,-76876.90280400548,-40545.32683435999
1811.2512601913525,10449.507588089418,-76978.87146221059,-40677.13507141293
1658.432383350418,10364.034517292324,-76819.19059982189,-40576.932201019794
1517.5493380486178,10252.722829904897,-76705.10729612199,-40448.81200180197
1558.1624577239106,10253.92982410548,-76753.8117472901,-40442.508809865576
1717.2621747567864,10343.292098437798,-76902.76377234027,-40533.74863073214
1851.529103699816,10445.081942687268,-76994.7188490294,-40637.57248372704
1685.2768284412418,10356.09964801069,-76810.40636425094,-40531.13347663087
1529.9098527324024,10244.944422834447,-76694.356107039,-40415.84317873039
1546.7854197961594,10243.826835611682,-76736.57855231507,-40428.18134166972
1686.3273604306414,10334.351400655676,-76890.0456297452,-40542.0187761806
1816.7944928162688,10436.767093749892,-76989.4661890824,-40672.48590856623
1665.0932031980997,10350.71287759696,-76816.55309397615,-40570.47254687221
1531.8097510111036,10245.391457723554,-76728.57662780007,-40466.06754852147
1571.729966608282,10252.208739782422,-76795.2295297658,-40495.30363026901
1731.1202563190766,10358.357174200675,-76947.86959265108,-40610.10218979147
1849.808019376757,10459.40941088312,-77025.27368369981,-40679.5490598141
1685.2768284412418,10365.554435915285,-76823.21391382384,-40522.08102012647
1544.1479139504331,10262.669356187504,-76713.62331075947,-40406.03076291451
1568.958350295824,10270.93950163597,-76762.50657588322,-40409.40587632726
1719.184424779943,10372.170552274056,-76912.77735385625,-40517.02952587957
1835.2123302474415,10464.662070830116,-77005.53709334577,-40635.67258544834
1675.4420608809069,10373.422249963553,-76828.62303598202,-40534.0168516656
1542.8068092831147,10273.97933888189,-76745.13927044145,-40429.09776319239
1574.859210832025,10281.3777662966,-76803.65613742544,-40435.42330687324
1726.9851835948448,10391.549514716806,-76951.93761014195,-40559.49784034465
1864.56017071726,10495.1274985227,-77014.20957019443,-40644.83680067502
1711.3836659650406,10399.327921787251,-76808.26059678324,-40482.92076384077
1567.661949117416,10299.102699649657,-76722.38519458595,-40371.13968981978
1591.8241848736031,10309.630371288104,-76781.05852378113,-40398.36411456634
1755.8412856866464,10415.06354988379,-76925.54019994024,-40518.61649973589
1856.6700049245364,10505.275190505408,-76982.33598260117,-40603.32961122151
1684.8744970410464,10399.842011909725,-76788.70282038485,-40472.54955441351
1561.7387368367597,10308.51278406534,-76719.6582817624,-40398.56528026644
1608.833862404092,10334.396104144584,-76795.8330268661,-40450.15310646929
1783.848021489146,10446.601861310228,-76961.95119165794,-40565.24223866966
1858.100516569676,10524.452987248062,-77002.29609039976,-40650.29062632211
1649.1340576570103,10406.324017801764,-76793.374334976,-40496.15299655831
1525.7077247748048,10315.128900424112,-76715.81378171609,-40379.298076545965
1555.9719867672904,10333.546737855284,-76779.6727156249,-40423.979213712126
1713.9988200663115,10440.63394554066,-76961.6159154911,-40533.48040979867
1811.6759433360037,10519.759120912448,-77006.76643929082,-40576.66398008633
1618.3333537975973,10406.994570135425,-76788.00991630674,-40433.72457429464
1497.5892302500283,10316.3358946247,-76715.88083694945,-40366.1776025507
1549.02059424169,10331.624487832129,-76782.31022147063,-40411.86456821735
1712.0318665542443,10435.984782693957,-76935.39731924502,-40535.42501156629
1770.5710852826935,10507.68917890658,-76978.29031685476,-40621.03219283011
1592.0253505737007,10399.529087487352,-76790.66977389691,-40470.26967647907
1519.1810153938552,10323.175528428024,-76738.14317442694,-40377.621695711816
1580.5142021792178,10347.538929884307,-76803.00793683623,-40405.85194895887
1747.5487884937274,10464.72912606348,-76970.19898536193,-40547.24908438314
1819.07437075071,10533.661905963649,-77010.85680852614,-40610.01278281365
1633.9572231718569,10417.544593518329,-76813.20033230785,-40458.44560366221
1540.7057453043158,10344.767313571849,-76762.68538983887,-40384.03664637049
1591.5783156845946,10371.38824121812,-76836.66966398593,-40409.919966449736
1770.68284400497,10487.326739707798,-76999.2786048983,-40533.83803770996
1830.630222634104,10551.498598038985,-77010.67799457049,-40599.84273908648
1641.0874296531,10431.40267508062,-76804.70666941484,-40440.25128367559
1557.223684456788,10355.965537543958,-76763.17712821688,-40367.65281768475
1610.5772984716057,10382.63116867914,-76836.98258840831,-40397.64885874377
1786.977265712889,10506.862164361735,-77009.56040734773,-40519.197645091735
1864.046080594788,10571.570464559847,-77040.11524201813,-40566.89626775936
1673.8774387690353,10451.318079390296,-76830.47823077181,-40403.39325706879
1572.422870686397,10373.802229619292,-76780.05269528064,-40306.05140996593
1622.6248887330162,10399.05970085379,-76858.79789099669,-40329.76661083301
1799.9636292414225,10522.016647102431,-77026.50302964485,-40467.29689446651
1846.3434989861848,10573.202141905089,-77027.35239593415,-40518.16946484679
1648.2846913677088,10443.897300231136,-76822.74452719028,-40350.24080875407
1562.0069577702234,10369.756563872885,-76786.44529419485,-40266.42176704667
1615.2264613183097,10395.081090340746,-76855.15455665046,-40295.54609007193
1799.1142629521207,10515.378178999208,-77022.45736389844,-40413.94328045169
1841.9625570729445,10564.127333656232,-77025.38544242209,-40440.8994842648
1653.112668170055,10437.370590850183,-76829.7853266937,-40292.10392142581
1577.0049782997346,10372.058793551778,-76782.0196487927,-40245.00879585848
1632.9290429269129,10396.601008963706,-76870.59961206908,-40295.68020053866
1819.8343300621905,10523.737731425492,-77042.46217518595,-40435.22214117314
1851.864379866645,10569.447048836597,-77014.63425333909,-40463.96648454267
1644.3284325991194,10438.0634949283,-76813.04387009668,-40290.651058036216
1575.5297631656842,10372.125848785145,-76782.19846274835,-40236.336319009824
1646.921234955935,10402.68068345555,-76859.13316716351,-40290.06991268038
1833.714763368936,10525.07883609281,-77027.95589303445,-40415.798475241485
1853.9877955899,10558.248824864486,-76994.83060775169,-40441.68179532073
1646.6753657669267,10421.366741820186,-76800.34807924606,-40291.79099700344
1587.376187726997,10360.72645911294,-76788.50165468475,-40239.57732195584
1662.858028752569,10390.588389705228,-76873.55004233719,-40276.70356949611
1830.786684845291,10508.069158562324,-77030.36988143562,-40404.15321638027
1834.7876471027907,10531.247917562476,-76986.42635183649,-40404.890823947295
1626.402333545963,10390.387224005131,-76804.08082057009,-40239.93494986713
1572.244056730754,10330.506900609364,-76788.25578549574,-40191.94575452159
1641.6462232644826,10366.2473399934,-76863.67057128795,-40226.72506889404
1828.8867865665895,10485.896228062658,-77049.68178864502,-40357.03573906848
1846.5446646862824,10498.681425891093,-76996.5293403303,-40367.11637581782
1636.8629499510469,10360.838217835217,-76784.70185812734,-40225.76394388246
1575.9767980547904,10306.389368342088,-76764.94291602886,-40185.575507351816
1652.4197640919406,10345.169644972044,-76853.25465837178,-40222.63469965872
1821.197786473964,10461.197550439543,-77010.70034631496,-40352.90066634425
1802.914059509523,10470.719393577505,-76946.97552287288,-40333.9687387906
1606.822205403114,10333.122054710631,-76760.04788399315,-40175.47251885802
1574.9486178098462,10285.289321576276,-76759.4667386373,-40141.54257077487
1665.47318285384,10332.38444714361,-76853.27701011623,-40194.739722578495
1853.3172432562403,10463.365669651708,-77007.03466022428,-40317.09317172685
1830.8313883342012,10464.30444291883,-76939.17476405797,-40309.20300593412
1630.5821097591056,10325.075426706724,-76756.49395662475,-40172.09740544527
1588.3596644830304,10282.115373863624,-76756.80688104712,-40147.7787074779
1673.0057207352784,10331.177452943022,-76861.94948696489,-40215.72801062203
1852.5125804558493,10458.962375994011,-77027.48650640089,-40349.525552931496
1818.0014870168552,10457.934195749069,-76944.13685132704,-40330.95125328914
1618.7356851977927,10320.76154002685,-76759.55614561512,-40155.311245359335
1593.3217517521086,10281.60128374115,-76767.44631140785,-40114.94399487305
1682.6393225955158,10333.90436576657,-76859.9378299639,-40184.748492806975
1850.0315368213105,10457.68832656006,-77016.55650336224,-40303.8162355204
1801.2600304198302,10446.803027010326,-76931.57517094316,-40278.89404045272
1602.016580345223,10309.473909076918,-76754.92933451287,-40121.53775948736
1575.4180044434077,10271.31948129171,-76759.57849735957,-40084.567974158286
1677.699587070893,10327.310601152254,-76857.05445492917,-40147.1752103776
1868.292912041296,10461.64458532865,-77022.8820470431,-40281.24097362053
1826.495149909872,10447.317117132798,-76942.41576700399,-40252.83190641784
1626.1341126124994,10309.250391632366,-76766.44048290736,-40094.87212835218
1609.213842059832,10278.94142615097,-76773.05659926613,-40065.43488090454
1717.91037534599,10338.106493724168,-76870.82312951364,-40136.33461431678
1883.6038569931816,10463.455076629529,-77024.89370404408,-40272.61320026079
1826.5175016543271,10452.703887546526,-76922.0533278052,-40212.06232453136
1640.9309674419128,10321.56620282724,-76747.44150012035,-40037.6516625466
1617.9086706529465,10285.401080298554,-76753.9682095013,-39998.357295794165
1721.307840503197,10347.158950228566,-76864.63169629952,-40066.75363382741
1891.7622437193688,10473.200437212045,-77023.0832127432,-40217.51615017845
1828.17153074402,10448.814684011304,-76909.87162707707,-40174.22082116852
1647.725897756326,10321.387388871595,-76747.77677628718,-40016.596319269695
1623.2283858333094,10290.676091990006,-76762.5736311166,-39981.61583919714
1723.1630352929874,10354.937357299012,-76867.96210622336,-40079.00238978892
1894.913839687567,10480.285940204376,-77018.21053245194,-40254.41888027416
1824.4834929088945,10448.63587005566,-76910.36336545508,-40209.134246007714
1645.110743655055,10317.90051673657,-76751.68833156685,-40048.08992720723
1630.6491649924717,10289.93848442298,-76766.08285499607,-40045.81004927278
1727.9239568619678,10348.880034551625,-76880.16615869597,-40120.04019260886
1897.841918211212,10470.138248221669,-77037.16481175004,-40261.45967977759
1823.589423130682,10430.39684658013,-76914.8560660906,-40200.52882439242
1661.7851450187145,10307.931638709502,-76763.24418345025,-40055.39894764411
1653.8726274815356,10288.776193711305,-76780.90206156994,-40047.03939521783
1757.495314776339,10355.898482310591,-76896.19235947041,-40115.7710094179
1916.9303079760443,10479.816553570814,-77041.34458796318,-40239.84554288931
1813.4193794035173,10433.660201270604,-76913.04557478972,-40169.03521645489
1643.501418054273,10306.925810209012,-76758.7738345592,-40023.23478737292
1614.3323915400972,10280.103716862646,-76770.19557597586,-40023.36889783965
1723.0959800596215,10340.542833869797,-76893.75601932479,-40118.94495713055
1910.850633484201,10473.78158256788,-77040.65168388507,-40246.57341797035
1819.3202399397185,10436.431817583063,-76896.5052838928,-40173.14793743467
1650.631624535516,10318.36990337013,-76734.14221216943,-40032.130781666136
1641.400354075474,10300.17558338351,-76751.4201106334,-40026.9451769525
1757.4729630318836,10373.86928485266,-76890.82794080114,-40120.24135830896
1930.7883895383347,10497.899114835158,-77032.8285733257,-40262.331397811344
1821.7565800853467,10445.30546013182,-76879.36149589557,-40186.04489398538
1646.653014022471,10319.353380126166,-76739.37252037198,-40018.18329312602
1639.9698424303344,10298.27568510481,-76787.38406746199,-40008.68380173252
1754.589587997149,10370.024784806346,-76914.4537346904,-40095.02859056337
1926.1392266916307,10485.873876318205,-77028.42527966801,-40215.638603644205
1810.1336729685872,10423.668971499084,-76872.70067604788,-40125.42696302259
1644.1719703879323,10302.209592128944,-76738.65726454942,-39997.37381903813
1652.7103367698596,10287.144516366066,-76786.04296279466,-40017.021002414345
1783.0880621776655,10367.700203382994,-76918.87938009255,-40112.57470996078
1938.0750582307649,10482.36465243872,-77039.82466934022,-40212.241138487
1816.3251061827075,10408.58154399175,-76888.90569077799,-40107.54556745834
1655.5490083156835,10287.211571599431,-76758.23739269226,-39961.47691744291
1664.6238165645382,10278.539094750777,-76789.8204076076,-39945.07073701271
1780.785832498769,10359.653575379083,-76923.23797026134,-40002.24649932939
1922.719409789969,10465.064402230311,-77056.4320154705,-40044.06661320527
1802.265858920319,10383.43583147953,-76894.6053856141,-39901.79775974724
1644.7307639993148,10267.229112056388,-76749.67667456588,-39765.22860112532
1640.2827668527088,10258.511931718818,-76773.5706893886,-39787.96032523636
1774.0132539288109,10343.739133326904,-76917.96295856989,-39890.10779739712
1915.2762788863515,10455.743724792448,-77032.69446285897,-39999.139606850105
1777.656588275026,10374.361023230676,-76869.34791437958,-39877.09908212413
1645.2895576106976,10262.89287363206,-76763.57945961707,-39746.00610089375
1664.020319464245,10257.88608287407,-76797.39764897796,-39749.22475209532
1804.813957788224,10344.90142403858,-76948.69660719593,-39852.89214287903
1941.4278198990608,10454.894358503148,-77046.39608221008,-39964.89673434457
1775.5778760406824,10367.364927216164,-76855.78040549521,-39840.50927645079
1633.1749121159212,10256.299109017744,-76746.36861638649,-39707.76226613072
1660.4887438403064,10255.0697630727,-76788.90398608494,-39738.87589441251
1808.8596235346347,10346.0413630058,-76932.46924072137,-39858.90476213751
1944.132380978153,10449.932271234067,-77029.4311081685,-39973.09982455967
1784.6303325450815,10356.09964801069,-76852.65116127148,-39857.11662258108
1646.0048134332674,10243.893890845047,-76756.85158453604,-39740.64168222448
1662.6345113080158,10245.793789123749,-76800.5268932017,-39759.126574889015
1799.7177600524142,10347.784799073315,-76946.17086007248,-39873.65691347801
1921.0877324447315,10448.322945633288,-77033.11914600362,-39978.933629862506
1748.8675414165905,10349.774104329836,-76851.84649847109,-39857.563657470186
1605.3916937579745,10243.2680420003,-76759.44438689285,-39745.223789837815
1629.0398393916894,10245.972603079392,-76814.45202999735,-39770.48126107231
1775.1755446404868,10344.499092638383,-76963.89579342554,-39898.02031493429
1895.1150053876647,10442.243271141442,-77059.7847771388,-39989.99774336788
1734.4059627540069,10343.068580993246,-76882.31192616367,-39836.105982793095
1612.4324932613963,10238.998858809337,-76783.8748435825,-39705.795312618655
1630.8726824370244,10248.006611824823,-76829.15947784895,-39728.39292626297
1777.2542568748304,10350.176435730033,-76981.97835468988,-39843.68322416344
1888.074205884243,10439.58341355126,-77065.95385860847,-39947.28355971379
1736.976413366367,10338.128845468622,-76886.06701923216,-39822.73963960882
1607.7386269257818,10238.171844264489,-76791.00505006374,-39702.308440483626
1626.0000021457677,10245.100885045636,-76841.67645474392,-39705.21416726281
1783.2445243888528,10349.170607229544,-77005.31357590122,-39827.142933266514
1885.4367000385168,10434.710733260004,-77066.11032081966,-39916.10287619864
1715.854014856102,10330.775121542829,-76872.20893766987,-39782.61825831154
1610.242022304776,10235.713152374406,-76805.24311128177,-39698.441588692855
1643.65788026546,10246.97843157988,-76865.90574573347,-39744.91086541544
1794.1521756830423,10358.67009862305,-77012.15320970454,-39847.81829688767
1881.1451651030975,10435.314230360298,-77070.446559244,-39921.8696262681
1695.3574651905851,10318.302848136766,-76878.95916449538,-39785.34517113509
1583.8669638475135,10226.146605747534,-76804.52785545921,-39696.496986925245
1634.7395342277923,10245.07853330118,-76864.38582711051,-39715.719487156806
1809.2843066792852,10356.43492417752,-77038.32710246171,-39851.28281727825
1898.244249611408,10432.475558814474,-77085.66809721805,-39940.64509161057
1719.206776524398,10315.575935313218,-76893.17487396895,-39795.98460149582
1625.4188567899296,10230.2146232384,-76829.22653308231,-39694.84295783555
1666.1884386764098,10243.491559444852,-76882.60249884159,-39725.017812850216
1815.587498615682,10353.819770076248,-77032.94033204799,-39844.68905266393
1881.5698482477485,10425.926497689068,-77067.0937975757,-39920.68498381197
1696.1397762465213,10312.111414922643,-76871.35957138057,-39773.74461576279
1610.9125746384352,10236.629573897071,-76817.00012886526,-39669.40667264541
1667.5518950881833,10256.276757273288,-76883.96595525336,-39693.81477759061
1835.949937814467,10367.253168493888,-77055.9849805814,-39811.63082261453
1910.1577294060864,10434.643678026638,-77093.11122812168,-39888.1631956295
1718.0891893016326,10312.558449811751,-76892.1019902351,-39744.039147381685
1631.3644208150413,10233.58973665115,-76834.47919302931,-39645.08797467804
1686.9308575309346,10259.18248405248,-76892.66078384648,-39664.98102724327
1865.856571895668,10377.37850873214,-77059.5836114387,-39793.01181948326
1919.1207789326645,10439.58341355126,-77062.57874519571,-39844.39847998601
1711.3836659650406,10312.692560278483,-76860.85425148657,-39675.21812620379
1622.535481755195,10233.969716306892,-76819.2800067997,-39605.25716605869
1671.1505259454875,10256.813199140215,-76893.8454263026,-39644.77505025567
1842.4095919620504,10373.019918563356,-77065.28330627481,-39779.80193851017
1899.451243811994,10430.35214309122,-77073.01700985635,-39814.76006683827
1708.9026223305016,10305.897629964067,-76876.96985923884,-39640.88584672044
1618.7803886867034,10234.752027362829,-76831.6405214835,-39573.45063369878
1683.399281906996,10260.389478253064,-76917.87355159207,-39609.79457018311
1901.842880468712,10387.81677339277,-77105.76231548337,-39760.042996411685
1956.5375991508483,10442.198567652533,-77086.0927803627,-39828.908721078486
1728.1027708176102,10312.178470156012,-76857.90382121847,-39667.2609051777
1638.0252406627228,10235.109655274113,-76818.38593702149,-39559.77136609213
1688.0260930092447,10259.249539285844,-76900.52859789475,-39583.57597393703
1859.8663043816453,10379.546627944306,-77073.91107963456,-39725.21897855032
1909.7330462614357,10427.49111980094,-77061.2376405284,-39777.34324662009
1731.7461051638254,10311.776138755817,-76852.42764382693,-39632.81686697208
1664.6238165645382,10249.146550792046,-76818.8329719106,-39553.78109857811
1714.5799654221494,10276.281568560787,-76900.77446708376,-39589.99092459571
1893.8633076981675,10397.67389269756,-77076.45917850247,-39732.125667587
1934.968165751477,10441.125683918675,-77063.83044288521,-39758.61248476654
1748.465210016395,10314.301885879266,-76867.51507133426,-39607.715857948766
1680.0465202387002,10256.74614390685,-76841.78821346619,-39556.55271489057
1745.470076259384,10298.007464171347,-76916.84537134712,-39611.56035799508
1906.1791188930413,10420.360913319695,-77059.85183237218,-39746.34137706058
1912.6611247850808,10445.372515365189,-77028.9840732794,-39767.44142382639
1715.921070089468,10315.866507991135,-76840.38005356552,-39602.23968055721
1653.5373513147058,10259.36129800812,-76822.4316027679,-39533.955101246254
1717.820968368169,10298.52155429382,-76912.33031896714,-39592.20374729679
1915.8574242421896,10428.899279701624,-77090.65253623159,-39727.36474601802
1931.4812936164487,10456.771905037393,-77049.95000957848,-39737.75830718974
1725.241747527331,10324.181356928511,-76848.1361088915,-39592.31550601906
1666.0543282096778,10267.83260915668,-76833.92039941793,-39538.15722920385
1743.5701779806827,10308.758653254348,-76927.5071534523,-39579.21738376825
1933.4035436396057,10440.522186818383,-77090.25020483139,-39720.94979535935
1927.2121104254857,10459.968204494502,-77032.67211111452,-39709.5727574316
1731.72375341937,10325.745979040385,-76835.50737327426,-39531.98814773418
1684.919200529957,10274.247559815354,-76822.40925102345,-39475.818213918
1754.4107740415066,10311.820842244726,-76919.21465625938,-39528.4789238547
1931.52599710536,10435.671858271582,-77082.27063206084,-39664.198716187326
1920.819511511268,10454.827303269782,-77023.3737854211,-39655.70505329431
1728.4603987288951,10326.371827885132,-76832.31107381715,-39489.16220535782
1683.7792615627363,10275.119277849111,-76843.55400127817,-39452.34888223992
1779.78000399828,10327.578822085718,-76946.79670891723,-39506.283641610586
1941.7630960658903,10457.867140515702,-77084.55050999529,-39633.93445419484
1900.747644990402,10453.553253835827,-76996.93167173049,-39611.73917195072
1713.015343310278,10316.782929513804,-76802.60560543604,-39443.67640539127
1681.8793632840352,10281.198952340956,-76809.24407353927,-39402.79506478251
1783.4903935778611,10336.9889065014,-76921.02514756026,-39470.87847839337
1979.1128610507085,10467.277224931388,-77080.12486459313,-39621.30571857759
1937.739782063935,10461.421067884095,-76986.82868323669,-39574.09883428799
1741.4467622574286,10327.020028474337,-76805.98071884879,-39396.82714901294
1709.1037880305992,10286.451612287952,-76804.43844848138,-39362.69603522969
1795.806204772735,10333.077351221724,-76903.27786246275,-39437.61908264388
1973.189648770052,10456.079000959278,-77069.0383993433,-39584.06771231505
1927.390924381128,10446.959489221512,-76989.39913384905,-39540.392403649385
1731.8355121416466,10312.938429467493,-76803.87965486999,-39364.35006431938
1703.6052588945936,10272.191199325467,-76814.8320096531,-39346.24515131058
1800.7459402973582,10322.460272605453,-76930.36817674257,-39435.18274249825
1985.125480309186,10455.006117225425,-77083.29881230579,-39579.1950320238
1929.7602092933903,10443.15969266411,-76972.61297376311,-39542.44876413927
1732.0366778417442,10307.641066031583,-76801.80094263566,-39385.74068376311
1716.1892910229317,10271.922978392004,-76826.20904758085,-39353.241247325095
1814.939298026478,10327.489415107895,-76921.2039615159,-39428.27605346156
1971.7591371249125,10449.127608433677,-77071.02770459982,-39556.93269454631
1898.847746711701,10423.266640098887,-76971.0707033957,-39512.51977831361
1699.6490001260042,10286.965702410424,-76797.9787943338,-39355.87875317082
1667.9318747439236,10251.381725237576,-76805.62309093752,-39325.70389815616
1776.606056285627,10306.031740430804,-76915.7054323799,-39392.69207628871
1966.551180666826,10431.02269542488,-77076.99562036939,-39539.47598212672
1896.277296099341,10404.20060207851,-76969.05904639472,-39481.22733607618
1710.6684101424707,10268.03377485678,-76810.58517820659,-39311.95757531614
1700.3195524596636,10240.742294876847,-76835.77559420772,-39305.564976401925
1812.681771836492,10309.585667799196,-76950.52945024127,-39405.32081190596
1984.454927975527,10438.421122839583,-77093.11122812168,-39535.58677859149
1901.7981769798012,10403.530049744852,-76961.50415676882,-39455.34401599694
1715.9657735783785,10266.424449255996,-76802.31503275812,-39299.08297050989
1695.692741357415,10233.723847117884,-76827.4383935259,-39301.09462751087
1797.9743239849,10296.554600781752,-76940.94055186994,-39395.95543097919
1966.685291133558,10424.272468599376,-77074.38046626812,-39514.91141497033
1883.6932639710028,10380.1501250446,-76943.35454027112,-39426.9573005387
1716.7033811454037,10250.26413801481,-76779.7174191138,-39260.61561830231
1705.0581222841886,10220.69278010044,-76810.13814331748,-39257.262856634006
1810.4689491354168,10281.713042463429,-76941.18642105896,-39341.014843108045
1978.0846808057645,10401.786613677335,-77091.9936408989,-39448.34791998243
1878.3959005350948,10351.316374697251,-76957.39143578905,-39356.01286363755
1707.181538007443,10224.894908058037,-76819.45882075535,-39175.03078878293
1722.1572067924983,10209.427500894964,-76844.20220186737,-39171.07453001434
1821.6671731075253,10275.342795293664,-76946.68495019495,-39268.77400502849
1965.187724255052,10386.989758847923,-77067.16085280906,-39423.69394584822
1858.36873750314,10330.193976186987,-76919.03584230374,-39345.93222688821
1690.0377500102222,10201.179707190957,-76783.29369822665,-39214.43691425764
1702.62178213856,10184.192381404922,-76829.67356797142,-39248.76919374099
1829.6690976225252,10264.770420166304,-76957.03380787776,-39363.523049774536
1981.3480354962392,10381.893561112114,-77075.43099825752,-39444.54812342503
1847.6175484201367,10310.770310255326,-76922.99210107233,-39313.41043870574
1678.9736365048452,10181.174895903456,-76789.35102097405,-39164.1901927221
1696.43034892444,10168.568512030664,-76829.76297494925,-39170.31457070286
1825.6457836205705,10249.794751381249,-76954.68687470995,-39243.069498904886
1985.3489977537392,10362.156970758078,-77075.92273663553,-39351.11783160184
1860.693318926492,10291.614865257128,-76928.82590637516,-39228.04912663092
1699.7831105927362,10180.01260519178,-76817.69303294338,-39074.514993967416
1725.0629335716883,10182.87362848206,-76853.47817581633,-39084.86385165023
1872.942074888,10269.710155690927,-76975.58575577567,-39180.506966174486
2010.740579454968,10377.534970943329,-77077.39795176958,-39286.275420937
1857.0276328358211,10303.058958418243,-76899.2545484608,-39161.73150083202
1694.7986715792026,10183.655939537995,-76773.45893066633,-39011.97481298147
1701.9959332938115,10173.128267899549,-76810.80869565114,-39013.27121415988
1830.294946467274,10258.623690441096,-76957.52554625578,-39112.84823570827
1978.6658261616024,10372.550531929795,-77071.85471914467,-39229.05495513141
1843.5718826737263,10301.89666770657,-76909.64810963252,-39120.53723580089
1680.2029824498873,10188.260398895787,-76791.96617507531,-38987.49965280291
1677.565476604161,10182.136020915035,-76823.97387313531,-38975.58617300823
1799.5165943523164,10268.346699279156,-76959.82777593468,-39070.49167996546
1925.580433080248,10373.86928485266,-77067.3396667647,-39194.543861692415
1769.3193875931966,10288.060937888737,-76896.63939435952,-39088.93186914109
1620.8814526655024,10178.58209354664,-76783.96425056033,-38965.97492289245
1637.7346679848038,10177.06217492368,-76815.9272451314,-38961.50457400138
1775.264951618308,10265.508027733327,-76956.40795903301,-39052.49852567894
1904.5474415478045,10368.81779060576,-77060.25416377236,-39176.03661728342
1759.9540066664229,10285.311673320732,-76875.15936793797,-39072.413929988616
1628.2798800802088,10181.085488925635,-76756.13632871346,-38950.909847129566
1654.9902147043008,10186.15933491699,-76807.99237584978,-38983.00695216739
1815.4757398934053,10286.786888454782,-76969.43902605046,-39096.35264830025
1954.2800729608623,10390.387224005131,-77069.10545457667,-39198.880100116745
1786.6643412905148,10296.17462112601,-76871.13605393602,-39060.3663397272
1646.56360704465,10186.91929422847,-76767.98275327477,-38923.08192528271
1670.077642211633,10185.198209905411,-76816.86601839853,-38926.233521250906
1814.0228765038105,10279.053184873246,-76970.40015106203,-39055.78423211387
1938.2091686974968,10376.90912209858,-77061.34939925068,-39164.32430318884
1778.7071202644254,10279.589626740171,-76870.21963241335,-39048.36345295471
1651.2351216358093,10173.575302788651,-76777.32578245709,-38922.41137294905
1673.788031791214,10179.431459835943,-76828.35481504856,-38930.36859397514
1827.2327574768967,10281.89185641907,-76986.89573847005,-39052.92320882359
1946.9934042684324,10375.232741264432,-77072.92760287852,-39156.61295135176
1768.9394079374565,10275.141629593569,-76877.72981855033,-39028.47040038948
1651.212769891354,10181.957206959392,-76784.45598893834,-38908.44153266448
1694.8880785570238,10197.268151911278,-76825.5384952472,-38923.12662877162
1840.5767489167156,10299.639141516584,-76972.16593887401,-39034.39361267014
1940.779619309857,10388.397918748607,-77041.38929145208,-39123.48766606899
1767.911227692512,10283.45647853094,-76857.63560028501,-38984.50451904589
1652.889150725502,10188.998006462814,-76794.24605300976,-38889.91193651104
1680.8064795501805,10204.957152003904,-76842.21289661084,-38916.55521590176
1829.9820220449,10304.735339252396,-76991.36608736111,-39042.30613020732
1935.750476807413,10391.415404250074,-77048.54184967779,-39124.73936375849
1761.496277033839,10287.926827422005,-76854.6851700169,-38985.21977486846
1657.4489065943849,10200.933838001947,-76780.7679511032,-38880.39009337308
1704.5216804172612,10213.987256763849,-76842.34700707758,-38906.116951241136
1868.136449830109,10323.354342383664,-77004.5759683342,-39044.45189767503
1949.0944682472311,10400.82548866576,-77057.86252711565,-39147.0911082138
1768.7829457262692,10284.663472731529,-76855.4451293284,-38988.08079815874
1658.1641624169545,10195.032977465748,-76793.19552102036,-38872.052892691245
1717.396285223518,10214.50134688632,-76888.70452507789,-38925.9876520619
1919.4113516105836,10332.183281443513,-77043.28918973079,-39078.8735841362
1970.8427156022449,10397.517430486374,-77044.09385253118,-39153.1931344501
1758.7023089769257,10269.576045224196,-76830.65704472746,-38999.74840876441
1652.2856536252086,10181.867799981572,-76769.43561666437,-38900.90899478304
1692.7199593448593,10192.909561742492,-76843.82222221163,-38924.333622972204
1864.0237288503324,10303.438938073989,-77007.7275643024,-39055.96304606951
1936.4433808855276,10369.28717723932,-77039.35528270666,-39123.26414862444
1746.498256504328,10246.55374843523,-76852.20412638238,-38980.90588818859
1655.5490083156835,10163.20409336139,-76802.18092229139,-38897.31036392574
1706.7792066072473,10179.722032513862,-76869.81730101316,-38928.71456488545
1863.6661009390475,10289.804373956247,-77039.37763445111,-39060.14282228265
1928.1955871815192,10355.317336954751,-77074.60398371267,-39108.288479839386
1760.9374834224564,10237.009553552813,-76871.40427486948,-38939.08577431271
1681.499383628295,10158.621985748052,-76811.83687589609,-38856.02669191679
1728.9968405958225,10175.385794089532,-76873.5947458261,-38896.32688716971
1888.364778562162,10285.401080298554,-77033.85675357065,-39008.59969956872
1951.9778432819655,10338.374714657632,-77057.72841664893,-39061.21570601651
1775.913152207512,10210.813309051193,-76855.4898328173,-38918.65627988056
1680.985293505823,10128.737703411309,-76804.50550371474,-38840.00049114233
1724.4147329824846,10154.598671746096,-76879.80853078468,-38877.305552638245
1894.556211776282,10271.475943502895,-77045.65847464306,-38998.42965584155
1955.53177065036,10328.651705819571,-77061.1929370395,-39030.99614751293
1774.5720475401936,10205.82887003766,-76871.31486789166,-38858.88771520707
1690.082453499133,10136.00202035928,-76813.26738754123,-38783.271763714765
1735.72471567687,10157.459695036376,-76863.53646082121,-38810.65265067251
1915.6786102865472,10275.119277849111,-77029.07348025721,-38923.08192528271
1954.6377008721477,10317.76640626984,-77032.80622158125,-38952.38506226362
1757.987053154356,10187.656901795495,-76841.20706811037,-38799.18620576694
1689.166031976465,10117.919459094936,-76814.8320096531,-38754.68388255643
1761.5186287782942,10142.908709395972,-76903.97076654086,-38842.50388652133
1938.522093119871,10258.869559630104,-77070.02187609934,-38995.2557081289
1966.908808578111,10296.956932181947,-77059.85183237218,-39019.59675784073
1773.655626017526,10165.215750362368,-76858.30615261866,-38857.3230930952
1693.010532022778,10101.3344647091,-76821.09049810059,-38792.59244115263
1755.2601403308083,10133.744494169296,-76897.37700192655,-38860.65350301904
1939.7067355760023,10256.83555088467,-77065.95385860847,-38999.23431864194
1966.685291133558,10294.408833314044,-77047.98305606641,-39019.48499911845
1769.498201548839,10154.039878134714,-76859.37903635252,-38845.47666853389
1708.1650147634764,10086.314092435134,-76835.08269012961,-38759.31069365868
1786.463175590417,10125.854328376572,-76914.87841783505,-38793.1065312751
1966.0817940332645,10250.97939383738,-77091.18897809851,-38912.30838445525
1981.2362767739628,10285.535190765286,-77054.19684102498,-38924.31127122775
1785.2561813898303,10156.319756069155,-76870.55490858018,-38772.31940893167
1759.305806077219,10107.771767112228,-76863.06707418765,-38734.74612650229
1808.9937340013664,10146.216767575355,-76909.51399916578,-38766.41854839546
1958.7951253408344,10261.708231175928,-77058.95776259396,-38876.50088983785
1955.53177065036,10282.920036664014,-77014.79071555028,-38876.99262821587
1758.948178165934,10158.130247370034,-76827.57250399262,-38706.82879767761
1708.8132153526803,10110.543383424689,-76811.18867530688,-38686.734579412296
1790.2629721478193,10156.543273513707,-76907.41293518698,-38805.556452936704
1976.4753552049824,10285.043452387268,-77086.0927803627,-38992.57349879426
1962.773735853879,10301.22611537291,-77026.70419534495,-38993.71343776148
1758.277625832275,10165.036936406725,-76827.86307667055,-38828.75756368131
1707.0697792851663,10110.923363080426,-76812.7309456743,-38766.23973443982
1787.6925215354588,10155.760962457773,-76904.46250491888,-38789.79847309572
1970.0380528018536,10285.423432043008,-77068.63606794311,-38912.241329221884
1959.3762706966725,10294.118260636124,-77006.60997707963,-38874.66804679252
1774.0356056732662,10158.286709581222,-76834.90387617396,-38689.237974791286
1736.1270470770655,10102.85438333206,-76828.71244295985,-38633.7162415643
1809.4407688904728,10141.925232639936,-76912.39737420052,-38688.81329164664
1982.3091605078173,10270.559521980227,-77073.86637614566,-38840.11224986461
1964.9642068104995,10270.872446402604,-77007.66050906903,-38852.60687501512
1769.9899399268556,10138.706581438371,-76808.41705899443,-38695.69762893887
1704.1640525059763,10089.353929681056,-76796.81650362212,-38658.92900930989
1784.1832976559756,10132.24692729079,-76882.49074011932,-38714.47309428133
1972.519096436393,10260.50123697534,-77049.41356771154,-38853.7691657268
1941.0925437322312,10257.863731129615,-76981.91129945652,-38829.9645578819
1749.985128639356,10121.42868297442,-76807.88061712749,-38670.127233282
1722.7160004038813,10082.84957204456,-76829.11477436004,-38640.84644804555
1829.937318555989,10140.271203550245,-76958.55372650072,-38713.26610008074
2000.9952188724544,10264.099867832643,-77117.42992608904,-38843.80028769973
1942.8359797997448,10248.721867647397,-77007.83932302467,-38793.553566164206
