 EXG Channel 0, EXG Channel 1, EXG Channel 2, EXG Channel 3
14005.24544778412,38371.93261050375,10838.204424167208,41521.58397693443
13987.632273153338,38363.5060028441,10832.66119154229,41510.31869772896
13969.28149095553,38356.21933415167,10822.625258281858,41500.30511621298
13988.39223246482,38367.59637207942,10819.451310569206,41508.798779106
13975.964662547667,38379.73336931865,10809.415377308773,41517.13597978783
13936.37972311732,38380.515680374585,10787.018929364554,41515.97368907615
13934.479824838618,38369.22804942466,10786.929522386734,41501.51211041357
13956.675107082738,38365.04827321151,10781.386289761816,41490.8950317973
13962.419505407752,38375.68770357224,10773.116144313351,41493.19726147619
13942.973487731637,38393.524395647575,10770.255121023074,41506.45184593819
13925.80734798996,38405.16965450879,10765.382440731815,41513.67145939726
13937.85493825137,38400.31932596199,10765.27068200954,41503.68022962573
13956.183368704722,38396.5642328935,10771.618577434849,41493.17490973174
13951.198929691189,38406.75662836512,10775.75365015908,41495.70065685519
13944.135778443311,38427.49904721965,10768.310519255465,41509.29051748401
13927.886060224302,38443.167620082815,10773.89845536929,41518.11945654386
13908.529449526008,38438.205532813736,10766.947062843688,41504.01550579256
13909.51292628204,38435.255102545634,10762.208493019163,41490.8950317973
13936.37972311732,38449.73903295268,10766.835304121412,41496.70648535567
13948.583775589916,38477.25403037715,10777.094754826398,41514.6996396422
13926.433196834709,38494.59898407447,10771.70798441267,41520.73461064513
13925.159147400756,38489.92746948332,10753.692478381692,41504.12726451484
13947.488540111606,38495.09072245249,10765.65066166528,41499.07577026794
13950.327211657432,38514.44733315078,10769.875141367334,41512.06213379647
13951.578909346928,38540.08478404102,10767.684670410714,41530.05528808299
13963.33592693042,38556.51331621568,10759.593338917892,41539.46537249868
13946.639173822305,38550.21012427928,10751.926690569722,41526.94839560371
13929.674199780728,38548.8466678675,10739.230899719108,41518.11945654386
13931.529394570518,38563.64352269692,10731.206623459651,41521.4498664677
13908.484746037097,38591.18087186586,10726.468053635128,41537.38666026433
13921.51581305454,38613.51026457671,10743.947117799178,41546.90850340229
13959.42437165074,38613.48791283225,10750.585585902403,41532.62573869535
13967.359240932376,38618.29353789015,10751.613766147348,41527.551892704
13960.407848406774,38635.63849158746,10737.845091562878,41536.49259048612
13956.317479171454,38668.94259082587,10753.7371818706,41563.47114604368
13947.980278489624,38683.09124506608,10750.02679229102,41569.148489135325
13949.969583746146,38682.82302413262,10746.003478289063,41559.06785238598
13933.42929284922,38683.94061135538,10734.60408861686,41552.518791260576
13929.71890326964,38700.2350330633,10729.0832077364,41560.02897739756
13904.66259773524,38726.38657407601,10732.748893827067,41576.770433994585
13886.244760304064,38743.44095509541,10733.419446160728,41583.475957331175
13936.2903161395,38747.061937697166,10734.31351593894,41576.32339910548
13961.43602865172,38754.30390290069,10735.945193284178,41574.19998338223
13922.432234577209,38767.08910072912,10727.429178646706,41579.07266367348
13917.716016497136,38795.38640920954,10743.41067593225,41598.36221913841
13947.443836622697,38810.25031927232,10737.26394620704,41602.76551279611
13946.90739475577,38807.456351215405,10730.69253333718,41589.51092833411
13928.2883916245,38812.64195592904,10740.259079964051,41584.57119280949
13913.737405984091,38827.84114215865,10731.430140904204,41587.90160273333
13932.490519582096,38858.93241869598,10731.765417071036,41607.07939947598
13934.926859727724,38870.93530546848,10726.155129212751,41610.90154777784
13909.1329466263,38866.35319785514,10715.046312218466,41595.791768526055
13901.08631862239,38872.63403804708,10706.463242347629,41590.9190882348
13942.079417953422,38900.26079419384,10715.627457574305,41606.16297795332
13970.332022944933,38931.8885125981,10721.774187299514,41626.99480378566
13964.788790320015,38944.71841391545,10713.347579639862,41630.59343464296
13949.120217456844,38941.969149347446,10709.16780342672,41617.78588507007
13930.970600959135,38947.8923616281,10714.934553496189,41613.963736768215
13934.256307394066,38966.287847314816,10721.662428577236,41622.05506826104
13930.031827692012,38993.26640287237,10714.018131973522,41641.52343768161
13935.642115550294,39004.19640591102,10704.78686151348,41643.62450166041
13937.497310340084,39002.07299018776,10716.298009907963,41633.00742304414
13939.397208618786,39010.38783912514,10724.255230934052,41632.828609088494
13942.302935397976,39027.15164746662,10718.063797719931,41639.95881556974
13930.970600959135,39050.4198134446,10710.17363192721,41656.90143786687
13932.132891670812,39058.26527574841,10703.26694289052,41658.7342809122
13921.89579271028,39048.27404597688,10702.328169623395,41640.29409173657
13909.289408837489,39052.9679123125,10700.07064343341,41635.24259748967
13925.740292756593,39072.70450266654,10708.899582493255,41644.831495861
13945.208662177163,39098.4313605346,10707.245553403563,41661.55060071356
13937.51966208454,39100.44301753557,10699.556553310938,41656.29794076657
13904.595542501873,39081.89106963767,10685.184381626175,41632.76155385513
13912.03867340549,39083.478043494,10693.365120096818,41626.43601017428
13945.789807533003,39103.01346814793,10704.675102791203,41635.98020505669
13922.678103766217,39121.09602941228,10697.343730609862,41647.603112173456
13894.1796295857,39118.480875311005,10683.239779858564,41639.51178068063
13903.522658768015,39112.62471826372,10675.036689643466,41626.056030518535
13914.810289717949,39121.54306430138,10682.435117058172,41628.40296368635
13932.445816093186,39140.49734359948,10702.35052136785,41641.2775684926
13925.449720078674,39163.162012477165,10706.619704558814,41660.12008906843
13897.957074398646,39160.21158220906,10691.308759606927,41651.157039541846
13914.385606573298,39153.77427980593,10695.06385267542,41637.41071670184
13939.978353974624,39162.670274099146,10707.670236548214,41638.371841713415
13943.37581913183,39176.66246612817,10689.788840983969,41643.62450166041
13946.840339522403,39201.02586758445,10692.962788696625,41661.640007691385
13934.211603905154,39204.78096065295,10708.340788881873,41658.17548730082
13917.403092074765,39194.409751225685,10701.702320778648,41641.83636210398
13912.46335655014,39200.66823967317,10701.63526554528,41641.38932721488
13931.99878120408,39219.98014688255,10706.68675979218,41654.24158027668
13937.050275450978,39245.77405998398,10703.06577719042,41673.12880434142
13912.41865306123,39245.57289428388,10691.509925307028,41664.54573447058
13944.068723209944,39242.0636704044,10699.02011144401,41652.408737231344
13934.256307394066,39247.33868209585,10700.964713211622,41649.39125172988
13922.029903177012,39263.32017938139,10695.197963142153,41659.114260567934
13930.635324792303,39285.31429592542,10694.035672430477,41674.89459215338
13912.865687950336,39284.33081916939,10687.173686882696,41667.02677810512
13925.51677531204,39278.58642084437,10677.16010536672,41656.8790861224
13947.779112789523,39282.76619705751,10675.39431755475,41654.77802214361
13930.65767653676,39299.5747088879,10694.795631741958,41666.132708326906
13911.65869374975,39314.97506081761,10687.01722467151,41676.325103798525
13929.562441058451,39312.31520322743,10675.416669299206,41666.64679844938
13953.098827969889,39305.14029325728,10695.287370119971,41653.95100759877
13947.28737441151,39309.8788630818,10712.654675561747,41655.67209192182
13942.437045864708,39321.72528764311,10709.972466227113,41663.71871992573
13937.005571962069,39341.37247101933,10709.681893549192,41678.76144394415
13935.642115550294,39336.11981107233,10699.914181222222,41669.44076650629
13926.52260381253,39319.24424400857,10694.415652086218,41651.82759187551
13908.238876848089,39315.10917128434,10690.325282850896,41646.46317320623
13909.602333259862,39327.022651079016,10679.93172167918,41655.33681575499
13938.61489756285,39342.892389642286,10689.632378772782,41666.758557171655
13938.65960105176,39336.85741863935,10696.382605598284,41653.6827866653
13918.744196742082,39323.71459289963,10690.705262506635,41634.30382422255
13934.27865913852,39324.92158710022,10690.30293110644,41631.10752476544
13953.367048903352,39338.84672389588,10698.751890510546,41644.36210922743
13938.681952796216,39345.23932281009,10680.624625757291,41650.62059767492
13922.94632469968,39330.73304065861,10686.614893271317,41635.354356211945
13920.17470838722,39311.80111310496,10693.40982358573,41616.44478040276
13902.673292478716,39304.33563045688,10690.1241171508,41607.9734692542
13875.940606110167,39313.99158406157,10691.375814840296,41613.22612920119
13933.80927250496,39321.14414228728,10680.982253668575,41617.96469902572
13978.95979630468,39306.66021188023,10699.06481493292,41600.79855928404
13964.14058973081,39286.118958725805,10703.579867312894,41575.38462583836
13953.724676814638,39281.42509239019,10700.003588200045,41565.438099555744
13954.104656470376,39290.87988029479,10699.757719011037,41570.24372461364
13951.757723302571,39292.95859252913,10693.789803241469,41570.66840775829
13939.687781296703,39268.46108060612,10690.459393317627,41544.51686674558
13933.317534126942,39245.81876347289,10698.394262599262,41519.08058155544
13924.555650300465,39234.039394144944,10683.865628703312,41503.61317439237
13918.23010661961,39235.224036601074,10679.060003645422,41498.51697665656
13909.535278026497,39236.87806569077,10690.817021228911,41496.81824407796
13906.89777218077,39209.005440355,10694.415652086218,41468.275066408525
13922.499289810574,39184.93261157663,10696.181439898186,41446.25859812005
13922.1863653882,39174.539050404914,10689.0735851614,41435.06037414794
13916.397263574276,39177.86946032876,10690.794669484458,41434.72509798111
13902.405071545252,39177.8471085843,10686.436079315672,41432.48992353558
13904.41672854623,39150.443869882096,10669.560512251915,41404.32672552189
13913.759757728549,39129.813209749846,10664.531369749471,41378.95749556512
13928.891888724793,39128.3379946158,10675.103744876831,41370.2179634831
13945.23101392162,39142.55370408937,10679.328224578883,41378.018722298
13912.575115272415,39145.45943086856,10658.33993653535,41374.889478074256
13910.1834786157,39126.16987540363,10648.952203864124,41351.0625184849
13916.173746129722,39113.11645664173,10673.337957064865,41332.39881186472
13914.94440018468,39114.83754096479,10681.675157746691,41329.73895427453
13914.94440018468,39131.40018360617,10668.375869795784,41338.34437588983
13913.1339088838,39146.375852391226,10669.895788418746,41342.03241372495
13905.780184958005,39133.50124758497,10672.577997753382,41322.42993383765
13915.436138562696,39117.54210204388,10664.464314516106,41303.45330279509
13913.357426328354,39117.25152936596,10672.913273920212,41299.74291321551
13923.70628401116,39128.3826981047,10670.186361096665,41310.73997148752
13911.099900138368,39118.07854391081,10644.258337528508,41304.52618652894
13910.027016404512,39091.994058131466,10649.309831775408,41281.57094497335
13920.644095020783,39070.53638345437,10650.91915737619,41264.91889535415
13924.868574722836,39050.82214484479,10643.63248868376,41258.772165628936
13920.241763620588,39038.68514760556,10635.42939846866,41266.93055235512
13904.595542501873,39016.1098857057,10651.120323076288,41267.15406979968
13889.441059761177,38967.09251011521,10653.757828922013,41239.66142411965
13904.640245990784,38921.5843584042,10653.646070199737,41217.46614187553
13911.2340106051,38893.21999469042,10647.119360818788,41211.74409529497
13885.574207970409,38877.03733170478,10645.979421851567,41216.12503720821
13878.376946255798,38860.94407569696,10646.806436396411,41211.81115052833
13893.307911551943,38831.75269743833,10645.286517773451,41186.77719673839
13894.1796295857,38812.15021755103,10645.15240730672,41168.53817326286
13906.674254736216,38809.35624949411,10640.503244460017,41164.93954240556
13937.22908940662,38820.15214206602,10643.856006128311,41173.88024018768
13938.65960105176,38824.510732234805,10640.190320037642,41175.57897276628
13926.61201079035,38802.62837441306,10633.685962401149,41151.75201317692
13913.402129817265,38789.19497599542,10629.86381409929,41137.13397230315
13920.062949664944,38792.52538591926,10627.650991398215,41140.553789204816
13938.838415007403,38809.73622914985,10658.988137124556,41159.37395803618
13917.85012696387,38805.33293549215,10649.354535264318,41160.04451036984
13897.778260443003,38785.506938160295,10638.53629094795,41144.107716573206
13877.237007288575,38770.91124903098,10630.28849724394,41131.18840827804
13889.016376616524,38775.82863281115,10636.725799647067,41138.22920778146
13890.960978384135,38784.590516637625,10638.1116078033,41150.8132399098
13912.016321661034,38783.98701953734,10638.53629094795,41152.37786202167
13941.028885964024,38767.71494957387,10637.172834536175,41136.351661247216
13912.03867340549,38754.97445523435,10630.847290855325,41122.38182096265
13914.050330406468,38757.90253375799,10634.758846135002,41125.62282390867
13932.401112604275,38768.94429551892,10628.880337343257,41142.8113153948
13919.928839198214,38760.2494669258,10617.324485459863,41143.10188807272
13892.79382142947,38733.47207706834,10605.366302176271,41120.63838489514
13897.241818576076,38718.42935304992,10606.260371954486,41108.5013876559
13896.548914497962,38721.04450715119,10623.068883784876,41115.095152270216
13886.75885042654,38729.44876306639,10634.20005252362,41133.31182400129
13905.266094835531,38723.48084729682,10626.220479753076,41136.59753043622
13916.218449618633,38700.19032957439,10618.352665704808,41119.90077732811
13922.007551432556,38684.96879160032,10624.320581474374,41111.67533536856
13935.887984739302,38685.63934393398,10631.62960191126,41121.01836455087
13938.99487721859,38691.45079749236,10627.941564076134,41136.23990252494
13915.346731584876,38680.09611130907,10620.945468061624,41136.46341996949
13899.968731399624,38649.2730557052,10607.400310921706,41118.11263777169
13929.51773756954,38635.92906426538,10617.615058137782,41117.66560288258
13920.17470838722,38633.13509620847,10622.711255873592,41126.6063006647
13912.12808038331,38643.28278819118,10629.416779210183,41144.97943460696
13900.70633896665,38634.7667735537,10615.424587181162,41144.95708286251
13913.647999006273,38612.66089828741,10612.071825512869,41131.0095943224
13908.32828382591,38601.97676443777,10617.168023248676,41126.24867275342
13890.960978384135,38610.515130819695,10615.782215092448,41138.51978045938
13897.286522064987,38636.39845089895,10623.270049484974,41167.13001336218
13898.962902899137,38637.24781718825,10606.305075443395,41167.19706859554
13910.742272227082,38625.133171693466,10600.515973629472,41153.406042266615
13912.329246083407,38629.71527930681,10618.553831404904,41157.22819056847
13912.798632716973,38645.78618357017,10631.271973999974,41174.39433031015
13909.222353604122,38668.38379721449,10620.900764572712,41196.12022592071
13910.89873443827,38673.63645716148,10611.848308068313,41200.79174051186
13913.60329551736,38663.39935820095,10617.77152034897,41192.5215950634
13932.065836437445,38664.293427979166,10620.498433172515,41195.561432309325
13926.27673462352,38675.31283799563,10624.43234019665,41209.59832782725
13911.859859449847,38692.90366088196,10628.902689087712,41228.23968270298
13897.487687765086,38687.69570442387,10617.34683720432,41222.6293948447
13916.173746129722,38669.590791415074,10600.180697462643,41205.977345225496
13936.513833584051,38669.16610827042,10605.09808124281,41204.74799928046
13918.721844997626,38678.66559966393,10609.926058045156,41216.77323779741
13898.26999882102,38690.78024515871,10597.498488128003,41235.03461301739
13896.593617986871,38685.59464044507,10595.62094159376,41236.59923512927
13909.445871048674,38672.60827691654,10592.223476436551,41226.00450825745
13937.452606851177,38675.402244973455,10590.055357224388,41226.74211582448
13924.75681600056,38684.05237007765,10597.654950339193,41238.275615963415
13904.528487268506,38691.45079749236,10588.982473490534,41251.57490391433
13910.89873443827,38687.15926255695,10583.57335133235,41250.367909713736
13921.336999098898,38671.64715190496,10585.80852577788,41238.99087178599
13932.624630048827,38670.84248910457,10601.968837019069,41241.22604623152
13951.847130280392,38691.71901842583,10621.77248260647,41261.16380228565
13957.166845460755,38720.55276877317,10645.73355266256,41287.71767469856
13941.252403408576,38720.46336179535,10639.922099104178,41285.34838978629
13934.591583560896,38706.717038955336,10628.67917164316,41272.518488468944
13938.391380118295,38708.527530256215,10647.54404396344,41274.776014658935
13938.57019407394,38722.944405429895,10659.25635805802,41289.30464855488
13942.95113598718,38739.23882713781,10658.898730146737,41307.25309935249
13939.486615596606,38732.51095205677,10656.440038256653,41302.69334348361
13935.731522528116,38716.28358558221,10651.097971331832,41286.443625264605
13979.42918293824,38722.7432397298,10659.502227247029,41292.29978231189
13997.399985480308,38735.036699180215,10651.410895754208,41305.93434642963
13987.498162686608,38749.67709179844,10654.316622533395,41324.53099781645
13988.280473742543,38743.79858300669,10647.25347128552,41321.53586405944
13969.773229333548,38732.28743461221,10645.308869517909,41310.918785443166
13957.680935583228,38734.29909161319,10656.037706856456,41311.61168952128
13976.76932534806,38749.54298133171,10655.59067196735,41323.54752106041
13997.891723858324,38766.44090013992,10651.097971331832,41340.15486719071
13989.353357476395,38760.02594948125,10652.260262043508,41331.3035763864
13965.660508353772,38747.68778654192,10649.779218408969,41315.03150642294
13967.918034543758,38751.06289995467,10639.184491537151,41311.43287556564
13981.016156794569,38765.5021268728,10637.0610758139,41320.46298032558
13993.779002878548,38790.91606031848,10672.39918379774,41341.02658522446
13984.368918462864,38789.46319692888,10674.477896032084,41335.0586694549
13971.76253459007,38786.95980154989,10676.44484954415,41327.7049455291
13975.517627658564,38801.98017382386,10676.310739077418,41336.17625667766
13983.206627751188,38830.38924102656,10683.910332192225,41355.93519877616
13961.368973418354,38860.2735233633,10677.227160600089,41375.96236180811
13941.542976086495,38865.43677633248,10661.849160414837,41368.85450707132
13967.202778721188,38878.3784363721,10670.38752679676,41369.4133006827
13974.66826136926,38900.55136687176,10664.084334860365,41380.72328337709
13985.419450452264,38941.969149347446,10663.145561593245,41413.110961092825
13984.681842885238,38980.123577132654,10661.312718547908,41440.42479281721
13985.598264407903,38998.56376630828,10658.831674913368,41444.11283065234
13974.355336946886,39015.86401651669,10662.095029603845,41445.85626671985
13971.76253459007,39051.090365778255,10673.203846598131,41464.00588321757
13979.317424215964,39097.80551168985,10676.511904777515,41491.78910157551
13983.407793451286,39135.78112551941,10667.459448273115,41515.48195069814
13991.365014477376,39154.40012865068,10654.1154568333,41517.11362804337
13999.523401203562,39177.42242543965,10667.906483162224,41521.22634902315
13963.939424030714,39205.22799554205,10666.453619772628,41532.379869506345
13946.817987777948,39241.326062837376,10664.844294171846,41553.99400639463
13973.863598568869,39281.84977553484,10674.522599520991,41581.35254160792
13981.262025983577,39296.71368559762,10672.019204142,41582.00074219713
14010.766328664582,39309.52123517051,10669.78402969647,41578.69268401774
14014.29790428852,39328.98960459109,10672.980329153575,41586.53814632155
13983.05016554,39352.615398480346,10668.688794218158,41601.22324242869
13979.093906771412,39376.375302836335,10667.526503506482,41615.81893155801
13988.325177231452,39375.12360514685,10659.479875502571,41605.96181225322
14001.065671570976,39375.36947433585,10662.430305770671,41599.59156508346
13992.348491233408,39387.484119830624,10674.9696344101,41606.23003318668
13987.29699698651,39413.81447479898,10689.855896217334,41629.29703346456
13983.76542136257,39437.64143438834,10688.44773631665,41649.61476917443
13971.42725842324,39438.177876255264,10676.690718733158,41641.05405104805
13978.62452013785,39442.7599838686,10665.15721859422,41634.90732132284
13984.838305096426,39467.682178936266,10669.11347736281,41648.653644162856
13970.10850550038,39507.37887708889,10677.227160600089,41678.13559509941
13980.658528883285,39548.37197641993,10667.280634317474,41708.422208836346
14003.949046605712,39570.947238319786,10674.38848905426,41718.05581069658
13999.29988375901,39593.07546533054,10668.77820119598,41723.37552587695
13989.643930154316,39626.31250933559,10657.021183612487,41737.278310928144
13981.127915516843,39669.719597067786,10658.33993653535,41761.41819493988
13974.154171246788,39703.89541433995,10656.954128379122,41778.62903817047
13956.786865805016,39713.41725747792,10649.376887008772,41768.50369793221
13942.459397609164,39725.73306867279,10649.667459686692,41760.81469783958
13934.926859727724,39751.45992654085,10639.67622991517,41764.2568664857
13951.154226202278,39789.74846479279,10628.05332279841,41779.45605271531
13973.505970657585,39823.030212286736,10640.190320037642,41789.44728248684
13967.292185699009,39824.88540707653,10637.731628147558,41767.90020083192
13923.214545633144,39816.61526162807,10612.697674357614,41736.27248242766
13922.320475854933,39824.416020442965,10595.464479382574,41720.089819442015
13948.673182567738,39838.654081661,10592.33523515883,41715.26184263967
13927.439025335196,39835.7036513929,10577.001938462488,41699.70502849878
13892.145620840269,39804.7464853223,10559.545226042894,41659.09190882348
13898.962902899137,39795.06817997315,10592.04466248091,41638.05891729104
13925.42736833422,39798.46564513036,10598.66077883968,41630.258158476136
13903.008568645546,39803.27127018825,10593.028139236943,41627.95592879724
13876.275882277,39796.07400847364,10582.768688531958,41612.06383848952
13876.812324143926,39771.35297910607,10569.782325003423,41579.47499507368
13893.553780740953,39753.53863877519,10573.13508667172,41556.51975351808
13914.877344951314,39747.883647428,10570.721098270547,41545.679157457256
13912.75392922806,39751.10229862956,10577.605435562782,41544.58392197894
13902.740347712082,39744.10620261505,10577.940711729612,41532.670442184266
13874.018356087014,39713.86429236702,10573.448011094097,41498.31581095646
13869.302138006942,39692.07134152309,10586.367319389265,41471.0913862099
13882.288501535477,39686.03637052016,10584.57917983284,41459.759051771056
13881.21561780162,39694.30651596862,10589.653025824193,41460.362548871344
13894.134926096787,39689.12091125499,10575.23615065052,41447.15266789826
13907.61302800334,39675.6651610929,10582.344005387307,41422.208121086136
13907.501269281063,39676.89450703794,10597.230267194542,41409.24410930206
13894.425498774708,39685.25405946423,10599.912476529178,41405.220795300105
13872.476085719596,39701.727295127785,10587.373147889752,41408.59590871286
13895.028995875002,39715.98770809027,10594.9503892601,41405.46666448911
13875.828847387893,39716.01005983473,10608.406139422195,41389.03813231446
13871.447905474652,39718.51345521373,10611.445976668118,41380.34330372135
13917.55955428595,39741.75926944724,10616.832747081846,41387.83113811388
13940.939478986202,39775.08572043011,10617.14567150422,41403.54441446596
13945.81215927746,39792.005990982776,10611.937715046131,41403.611469699325
13928.0872259244,39783.51232808975,10597.364377661272,41383.09256828935
13928.489557324596,39791.80482528268,10607.19914522161,41374.464794929605
13933.988086460602,39812.01080227027,10620.409026194697,41375.87295483029
13900.32635931091,39829.02047980076,10597.677302083648,41374.48714667406
13910.56345827144,39840.1069450506,10587.976644990043,41364.33945469135
13930.791787003493,39837.91647409397,10596.783232305435,41342.88178001425
13927.75194975757,39846.32073000917,10594.48100262654,41331.75061127551
13919.571211286928,39863.59862847312,10593.966912504067,41333.1587711762
13909.021187904023,39886.77738747328,10586.210857178075,41340.44543986862
13907.61302800334,39894.28757361026,10572.911569227168,41331.37063161977
13903.187382601189,39882.8658321936,10574.85617099478,41303.78857896192
13902.226257589611,39880.02716064777,10580.265293152965,41286.82360492034
13935.619763805838,39892.3653235871,10592.71521481457,41289.08113111033
13949.90252851278,39909.06207669521,10597.72200557256,41295.58548874682
13941.81119701996,39909.68792553996,10589.630674079735,41286.95771538708
13926.433196834709,39892.41002707601,10591.508220613983,41261.29791275238
13917.693664752684,39893.46055906541,10611.20010747911,41253.29598823738
13898.068833120924,39907.67626853898,10614.016427280478,41256.20171501657
13884.210751558632,39922.42841987949,10597.47613638355,41260.35913948526
13888.479934749595,39918.44980936645,10587.596665334304,41242.27657822092
13876.141771810268,39901.06015218022,10582.165191431664,41215.58859534128
13873.03487933098,39898.8696812236,10594.637464837726,41208.5254440934
13886.825905659904,39914.13592268657,10608.584953377838,41215.20861568554
13895.69954820866,39934.92304503001,10602.684092841637,41225.51276987944
13885.820077159417,39941.49445789987,10589.071880468357,41218.22610118701
13878.064021833425,39935.10185898565,10589.787136290925,41197.59544105476
13883.517847480518,39941.27094045531,10591.262351424975,41189.548813050846
13875.068888076412,39960.85106859816,10595.777403804948,41196.79077825437
13872.565492697418,39984.454510742966,10591.910552014178,41207.49726384846
13882.355556768842,39989.81892941224,10582.992205976512,41195.91906022061
13903.299141323463,39984.946249120985,10586.412022878174,41172.87441168719
13901.019263389024,39989.90833639007,10580.175886175142,41161.83264992627
13893.777298185503,40006.18040635352,10578.9465402301,41164.47015577199
13888.83756266088,40034.298900878304,10584.132144943733,41177.61298151171
13877.773449155504,40040.6020928147,10578.9465402301,41170.48277503047
13853.298288976945,40034.16479041157,10575.347909372796,41151.90847538811
13884.881303892293,40045.87710450615,10569.71526977006,41147.52753347487
13916.710187996649,40066.32895068276,10579.795906519405,41155.0153678674
13898.001777887555,40091.74288412844,10579.058298952375,41166.682978473065
13871.917292108214,40094.20157601853,10567.122467413245,41156.49058300145
13866.821094372404,40088.94891607152,10561.780400488426,41136.75399264741
13887.78703067148,40101.622355177686,10569.938787214613,41135.45759146901
13900.505173266552,40126.09751535625,10591.262351424975,41146.4099462521
13890.715109195127,40149.96917843451,10586.14380194471,41156.44587951254
13897.51003950954,40155.98179769299,10589.764784546467,41147.30401603031
13888.569341727418,40150.729137746,10589.027176979444,41128.41679196558
13861.859007103323,40159.1780971501,10576.599607062291,41120.23605349494
13861.836655358871,40183.65325732866,10572.173961660144,41128.0591640543
13870.196207785157,40212.6434698872,10577.918359985157,41143.95125436202
13889.105783594345,40219.01371705696,10575.861999495268,41136.57517869177
13894.64901621926,40215.34803096629,10569.223531392045,41120.414867450585
13894.023167374511,40226.65801366067,10572.732755271523,41120.414867450585
13892.79382142947,40249.43444126063,10577.80660126288,41130.406097222105
13883.18257131369,40271.719130482576,10569.46940058105,41140.1067543157
13891.408013273242,40275.31776133988,10561.735696999514,41129.24380651043
13881.372080012809,40273.99900841701,10569.447048836597,41116.503312170906
13882.93670212468,40289.48876732454,10585.76382228897,41119.49844592792
13901.08631862239,40313.516892614,10594.838630537824,41129.064992554784
13884.188399814178,40331.10771550032,10583.036909465422,41135.03290832436
13882.064984090925,40328.64902361024,10573.403307605186,41120.39251570613
13899.90167616626,40325.63153810878,10569.290586625408,41102.06408525277
13874.912425865225,40331.28652945597,10586.456726367083,41090.12825371364
13882.93670212468,40349.81612560942,10590.14476420221,41092.31872467026
13893.084394107387,40373.19605030966,10591.016482235967,41100.41005616309
13905.154336113255,40373.37486426531,10586.210857178075,41085.56849784476
13906.294275080476,40363.45068972715,10587.261389167475,41063.79789874529
13894.872533663814,40371.31850377542,10590.390633391218,41061.182744644015
13884.478972492096,40388.35053305037,10582.768688531958,41068.11178542517
13889.41870801672,40406.54485303698,10573.090383182813,41073.58796281672
13884.903655636748,40400.86750994534,10570.38582210372,41057.897038209085
13890.826867917403,40396.33010582091,10578.499505340997,41044.2401223469
13903.969693657124,40407.61773677084,10581.449935609096,41042.56374151275
13895.587789486384,40426.66142304676,10591.709386314082,41048.06227064876
13886.22240855961,40445.28042617803,10589.697729313104,41054.5889800297
13875.98530959908,40438.50784760808,10572.28572038242,41035.612348987146
13891.69858595116,40431.57880682693,10570.050545936889,41019.809665657245
13881.617949201816,40437.63612957432,10564.686127267614,41015.69694467747
13875.001832843049,40461.19486823021,10571.659871537671,41025.26349130434
13901.689815722682,40487.368760987374,10580.801735019892,41035.053555375765
13900.013434888537,40481.1549760288,10580.33234838633,41017.082752833696
13864.65297516024,40469.66617937877,10562.942691200102,40996.74266537937
13870.12915255179,40484.35127548591,10567.748316257992,40998.620211913614
13888.949321383156,40506.34539202993,10570.631691292729,41009.37140099661
13876.298234021457,40528.49597078514,10571.9951477045,41017.90976737854
13862.46250420362,40529.70296498573,10580.511162341973,41004.25285151635
13894.023167374511,40524.5173602721,10578.879484996734,40985.0750547737
13913.17861237271,40532.318119087,10578.723022785549,40980.40354018254
13889.731632439094,40549.88659022887,10569.737621514514,40988.83014784219
13896.37010054232,40566.53863984807,10573.246845393998,40996.25092700136
13909.535278026497,40558.51436358862,10577.828953007336,40979.37535993759
13903.366196556832,40551.18299140728,10576.24197915101,40962.81271729621
13890.513943495029,40553.84284899746,10567.480095324529,40956.64363582655
13869.100972306846,40567.99150323767,10563.412077833662,40963.41621439651
13870.93381535218,40581.626067355406,10564.976699945531,40969.09355748815
13869.525655451496,40568.30442766004,10559.120542898245,40949.40167062303
13852.69479187665,40556.94974147675,10558.651156264685,40934.82833323817
13861.50137919204,40563.20822992423,10564.082630167322,40934.49305707134
13912.329246083407,40582.58719236698,10569.8940837257,40947.032385710765
13921.649923521272,40593.20427098325,10578.164229174165,40952.2626939133
13920.80055723197,40584.46473890123,10569.0447174364,40934.87303672708
13910.295237337976,40576.9769045087,10559.813446976355,40919.5620917752
13912.0833768944,40582.40837841134,10568.41886859165,40916.58930976264
13903.545010512473,40594.14304425038,10555.499560296485,40922.3113563432
13890.26807430602,40600.73680886469,10559.61228127626,40923.65246101051
13879.27101603401,40587.10224474696,10551.61035676126,40901.7030479554
13871.850236874849,40576.932201019794,10542.51319676795,40883.41932099096
13867.13401879478,40585.76114007964,10549.263423593453,40883.37461750205
13862.306041992431,40605.36361996694,10551.386839316709,40896.338629286125
13846.101027262332,40611.75621888116,10541.976754901025,40894.77400717426
13865.70350714964,40596.869957073926,10534.913603653144,40868.73422488383
13895.565437741929,40592.62312562742,10547.94467067059,40854.18323924342
13899.655806977247,40600.781512353606,10562.518008055453,40850.80812583067
13890.960978384135,40617.23239627271,10560.014612676456,40859.301788723686
13875.426515987698,40621.30041376357,10546.380048558718,40858.87710557904
13867.335184494876,40605.3859717114,10540.166263600144,40837.59824485758
13861.16610302521,40598.74750360817,10546.067124136343,40827.36114589705
13877.728745666594,40599.41805594183,10545.910661925158,40822.01907897223
13923.885097966802,40619.62403292943,10552.66088875066,40833.016137244245
13887.943492882669,40627.38008825542,10539.875690922225,40832.05501223267
13864.69767864915,40620.89808236338,10548.816388704348,40818.10752369255
13880.65682419024,40617.36650673944,10566.47426682404,40810.03854394419
13913.08920539489,40626.50837022167,10571.23518839302,40811.64786954497
13893.687891207685,40641.57344598454,10554.605490518272,40820.94619523838
13880.70152767915,40647.094326865,10559.031135920422,40823.9860324843
13887.049423104458,40633.906797636366,10558.785266731416,40804.71882876383
13917.000760674568,40632.923320880334,10575.884351239723,40796.73925599328
13916.710187996649,40640.90289365088,10583.059261209875,40800.51670080623
13896.012472631037,40654.246885090695,10573.33625237182,40810.35146836656
13888.83756266088,40664.77455672915,10572.911569227168,40816.76641902523
13911.122251882822,40657.01850140316,10575.90670298418,40801.34371535108
13914.452661806665,40652.12346936744,10567.658909280171,40789.45258730085
13924.0862636669,40659.43248980433,10563.56854004485,40791.911279190936
13916.441967063183,40678.2526586357,10580.37705187524,40805.188215397386
13890.513943495029,40680.86781273697,10568.195351147098,40801.18725313989
13882.46731549112,40670.58601028753,10571.034022692922,40786.03277039919
13907.680083236704,40669.31196085358,10573.80563900538,40777.4720522728
13916.598429274372,40677.8503272355,10564.641423778705,40779.55076450715
13913.625647261815,40693.0048099762,10556.840664963802,40788.80438671164
13908.015359403536,40701.69963856931,10545.687144480604,40790.12313963451
13895.36427204183,40689.853214008,10546.916490425649,40771.75000569224
13899.70051046616,40686.65691455089,10557.824141719835,40762.85401139904
13905.690777980182,40699.57622284606,10567.167170902154,40767.19024982336
13924.443891578185,40721.79385683464,10563.970871445044,40780.8248139411
13938.056103951469,40732.969729062286,10564.104981911776,40783.5293750202
13943.264060409554,40722.419705679386,10572.062202937866,40764.10570908853
13946.326249399932,40720.028069022665,10574.699708783592,40753.91331361691
13904.349673312863,40726.75594410372,10565.870769723746,40754.02507233919
13900.795745944471,40744.503229201226,10573.358604116274,40763.92689513289
13932.445816093186,40746.29136875765,10571.481057582028,40759.59065670856
13922.007551432556,40731.38275520596,10574.699708783592,40740.70343264382
13926.679066023717,40728.14175225994,10577.538380329415,40733.64028139595
13956.563348360462,40738.37885122047,10587.1496304452,40737.59654016454
13944.85103426588,40757.64605494095,10597.09615672781,40753.35452000553
13930.702380025672,40757.31077877412,10592.178772947642,40752.23693278276
13938.793711518492,40746.80545888013,10595.464479382574,40740.39050822145
13934.14454867179,40742.24570301124,10593.00578749249,40732.88032208447
13922.23106887711,40747.36425249151,10583.23807516552,40737.17185701989
13926.343789856886,40766.7208631898,10580.935845486623,40754.62856943948
13942.101769697878,40772.64407547046,10588.33427290133,40756.50611597373
13935.955039972669,40760.998816609244,10592.67051132566,40744.90556060142
13930.814138747948,40759.90358113094,10583.171019932151,40742.200999522334
13925.337961356396,40769.96186613583,10584.57917983284,40750.89582811545
13915.927876940714,40789.31847683412,10593.18460144813,40769.00074112425
13915.436138562696,40789.16201462293,10589.228342679542,40764.575095722095
13934.166900416243,40775.66156097192,10586.635540322726,40750.0688135706
13949.075513967931,40776.04154062767,10592.536400858928,40747.18543853587
13934.099845182878,40783.01528489772,10587.417851378665,40753.108650816524
13936.960868473156,40807.982183454296,10592.871677025758,40775.23687782727
13925.449720078674,40804.27179387472,10581.069955953357,40768.419595768406
13899.074661621413,40786.233936099285,10570.207008148076,40744.503229201226
13904.37202505732,40788.53616577818,10570.98931920401,40741.99983382224
13933.697513782685,40805.52349156421,10584.936807744123,40752.52750546068
13926.097920667878,40825.14832319598,10578.834781507823,40765.267999800206
13906.718958225129,40823.91897725093,10569.37999360323,40755.03090083968
13903.097975623366,40810.10559917756,10563.859112722768,40732.969729062286
13913.156260628257,40807.49044507629,10550.783342216417,40719.35751668901
13913.46918505063,40820.40975337145,10552.124446883732,40722.82203707958
13900.885152922292,40848.32708219613,10577.80660126288,40741.19517102184
13907.389510558784,40856.68663462241,10591.351758402796,40739.42938320987
13949.634307579316,40854.13853575451,10608.607305122294,40725.61600513649
13940.246574908087,40860.50878292427,10614.105834258298,40723.91727255789
13923.259249122057,40877.45140522139,10613.122357502263,40734.020261051686
13964.38645891982,40901.658344466494,10615.581049392347,40752.86278162751
13975.00353753609,40899.914908398976,10616.028084281455,40745.77727863518
13951.467150624652,40888.71668442687,10611.311866201386,40731.1145342725
13967.470999654652,40890.52717572775,10599.24192419552,40728.208807493305
13986.179409763745,40910.822559693166,10600.270104440464,40743.5644559341
13980.367956205364,40933.21900763739,10607.087386499332,40761.624665454
13966.129894987333,40928.368679090585,10608.71906384457,40749.6664821704
13966.219301965157,40919.070353397175,10615.134014503245,40733.39441220694
13970.644947367306,40923.45129531041,10617.950334304613,40731.27099648368
13967.560406632472,40936.70587977242,10619.62671513876,40741.50809544422
13950.975412246637,40952.19563867994,10604.606342864794,40753.62274093899
13975.33881370292,40953.87201951409,10610.082520256345,40748.03480482517
13973.058935768478,40946.65240605502,10630.1096832883,40731.49451392824
13958.887929783814,40949.04404271174,10629.796758865925,40725.906577814414
13965.459342653674,40964.220877196894,10618.710293616092,40734.377888962976
13965.52639788704,40980.42589192699,10607.087386499332,40742.402165222426
13977.596339892903,40977.38605468108,10605.81333706538,40730.64514763893
13981.262025983577,40966.63486559807,10602.281761441442,40713.38960091944
13979.42918293824,40973.0721680012,10602.818203308369,40713.76958057518
13977.48458117063,40991.64646764356,10598.9513515176,40724.67723186937
13968.990918277612,41010.39958124156,10588.423679879152,40736.613063408506
13959.42437165074,41005.45984571694,10581.114659442266,40724.40901093591
13965.90637754278,40999.8272061142,10587.9989967345,40709.4556938953
13965.235825209122,41003.00115382685,10590.9494270026,40705.16415895989
13948.248499423087,41016.54631096677,10584.623883321749,40714.037801508646
13909.80349895996,41026.89516864958,10548.749333470982,40717.36821143248
13915.816118218438,41025.24113955988,10560.215778376554,40707.28757468314
13947.28737441151,41024.10120059266,10585.696767055604,40697.34104840053
13948.71788605665,41034.36065129765,10584.489772855017,40697.72102805627
13972.76836309056,41057.82998297572,10579.035947207922,40713.03197300816
13980.882046327835,41073.923238983545,10559.209949876064,40721.235063223256
13983.117220773369,41065.943666213,10548.70462998207,40705.38767640444
13981.82081959496,41062.590904544704,10552.28090909492,40696.3575716445
13992.080270299944,41070.65988429307,10558.070010908845,40697.11753095598
13983.608959151385,41089.45770137998,10564.037926678411,40711.19912996282
13958.262080939065,41106.57913763275,10561.623938277238,40722.48676091275
13946.125083699832,41100.43240790754,10556.147760885688,40709.70156308432
13959.33496467292,41097.45962589498,10571.883388982224,40698.48098736775
13965.10171474239,41104.65688760959,10578.588912318815,40696.5587373446
13980.703232372194,41121.62186165117,10587.708424056582,40708.092237483535
13973.10363925739,41135.59170193574,10587.753127545491,40715.91534804289
13964.85584555338,41125.98045181995,10569.312938369863,40698.39158038993
13956.742162316104,41122.24771049592,10575.414964606163,40686.00871396169
13953.545862858997,41131.25546351141,10583.819220521358,40688.44505410732
13964.900549042291,41148.39925150863,10572.66570003816,40699.620926334974
13973.9977090356,41167.06295812881,10570.028194192431,40709.92508052887
13963.313575185965,41157.87639115768,10558.718211498048,40692.73658904274
13963.514740886065,41152.46726899949,10560.774571987937,40677.895030724416
13962.419505407752,41162.39144353765,10562.339194099808,40680.26431563668
13960.921938529247,41182.10568214723,10567.211874391063,40694.41296987688
13960.0949239844,41200.36705736721,10562.85328422228,40706.34880141602
13951.556557602473,41194.68971427557,10556.594795774794,40692.088388453536
13953.322345414444,41193.23685088597,10570.966967459555,40681.940696470825
13953.188234947713,41203.76452252442,10579.147705930198,40685.494623839215
13953.05412448098,41223.389354156185,10575.437316350615,40699.37505714596
13937.385551617808,41230.87718854871,10549.643403249192,40699.03978097913
13915.123214140322,41214.89569126316,10535.181824586609,40674.609324289486
13916.37491182982,41208.972478982505,10533.41603677464,40664.1487078844
13929.271868380532,41216.594423841765,10532.343153040783,40667.56852478606
13896.526562753506,41231.95007228256,10521.346094768774,40679.25848713618
13880.343899767864,41244.981139300005,10509.209097529543,40686.36634187298
13929.651848036272,41241.20369448706,10512.22658303101,40671.54713529911
13933.473996338127,41234.27465370592,10528.856280905758,40655.83385894702
13920.80055723197,41239.54966539737,10522.75425466946,40652.07876587853
13905.1319843688,41255.8887905942,10526.643458204682,40661.801774716594
13882.534370724485,41269.74687215649,10526.196423315576,40670.36249284297
13896.75008019806,41260.06856680734,10524.408283759152,40654.0457193906
13921.918144454736,41257.02872956142,10529.951516384068,40642.26635006265
13930.1882899032,41266.75173839948,10531.002048373468,40643.629806474426
13947.488540111606,41290.35518054429,10528.65511520566,40656.347949069495
13941.766493531048,41301.28518358293,10522.88836513619,40658.13608862592
13924.421539833733,41289.438759021614,10513.925315609613,40638.42185001634
13919.302990353464,41288.81291017687,10511.31016150834,40627.13421906641
13900.952208155655,41295.31726781336,10500.60367591425,40620.29458526309
13895.476030764108,41315.99263143452,10501.385986970185,40628.5423789671
13922.432234577209,41330.58832056383,10495.55218166735,40633.03507960261
13916.196097874175,41316.32790760135,10481.001196026946,40610.906852591856
13910.138775126788,41312.19283487712,10489.874838575704,40597.29464021858
13905.713129724638,41321.13353265924,10481.582341382784,40594.8806518174
13890.044556861469,41337.405602622704,10475.994405268955,40602.63670714339
13902.315664567432,41347.396832394224,10480.26358845992,40603.82134959952
13915.391435073789,41335.88568399974,10479.749498337447,40585.02353251261
13894.201981330156,41328.93429147414,10474.295672690354,40573.24416318467
13894.157277841245,41338.29967240091,10466.629024342184,40574.58526785198
13904.41672854623,41361.92546629017,10475.703832591038,40589.449177914765
13928.511909069051,41374.48714667406,10474.608597112729,40593.09251226098
13939.173691174234,41366.73109134807,10475.569722124306,40577.73686382018
13896.32539705341,41358.34918717732,10466.897245275646,40561.86712525691
13873.79483864246,41361.83605931235,10454.603785825228,40558.93904673327
13919.794728731482,41384.724245634585,10460.30348066133,40572.573610851
13925.47207182313,41393.46377771661,10463.030393484878,40571.56778235052
13933.988086460602,41380.03037929897,10460.415239383608,40549.394851850855
13933.496348082585,41377.45992868661,10463.58918709626,40536.58730227796
13924.868574722836,41388.74755963654,10475.145038979656,40540.45415406873
13945.990973233102,41411.47928374759,10471.1217249777,40558.15673567733
13936.2903161395,41418.4306762732,10480.35299543774,40559.78841302257
13914.117385639836,41401.84568188735,10473.35689942323,40536.5202470446
13914.98910367359,41396.30244926244,10461.041088228356,40522.93038641577
13915.52554554052,41403.186786554674,10462.315137662308,40522.72922071567
13911.815155960938,41421.55992049693,10451.07221020129,40532.966319676205
13900.32635931091,41425.85145543236,10449.172311922588,40528.80889520751
13910.295237337976,41409.04294360196,10455.654317814628,40505.54072922954
13915.972580429623,41407.590080212365,10460.571701594794,40497.02471459207
13916.106690896357,41418.07304836191,10470.182951710576,40501.94209837224
13895.69954820866,41432.28875783548,10457.867140515702,40508.82643566447
13889.172838827712,41436.110906137335,10451.295727645842,40506.479502496666
13908.283580336998,41427.23726358858,10462.896283018146,40492.17438604527
13910.071719893424,41426.29849032146,10458.470637615996,40486.11706329788
13901.1310221113,41440.42479281721,10456.838960270758,40496.37651400286
13904.349673312863,41463.96117972865,10467.50074237594,40516.247214823634
13906.115461124831,41465.86107800735,10455.967242237002,40512.22390082168
13918.252458364066,41453.1876389012,10440.008096695912,40489.93921159973
13926.053217178967,41452.29356912298,10446.11012293221,40480.64088590633
13924.622705533828,41467.91743849724,10481.805858827336,40491.32501975597
13907.61302800334,41488.63750560731,10486.097393762757,40508.692325197735
13895.69954820866,41493.04079926501,10479.1236494927,40508.80408392001
13906.830716947405,41477.90866826876,10459.901149261135,40487.99460983212
13945.923917999737,41484.860060794366,10463.87975977418,40488.86632786588
13951.556557602473,41504.08256102593,10467.746611564948,40504.80312166252
13934.837452749904,41520.98047983414,10465.667899330603,40519.197645091735
13940.71596154165,41517.42655246575,10463.87975977418,40512.3133077995
13937.162034173256,41504.03785753702,10456.436628870562,40492.77788314556
13933.004609704569,41509.06700003946,10460.415239383608,40488.26283076559
13924.488595067096,41520.62285192285,10461.26460567291,40492.06262732299
13938.905470240768,41542.14758183331,10455.922538748093,40503.39496176183
13943.822854020937,41542.102878344405,10457.509512604418,40496.71179016969
13946.48271161112,41526.72487815916,10454.894358503148,40473.77890035855
13944.024019721037,41528.66947992677,10467.523094120395,40469.48736542313
13928.80248174697,41540.135924832335,10464.371498152195,40475.12000502587
13918.163051386244,41557.056195385005,10453.553253835827,40486.09471155342
13920.532336298507,41556.65386398481,10440.96922170749,40478.29395273853
13913.335074583898,41546.77439293557,10440.812759496304,40461.10546125239
13900.169897099722,41544.494515001126,10429.614535524195,40453.9976065156
13895.36427204183,41551.98234939365,10422.596087765229,40458.4009001733
13903.366196556832,41570.15431763582,10435.336582104754,40471.20844974619
13904.997873902068,41569.17084087978,10430.687419258047,40463.00535953109
13899.007606388046,41554.195172094725,10427.893451201136,40439.223103430646
13896.437155775686,41554.195172094725,10431.469730313986,40433.1434289388
13926.835528234904,41572.1659746368,10444.120817675688,40449.10257447989
13939.084284196411,41592.2154894132,10447.384172366164,40467.34159795542
13900.549876755462,41586.15816666582,10419.153919119111,40458.46795540666
13874.420687487209,41575.49638456063,10418.952753419013,40442.24058893211
13918.699493253172,41585.30880037652,10445.93130897657,40442.41940288776
13936.983220217611,41593.26602140261,10432.54261404784,40442.48645812112
13924.80151948947,41608.800483799045,10425.211241866498,40455.76339432757
13930.478862581118,41611.48269313368,10422.909012187602,40454.42228966025
13917.291333352488,41599.59156508346,10420.070340641778,40438.46314411917
13912.329246083407,41602.87727151839,10413.521279516372,40434.46218186167
13917.112519396846,41618.925824037295,10417.097558629222,40443.87226627735
13935.440949850195,41638.79652485807,10427.40171282312,40459.74200484061
13918.163051386244,41633.20858874424,10408.760357947393,40448.85670529088
13910.205830360155,41625.0725537625,10420.003285408411,40433.74692603909
13929.1377579138,41633.119181766415,10434.218994881989,40436.76441154056
13944.51575809905,41652.408737231344,10437.772922250382,40451.82948730344
13941.632383064316,41673.888763652896,10432.654372770116,40470.470842179166
13918.073644408423,41671.31831304054,10416.941096418035,40464.14529849831
13895.096051108369,41659.538943712585,10405.452299768009,40447.470897134655
13910.138775126788,41664.85865889296,10396.779822919349,40447.35913841238
13924.80151948947,41684.59524924699,10414.236535338943,40464.23470547613
13917.268981608033,41704.68946751231,10417.477538284962,40480.86440335088
13925.293257867486,41700.77791223263,10403.19477357802,40470.62730439035
13920.286467109498,41692.194842361794,10396.19867756351,40453.416461159766
13922.320475854933,41701.44846456629,10407.441605024527,40455.27165594955
13907.434214047697,41723.5990433215,10424.786558721848,40469.48736542313
13894.246684819063,41745.21318020978,10418.550422018818,40483.01017081859
13914.56442052894,41741.79336330812,10409.274448069866,40475.0529497925
13910.22818210461,41730.25986316918,10394.209372306988,40459.49613565161
13912.84333620588,41734.81961903806,10401.786613677335,40460.14433624081
13929.204813147166,41754.73502334774,10399.305570042798,40473.71184512518
13937.09497893989,41782.13826204995,10396.265732796875,40493.53784245704
13921.04642642098,41783.21114578381,10411.509622515396,40488.12872029885
13898.448812776664,41772.862288100994,10411.710788215494,40469.95675205669
13918.1854031307,41783.85934637301,10418.595125507729,40470.51554566807
13935.99974346158,41809.586204241066,10432.363800092196,40490.453301722206
13913.312722839442,41830.68625100688,10426.39588432263,40508.133531586354
13906.808365202947,41825.34418408206,10413.141299860634,40497.62821169236
13911.122251882822,41816.73876246676,10401.339578788233,40482.71959814067
13927.774301502026,41827.73582073877,10406.212259079488,40485.22299351967
13937.787883018003,41846.73480352578,10401.406634021598,40498.63404019285
13935.955039972669,41867.745443313775,10397.785651419836,40513.45324676672
13921.426406076718,41866.24787643527,10398.322093286764,40503.84199665094
13919.481804309107,41863.4315566339,10404.24530556742,40492.286144767546
13915.99493217408,41871.92521952692,10413.074244627269,40494.99070584664
13926.835528234904,41900.40134196298,10426.44058781154,40515.59901423443
13921.404054332264,41918.43919973841,10415.555288261809,40528.764191718605
13894.917237152726,41909.72201940084,10396.82452640826,40514.079095611465
13893.03969061848,41904.156435031466,10398.411500264585,40503.64083095084
13917.492499052583,41918.10392357158,10415.689398728538,40512.71563919969
13916.821946718926,41942.55673200569,10421.053817397811,40530.59703476394
13913.759757728549,41960.505182803296,10406.0557968683,40541.6164447804
13928.690723024694,41957.219476368366,10401.361930532688,40531.15582837532
13934.837452749904,41958.11354614658,10411.979009148958,40523.5115317716
13925.025036934025,41973.31273237619,10414.974142905969,40532.29576734254
13911.591638516384,41997.98905825485,10409.408558536596,40552.1217646744
13926.768473001535,42020.47491317688,10403.86532591168,40568.59500033796
13924.198022389175,42014.50699740732,10396.06456709678,40553.06053794152
13940.648906308284,42012.20476772842,10393.62822695115,40543.00225293663
13952.38357214732,42025.392296957056,10407.620418980172,40551.38415710737
13948.38260988982,42054.98600661588,10406.413424779586,40569.444366627264
13950.818950035447,42077.71773072693,10402.2560003109,40583.23539295619
13952.450627380686,42069.916971912025,10396.86922989717,40571.94776200626
13944.180481932222,42069.76050970084,10404.49117475643,40563.85643051344
13940.023057463535,42085.496137797374,10414.77297720587,40572.61831433992
13938.838415007403,42109.16663517555,10432.25204136992,40592.35490469395
13934.301010882977,42126.60099585069,10440.45513158502,40604.827178100015
13935.172728916732,42125.81868479475,10451.094561945743,40599.440407686285
13958.28443268352,42133.50768488737,10470.473524388495,40603.9331083218
13980.032680038534,42151.210266495975,10493.585228155283,40620.51810270764
13982.67018588426,42177.25004878641,10503.643513160172,40646.848457676
13982.647834139803,42194.37148503918,10485.762117595928,40660.05833864908
13976.344642203409,42187.576554724765,10462.0692684733,40648.59189374351
13985.844133596916,42187.151871580114,10479.704794848538,40646.75905069817
14006.228924540152,42201.8593194317,10491.88649557668,40656.23619034722
13999.29988375901,42227.3179563663,10489.137231008675,40675.3022283676
13973.930653802236,42240.39372687265,10470.652338344138,40684.98053371674
13976.18817999222,42238.31501463831,10472.999271511946,40679.23613539173
14002.742052405129,42237.51035183792,10479.905960548636,40675.57044930106
13986.738203375126,42244.8193722748,10473.64747210115,40678.36441735797
13964.945252531204,42268.28870395288,10478.140172736666,40696.06699896658
13988.325177231452,42289.81343386334,10483.817515828314,40714.797760820125
14014.96845662218,42281.00684654795,10465.667899330603,40701.31965891358
14017.516555490083,42277.89995406866,10463.142152207154,40694.9047082549
13991.610883666384,42290.5286896859,10475.256797701932,40705.0076967487
13973.058935768478,42310.064114339846,10473.736879078971,40719.424571922376
14002.451479727208,42326.04561162539,10473.491009889962,40729.92989181637
14011.325122275965,42319.47419875553,10480.93414079358,40718.508150399706
13995.075404056955,42320.27886155592,10483.012853027923,40711.82497880757
13998.67403491426,42333.332280317816,10479.436573915074,40718.59755737753
14017.62831421236,42353.02416718294,10472.798105811848,40731.67332788388
14008.9558373637,42363.88711498823,10460.92932950608,40734.84727559653
14003.166735549778,42354.18645789462,10454.670841058594,40720.49745565623
14006.877125129358,42355.08052767284,10461.532826606372,40717.25645271021
13998.785793636536,42358.41093759667,10445.68543978756,40717.45761841031
13978.356299204386,42380.53916460743,10445.506625831918,40736.83658085306
13978.95979630468,42393.5031763915,10448.68057354457,40745.64316816845
13997.91407560278,42384.026036742456,10435.761265249404,40727.87353132648
13991.409717966286,42381.67910357465,10442.35502986372,40721.48093241226
13964.498217642096,42390.508042634494,10440.365724607198,40729.59461564954
13980.524418416551,42408.70236262112,10436.051837927324,40746.15725829092
13992.147325533311,42420.32526973788,10431.40267508062,40754.293293272654
13994.851886612403,42410.512853922,10433.615497781697,40739.67525239888
13999.277532014554,42404.88021431926,10433.459035570508,40730.62279589448
13995.81301162398,42408.32238296537,10421.97023892048,40731.7180313728
13977.641043381816,42420.79465637144,10414.30359057231,40742.55862743362
13968.76740083306,42420.28056624896,10397.025692108356,40737.26126399771
13961.212511207166,42406.15426375321,10395.706939185491,40719.04459226663
13966.57692987644,42405.93074630866,10401.741910188426,40712.070847996576
13947.28737441151,42410.19992949962,10389.336692015731,40710.595632862525
13923.080435166412,42426.20377852962,10381.982968089937,40722.2632434682
13940.80536851947,42439.77128741399,10391.169535061066,40729.97459530528
13969.19208397771,42443.28051129347,10414.974142905969,40726.66653712589
13973.327156701942,42447.6167497178,10422.640791254138,40726.890054570445
13993.95781683419,42460.357244057326,10424.54068953284,40735.33901397455
13997.176468035756,42480.920848956215,10420.115044130687,40750.87347637099
13995.187162779232,42484.58653504688,10408.49213701393,40748.10186005853
13997.757613391592,42470.415529062215,10393.337654273231,40726.0630400256
13969.750877589093,42467.71096798313,10406.033445123843,40717.23410096576
13953.501159370086,42477.14340414327,10407.57571549126,40720.34099344504
13982.647834139803,42501.70797129965,10411.800195193317,40735.29431048564
14006.363035006883,42508.05586672496,10419.01980865238,40731.00277555022
14007.167697807276,42497.10351194185,10420.115044130687,40710.19330146233
14009.089947830433,42496.81293926394,10427.044084911837,40702.75017055871
14002.898514616314,42507.56412834694,10424.92066918858,40709.79097006214
13979.183313749232,42522.83036980991,10411.68843647104,40722.10678125701
13943.934612743213,42518.96351801915,10395.282256040842,40711.66851659638
13959.871406539847,42506.848872524366,10393.024729850857,40693.36243788749
13998.852848869905,42509.95576500366,10404.49117475643,40688.37799887396
13986.76055511958,42522.71861108764,10404.11119510069,40695.73172279975
13964.56527287546,42542.34344271939,10399.372625276164,40710.66268809589
13963.447685652696,42547.86432359985,10396.10927058569,40709.16512121739
13984.123049273856,42540.0412130405,10396.690415941526,40692.088388453536
14004.887819872836,42546.500867188086,10408.603895736203,40690.814339019584
14004.463136728184,42562.16944005126,10424.943020933037,40702.59370834753
13980.591473649916,42578.01682687007,10418.148090618624,40713.03197300816
13975.271758469553,42576.51925999156,10402.01013112189,40702.81722579208
13991.186200521732,42563.28702727402,10399.953770632002,40681.6501237929
13979.33977596042,42563.91287611877,10400.177288076557,40678.0514929356
13967.739220588115,42574.97698962414,10405.988741634936,40685.8522517505
13979.317424215964,42593.730103222144,10389.180229804544,40700.13501645744
13960.609014106873,42593.21601309968,10382.362947745676,40695.351743144005
13956.80921754947,42583.671818217255,10406.659293968594,40679.37024585846
13974.355336946886,42587.09163511892,10405.11702360118,40675.928077212346
13970.779057834035,42598.20045211321,10402.501869499907,40681.82893774855
13979.876217827346,42615.52305406607,10405.96638989048,40692.31190589809
13994.047223812013,42622.1615221693,10408.782709691848,40689.58499307454
13978.28924397102,42611.45503657521,10400.311398543286,40671.77065274366
13994.494258701116,42610.44920807472,10390.230761793944,40661.466498549766
14009.58168620845,42631.39279262934,10398.456203753496,40672.88823996642
14007.324160018465,42657.83490631997,10404.088843356234,40692.46836810927
13992.259084255587,42656.09147025245,10396.042215352323,40683.84059474953
13981.351432961395,42645.832019547466,10392.734157172938,40667.54617304161
13982.75959286208,42649.09537423794,10388.755546659891,40664.48398405123
13990.202723765698,42667.31204596902,10397.71859618647,40677.17977490184
14006.072462328966,42693.35182825945,10408.089805613734,40696.8046065336
14009.715796675182,42697.1292730724,10408.782709691848,40693.31773439857
14016.086043844944,42686.48984271167,10408.805061436304,40678.40912084688
14024.400892782318,42689.17205204631,10413.118948116178,40675.57044930106
14019.77408168007,42705.01943886512,10423.512509287895,40685.60638256149
14034.794453954037,42725.82891295301,10425.099483144222,40700.85027228001
14027.86541317289,42721.962061162245,10421.992590664937,40694.032990221145
14018.522383990572,42708.10397959995,10419.578602263762,40676.62098129046
14017.516555490083,42709.80271217856,10420.83029995326,40671.50243181019
14014.074386843968,42725.940671675286,10423.601916265718,40680.01844644767
14001.87033437137,42740.46930557124,10408.62624748066,40690.14378668592
13992.706119144694,42739.2399596262,10410.01205563689,40678.56558305807
13981.731412617137,42728.35466007646,10411.241401581932,40659.05251014859
14007.368863507374,42734.30022410157,10428.698114001529,40660.32655958254
14012.15213682081,42751.533419076615,10435.224823382476,40671.83770797702
13991.700290644205,42769.303055918586,10425.34535233323,40684.46644359428
13987.29699698651,42765.14563144989,10422.841956954237,40674.98930394522
13984.883008585335,42755.71319528976,10421.813776709292,40661.69001599432
14007.681787929749,42759.31182614706,10417.991628407435,40656.57146651405
14018.812956668491,42773.28166643163,10414.862384183692,40661.1982776163
14013.001503110112,42790.55956489558,10402.121889844168,40672.28474286613
14008.598209452415,42785.84334681551,10403.977084633958,40658.56077177057
14028.804186440017,42783.60817236998,10414.482404527953,40644.05448961908
14016.086043844944,42791.721855607255,10428.25107911242,40645.97673964223
14006.63125594035,42809.31267849358,10431.469730313986,40658.314902581566
14006.698311173715,42829.63041420346,10427.558175034306,40671.52478355465
14004.776061150558,42823.461332733794,10411.844898682226,40657.398481058895
13993.24256101162,42809.89382384942,10408.53684050284,40638.28773954961
13993.846058111914,42816.91227160839,10423.758378476905,40639.24886456119
13965.548749631496,42832.78201017166,10406.0557968683,40647.00491988718
13946.885043011314,42844.00258588822,10382.497058212408,40649.083632121525
13981.306729472486,42846.08129812256,10401.920724144067,40641.12641109544
13992.370842977864,42842.81794343209,10408.53684050284,40628.27415803363
14006.072462328966,42850.84221969154,10422.30551508731,40626.59777719948
14030.480567274162,42870.15412690093,10421.478500542462,40634.890274392405
14005.781889651047,42887.47672885379,10410.839070181735,40642.914550651854
13984.637139396327,42882.80521426263,10409.565020747785,40628.63178594492
14002.429127982752,42876.50202232624,10414.750625461416,40613.07497180402
14006.720662918173,42884.01220846322,10419.533898774853,40610.79509386958
13991.34266273292,42904.70992382884,10419.220974352476,40622.73092540872
13998.785793636536,42923.79831359367,10412.850727182717,40635.24790230369
14007.704139674204,42916.7798658347,10405.72052070147,40619.75814339616
13996.19299127972,42911.54955763216,10398.63501770914,40606.41415195634
13986.447630697206,42917.22690072381,10393.516468228874,40605.40832345585
14006.810069895992,42934.97418582132,10404.24530556742,40614.19255902679
14032.1122446194,42959.3375872776,10418.908049930102,40626.776591155125
14037.990753411146,42953.70494767487,10404.312360800786,40610.95155608077
14026.367846294386,42941.8361713691,10390.789555405328,40589.94091629278
14013.940276377234,42951.06744182914,10401.227820065957,40588.08572150299
14017.471852001174,42971.049901372186,10407.665122469083,40596.42292218482
14022.67980845926,42986.85258470209,10410.01205563689,40606.05652404505
14014.186145566244,42981.15288986598,10415.622343495172,40595.99823904017
14005.468965228674,42977.30838981967,10411.86725042668,40585.31410519053
13992.996691822613,42983.9468579229,10405.34054104573,40582.90011678936
13984.458325440684,43002.76702675426,10417.76811096288,40593.852471572456
13986.33587197493,43018.72617229536,10424.093654643731,40603.03903854359
14009.022892597068,43013.2499949038,10416.896392929124,40588.93508779229
14018.701197946217,43008.6008320571,10416.024674895369,40576.84279404197
13995.924770346255,43015.507521093794,10411.39786379312,40577.87097428691
13961.368973418354,43032.98658525784,10406.994570135425,40586.0293610131
13986.402927208295,43045.72707959737,10401.361930532688,40589.71739884823
14017.516555490083,43037.322823682174,10398.210334564488,40575.7252068192
14005.692482673228,43032.38308815755,10414.169480105576,40565.57751483649
13998.96460759218,43044.095402252125,10425.434759311052,40573.646494584864
13998.428165725252,43063.94375132844,10426.954677934013,40590.18678548179
14006.273628029065,43078.3159230132,10424.317172088287,40601.25089898717
14016.890706645336,43067.81060311921,10411.531974259851,40585.045884257066
14021.58457298095,43062.0662047942,10408.648599225116,40571.52307886161
14024.020913126578,43076.05839682322,10419.556250519308,40574.85348878545
14020.265820058086,43098.23132732288,10417.052855140311,40587.59398312497
14009.380520508352,43106.74734196036,10398.947942131514,40589.53858489259
13982.558427161985,43095.39265577706,10390.230761793944,40571.23250618369
13993.399023222808,43085.80375740573,10406.324017801764,40558.492011844166
14016.53307873405,43097.40431277804,10418.952753419013,40565.44340436976
13989.666281898772,43116.6268130096,10422.909012187602,40581.49195688868
13970.041450267012,43123.68996425748,10421.210279608998,40583.36950342292
13985.553560918996,43111.48591178488,10405.318189301275,40561.68831130128
14008.307636774498,43109.45190303944,10396.779822919349,40550.69125302926
14018.38827352384,43125.65691776954,10420.96441041999,40560.1236891894
14002.093851815922,43145.37115637912,10422.48432904295,40573.53473586258
13996.237694768632,43156.16704895104,10422.752549976416,40578.34036092048
14014.789642666536,43149.64033957009,10424.272468599376,40564.79520378056
14002.809107638492,43145.77348777932,10428.54165179034,40552.188819907766
13985.486505685629,43148.45569711396,10420.182099364054,40546.15384890483
14007.882953629847,43172.61793287015,10421.25498309791,40563.63291306888
14031.218174841188,43185.93957256551,10417.432834796053,40566.76215729263
14006.899476873814,43168.68402584601,10411.286105070843,40539.56008429052
13993.19785752271,43163.45371764347,10412.493099271427,40526.97605216218
14017.91888689028,43180.15047075159,10427.334657589754,40536.63200576687
14029.362980051395,43202.23399427343,10426.887622700648,40553.01583445261
14011.950971120712,43203.21747102946,10418.30455282981,40546.109145415925
13996.975302335655,43194.58969766971,10415.1082533727,40529.09946788543
13994.740127890129,43193.159186024575,10419.01980865238,40522.6621654823
14022.903325903811,43205.43029373053,10410.190869592532,40527.35603181792
14031.240526585643,43227.55852074129,10412.873078927169,40545.77386924909
13998.606979680895,43231.738296954434,10406.100500357212,40549.59601755095
13993.57783717845,43215.108599079686,10396.57865721925,40529.54650277454
14009.96166586419,43214.37099151266,10401.853668910702,40523.84680793843
13981.709060872685,43221.92588113855,10398.992645620425,40527.55719751802
13955.646926837797,43236.0521836343,10387.235628036931,40538.330738345474
13987.788735364526,43238.84615169122,10377.982005832437,40536.184970877766
14032.224003341677,43233.414677788576,10400.91489564358,40524.65147073883
14019.63997121334,43230.91128240959,10413.543631260827,40518.08005786897
14023.707988704204,43238.5555790133,10413.811852194292,40519.75643870312
14011.593343209428,43255.25233212142,10411.554326004309,40529.881778941366
13984.681842885238,43255.69936701052,10406.815756179782,40525.54554051704
13957.90445302778,43236.342756312224,10400.981950876949,40502.81381640599
13951.355391902374,43232.90058766611,10396.042215352323,40494.4095604908
13983.05016554,43245.59637851672,10403.619456722672,40498.87990938186
13996.215343024176,43267.948122972026,10409.34150330323,40510.83809266545
13992.39319472232,43271.79262301834,10399.260866553888,40506.79242691904
13991.365014477376,43262.40489034711,10399.305570042798,40490.34154299993
13994.203686023198,43256.57108504428,10397.226857808457,40480.90910683979
14016.086043844944,43267.59049506074,10408.961523647493,40488.084016809946
14022.098663103425,43289.49520462695,10408.469785269474,40501.78563616105
14013.359131021398,43289.00346624893,10403.351235789209,40496.957659358704
14014.454366499707,43275.14538468664,10406.882811413148,40477.310475982486
14007.547677463015,43274.519535841886,10412.11311961569,40472.66131313578
13982.29020622852,43279.25810566641,10403.038311366834,40475.07530153696
13997.1541162913,43298.927640787086,10401.428985766051,40490.654467422304
14010.453404242207,43303.263879211416,10410.615552737185,40490.2074325332
13989.599226665405,43284.4660621245,10398.277389797851,40462.73713859763
13962.151284474288,43282.05207372333,10401.361930532688,40448.00733900158
13993.57783717845,43296.80422506383,10413.074244627269,40451.62832160334
14023.216250326188,43316.540815417866,10416.427006295564,40466.11225201038
13993.95781683419,43314.79737935036,10405.474651512464,40461.373682185855
13972.947177046202,43297.07244599729,10391.527162972352,40439.17839994173
13970.890816556312,43288.31056217082,10396.399843263607,40426.90729223577
13970.935520045225,43289.9198877716,10391.683625183538,40427.91312073626
13982.938406817724,43307.935393802574,10380.798325633805,40442.26294067656
14008.084119329944,43310.59525139276,10383.033500079337,40439.53602785302
14002.0044448381,43294.94903027404,10386.43096523654,40419.218292143145
13982.424316695253,43290.27751568288,10388.57673270425,40409.1376553938
13962.441857152207,43295.53017562988,10385.469840224963,40410.03172517201
13974.176522991243,43311.46696942651,10389.515505971374,40420.134713665815
13989.599226665405,43311.33285895978,10383.033500079337,40412.51276880656
13981.709060872685,43294.65845759613,10367.72255512745,40391.032742385
13981.284377728032,43297.20655646403,10373.176380774545,40386.785910938495
13993.399023222808,43313.03159153838,10385.112212313676,40395.95012616517
13968.47682815514,43328.78957137938,10378.42904072154,40409.1376553938
13966.152246731788,43324.69920214405,10369.533046428329,40400.33106807841
13998.696386658716,43312.29398397136,10368.996604561402,40382.00263762506
14014.074386843968,43310.19291999256,10358.446581178498,40372.61490495383
14016.48837524514,43323.29104224337,10358.67009862305,40378.04637885647
14014.476718244165,43347.363871021735,10370.225950506445,40396.21834709864
14000.48452621514,43345.59808320976,10365.375621959642,40386.31652430493
13990.62740691035,43332.34349874777,10361.598177146696,40362.80248913795
13966.845150809902,43332.835237125786,10374.00339531939,40359.293265258464
13963.42533390824,43344.52519947591,10379.72544189995,40366.04349208397
13994.360148234386,43364.12767936321,10384.218142535468,40378.56046897894
14018.164756079288,43362.85362992926,10388.710843170982,40370.55854446394
14024.15502359331,43346.67096694362,10388.666139682073,40349.88318084278
14009.022892597068,43342.602949452754,10380.127773300144,40341.1212970163
14006.407738495796,43355.85753391475,10388.219104792966,40350.151401776246
14007.033587340546,43371.39199631119,10393.784689162338,40365.104718816845
13984.681842885238,43360.12671710572,10396.712767685982,40354.9793785786
13969.393249677809,43341.9323971191,10395.461069996483,40336.4721341696
13969.81793282246,43342.111211074734,10402.859497411191,40333.14172424576
13992.01321506658,43356.170458337125,10400.132584587644,40343.06589878391
14011.325122275965,43377.02463591393,10414.035369638845,40361.86371587083
14028.088930617443,43375.8399934578,10421.567907520284,40358.71211990263
14027.68659921725,43361.44547002858,10416.896392929124,40342.104773772335
14013.113261832388,43364.30649331886,10411.129642859656,40342.73062261709
13993.779002878548,43375.88469694671,10410.68260797055,40353.772384378
13999.366938992374,43392.8943744772,10412.381340549153,40367.2281345401
14004.284322772544,43393.296705877394,10412.761320204892,40363.24952402706
14001.91503786028,43381.67379876063,10418.975105163468,40347.290378485966
14002.227962282654,43387.284086618914,10423.154881376611,40347.98328256408
14002.540886705028,43401.58920307031,10418.997456907924,40357.348663490855
14006.094814073422,43415.0002497435,10405.206430579,40367.00461709555
14024.49029976014,43411.08869446382,10404.379416034151,40359.33796874738
14012.263895543088,43400.24809840299,10403.507698000396,40344.87639008479
14003.524363461062,43398.7952350134,10395.304607785298,40338.55084640394
14020.57874448046,43414.68732532112,10381.982968089937,40344.36229996232
14021.67397995877,43436.56968314287,10387.01211059238,40359.85205886985
14001.825630882458,43429.70769759509,10393.695282184515,40352.23011401059
14004.507840217097,43412.56390959787,10388.420270493065,40335.55571264693
14006.899476873814,43413.435627631625,10385.536895458328,40333.74522134605
14013.49324148813,43429.81945631736,10391.236590294431,40348.20680000864
14016.197802567222,43442.98463380154,10382.899389612605,40359.449727469655
13998.092889558422,43430.8029330734,10358.535988156318,40343.445878439656
13978.62452013785,43418.06243873387,10355.697316610494,40327.4196776652
13971.516665401065,43424.36563067027,10371.343537729208,40329.09605849935
13950.48367386862,43439.11778201077,10377.132639543132,40338.88612257077
13964.654679853284,43449.26547399348,10361.66523238006,40342.596512150354
13997.24352326912,43445.376270458255,10355.518502654852,40332.62763412329
14012.845040898925,43436.23440697604,10368.370755716653,40318.99307000555
14002.362072749384,43436.39086918722,10367.029651049335,40316.44497113765
13976.501104414596,43452.305311239405,10365.040345792811,40329.45368641064
13979.965624805169,43465.112860812296,10363.118095769656,40340.160172004726
13995.745956390616,43452.46177345059,10359.787685845817,40325.00568926403
14006.810069895992,43447.29852048141,10361.62052889115,40315.23797693705
14005.44661348422,43455.68042465215,10361.061735279767,40315.99793624854
13998.271703514063,43471.48310798206,10358.58069164523,40326.726773587085
13976.47875267014,43484.06714011039,10349.148255485088,40338.12616325929
13961.659546096273,43471.594866704334,10331.736246554405,40320.2671194395
13975.38351719183,43462.65416892221,10333.189109944,40306.29727915493
13990.180372021245,43473.78533766095,10353.23862472041,40311.50523561302
13993.555485433995,43492.33728555886,10357.060773022267,40325.16215147521
13977.61869163736,43504.518986287,10342.867415293147,40332.00178527854
13959.893758284305,43491.68908496965,10326.595345329684,40312.77928504697
13976.67991837024,43484.42476802168,10324.628391817618,40299.50234884052
14001.937389604736,43491.59967799184,10325.99184822939,40299.055313951416
13998.58462793644,43507.13414038827,10314.860679490648,40304.82206402088
13989.733337132138,43521.305146372935,10315.553583568762,40313.13691295826
13983.564255662472,43512.45385556863,10322.572031327729,40299.4129418627
13981.82081959496,43504.34017233136,10326.014199973846,40283.16322364369
13981.865523083869,43513.3702770913,10323.019066216835,40282.89500271023
13986.984072564135,43534.80560002394,10337.212423945955,40296.529566827965
13985.084174285434,43544.21568443962,10325.343647640188,40299.14472092923
13976.255235225588,43530.20114066615,10318.302848136766,40278.558764285895
13974.71296485817,43518.55588180493,10314.123071923625,40261.77260419996
13982.066688783969,43525.1719981637,10322.169699927534,40265.1030141238
13976.545807903509,43546.07087922942,10319.666304548538,40280.033979419946
13965.772267076049,43558.02906251301,10305.56235379724,40285.86778472278
13971.986052034625,43544.75212630655,10290.631388501097,40262.89019142272
13981.217322494664,43541.1758471937,10297.292208348776,40249.88147614973
13980.636177138827,43551.90468453225,10303.573048540718,40253.5024587515
13971.851941567891,43570.2331149856,10308.557487554252,40263.4042815452
13962.888892041314,43583.51005119205,10302.94719969597,40272.322627582864
13965.347583931398,43575.64223714379,10302.343702595675,40260.43149953264
13969.460304911174,43571.06012953045,10299.03564441629,40250.328511038846
13969.81793282246,43578.48090868961,10292.263065846331,40252.96601688457
13961.86071179637,43599.26803103305,10297.873353704616,40268.29931358091
13979.205665493688,43613.5954992289,10297.51572579333,40277.53058404095
13986.894665586313,43605.70533343618,10307.37284509812,40263.89601992322
13943.33111564292,43595.02119958654,10303.885972963091,40247.4004325152
13920.398225831776,43598.73158916612,10293.447708302465,40245.65699644769
13990.850924354903,43623.31850806696,10301.494336306374,40262.28669432244
14012.621523454372,43634.91906343926,10300.264990361333,40267.0029124025
14002.943218105223,43624.21257784517,10293.85003970266,40248.20509531559
13983.81012485148,43616.9482608972,10286.742184965871,40235.33049050933
13948.136740700813,43620.077505120935,10275.65571971604,40232.31300500787
13934.435121349708,43644.30679611049,10283.121202364113,40248.09333659332
13925.986161945602,43657.628435805855,10286.853943688147,40253.949493640604
13936.558537072962,43646.07258392246,10284.775231453805,40235.33049050933
13980.971453305658,43649.49240082412,10295.526420536808,40230.882493362726
14024.624410226872,43666.07739520996,10308.51278406534,40239.71143242257
14009.24641004162,43679.53314537205,10305.115318908134,40246.998101115
13998.428165725252,43681.43304365075,10282.115373863624,40243.77944991344
13995.500087201606,43672.715863313184,10290.720795478916,40229.02729857294
13982.938406817724,43670.39128188983,10306.367016597633,40220.95831882457
13985.508857430084,43682.32711342897,10306.188202641988,40225.27220550444
13997.62350292486,43705.17059626229,10303.908324707549,40240.58315045633
13993.063747055978,43710.37855272038,10289.044414644768,40238.996176600005
13979.272720727056,43693.05595076751,10281.89185641907,40214.81158909936
13965.258176953575,43688.11621524289,10282.070670374713,40201.53465289291
13972.38838343482,43700.99082004915,10291.70427223495,40203.903937805175
13972.746011346104,43724.88483487188,10299.683845005497,40216.08563853331
13953.657621581273,43730.76334366362,10300.89083920608,40212.93404256512
13940.917127241746,43716.50293070113,10292.933618179992,40190.76111206545
13942.66056330926,43712.79254112155,10300.46615606143,40179.786405537896
13949.701362812682,43719.78863713606,10294.408833314044,40177.59593458127
13984.39127020732,43741.00044262415,10287.837420444182,40190.04585624288
13992.974340078155,43750.65639622884,10283.992920397868,40192.52689987742
13985.24063649662,43743.25796881413,10289.871429189614,40176.61245782524
13966.845150809902,43739.18995132327,10285.356376809645,40163.22376289652
13951.176577946731,43747.14717234936,10273.778173181794,40162.5308588184
13942.772322031537,43761.94402717877,10263.250501543343,40171.80683276735
13975.942310803212,43771.44351857228,10270.715984191416,40172.67855080111
13997.221171524665,43767.01787317012,10286.093984376668,40160.00511169495
13998.517572703073,43762.65928300134,10286.138687865578,40149.32097784531
13986.492334186118,43770.10241390496,10284.283493075787,40150.01388192343
13974.042412524512,43789.14610018088,10278.919074406514,40162.10617567375
13965.839322309414,43793.97407698323,10267.072649845202,40159.42396633911
13953.031772736524,43779.11016692044,10268.45845800143,40137.87688468419
13966.71104034317,43775.93621920779,10276.616844727618,40126.1198671007
13997.847020369414,43789.19080366979,10275.722774949403,40128.98089039098
14004.261971028089,43809.32972542402,10277.26504531682,40143.10719288674
13980.926749816746,43803.85354803247,10256.74614390685,40132.19954159255
13950.416618635252,43788.87787924742,10273.84522841516,40111.01008784892
13928.958943958158,43781.2335826437,10273.241731314864,40099.1636632876
13958.507950128074,43791.67184730433,10266.849132400648,40102.65053542263
13985.061822540978,43812.97305977024,10265.776248666794,40115.43573325106
13987.632273153338,43815.74467608269,10272.146495836556,40113.69229718355
13968.588586877417,43799.56201309705,10262.55759746523,40091.94404982854
13967.71686884366,43802.40068464288,10266.111524833625,40086.28905848134
13977.48458117063,43815.63291736042,10274.739298193372,40090.93822132805
13976.523456159051,43835.61537690346,10270.80539116924,40107.27734652488
13950.170749446244,43834.25192049169,10257.975489851891,40111.79239890485
13926.477900323618,43816.66109760536,10246.441989712954,40100.48241621046
13952.76355180306,43818.65040286189,10246.464341457407,40107.09853256924
13978.065726526467,43834.40838270287,10254.89094911706,40127.50567525693
13982.938406817724,43856.380147502445,10260.523588719796,40151.869076713214
13972.76836309056,43854.72611841275,10248.587757180663,40151.82437322431
13948.47201686764,43836.57650191504,10240.16114952101,40139.55326551834
13941.990010975602,43835.7941908591,10251.940518848958,40144.98473942098
13934.055141693969,43850.367528243965,10253.236920027366,40162.48615532949
13933.541051571496,43869.07593835306,10247.55957693572,40183.76501605094
13944.42635112123,43863.89033363943,10231.622783139084,40182.20039393907
13973.081287512934,43848.06529856507,10231.466320927895,40168.81169901034
13962.95594727468,43847.19358053131,10238.417713453498,40171.40450136716
13941.028885964024,43859.46468823728,10250.442951970454,40190.73876032099
13969.214435722166,43874.99915063372,10248.69951590294,40212.33054546482
13988.302825487,43870.72996744275,10246.64315541305,40214.588071654805
13959.893758284305,43850.83691487752,10237.166015764,40201.42289417063
13939.151339429778,43846.05364156409,10226.101902258624,40201.62405987073
13941.297106897488,43855.64253993542,10231.73454186136,40215.28097573292
13936.402074861777,43863.935037128336,10226.571288892184,40228.8931881062
13927.2378596351,43854.92728411285,10216.758873076304,40227.06034506087
13928.489557324596,43839.25871124968,10223.620858624085,40216.10799027777
13937.407903362264,43841.60564441748,10235.668448885495,40221.58416766932
13938.391380118295,43853.362662000975,10229.49936741583,40236.40337424319
13916.553725785465,43861.409290004885,10215.775396320272,40246.5510662259
13893.576132485408,43847.41709797586,10206.767643304784,40237.14098181021
13918.051292663968,43839.39282171641,10216.960038776402,40233.9446823531
13949.611955834862,43838.05171704909,10209.673370083972,40235.15167655369
13950.23780467961,43848.624092176455,10212.73555907435,40245.25466504749
13932.021132948536,43867.421909263365,10235.891966330048,40266.42176704667
13915.167917629233,43857.989473103225,10233.433274439963,40258.71041520959
13931.954077715169,43845.31603399706,10233.3662192066,40244.82998190284
13948.449665123186,43846.54537994211,10219.150509733025,40243.37711851324
13942.414694120253,43861.43164174934,10226.392474936543,40257.41401403118
13943.085246453911,43879.89418266943,10233.992068051348,40277.083549151845
13917.917182197236,43869.76884243117,10218.278791699266,40267.4052438027
13878.309891022433,43850.90397011089,10211.528564873764,40246.43930750362
13910.027016404512,43854.994339346216,10212.132061974056,40246.72988018154
13975.115296258367,43879.1565751024,10232.3156872172,40269.14867987021
13984.592435907416,43898.60259277852,10232.74037036185,40286.69479926763
13961.771304818549,43882.665798981885,10215.39541666453,40270.042749648426
13946.57211858894,43868.33833078604,10224.626687124572,40253.68127270714
13938.793711518492,43873.41217677739,10230.013457538302,40255.73763319703
13915.123214140322,43884.61040074949,10227.800634837227,40265.550049012905
13923.773339244526,43903.54232830314,10247.112542046612,40285.15252890021
13936.938516728702,43895.33923808804,10239.088265787155,40275.13894738424
13940.80536851947,43883.716330971285,10245.704382145928,40261.16910709967
13946.66152556676,43894.69103749884,10255.583853195174,40268.88045893675
13975.070592769456,43910.58312780656,10254.399210739042,40283.6102585328
13957.166845460755,43921.62488956749,10250.532358948274,40294.13793017125
13949.187272690211,43912.17010166289,10250.59941418164,40281.710360254096
13969.549711888994,43900.90482245741,10260.74710616435,40267.87463043626
13962.844188552404,43900.68130501286,10261.12708582009,40267.18172635815
13939.106635940869,43911.45484584032,10251.404076982031,40275.49657529552
13937.340848128895,43925.29057565815,10253.818065383204,40287.94649695713
13951.489502369108,43919.143845932944,10254.17569329449,40280.10103465332
13952.115351213855,43908.92909871687,10258.064896829712,40267.69581648062
13954.551691359484,43910.24785163973,10255.494446217352,40265.21477284608
13941.386513875308,43918.87562499949,10244.162111778513,40270.48978453753
13943.152301687278,43931.1690844499,10246.240824012855,40279.76575848649
13954.99872624859,43922.27309015669,10246.799617624238,40268.433424047646
13935.485653339108,43904.30228761462,10241.189329765955,40249.65795870518
13935.820929505937,43906.82803473807,10239.624707654084,40248.49566799351
13927.975467202124,43926.07288671409,10243.64802165604,40266.71233972458
13931.507042826062,43939.55098862064,10242.329268733176,40278.759929986
13950.684839568716,43931.81728503911,10240.719943132395,40269.39454905922
13984.81595335197,43925.93877624736,10255.919129362002,40261.079700121845
13979.786810849526,43929.69386931585,10262.915225376517,40264.34305481232
13981.440839939218,43942.16614272192,10263.474018987898,40274.5578020284
13972.38838343482,43945.85418055704,10247.380762980076,40277.46352880759
13956.719810571649,43931.41495363891,10242.753951877829,40264.2536478345
13943.778150532024,43920.03791571116,10247.492521702352,40254.50828725199
13945.923917999737,43925.69290705835,10251.60524268213,40259.17980184314
13950.036638979513,43940.71327933232,10254.779190394782,40272.121461882765
13966.845150809902,43956.38185219549,10262.17761780949,40287.49946206802
13972.164865990266,43948.46933465831,10265.016289355312,40277.91056369669
13950.595432590895,43940.17683746539,10260.83651314217,40267.6064095028
13930.009475947558,43931.236139683264,10242.821007111192,40261.92906641115
13935.016266705548,43941.16031422142,10237.45658844192,40271.02622640446
13942.191176675698,43958.79584059666,10253.46043747192,40287.8123864904
13893.017338874024,43944.4236689119,10250.46530371491,40272.99317991653
13916.017283918534,43934.79006705166,10251.404076982031,40256.67640646416
13985.464153941171,43942.859046800026,10263.541074221264,40259.604484987794
13988.034604553532,43959.30993071913,10275.186333082478,40274.04371190593
13966.085191498423,43966.127212778,10270.559521980227,40281.15156664272
13947.734409300616,43946.65884335743,10262.714059676417,40261.39262454422
13967.359240932376,43938.99219500926,10265.597434711151,40253.25658956249
13978.892741071311,43946.41297416842,10268.681975445985,40258.30808380939
13966.398115920796,43959.421689441406,10267.117353334112,40271.83088920485
13950.841301779905,43974.129137293,10279.23199882889,40285.13017715576
13914.363254828842,43960.807497597634,10272.37001328111,40269.43925254813
13948.85199652338,43951.64328237096,10266.066821344712,40256.96697914207
13984.927712074246,43952.55970389363,10265.46332424442,40256.87757216425
13973.774191591048,43964.27201798821,10259.2718910303,40268.52283102546
13972.835418323926,43971.46927970282,10270.112487091124,40275.29540959542
13962.330098429931,43953.36436669402,10277.93559765048,40257.57047624236
13921.404054332264,43937.472276386296,10265.46332424442,40241.81249640137
13920.0853014094,43940.489761887766,10256.969661351402,40242.50540047949
13965.794618820504,43960.65103538645,10266.670318445003,40261.88436292224
13967.605110121383,43969.36821572402,10274.739298193372,40270.46743279308
13954.797560548492,43954.50430566124,10270.380708024586,40253.21188607358
13970.1979124782,43945.16127647893,10285.736356465382,40247.020452859455
13986.067651041469,43948.69285210286,10288.41856580002,40251.17787732815
13979.183313749232,43963.26618948773,10284.439955286976,40265.34888331281
13952.741200058605,43962.7297476208,10277.421507528008,40267.69581648062
13932.915202726746,43939.23806419827,10273.3758417816,40247.69100519312
13944.940441243702,43930.476180371785,10283.501182019852,40242.90773187968
13966.554578131983,43932.71135481732,10275.901588905048,40249.52384823845
13968.454476410683,43944.624834612,10275.23103657139,40266.466470535575
13964.0958862419,43946.86000905753,10281.60128374115,40272.94847642761
13930.344752114386,43920.59670932254,10281.221304085411,40249.7026621941
13916.620781018828,43909.845520239534,10288.597379755662,40243.10889757978
13930.970600959135,43916.17106392039,10292.844211202171,40253.90479015169
13960.832531551425,43928.57628209308,10288.50797277784,40271.2050403601
13967.739220588115,43931.14673270544,10278.337929050676,40277.24001136304
13964.520569386552,43911.96893596279,10269.151362079543,40261.05734837739
13966.062839753968,43900.45778756831,10287.859772188636,40255.290598307925
13946.929746500224,43904.92813645937,10292.933618179992,40265.34888331281
13921.493461310083,43921.42372386739,10288.08328963319,40286.40422658971
13940.626554563829,43926.65403206993,10287.971530910914,40294.22733714907
13976.67991837024,43907.94562196083,10283.970568653414,40279.67635150866
13966.62163336535,43900.010752679205,10290.94431292347,40275.72009274007
13943.107598198369,43905.59868879303,10293.045376902268,40283.34203759933
13961.368973418354,43925.447037869344,10298.409795571542,40303.4139041202
13970.264967711564,43929.60446233803,10290.60903675664,40307.996011733536
13955.37870590433,43912.48302608526,10293.112432135636,40290.98633420304
13945.029848221524,43906.9621452048,10293.626522258106,40284.72784575556
13935.843281250392,43916.95337497633,10290.206705356444,40293.95911621561
13924.510946811552,43936.44409614135,10282.785926197284,40314.18744494765
13984.279511485043,43945.63066311248,10295.638179259084,40323.50812238552
14009.224058297164,43927.83867452606,10304.757690996848,40308.89008151175
13992.90728484479,43922.20603492332,10301.382577584098,40306.69961055513
13970.309671200475,43928.57628209308,10284.216437842422,40315.28268042597
13964.542921131006,43948.29052070266,10281.310711063232,40336.6732998697
13948.47201686764,43949.564570136616,10272.88410340358,40338.327328959385
13939.173691174234,43931.79493329465,10260.344774764157,40319.954195017126
13953.545862858997,43933.87364552899,10284.88699017608,40320.33417467287
13955.848092537892,43942.41201191092,10289.267932089322,40327.30791894292
13959.893758284305,43962.10389877605,10292.50893503534,40343.17765750619
13965.168769975757,43972.20688726984,10290.497278034363,40350.08434654288
13982.536075417527,43964.16025926593,10285.669301232016,40342.238884239065
14001.847982626914,43971.26811400272,10301.114356650634,40350.84430585436
14009.268761786076,43988.45660548885,10307.37284509812,40371.20674505315
14005.44661348422,44010.42837028842,10306.635237531094,40398.52057677753
13992.974340078155,44018.363239570055,10300.756728739349,40406.8354257149
13960.944290273705,44001.59943122858,10279.142591851069,40388.19407083918
13966.733392087626,44004.21458532984,10283.791754697771,40388.97638189511
14009.1570030638,44020.50900703776,10291.257237345844,40401.35924832335
14020.48933750264,44048.87337075155,10306.456423575451,40429.18717017021
14007.212401296189,44052.29318765321,10303.416586329531,40432.919911494246
14000.283360515044,44038.12218166854,10296.778118226304,40417.117228164345
13997.288226758032,44037.49633282379,10289.55850476724,40415.12792290782
13986.469982441662,44051.62263531955,10281.489525018877,40429.209521914665
13980.47971492764,44075.29313269772,10289.826725700705,40455.15989722728
14016.756596178604,44074.93550478644,10279.522571506808,40454.62345536035
14025.965514894193,44062.7985075472,10269.866617902117,40441.301815664985
13994.516610445571,44059.602208090095,10277.98030113939,40436.25032141809
13969.974395033643,44071.2027634624,10293.045376902268,40447.64971109029
13991.096793543911,44096.81786260818,10295.437013558989,40473.331865469445
14036.58259351046,44104.81978712318,10303.2824758628,40481.17732777326
14022.232773570156,44091.967534061376,10303.505993307352,40467.878039822346
14002.0044448381,44091.81107185019,10295.772289725815,40466.33576945493
13978.95979630468,44107.27847901327,10301.717853750928,40478.87509809436
13970.779057834035,44128.02089786779,10300.533211294796,40497.00236284761
13986.738203375126,44127.283290300766,10277.421507528008,40494.34250525743
14001.24448552662,44116.219176795385,10273.822876670703,40478.562173671984
14020.914020647291,44126.34451703364,10281.333062807687,40482.78665337404
14011.883915887349,44145.99170040985,10276.058051116235,40499.30459252651
14010.609866453397,44170.891543733065,10268.234940556877,40523.73504921616
14019.081177601956,44173.26082864533,10257.03671658477,40526.663127739805
14008.1064710744,44159.67096801651,10255.539149706265,40511.53099674356
13995.164811034778,44164.99068319687,10261.775286409294,40514.19085433374
13986.179409763745,44185.28606716229,10266.89383588956,40533.77098247659
13999.255180270098,44212.4881401644,10266.2232835559,40562.15769793483
14017.315389789988,44215.19270124349,10271.095963847156,40564.21405842472
14016.175450822766,44206.02848601681,10277.041527872268,40552.38998560786
13996.505915702097,44214.05276227627,10273.599359226151,40558.044976955054
13989.085136542932,44232.71646889645,10265.932710877982,40576.82044229752
14010.29694203102,44260.76790818786,10272.191199325467,40603.37431471042
14026.233735827656,44265.46177452347,10273.733469692885,40604.961288566745
14028.804186440017,44256.96811163046,10272.37001328111,40592.89134656088
14019.863488657891,44266.1993820905,10286.362205310132,40598.00989604115
14002.093851815922,44288.43936782353,10286.295150076763,40617.09828580598
13991.610883666384,44315.66379257009,10281.154248852044,40640.36645178395
14023.909154404302,44321.58700485075,10274.672242960009,40642.73573669622
14050.865358217405,44314.143873947134,10264.055164343736,40632.25276854668
14034.63799174285,44316.7590280484,10262.825818398693,40632.76685866915
14028.938296906746,44336.87559805818,10261.64117594256,40650.98353040023
14012.9567996212,44362.64715941514,10276.907417405537,40674.40815858939
13988.883970842837,44357.72977563498,10264.882178888582,40666.67445500785
13994.315444745476,44349.034947041866,10261.015327097812,40656.72792872524
14011.995674609623,44359.40615646913,10266.402097511542,40663.835783462026
14032.78279695306,44382.651970702645,10262.110562576125,40683.63942904943
14028.87124167338,44403.97553491301,10254.354507250133,40703.26426068119
14013.895572888325,44399.81811044432,10261.663527687017,40697.69867631182
14015.661360700293,44391.01152312893,10266.379745767086,40688.512109340685
14019.77408168007,44396.1300726092,10269.598396968651,40690.63552506394
13992.951988333702,44411.798645472365,10267.564388223218,40703.77835080366
13974.556502646985,44430.10472418126,10258.17665555199,40720.1621794894
13988.593398164916,44424.40502934516,10245.54791993474,40711.5567578741
14015.72841593366,44421.521654310425,10261.529417220285,40702.28078392516
14038.460140044706,44427.98130845801,10266.60326321164,40695.68701931084
14011.39217750933,44442.84521852079,10266.066821344712,40699.08448446805
14020.466985758185,44466.02397752094,10270.447763257953,40715.44596140933
14049.63601227236,44458.22321870604,10267.65379520104,40701.58787984704
14039.667134245294,44441.81703827585,10254.108638061123,40678.00678944669
14018.142404334832,44443.62752957673,10242.59748966664,40670.407196331886
14007.927657118757,44466.38160543223,10239.758818120816,40683.32650462705
14010.431052497752,44493.09194005632,10249.526530447783,40701.25260368021
14003.524363461062,44485.35823647479,10244.36327747861,40686.65691455089
13993.95781683419,44476.86457358177,10242.59748966664,40671.81535623257
13989.643930154316,44485.40293996369,10244.005649567323,40673.692902766816
14019.43880551324,44504.580736706346,10245.234995512366,40687.97566747376
14042.841081957948,44525.0102311385,10241.07757104368,40700.358533902
14038.169567366787,44515.62249846727,10235.042600040746,40684.77936801665
14020.265820058086,44505.34069601783,10229.11938776009,40673.22351613325
14016.086043844944,44512.6050129658,10231.801597094727,40675.61515278997
14028.759482951104,44534.57677776537,10243.469207700397,40691.3060773976
14021.852793914411,44550.75944075101,10240.78699836576,40701.38671414694
14010.319293775476,44537.23663535555,10224.87255631358,40680.51018482568
14014.521421733072,44522.08215261485,10207.661713082996,40657.689053736816
14019.505860746607,44531.87221668628,10225.990143536346,40659.32073108205
14026.121977105377,44552.63698728526,10234.2155854959,40670.98834168772
14028.15598585081,44567.567952581405,10231.131044761069,40677.0009609462
14014.834346155449,44553.57576055238,10220.983352778358,40654.85038219099
14007.570029207473,44539.62827201227,10220.804538822716,40632.65509994688
14019.952895635714,44545.19385638165,10231.242803483345,40628.29650977808
14037.096683632932,44570.22781017159,10241.301088488231,40645.55205649758
14031.531099263562,44585.941086523664,10236.339001219154,40654.42569904634
14027.753654450617,44575.61458058532,10234.707323873918,40639.69589945029
14029.29592481803,44567.67971130368,10239.73646637636,40625.16726555434
14027.86541317289,44572.6194468283,10234.93084131847,40624.20614054277
14028.647724228827,44593.29481044946,10234.372047707087,40641.461687262265
14011.0569013425,44608.941031568174,10232.673315128484,40653.30811182357
13986.447630697206,44597.65340061825,10225.45370166942,40635.20319881478
13973.550674146496,44587.72922608009,10220.3128004447,40617.52296895063
13995.276569757054,44593.8759558053,10230.684009871962,40617.70178290627
13997.377633735852,44613.16551127023,10216.513003887298,40633.37035576944
14007.748843163115,44632.656232435256,10218.189384721443,40649.150687354886
14002.33972100493,44620.340421240384,10214.724864330872,40632.31982378004
14007.681787929749,44612.36084846984,10209.516907872783,40620.361640496456
14057.436771087265,44628.29764226647,10229.007629037813,40632.9903761137
14054.866320474905,44651.655215222265,10246.59845192414,40653.57633275704
14010.63221819785,44658.517200770046,10230.035809282756,40658.22549560374
13992.683767400238,44644.25678780757,10215.39541666453,40639.494733750194
14015.951933378212,44640.769915672536,10221.49744290083,40631.35869876846
14023.395064281827,44645.26261630805,10224.470224913386,40629.5929109565
14030.25704982961,44664.55217177298,10224.649038869027,40640.81348667306
14031.933430663756,44675.862154467366,10218.479957399364,40646.2449605757
14011.660398442791,44657.15374435827,10209.87453578407,40625.92722486582
14012.286247287542,44645.6872994527,10223.330285946166,40613.32084099303
14009.715796675182,44649.01770937655,10211.863841040593,40615.35484973846
14038.30367783352,44673.44816606619,10229.812291838203,40636.72311743774
14038.057808644511,44682.5453260595,10234.84143434065,40642.57927448503
14025.473776516174,44663.56869501695,10223.21852722389,40622.66387017535
14020.44463401373,44651.655215222265,10219.284620199754,40608.62697465742
14028.088930617443,44660.12652637083,10223.754969090816,40614.4384282158
14029.497090518127,44680.51131731407,10223.93378304646,40634.107963336464
14025.49612826063,44689.65318079629,10225.610163880609,40643.47334426324
14014.163793821788,44669.4919072976,10216.155375976012,40624.20614054277
14016.354264778409,44659.18775310371,10212.802614307717,40612.47147470373
14009.20170655271,44665.78151771802,10213.584925363652,40618.39468698439
13992.370842977864,44685.80868074998,10227.487710414853,40637.37131802694
13960.921938529247,44693.40827386479,10230.013457538302,40639.69589945029
13956.406886149274,44681.31598011446,10214.948381775426,40622.41800098634
14026.926639905769,44679.57254404695,10220.02222776678,40618.10411430647
14072.1218671944,44693.207108164686,10232.3156872172,40629.97289061223
14075.340518395964,44715.04476249752,10235.824911096684,40650.15651585538
14069.350250881942,44721.88439630084,10231.868652328092,40652.436393789816
14052.251166373631,44703.77948329204,10229.566422649195,40627.51419872215
14016.667189200782,44693.74355003161,10220.223393466878,40610.50452119166
14017.53890723454,44703.17598619175,10223.598506879627,40612.22560551472
14011.0569013425,44722.622003867866,10224.649038869027,40624.42965798732
14010.609866453397,44728.8581405709,10220.82689056717,40624.69787892078
14046.216195370698,44714.307154930495,10220.156338233512,40601.63087864291
14047.289079104554,44706.23817518213,10217.78705332125,40582.63189585589
14037.454311544216,44716.36351542038,10229.007629037813,40585.045884257066
14036.314372576997,44736.882416830354,10235.579041907671,40600.17801525331
14025.362017793896,44738.33528021995,10222.838547568148,40599.03807628609
14013.49324148813,44716.22940495365,10211.461509640398,40574.58526785198
13993.555485433995,44702.01369548008,10200.73267230185,40557.84381125496
13996.19299127972,44713.56954736347,10202.029073480258,40570.62900908339
14008.642912941326,44739.698736631726,10197.715186800384,40602.01085829864
14008.508802474596,44745.33137623446,10193.49070709833,40614.21491077124
13994.717776145671,44721.77263757856,10181.688986025929,40594.94770705077
13996.9529505912,44719.51511138858,10205.761814804297,40596.10999776245
13996.327101746452,44733.57435865097,10232.650963384029,40615.75718113866
13987.319348730964,44753.37800423837,10225.274887713776,40642.37810878493
13997.91407560278,44758.67536767428,10223.978486535369,40652.346986812
14030.838195185446,44743.78910586704,10218.59171612164,40640.81348667306
14027.083102116956,44736.748306363625,10203.817213036682,40637.88540814941
14002.38442449384,44744.4596582007,10197.089337955636,40649.53066701063
13979.987976549624,44760.88819037536,10203.616047336584,40670.34014109852
13957.680935583228,44761.73755666466,10204.73363455935,40673.91642021137
14002.205610538198,44746.18074252376,10197.178744933455,40658.78428921512
14059.806055999525,44745.9125215903,10195.435308865945,40657.89021943692
14050.06069541701,44761.62579794238,10219.68695159995,40674.67637952285
14034.615639998394,44783.23993483066,10218.457605654909,40697.609269334
14024.087968359943,44786.81621394351,10204.82304153717,40702.66076358089
14023.35036079292,44770.16416432431,10188.3051023847,40688.53446108514
14018.187107823744,44765.09031833295,10180.884323225537,40685.29345813912
14004.932523361746,44775.21565857121,10176.68219526794,40697.02812397816
14002.406776238297,44801.43425481728,10187.4557360954,40722.79968533512
14003.166735549778,44811.04550493306,10186.785183761738,40731.89684532843
13996.707081402194,44795.98042917019,10175.117573156069,40718.41874342189
13992.080270299944,44797.276830348594,10181.286654625734,40719.24575796673
14000.1045465594,44812.92305146731,10188.662730295984,40734.64610989644
14023.953857893212,44841.26506343664,10198.519849600774,40762.608142210025
14028.938296906746,44848.819953062535,10213.763739319294,40769.96186613583
14037.163738866298,44840.21453144724,10216.35654167611,40757.44488924085
14045.83621571496,44850.563389130046,10228.135911004056,40763.47986024378
14036.426131299271,44865.516706170645,10223.196175479434,40775.70626446084
14039.890651689846,44887.98020934823,10216.468300398386,40794.7275989923
14033.453349286718,44889.701293671285,10218.50230914382,40795.64402051497
14019.215288068688,44873.60803766347,10210.410977650998,40777.20383133934
14024.132671848854,44869.718834128245,10201.984369991347,40769.09014810206
14014.2084973107,44876.02202606464,10191.16612567498,40776.13094760549
14026.256087572108,44894.05988384008,10194.988273976836,40795.84518621507
14039.48832028965,44890.751825660685,10202.006721735805,40792.11244489104
14040.58355576796,44871.77519461813,10206.991160749336,40770.96769463631
14043.869262202892,44859.41467993435,10207.549954360718,40754.18153455038
14050.150102394831,44864.4885259257,10208.1087479721,40746.09020305755
14046.417361070797,44877.34077898751,10208.801652050215,40744.8161536236
14045.590346525947,44864.15324975887,10197.379910633554,40720.609214378506
14051.78177974007,44850.9880722747,10204.979503748358,40705.41002814889
14047.35613433792,44850.764554830144,10210.96977126238,40708.695734583824
14043.9139656918,44859.6381973789,10208.756948561306,40717.47997015476
14043.176358124776,44873.67509289683,10214.009608508302,40731.852141839525
14037.521366777584,44871.01523530665,10227.01832378129,40728.67819412687
14025.49612826063,44851.748031586176,10239.64705939854,40710.036839251145
14031.642857985838,44851.54686588608,10240.205853009922,40712.070847996576
14043.15400638032,44864.91320907035,10240.764646621305,40728.38762144895
14049.54660529454,44875.731453386725,10234.170882006989,40741.55279893312
14040.069465645489,44861.42633693533,10226.54893714773,40727.67236562638
14034.459177787206,44842.60616810396,10219.374027177577,40705.633545593446
14025.965514894193,44837.86759827943,10215.060140497702,40699.57622284606
13985.62061615236,44839.90160702486,10206.722939815872,40701.990211247234
13996.90824710229,44851.25629320816,10210.030997995258,40715.982403276255
14061.504788578128,44841.10860122545,10214.434291652951,40708.516920628186
14068.88086424838,44818.91331898133,10214.88132654206,40687.12630118446
14049.792474483547,44811.96192645573,10215.59658236463,40681.80658600409
14055.603928041928,44820.500292837656,10206.78999504924,40693.11656869848
14071.853646260935,44837.912301768345,10217.25061145432,40714.39542941993
14047.222023871189,44818.10865618094,10208.01934099428,40700.98438274675
14036.515538277095,44794.48286229168,10205.404186893007,40683.17004241586
14060.49896007764,44798.23795536017,10222.033884767758,40688.57916457405
14064.790495013058,44808.29624036506,10219.910469044504,40703.73364731474
14075.206407929232,44826.66937430732,10231.801597094727,40725.43719118085
14048.630183771873,44816.096999179965,10227.957097048416,40715.691830598334
14026.233735827656,44797.276830348594,10218.479957399364,40698.81626353458
14065.572806068994,44796.15924312583,10215.954210275915,40698.30217341211
14076.346346896453,44809.23501363218,10209.092224728134,40714.68600209785
14062.823541500991,44825.82000801802,10214.16607071949,40736.70247038633
14060.677774033282,44815.71701952422,10204.577172348165,40726.30890921461
14060.20838739972,44799.98139142769,10203.928971758958,40710.21565320679
14064.365811868409,44801.970696684206,10208.891059028036,40713.6578218529
14071.11603869391,44824.76947602863,10207.661713082996,40736.43424945286
14069.394954370851,44848.35056642897,10200.285637412744,40761.64701719845
14056.676811775782,44841.01919424763,10200.755024046306,40758.74129041926
14057.190901898251,44831.340888898485,10202.990198491836,40751.65578742693
14065.930433980278,44845.89187453889,10202.11848045808,40765.08918584457
14062.555320567528,44871.50697368467,10207.237029938344,40794.74995073676
14060.945994966743,44897.30088678609,10210.54508811773,40822.7343347948
14047.9149279493,44893.32227627305,10201.760852546797,40817.99576497028
14027.86541317289,44887.48847097022,10197.44696586692,40811.759628267246
14035.330895820964,44902.06180835507,10203.280771169755,40823.94132899539
14056.475646075683,44933.30954710359,10207.795823549726,40852.95389329838
14082.247207432654,44959.72930904976,10192.954265231405,40877.674922665945
14071.697184049748,44956.60006482602,10175.385794089532,40872.46696620786
14070.512541593616,44959.50579160521,10204.376006648065,40870.2988469957
14087.611626101929,44979.30943719261,10209.78512880625,40885.11805356957
14083.990643500169,45009.86427186302,10212.22146895188,40909.36969630357
14070.378431126885,45035.65818496444,10203.30312291421,40935.47653382737
14055.760390253114,45035.65818496444,10198.273980411766,40935.5659408052
14055.067486175,45034.87587390851,10195.882343755047,40930.98383319186
14067.696221792248,45049.516266526734,10195.010625721292,40941.28798738575
14056.1180181644,45074.4384615944,10192.194305919922,40960.21991493939
14030.324105062977,45092.83394728112,10179.654977280496,40974.59208662416
14054.0169541856,45089.1906129349,10167.048593407702,40965.15965046402
14071.65248056084,45088.14008094551,10174.82700047815,40957.60476083813
14053.838140229958,45104.65802009797,10195.189439676937,40970.14408947755
14059.895462977349,45130.340174477125,10211.148585218025,40991.557060665735
14067.428000858785,45148.06510783018,10198.296332156222,41004.45401721645
14062.421210100796,45146.09815431812,10191.0543669527,40997.63673515758
14029.72060796268,45142.54422694972,10188.372157618063,40992.741703121865
14044.20453836972,45153.04954684372,10195.994102477323,41000.8777381036
14076.301643407542,45177.70352097792,10186.271093639269,41020.4802179909
14080.392012642862,45193.90853570802,10177.039823179224,41032.81838093024
14070.803114271535,45183.69378849194,10173.73176499984,41019.27322379032
14063.73996302366,45179.64812274553,10184.997044205316,41011.09248531968
14056.20742514222,45189.59464902814,10197.357558889098,41016.81453190024
14064.231701401675,45211.499358594345,10191.389643119532,41035.99232864289
14067.718573536704,45223.01050698883,10189.377986118554,41045.98355841441
14046.618526770892,45208.23600390387,10184.035919193737,41028.817418672734
14040.49414879014,45201.26225963381,10183.54418081572,41017.440380744985
14039.287154589552,45208.59363181515,10187.612198306584,41018.893244134575
14055.805093742025,45229.671326836506,10199.34686414562,41033.89126466409
14063.248224645642,45243.61881537662,10202.766681047284,41042.22846534592
14053.905195463323,45234.00756526084,10197.40226237801,41027.431610516505
14058.442599587752,45228.66549833602,10201.40322463551,41016.21103479994
14066.824503758491,45240.13194324159,10204.040730481236,41023.36359302564
14043.422227313786,45258.43802195049,10196.217619921876,41038.3839652996
14036.49318653264,45271.87142036813,10183.186552904432,41046.74351772589
14051.49120706215,45263.57892317521,10174.87170396706,41032.12547685212
14024.132671848854,45259.80147836226,10177.77743074625,41022.961261625445
14032.29105857504,45279.58277220521,10193.647169309515,41038.11574436614
14067.495056092152,45307.67891498553,10193.468355353876,41059.52871555433
14073.485323606174,45327.05787742829,10191.16612567498,41073.36444537216
14072.859474761424,45319.39122908011,10197.20109667791,41060.40043358808
14056.855625731425,45315.59143252271,10189.221523907368,41053.47139280694
14064.678736290782,45329.96360420747,10196.821117022171,41060.22161963244
14099.88273380789,45356.4057178981,10196.508192599797,41077.14189018511
14108.9798938012,45372.25310471691,10182.247779637311,41086.19434668951
14082.806001044037,45357.52330512086,10174.178799888943,41063.149698156085
14075.631091073885,45355.62340684216,10187.120459928568,41050.45390730547
14077.441582374762,45370.19674422703,10217.943515532435,41060.15456439908
14068.322070636998,45389.21807875849,10220.759835333803,41074.75025352839
14054.709858263715,45396.75061663993,10214.031960252758,41079.444119864005
14049.97128843919,45384.881840334165,10204.778338048262,41061.71918651095
14041.72349473518,45382.19963099952,10210.098053228625,41050.09627939419
14040.315334834497,45394.60484917222,10232.472149428386,41051.70560499497
14044.852738958924,45420.66698320711,10235.55669016322,41068.380006358624
14055.715686764204,45436.603777003744,10231.533376161264,41078.17007043005
14061.303622878031,45433.45218103554,10245.54791993474,41069.36348311466
14054.754561752625,45431.68639322357,10243.089228044655,41060.2439713769
14049.144273894344,45442.01289916193,10246.374934479589,41064.691968523504
14024.892631160335,45464.81167850634,10240.854053599129,41083.13215769913
14026.121977105377,45475.540515844885,10237.45658844192,41087.02136123435
14044.897442447837,45466.95744597405,10242.061047799712,41069.3411313702
14064.1199426794,45472.2324576655,10263.049335843249,41062.43444233351
14081.375489398895,45489.8903357852,10271.788867925272,41069.89992498159
14093.892466293868,45516.77948436493,10276.616844727618,41089.97179150245
14114.50077468166,45531.01754558296,10272.817048170216,41096.72201832796
14101.55911464204,45517.65120239869,10262.64700444305,41077.25364890738
14075.809905029524,45512.37619070723,10263.228149798888,41068.402358103085
14073.55237883954,45523.32854549033,10266.98324286738,41074.482032594926
14062.73413452317,45545.76969692346,10268.36905102361,41090.64234383612
14037.364904566395,45554.1516010942,10265.195103310956,41094.21862294896
14029.675904473772,45537.45484798609,10245.860844357116,41071.665712793554
14058.710820521215,45538.57243520885,10234.684972129462,41064.82607899024
14079.497942864651,45556.4538307731,10235.377876207576,41075.75608202888
14071.16074218282,45582.98535144154,10251.806408382226,41101.17001547456
14057.660288531815,45592.0601596904,10247.31370774671,41109.59662313421
14045.165663381298,45583.49944156402,10252.40990548252,41098.75602707339
14036.560241766008,45583.566496797386,10256.097943317644,41097.45962589498
14036.806110955014,45596.19523241463,10262.624652698596,41109.931899301046
14029.608849240403,45616.15534021323,10258.958966607925,41130.38374547765
14033.475701031171,45621.89973853824,10250.2194345259,41134.00472807941
14057.54852980954,45612.51200586701,10250.912338604014,41119.67725988356
14073.351213139442,45608.68985756515,10244.676201900984,41111.27300396836
14059.962518210712,45613.09315122285,10235.511986674308,41112.97173654696
14048.49607330514,45628.24763396355,10240.742294876847,41125.66752739758
14037.96840166669,45626.86182580732,10254.64507992805,41121.46539943998
14033.565108008994,45606.25351741952,10258.511931718818,41097.99606776191
14055.805093742025,45592.97658121307,10260.188312552968,41082.70747455448
14077.754506797137,45595.74819752553,10266.737373678372,41081.43342512053
14059.269614132598,45603.0125144735,10259.65187068604,41081.813404776265
14054.419285585796,45590.58494455635,10248.364239736107,41064.24493363439
14062.60002405644,45562.30998782039,10247.336059491165,41028.99623262838
14065.192826413257,45546.39554576821,10259.026021841291,41007.13622655108
14056.185073397766,45541.41110675468,10257.282585773775,40999.179005525
14063.40468685683,45548.78718242493,10243.737428633862,41003.73876139388
14062.48826533416,45533.96797585106,10233.83560584016,40983.89041231757
14055.067486175,45500.12743474572,10247.738390891362,40946.56299907721
14063.337631623464,45479.16149844664,10249.884158359073,40920.746734231325
14068.322070636998,45473.55121058836,10258.869559630104,40912.87892018306
14059.649593788336,45474.80290827786,10260.992975353358,40911.38135330455
14053.726381507682,45454.86515222373,10257.349641007142,40887.8002629042
14061.303622878031,45421.449294263046,10264.524550977296,40851.90336130898
14047.49024480465,45401.80211088683,10262.334080020675,40832.70321282187
14040.605907512416,45388.212250258,10261.730582920383,40821.30382314966
14056.02861118658,45385.57474441228,10267.69849868995,40817.280509147706
14065.796323513548,45370.48731690495,10272.146495836556,40800.91903220642
14070.981928227178,45341.11712469067,10274.024042370802,40768.754871935234
14065.796323513548,45323.146322148605,10269.777210924294,40747.230142024775
14053.815788485505,45318.72067674645,10261.55176896474,40739.60819716552
14035.979096410168,45322.76634249286,10249.615937425606,40743.89973210094
14047.691410504747,45317.133702890125,10258.869559630104,40734.511999429706
14076.279291663086,45303.65560098358,10267.564388223218,40715.13303698696
14070.780762527082,45303.074455627735,10250.51000720382,40710.64033635144
14050.97711693968,45314.56325227777,10244.564443178708,40720.877435311966
14045.702105248229,45343.151133436106,10261.574120709196,40747.520714702696
14055.53687280856,45353.0529562298,10260.165960808512,40754.58386595057
14067.986794470167,45347.129743949146,10256.41086774002,40745.419650723896
14066.489227591665,45360.16081096659,10261.484713731375,40755.00854909522
14054.374582096883,45388.03343630236,10278.40498428404,40781.45066278585
14030.592325996438,45421.62810821868,10275.499257504853,40812.810160256646
14030.815843440992,45436.76023921493,10250.487655459365,40825.19302668489
14057.950861209734,45439.28598633838,10247.805446124728,40824.88010226251
14053.078180918475,45451.28887311088,10248.900681603036,40833.26200643325
14050.932413450768,45475.76403328944,10252.253443271333,40855.41258518846
14059.11315192141,45506.095350515294,10247.537225191263,40883.486376224326
14065.908082235825,45516.10893203127,10243.603318167128,40890.124844327554
14043.109302891413,45508.554042405376,10239.35648672062,40881.58647794562
14033.58745975345,45518.36645822125,10240.965812321405,40893.87993739604
14069.104381692932,45549.74830743651,10253.259271771822,40927.07227791218
14090.070317992013,45584.79584274243,10263.541074221264,40961.29279867325
14078.559169597527,45585.39933984272,10260.344774764157,40961.33750216216
14064.54462582405,45575.96690368258,10257.08142007368,40951.435679368464
14041.902308690824,45583.54414505293,10248.1183705471,40958.38707189406
14070.154913682332,45608.53339535397,10267.631443456585,40979.80004308224
14094.69712909426,45639.4235061912,10286.004577398846,41006.82330212871
14069.037326459567,45634.50612241103,10259.517760219307,40997.54732817976
14047.154968637822,45621.58681411586,10243.871539100594,40979.93415354898
14049.948936694736,45630.86278806481,10257.64021368506,40986.796139096754
14050.105398905922,45648.36420397333,10253.415733983007,41002.26354625983
14063.315279879009,45671.632369951294,10260.07655383069,41022.91655813653
14047.154968637822,45663.85396288085,10258.17665555199,41013.931156865496
14054.06165767451,45650.50997144103,10258.154303807534,40996.69796189046
14064.790495013058,45654.82385812091,10258.511931718818,40996.74266537937
14062.510617078617,45670.02304435051,10259.69657417495,41010.9807265974
14042.997544169137,45682.51766950103,10258.578986952183,41023.76592442583
14049.92658495028,45673.75578567455,10252.61107118262,41011.8300928867
14032.313410319495,45658.98128258959,10246.88902460206,40989.83597634268
14043.77985522507,45660.76942214602,10252.1193328046,40983.28691521727
14097.379338428897,45676.05801535345,10256.187350295468,40988.65133388655
14087.36575691292,45687.59151549239,10250.487655459365,40992.96522056642
14071.406611371827,45670.49243098407,10245.54791993474,40969.38413016607
14036.58259351046,45640.38463120277,10229.767588349294,40931.63203378106
14018.745901435126,45631.60039563184,10228.44883542643,40915.4046673065
14044.78568372556,45643.0221370485,10238.864748342605,40918.98094641935
14086.896370279355,45657.55077094445,10250.197082781444,40924.77004823328
14072.658309061326,45640.38463120277,10231.242803483345,40900.38429503254
14078.268596919608,45623.03967750546,10242.2175100109,40874.36686448656
14074.178227684288,45614.63542159026,10241.859882099616,40856.12784101103
14057.749695509638,45618.994011759045,10231.868652328092,40850.964588041854
14045.120959892389,45621.452703649134,10224.626687124572,40846.27072170624
14031.553451008018,45598.49746209353,10207.72876831636,40818.062820203646
14029.005352140111,45579.49847930652,10214.25547769731,40795.196985625866
14031.195823096732,45577.17389788317,10220.78218707826,40786.39039831048
14037.074331888478,45587.8580317328,10223.553803390718,40790.65958150144
14069.439657859764,45597.49163359304,10220.245745211334,40795.755779237246
14078.849742275446,45579.47612756206,10214.769567819783,40772.35350279254
14070.177265426788,45560.700662219606,10224.514928402295,40750.64995892644
14061.817713000502,45554.5986359833,10228.672352870984,40741.66455765541
14068.232663659175,45566.24389484452,10237.45658844192,40748.79476413665
14075.496980607151,45572.94941818112,10235.489634929852,40753.44392698335
14059.962518210712,45551.02235687046,10214.523698630775,40726.28655747015
14050.06069541701,45530.68226941613,10197.223448422366,40701.31965891358
14062.510617078617,45535.68906017412,10223.30793420171,40703.73364731474
14060.476608333183,45548.250740558,10231.846300583638,40714.931871286855
14046.819692470992,45557.68317671814,10224.73844584685,40721.90561555691
14020.265820058086,45538.7959526534,10203.63839908104,40697.92219375637
14043.288116847054,45525.72018214705,10215.238954453343,40682.09715868201
14086.091707478969,45531.621042683255,10232.092169772646,40685.15934767239
14067.606814814428,45543.13219107773,10227.487710414853,40696.46933036677
14050.48537856166,45550.62002547026,10225.92308830298,40704.091275226034
14071.719535794204,45541.43345849913,10230.907527316514,40692.17779543135
14094.36185292743,45530.03406882693,10231.131044761069,40678.38676910243
14075.474628862696,45535.309080518375,10234.103826773624,40681.27014413716
14048.719590749692,45554.44217377212,10239.512948931808,40699.03978097913
14050.217157628198,45570.40131931321,10243.737428633862,40717.52467364368
14049.390143083352,45560.96888315307,10233.969716306892,40709.969784017776
14059.046096688046,45558.97957789655,10234.103826773624,40708.516920628186
14081.241378932164,45571.87653444726,10224.045541768735,40721.36917368999
14080.92845450979,45599.30212489392,10223.978486535369,40751.72284266029
14074.848780017946,45622.32442168289,10230.661658127508,40778.2767150732
14064.343460123951,45611.93086051117,10214.25547769731,40769.15720333543
