 EXG Channel 0, EXG Channel 1, EXG Channel 2, EXG Channel 3
16616.264476330816,14968.136247174294,-16225.935962907788,-16860.09965659376
16828.583696911777,15139.5741271465,-16052.642888145792,-16626.5239270358
16980.3073382744,15236.468939360257,-15948.193186306142,-16446.16770102593
17137.507157028576,15323.394873546944,-15853.62295551574,-16263.106913936965
16786.674176058077,15018.226506498637,-16095.111202610877,-16667.092343222183
16619.7737002103,14955.641622023775,-16219.185736082283,-16868.43685727559
16821.56524915281,15127.794757818552,-16050.050085788977,-16639.219717886415
16965.48813170053,15224.801328754584,-15942.359381003307,-16459.601099443567
17126.4430435232,15309.357978029013,-15849.107903135766,-16281.100068223486
16788.976405736972,15010.604561639377,-16090.216170575164,-16677.620014860633
16645.947592967463,14968.829151252408,-16204.16536380832,-16866.604014230255
16849.035543088383,15146.972554561204,-16027.385416911296,-16623.506441534333
16981.022594096972,15239.01703822816,-15936.43616872265,-16448.268765004726
17133.796767448996,15320.086815367558,-15854.695839249593,-16269.432457617817
16792.03859472735,15017.623009398343,-16106.823516705455,-16670.512160123846
16631.463662560425,14962.123627915817,-16226.852384430456,-16871.4319910326
16842.911165107627,15143.105702770436,-16049.759513111056,-16630.122557893104
16981.000242352515,15239.553480095086,-15944.862776382302,-16452.91792785143
17134.53437501602,15318.611600233507,-15848.90673743567,-16275.020393731642
16798.587655852756,15014.806689596977,-16090.03735661952,-16668.50050312287
16649.702686035955,14967.018659951527,-16199.404442239338,-16858.758551926443
16853.70705767954,15142.368095203412,-16023.049178486966,-16625.205174112936
16990.052698856915,15240.604012084486,-15920.76759585948,-16449.38635222749
17139.943497174205,15317.806937433115,-15837.574402996828,-16273.83575127551
16806.589580367756,15021.579268166932,-16075.128743067831,-16659.49275010738
16642.01368594333,14956.5803952909,-16198.890352116869,-16860.792560671875
16841.592412184764,15127.861813051915,-16033.107463491851,-16631.173089882504
16976.440486483632,15223.415520598355,-15939.788930390949,-16457.723552909323
17140.122311129846,15313.73891994225,-15847.61033625726,-16269.432457617817
16815.195001983047,15021.601619911387,-16081.096658837398,-16654.441255860478
16644.382970855593,14953.942889445174,-16204.657102186336,-16862.401886272655
16839.08901680577,15125.246658950648,-16045.065646775443,-16630.7260549934
16970.338460247334,15214.832450727516,-15946.717971172093,-16456.270689519726
17131.226316836633,15306.02756810517,-15850.292545591898,-16268.091352950498
16806.254304200924,15018.673541387743,-16090.596150230904,-16652.96604072643
16635.352866095647,14956.334526101891,-16218.559887237536,-16862.51364499493
16837.323228993802,15131.214574720214,-16050.74298986709,-16631.95540093844
16970.852550369807,15227.885869489415,-15953.758770675511,-16456.628317431012
17131.33807555891,15316.64464672144,-15858.607394529272,-16268.180759928318
16795.52546686238,15019.992294310608,-16094.9994438886,-16653.92716573801
16605.133307592074,14937.00026714805,-16236.173061868318,-16880.283281836902
16824.225106742993,15131.192222975758,-16051.346486967384,-16636.828081229698
16960.570747920367,15223.326113620536,-15942.046456580932,-16460.428113988415
17119.826927164428,15315.482356009765,-15844.123464122233,-16266.347916882984
16790.071641215283,15019.947590821695,-16078.70502218068,-16651.177901170005
16608.307255304724,14942.990534662073,-16211.25086680065,-16874.203607345058
16807.37189142369,15115.903629768329,-16038.874213561325,-16640.940802209476
16956.793303107417,15211.122061147937,-15930.20003201962,-16463.713820423345
17140.234069852122,15312.688387952852,-15826.0856063468,-16269.477161106726
16803.99677801094,15013.77850935203,-16063.483484206616,-16651.468473847923
16615.124537363594,14930.026522877995,-16201.527857962592,-16875.4329532901
16829.634228901177,15111.098004710437,-16034.60503037036,-16638.77268299731
16971.299585258912,15208.641017513395,-15932.43520646515,-16458.952898854364
17132.589773248408,15303.16654481489,-15838.244955330489,-16267.6890215503
16808.08714724626,15009.01758778305,-16069.27258602054,-16645.835834245187
16627.350941580647,14934.38511304678,-16205.282951031084,-16869.465037520535
16828.4719381895,15110.695673310242,-16036.907260049256,-16641.298430120758
16958.78260836394,15198.314511575045,-15944.259279282009,-16469.033535603707
17132.612124992862,15298.204457545811,-15848.66086824666,-16271.108838451964
16817.69839736204,15011.565686650954,-16077.85565589138,-16642.10309292115
16626.970961924908,14934.34040955787,-16211.384977267382,-16870.694383465576
16830.684760890577,15114.13784195636,-16046.920841565234,-16643.44419758847
16976.574596950366,15203.29895058858,-15947.701447928126,-16471.20165481587
17141.575174519443,15300.59609420253,-15858.47328406254,-16275.109800709464
16818.52541190689,15006.693006359696,-16083.018908860557,-16648.428636602002
16636.537508551777,14927.791348432464,-16219.811584927034,-16868.794485186874
16838.843147616764,15108.974588987185,-16055.07922829142,-16636.537508551777
16969.109114302293,15205.355311078469,-15955.25633755402,-16463.423247745424
17137.551860517488,15299.724376168771,-15851.790112470402,-16268.918367495344
16822.012284041917,15007.20709648217,-16079.397926258796,-16640.829043487196
16630.793110226765,14929.601839733345,-16219.744529693668,-16872.482523022
16828.941324823063,15106.627655819377,-16056.21916725864,-16647.10988367914
16963.655288655198,15192.570113250033,-15957.335049788362,-16479.315338053148
17137.90948842877,15293.197666787824,-15860.61905153025,-16276.294443165594
16828.24842074495,15011.230410484126,-16077.296862279996,-16635.44227307347
16625.182822368482,14919.208278561626,-16226.271239074618,-16876.997575401972
16828.62840040069,15102.581990072966,-16065.919824352244,-16650.01561045833
16971.32193700337,15199.275636586624,-15963.705296958124,-16475.224968817827
17141.61987800835,15299.07617557957,-15865.514083565962,-16278.864893777954
16830.394188212656,15024.037960057016,-16081.85661814888,-16634.682313761987
16637.275116118803,14939.213089849129,-16214.380111024397,-16863.474770006513
16845.48161571999,15118.429376891778,-16048.820739843935,-16633.09533990566
16978.183922551147,15206.227029112224,-15952.417666008196,-16466.30662278016
17142.424540808744,15299.45615523531,-15853.75706598247,-16270.304175651572
16829.544821923355,15014.650227385788,-16076.84982739089,-16632.313028849727
16631.5754212827,14926.29378155396,-16216.68234070329,-16871.677860221607
16825.722673621498,15100.905609238818,-16057.984955070611,-16650.14972092506
16954.22285249506,15190.670214971333,-15962.185378335163,-16479.091820608595
17118.731691686116,15289.017890574682,-15864.083571920824,-16280.384812400916
16829.544821923355,15022.048654800494,-16077.56508321346,-16627.61916251411
16643.511252821834,14936.799101447952,-16221.219744827718,-16863.318307795325
16835.4233307151,15097.888123737352,-16066.813894130457,-16645.455854589447
16957.799131607906,15178.801438665563,-15965.560491747916,-16478.197750830383
17126.040712123002,15277.394983457922,-15861.915452708658,-16277.74730655519
16822.03463578637,15008.279980216024,-16072.8935686223,-16629.072025903704
16626.211002613425,14926.785519931977,-16220.102157604952,-16867.09575260827
16834.059874303326,15108.885182009362,-16059.996612071587,-16638.5268138083
16965.48813170053,15195.118212117935,-15956.709200943616,-16470.30758503766
17141.30695358598,15295.4104894889,-15847.05154264588,-16267.93489073931
16837.703208649542,15014.605523896877,-16066.433914474715,-16623.975828167895
16625.249877601847,14916.52606922699,-16220.504489005149,-16873.91303466714
16831.154147524136,15098.581027815466,-16050.295954977984,-16641.56665105422
16966.516311945477,15190.692566715788,-15949.847215395836,-16469.637032704002
17143.25155535359,15294.270550521678,-15844.794016455891,-16266.906710494366
16837.725560393996,15012.347997706893,-16058.65550740427,-16615.66097923052
16623.23822060087,14914.447356992649,-16215.609456969436,-16866.42520027461
16827.399054455647,15097.32933012597,-16050.810045100458,-16638.43740683048
16961.26365199848,15190.469049271233,-15949.243718295542,-16465.747829168777
17135.383741305322,15299.009120346203,-15854.76289448296,-16260.715277280246
16833.411673714123,15024.529698435032,-16070.434876732215,-16615.258647830327
16618.544354265257,14922.538688485469,-16226.047721630064,-16867.542787497376
16815.351464194235,15103.319597639991,-16064.556367940471,-16643.108921421637
16942.801111078395,15190.3349388045,-15965.560491747916,-16473.6379949615
17123.33615104391,15295.812820889096,-15861.80369398638,-16270.348879140483
16847.38151399869,15033.895079361806,-16067.03741157501,-16607.010854126318
16638.504462063847,14932.99930489055,-16220.459785516236,-16862.647755461665
16827.6225719002,15105.264199407602,-16057.828492859424,-16641.499595820856
16974.18296029365,15198.448622041777,-15959.100837600332,-16469.10059083707
17157.959003205182,15309.290922795646,-15850.00197291398,-16261.207015658263
16852.030676845396,15030.989352582616,-16061.382420227816,-16601.4676215014
16634.078816661695,14927.903107154742,-16219.029273871098,-16859.116179837725
16827.71197887802,15106.18062093027,-16056.688553892203,-16634.95053469545
16961.151893276205,15197.263979585648,-15958.027953866478,-16464.7867041572
17147.230165866633,15312.08489085256,-15847.1409496237,-16255.060285933054
16849.01319134393,15036.64434392981,-16056.196815514186,-16601.847601157144
16623.975828167895,14932.596973490356,-16214.983608124689,-16864.212377573538
16816.89373456165,15107.164097686304,-16052.776998612524,-16635.53168005129
16954.759294361986,15200.72849997622,-15947.187357805651,-16461.188073299894
17140.234069852122,15308.910943139905,-15844.928126922625,-16254.568547555036
16839.111368550228,15029.715303148663,-16062.835283617413,-16601.10999359012
16623.394682812057,14929.534784499978,-16223.365512295428,-16861.19489207207
16836.4738627045,15120.105757725927,-16059.147245782287,-16633.072988161206
16965.68929740063,15199.432098797812,-15962.721820202092,-16470.59815771558
17128.544107502,15300.841963391538,-15867.458685333571,-16278.17198969984
16843.134682552183,15038.723056164154,-16068.825551131436,-16612.24116232886
16617.985560653873,14924.058607108427,-16223.8796024179,-16879.165694614137
16825.074473032295,15110.449804121234,-16065.584548185416,-16656.67643030601
16970.02553582496,15214.228953627224,-15958.139712588754,-16477.057811863164
17138.33417157342,15317.494013010742,-15851.790112470402,-16267.353745383472
16862.021906616916,15064.31580356548,-16052.642888145792,-16601.065290101207
16642.080741176695,14955.462808068134,-16216.771747681112,-16871.744915454976
16817.296065961847,15117.155327457824,-16066.456266219173,-16659.783322785297
16952.36765770527,15217.626418784432,-15956.150407332232,-16485.752640456278
17119.2904852975,15329.519251527698,-15854.18174912712,-16274.103972208975
16826.23676374397,15060.359544796893,-16062.544710939494,-16597.75723192182
16616.756214708832,14954.166406889726,-16221.756186694643,-16859.607918215745
16813.585676382267,15131.862775309415,-16055.682725391714,-16637.453930074447
16939.269535454456,15220.4427385858,-15953.468197997594,-16465.658422190954
17121.033921365015,15335.598926019542,-15846.13512112321,-16258.16717841234
16831.53412717988,15065.567501254976,-16051.16767301174,-16598.025452855283
16603.009891868816,14949.6290027653,-16216.391768025373,-16869.10740960925
16808.355368179724,15133.159176487825,-16051.011210800554,-16650.507348836345
16954.803997850897,15237.139491693912,-15940.079503068866,-16475.716707195843
17138.2447645956,15349.926394215394,-15833.46168201705,-16261.542291825092
16867.185159586094,15088.522742810575,-16028.860632045344,-16588.19068529495
16632.11186314963,14972.181912920703,-16201.550209707048,-16869.263871820436
16821.319379963803,15142.90453707034,-16049.670106133235,-16656.76583728383
16966.516311945477,15242.414503385366,-15939.654819924215,-16479.874131664532
17145.77730247704,15360.029382709192,-15833.305219805865,-16265.342088382497
16866.559310741344,15096.055280692017,-16037.734274594102,-16591.00700509632
16644.472377833412,14980.16148569125,-16202.667796929813,-16868.369802042223
16840.96656334002,15157.969612833216,-16048.79838809948,-16646.640497045577
16962.31418398788,15241.721599307251,-15952.127093330277,-16477.571901985633
17146.38079957733,15357.525987330198,-15835.965077396046,-16263.084562192507
16873.95773815605,15097.32933012597,-16029.9335157792,-16586.29078701625
16625.629857257587,14960.693116270675,-16208.613360954923,-16874.650642234166
16825.610914899222,15142.301039970049,-16049.64775438878,-16654.10597969365
16967.231567768045,15234.032599214626,-15938.045494323433,-16479.807076431167
17159.52362531705,15352.51919657221,-15824.74450167948,-16262.503416836673
16891.503857553467,15101.062071450004,-16020.523431363516,-16584.05561257072
16658.553976840256,14982.419011881237,-16194.352947992438,-16868.615671231233
16852.14243556767,15159.19895877826,-16037.868385060834,-16644.91941272252
16985.336480776845,15250.595241856008,-15933.44103496564,-16472.810980416656
17170.967718478172,15368.14306594647,-15822.218754556032,-16259.038896446098
16904.087889681803,15113.266123922602,-16010.331035891895,-16575.271376999783
16666.958232755453,14982.530770603513,-16184.741697876658,-16866.335793296792
16859.38440077119,15163.848121624962,-16027.608934355849,-16642.684238276986
16995.953559393118,15255.870253547462,-15922.846308093824,-16474.599119973078
17176.57800633645,15368.903025257949,-15811.55697245085,-16259.798855757575
16904.803145504375,15114.339007656456,-15997.232913641086,-16572.56681592069
16673.39553515858,14985.324738660423,-16165.943880789744,-16857.551557725856
16865.039392118382,15155.823845365509,-16015.06960571642,-16643.041866188272
16980.08382082985,15242.146282451902,-15914.799680089913,-16479.270634564236
17158.2495758831,15362.644536810463,-15804.739690391982,-16264.827998260022
16896.778869244918,15106.962931986203,-16000.49626833156,-16577.551254934224
16655.871767505618,14971.779581520508,-16177.186808250764,-16866.87223516372
16850.734275666986,15151.3758482189,-16024.12206222082,-16645.969944711916
16993.22664656957,15251.332849423034,-15917.325427213364,-16469.12294258153
17186.59158785243,15371.920510759415,-15798.41414671113,-16248.399466085371
16910.72635778503,15106.56060058601,-15989.253340870542,-16559.446341925424
16658.68808730699,14963.934119216696,-16178.90789257382,-16854.5787757133
16835.065702803815,15127.973571774197,-16036.482576904606,-16646.573441812212
16963.320012488366,15220.487442074713,-15935.385636733252,-16478.465971763846
17169.58191032194,15354.396743106456,-15819.469489988029,-16251.662820775846
16908.848811250784,15100.4138708608,-16008.229971913095,-16558.03818202474
16663.694878064976,14969.209130908148,-16186.149857777342,-16850.04137158887
16865.66524096313,15160.04832506756,-16028.927687278712,-16630.05550265974
16997.071146615883,15249.567061611066,-15927.450767451615,-16462.707991922856
17191.39721291032,15374.446257882866,-15808.539486949385,-16240.26343110364
16919.644703822698,15120.03870249256,-15997.679948530193,-16548.806911564698
16657.950479739964,14976.24993041157,-16186.39572696635,-16860.747857182963
16854.310554779837,15155.913252343327,-16024.055006987455,-16642.63953478808
16991.192637824137,15244.672029575351,-15913.682092867148,-16465.92664312442
17180.198988938213,15364.343269389066,-15800.582265923294,-16247.661858518346
16916.269590409946,15111.433280877269,-15986.88405595828,-16548.337524931136
16654.798883771764,14965.185816906192,-16176.53860766156,-16856.836301903284
16855.29403153587,15152.00169706365,-16017.193021439674,-16640.225546386904
16979.70384117411,15230.791596268607,-15910.016406776478,-16469.25705304826
17168.01728821007,15354.016763450714,-15800.202286267557,-16245.896070706378
16905.63016004922,15104.213667418202,-15990.326224604396,-16546.728199330355
16631.888345705076,14948.645526009266,-16185.881636843878,-16859.317345537824
16827.644923644653,15144.29034522657,-16021.9315912642,-16638.43740683048
16953.127617016748,15225.941267721806,-15916.252543479508,-16473.615643217046
17151.16407289077,15340.85158596654,-15806.572533437316,-16256.110817922452
16910.45813685157,15103.99014997365,-15987.040518169466,-16549.09748424262
16651.513177336834,14963.889415727785,-16172.53764540406,-16855.048162346862
16845.973354098005,15141.608135891933,-16018.020035984522,-16640.002028942352
16982.58721620884,15233.518509092157,-15910.083462009845,-16469.704087937367
17163.43518059673,15349.635821537477,-15809.992350338978,-16255.59672779998
16914.704968298076,15101.866734250396,-15994.349538606351,-16547.04112375273
16655.849415761164,14958.927328458709,-16180.293700730052,-16853.416485001624
16847.80619714334,15142.658667881333,-16023.675027331714,-16639.7785114978
16974.294719015925,15226.969447966749,-15916.051377779411,-16472.96744262784
17169.045468455013,15347.534757558677,-15803.55504793585,-16252.288669620595
16923.712721313565,15100.726795283175,-15980.603215766338,-16542.794292306222
16656.452912861456,14949.740761487576,-16170.973023292188,-16855.15992106914
16852.544766967865,15134.992019533162,-16014.89079176078,-16639.018552186317
16986.543474977432,15220.889773474906,-15911.983360288545,-16474.666175206446
17167.704363787696,15345.61250753552,-15798.74942287796,-16252.78040799861
16925.05382598088,15111.098004710437,-15973.16008486272,-16535.50762361379
16669.461628134446,14962.548311060467,-16169.095476757942,-16847.448569232056
16856.366915269722,15137.495414912157,-16023.138585464789,-16639.10795916414
16980.664966185686,15219.68277927432,-15923.159232516198,-16475.78376242921
17166.58677656493,15346.08189416908,-15818.977751610011,-16258.88243423491
16924.807956791872,15105.107737196417,-15999.55749506444,-16546.951716774907
16668.835779289697,14954.6804970122,-16189.457915956727,-16860.569043227322
16862.29012755038,15141.988115547672,-16035.074417003922,-16648.272174390815
16984.308300531902,15224.555459565576,-15933.35162798782,-16482.846913677087
17175.058087713493,15349.5240628152,-15821.548202222371,-16260.335297624506
16937.101416242294,15117.937638513762,-16001.323282876408,-16539.66504808248
16661.817331530732,14959.888453470285,-16198.73388990568,-16865.01704037393
16849.594336699767,15141.026990536093,-16045.020943286532,-16658.553976840256
16976.820466139372,15226.29889563309,-15940.77240714698,-16495.542704527703
17155.92499445975,15344.494920312754,-15833.193461083589,-16278.395507144394
16923.042168979904,15117.714121069208,-16001.9267799767,-16557.434684924447
16649.948555224964,14958.033258680494,-16202.846610885455,-16885.40183131717
16844.118159308215,15142.256336481136,-16049.714809622146,-16677.30709043826
16978.943881862626,15225.404825854876,-15939.67717166867,-16505.332768599124
17171.235939411636,15348.2723651257,-15824.856260401755,-16277.36732689945
16933.279267940434,15109.667493065295,-16002.351463121351,-16558.32875470266
16659.604508829656,14946.365648074823,-16202.600741696448,-16888.508723796454
16844.162862797126,15121.491565882156,-16058.096713792887,-16685.309014953258
16968.34915499081,15200.974369165227,-15954.764599176002,-16517.156841415985
17155.07562817045,15320.422091534389,-15835.920373907134,-16290.89013229491
16912.559200830365,15083.605359030407,-16008.229971913095,-16571.739801375843
16631.687180004978,14923.835089663877,-16216.615285469925,-16907.999444961482
16830.818871357307,15110.13687969886,-16066.970356341644,-16696.73075636992
16964.3034892444,15204.48359304471,-15958.296174799942,-16525.02465546425
17159.322459616957,15336.4706440533,-15834.288696561898,-16294.824039319044
16922.908058513174,15105.107737196417,-16006.620646312314,-16566.263623984294
16650.663811047532,14947.192662619673,-16205.618227197914,-16885.58064527281
16837.94907783855,15131.639257864865,-16056.263870747553,-16678.715250338944
16974.674698671664,15223.706093276274,-15948.930793873167,-16512.418271591458
17161.982317207137,15350.641650037964,-15830.041865115389,-16283.447001391292
16927.378407404234,15119.770481559097,-15989.432154826183,-16548.13635923104
16643.95828771094,14952.735895244588,-16188.385032222872,-16883.881912694207
16832.159976024624,15130.745188086652,-16040.46118741765,-16677.329442182712
16978.854474884807,15227.975276467238,-15920.499374926016,-16494.40276556048
17174.096962701915,15356.006068707236,-15795.55312342085,-16263.285727892606
16937.749616831497,15115.32248441249,-15967.840369682355,-16533.27244916826
16658.799846029266,14949.606651020844,-16182.037136797564,-16866.089924107782
16854.690534435576,15136.131958500382,-16029.106501234352,-16651.356715125647
16996.758222193508,15228.645828800898,-15916.252543479508,-16474.196788572885
17179.05904997099,15344.919603457403,-15801.722204890517,-16252.713352765246
16941.63882036672,15109.019292476094,-15966.655727226223,-16521.381321118035
16661.72792455291,14944.532805029488,-16176.53860766156,-16860.189063571583
16852.05302858985,15126.788929318063,-16026.35723666635,-16656.117636694627
16990.03034711246,15211.792613481595,-15922.28751448244,-16488.01016664626
17190.614901854384,15342.863242967516,-15801.208114768044,-16254.16621615484
16964.370544477766,15111.433280877269,-15962.386544035262,-16518.095614683105
16669.95336651246,14937.20143284815,-16182.90885483132,-16866.179331085605
16853.19296755707,15128.107682240929,-16037.533108894004,-16655.53649133879
16986.387012766245,15221.515622319654,-15931.854061109312,-16488.07722187963
17185.49635237412,15354.284984384178,-15817.70370217606,-16257.854253989966
16971.70191665911,15126.721874084697,-15970.030840638978,-16514.452280336893
16687.67829986552,14960.514302315034,-16180.561921663517,-16852.72358092351
16868.2803950644,15138.970630046206,-16034.60503037036,-16645.411151100536
17003.150821107723,15226.433006099822,-15924.34387497233,-16479.471800264335
17191.061936743492,15354.240280895268,-15808.070100315825,-16256.110817922452
16969.533797446944,15131.214574720214,-15959.72668644508,-16504.975140687842
16684.12437249713,14958.547348802967,-16164.20044472223,-16849.43787448858
16860.591394971776,15131.840423564963,-16023.652675587258,-16654.97769772741
16984.330652276356,15215.190078638803,-15920.052340036911,-16487.630186990522
17198.750936836117,15363.069219955114,-15796.000158309957,-16246.946602695776
16986.74464067753,15144.178586504291,-15951.30007878543,-16494.514524282757
16675.5860061152,14958.457941825143,-16173.163494248807,-16853.930575124094
16849.549633210856,15132.37686543189,-16037.063722260444,-16662.040848975284
16984.800038909918,15223.504927576178,-15923.20393600511,-16489.574788758135
17178.50025635961,15356.631917551986,-15800.157582778644,-16258.323640623528
16975.904044616706,15143.172758003802,-15955.949241632134,-16508.12673665604
16678.044698005284,14960.424895337212,-16185.322843232494,-16868.77213344242
16858.62444145971,15144.491510926666,-16042.31638220744,-16672.523817124824
16997.048794871425,15231.462148602266,-15928.568354674382,-16500.080108652128
17192.939483277736,15360.029382709192,-15805.857277614748,-16267.666669805843
16982.095477830826,15145.85496733844,-15955.144578831743,-16510.83129773513
16676.748296826878,14962.235386638093,-16178.72907861818,-16878.450438791566
16873.756572455954,15148.291307484067,-16029.821757056923,-16679.45285790597
17014.952542180126,15245.2978784201,-15915.112604512287,-16503.11994589805
17215.581800410964,15379.318938174123,-15788.311158217331,-16268.9407192398
16991.88554190225,15150.168854018317,-15947.790854905948,-16517.089786182616
16679.96694802844,14960.760171504042,-16175.309261716517,-16878.651604491664
16873.42129628912,15152.04640055256,-16022.445681386673,-16671.62974734661
17008.425832799177,15239.709942306274,-15913.793851589424,-16502.06941390865
17217.414643456297,15378.603682351551,-15785.78541109388,-16255.730838266712
17021.143975394247,15167.08912457098,-15929.10479654131,-16492.5922742596
16696.50723892537,14961.408372093249,-16162.68052609927,-16870.470866021024
16870.895549165674,15136.020199778104,-16020.92576276371,-16679.5869683727
17019.087614904358,15236.267773660156,-15895.755993813991,-16495.118021383052
17227.763501139107,15373.507484615742,-15766.384096906677,-16253.83093998801
17032.409254599723,15165.837426881484,-15917.48188942455,-16489.038346891208
16711.907590855073,14961.520130815525,-16157.070238240987,-16867.85571191975
16890.85565696426,15135.32729569999,-16015.27077141652,-16678.044698005284
17028.98943769806,15226.477709588731,-15899.801659560402,-16500.75066098579
17235.60896344292,15372.345193904066,-15768.507512629929,-16255.328506866515
17034.063283689415,15166.306813515046,-15915.045549278922,-16490.044175391697
16716.8473263797,14969.72322103062,-16149.180072448264,-16867.25221481946
16897.695290767588,15149.967688318216,-16006.464184101127,-16669.14870371207
17034.331504622878,15239.553480095086,-15898.169982215166,-16495.721518483344
17228.3669982394,15376.94965326186,-15784.489009915473,-16264.60448081547
17032.453958088634,15170.263072283637,-15927.450767451615,-16489.21716084685
16722.435262493524,14976.96518623414,-16150.38706664885,-16858.557386226345
16893.649625021175,15151.778179619096,-16014.130832449298,-16673.82021830323
17028.520051064497,15240.40284638439,-15908.943523042622,-16501.689434252912
17225.103643548926,15376.61437709503,-15794.189667009075,-16266.102047693974
17025.79313824095,15162.171740790816,-15938.783101890458,-16499.253094107284
16727.35264627369,14974.90882574425,-16158.43369465276,-16861.977203128004
16909.072328695336,15154.594499420466,-16012.83443127089,-16666.600604844167
17042.020504715503,15240.15697719538,-15900.449860149609,-16499.677777251934
17236.480681476674,15366.869016512515,-15783.617291881716,-16272.628757074925
17045.46267336162,15164.228101280702,-15923.20393600511,-16497.800230717687
16735.35457078869,14970.706697786654,-16143.8603572679,-16865.66524096313
16908.133555428216,15146.23494699418,-16002.150297421254,-16677.15062822707
17049.75420829704,15243.956773752783,-15892.358528656783,-16502.78466973122
17244.124978080392,15379.967138763326,-15775.525960388895,-16268.091352950498
17041.12643493729,15166.798551893062,-15916.63252313525,-16488.658367235468
16721.049454337295,14963.554139560956,-16149.224775937177,-16861.127836838703
16895.750688999975,15141.80930159203,-16013.236762671086,-16676.12244798213
17028.47534757559,15229.696360790296,-15903.24382820652,-16505.26571336576
17240.235774545166,15374.334499160588,-15776.531788889384,-16258.770675512636
17057.42085664521,15177.728554931708,-15909.323502698364,-16471.492227493793
16728.470233496457,14969.075020441416,-16150.09649397093,-16854.444665246567
16896.555351800365,15140.937583558272,-16021.708073819647,-16674.714288081443
17043.786292527475,15236.78186378263,-15905.52370614096,-16496.012091161265
17251.21048107272,15384.772763821216,-15779.83984706877,-16253.875643476922
17057.13028396729,15177.013299109138,-15918.822994091868,-16476.16374208495
16717.182602546527,14963.06240118294,-16164.692183100247,-16865.262909562935
16885.178313872613,15140.75876960263,-16031.721655335625,-16677.798828816274
17022.03804517246,15230.031636957126,-15913.123299255763,-16502.941131942407
17236.41362624331,15372.166379948423,-15782.879684314692,-16266.057344205065
17064.260490448534,15183.316491045534,-15908.563543386885,-16470.441695504393
16736.159233589082,14972.53954083199,-16139.546470588026,-16852.388304756678
16905.58545656031,15143.642144637364,-16001.904428232245,-16675.16132297055
17052.95050775415,15248.15890171038,-15882.38965062972,-16498.247265606795
17257.871300920404,15386.76206907774,-15755.58820433476,-16257.474274334229
17068.70848759514,15187.317453303034,-15882.635519818728,-16465.45725649086
16723.97753286094,14970.326718130911,-16129.622296049867,-16856.277508291903
16908.44647985059,15146.838444094474,-15994.282483372985,-16672.702631080465
17058.89607177926,15239.821701028552,-15872.42077260265,-16493.30753008217
17263.012202145124,15370.937034003382,-15747.742742030949,-16250.656992275355
17085.405240703254,15172.319432773524,-15885.585950086826,-16462.037439589196
16750.33023957375,14959.82139823692,-16129.801110005512,-16858.780903670897
16899.461078579556,15122.13976647136,-16010.26398065853,-16687.00774753186
17045.350914639344,15224.019017698649,-15889.117525710766,-16505.17630638794
17253.490359007163,15365.192635678368,-15767.07700098479,-16265.11857093794
17077.179798743702,15166.70914491524,-15904.204953218095,-16471.268710049237
16749.145597117615,14960.983688948596,-16149.895328270832,-16855.629307702697
16913.319160141848,15134.880260810884,-16021.17163195272,-16679.184636972506
17049.910670508227,15227.125910177936,-15903.757918328993,-16505.042195921207
17238.64880068884,15357.302469885644,-15787.238274483476,-16274.640414075902
17073.46940916412,15171.693583928774,-15905.479002652051,-16469.413515259446
16753.83946345323,14965.588148306388,-16139.881746754856,-16852.00832510094
16919.957628245073,15135.863737566917,-16006.955922479145,-16674.222549703427
17056.459731633633,15227.572945067042,-15892.939674012625,-16502.941131942407
17261.916966666813,15371.18290319239,-15770.116838230711,-16266.414972116349
17096.84933386437,15179.941377632784,-15894.86192403578,-16463.266785534237
16761.439056568033,14960.447247081667,-16137.065426953486,-16850.913089622627
16933.323971429345,15135.059074766526,-16007.291198645977,-16673.417886903037
17082.343051712876,15231.328038135534,-15887.754069298991,-16498.73900398481
17275.953862184746,15367.60662407954,-15777.627024367694,-16269.36540238445
17109.969807859638,15180.522522988622,-15899.801659560402,-16462.842102389586
16778.69460328753,14966.213997151135,-16140.61935432188,-16849.124950066205
16939.962439532574,15132.37686543189,-16006.330073634395,-16670.48980837939
17075.369307442823,15219.481613574222,-15881.85320876279,-16491.385280059014
17268.667193492318,15362.778647277197,-15766.36174516222,-16260.044724946589
17104.62774093482,15182.82475266752,-15887.57525534335,-16453.454369718358
16769.373925849668,14962.525959316012,-16130.270496639074,-16846.75566515394
16930.887631283716,15134.433225921775,-16005.771280023013,-16674.31195668125
17068.28380445049,15218.386378095913,-15895.465421136072,-16505.22100987685
17267.683716736283,15356.542510574163,-15781.27035871391,-16272.785219286112
17111.512078227053,15183.987043379191,-15891.196237945109,-16452.426189473415
16776.07944918626,14966.6833837847,-16128.370598360372,-16846.398037242656
16945.818596579862,15144.89384232686,-16002.284407887986,-16673.61905260313
17084.15354301376,15230.053988701582,-15888.603435588291,-16503.432870320426
17279.574844786508,15367.003126979247,-15773.201378965545,-16270.55004484058
17119.91633414225,15177.750906676163,-15903.467345651074,-16463.914986123444
16785.46718185749,14955.127531901306,-16141.334610144451,-16854.891700135675
16943.471663412056,15125.827804306486,-16014.376701638306,-16680.928073040017
17081.62779589031,15217.760529251163,-15897.14180197022,-16505.17630638794
17279.820713975514,15355.51433032922,-15775.16833247761,-16269.343050639996
17123.783185933018,15179.226121810214,-15888.938711755123,-16450.77216038372
16792.932664505563,14971.645471053776,-16137.758331031602,-16841.681819162586
16957.3520967188,15142.43515043678,-16020.74694880807,-16677.463552649446
17102.794897889486,15231.86448000246,-15898.460554893083,-16502.807021475677
17294.863437993936,15362.778647277197,-15776.129457489187,-16266.616137816449
17133.30502907098,15175.20280780826,-15896.71711882557,-16452.046209817676
16789.646958070633,14947.48323529759,-16139.881746754856,-16847.94030761007
16946.82442508035,15113.333179155969,-16013.057948715445,-16679.25169220587
17078.275034222013,15196.973406907728,-15898.795831059912,-16505.712748254868
17266.566129513518,15321.22675433478,-15787.998233794957,-16276.22738793223
17136.59073550591,15163.28932801358,-15895.845400791814,-16445.765369625733
16796.240722684946,14943.348162573358,-16136.596040319926,-16841.793577884862
16953.105265272294,15112.774385544586,-16013.907315004744,-16670.132180468107
17101.76671764454,15208.708072746764,-15893.342005412818,-16490.379451558525
17298.596179317974,15345.344286602056,-15776.509437144929,-16263.397486614882
17149.82296822345,15176.610967708944,-15886.48001986504,-16439.35041896706
16820.291199718857,14959.48612207009,-16127.163604159789,-16834.708074892533
16971.523102703464,15127.459481651722,-16005.994797467569,-16671.227415946414
17112.29438928299,15221.225049641736,-15883.127258196744,-16493.285178337715
17294.639920549384,15340.762178988718,-15771.323832431295,-16275.534483854117
17143.4974245426,15167.044421082071,-15880.199179673098,-16441.40677945695
16800.956940765016,14940.084807882884,-16123.453214580204,-16835.557441181834
16955.295736228913,15105.577123829977,-16002.373814865809,-16671.473285135424
17113.031996850015,15218.095805417992,-15882.81433377437,-16489.574788758135
17307.670987566828,15354.46379833982,-15770.206245208532,-16264.17979767082
17160.127122417347,15182.869456156428,-15874.700650537092,-16430.6779421184
16807.126022234683,14945.963316674628,-16127.990618704633,-16838.66433366112
16951.942974560618,15117.04356873555,-16009.459317858138,-16673.663756092043
17094.077717551914,15212.999607682184,-15889.43045013314,-16494.40276556048
17296.830391506006,15351.155740160437,-15775.570663877808,-16265.45384710477
17159.21070089468,15187.585674236498,-15881.450877362597,-16430.409721184937
16819.866516574206,14962.4812558271,-16119.496955811615,-16822.99576079795
16967.142160790227,15121.290400182055,-16000.518620076016,-16668.142875211583
17096.447002464178,15202.337825577,-15889.363394899774,-16504.349291843093
17284.782801244593,15332.916716684906,-15778.36463193472,-16278.239044933209
17152.125197902347,15176.275691542112,-15880.132124439731,-16432.711950863835
16811.57401938129,14948.019677164517,-16123.833194235944,-16829.790691112365
16966.270442756468,15113.288475667056,-16003.580809066394,-16673.529645625313
17106.86291538035,15208.10457564647,-15885.697708809104,-16498.35902432907
17303.29004565359,15342.058580167126,-15773.469599899006,-16268.516036095149
17169.336041132934,15181.81892416703,-15875.19238891511,-16424.754729837743
16811.305798447826,14937.134377614782,-16131.075159439464,-16834.864537103716
16946.26563146897,15092.657815534809,-16023.36210290934,-16682.5373986408
17093.3848134738,15194.067680128535,-15894.638406591226,-16501.108288897074
17300.60783631895,15341.365676089012,-15771.145018475656,-16268.337222139506
17170.185407422236,15181.19307532228,-15869.0456591899,-16424.55356413765
16821.341731708257,14944.91278468523,-16110.958589429689,-16829.321304478803
16966.851588112306,15104.70540579622,-15994.617759539817,-16673.529645625313
17121.190383576202,15214.16189839386,-15872.75604876948,-16494.380413816027
17311.761356802148,15348.674696525895,-15759.857387525724,-16273.723992553234
17180.98129999415,15193.173610350324,-15860.596699785794,-16428.06278801713
16840.00543832844,14967.085715184894,-16105.862391693878,-16834.015170814415
16984.442410998632,15129.962877030715,-15991.667329271717,-16683.990262030395
17119.603409719875,15211.971427437238,-15883.015499474466,-16519.146146672505
17301.99364447518,15337.543527787151,-15777.247044711954,-16301.283693466628
17185.11637271838,15204.90827618936,-15868.218644645054,-16443.82076785812
16831.33296147978,14968.717392530132,-16114.579572031447,-16850.42135124461
16966.382201478744,15118.80935654752,-16014.197887682663,-16708.286608253315
17120.29631379799,15216.575886795032,-15887.843476276814,-16524.26469615277
17313.728310314218,15351.714533771818,-15768.753381818937,-16295.360481185971
17178.723773804162,15200.549686020577,-15866.408153344171,-16444.893651591974
16813.406862426622,14958.323831358412,-16122.112109912889,-16861.95485138355
16943.672829112154,15114.115490211903,-16015.8295650279,-16712.600494933187
17090.568493672432,15215.324189105537,-15895.264255435975,-16528.846803766108
17281.251225620654,15351.647478538453,-15782.678518614592,-16302.893019067413
17156.39438109331,15208.305741346569,-15878.746316283505,-16444.558375425146
16796.844219785242,14962.86123548284,-16139.76998803258,-16858.736200181986
16953.26172748348,15120.75395831513,-16031.632248357804,-16709.87358210964
17104.24776127908,15219.883944974415,-15903.28853169543,-16528.869155510565
17297.65740605085,15360.141141431468,-15779.1245912462,-16295.002853274687
17188.446782642222,15223.370817109444,-15861.222548630543,-16428.129843250495
16824.96271431002,14977.412221123246,-16116.23360112114,-16844.18521454158
16962.4035909657,15131.192222975758,-16007.201791668153,-16702.83278260622
17107.667578180743,15220.643904285896,-15888.201104188098,-16529.852632266597
17297.366833372933,15349.859338982027,-15780.711565102529,-16305.642283635412
17181.696555816718,15208.752776235677,-15867.257519633476,-16438.791625355676
16830.70711263503,14970.505532086556,-16121.821537234968,-16848.38734249918
16977.133390561747,15130.700484597744,-16010.956884736644,-16700.53055292732
17119.335188786412,15223.30376187608,-15895.308958924888,-16526.119890942562
17305.189943932288,15352.318030872111,-15784.93604480458,-16306.424594691349
17187.35154716391,15205.221200611735,-15868.41981034515,-16439.97626781181
16839.223127272504,14967.845674496377,-16109.99746441811,-16845.883947120186
16978.183922551147,15117.80352804703,-16002.418518354718,-16699.5917796602
17126.778319690027,15217.335846106513,-15882.836685518823,-16518.967332716864
17321.819641807037,15359.157664675437,-15773.35784117673,-16296.053385264086
17206.864620073393,15204.170668622335,-15860.395534085696,-16431.01321828523
16854.355258268744,14963.800008749964,-16108.835173706437,-16842.307668007335
17001.206219340114,15125.224307206192,-15999.579846808892,-16690.226398733426
17152.63928802482,15231.886831746917,-15873.001917958489,-16503.298759853693
17317.393996404888,15360.252900153746,-15772.754344076437,-16285.168085714353
17213.614846898898,15222.119119419947,-15861.33430735282,-16416.931619278388
16859.89849089366,14982.217846181136,-16115.04895866501,-16839.848976117253
17006.727100220574,15142.591612647966,-16009.25815215804,-16697.26719823685
17160.283584628534,15241.11810220696,-15878.053412205389,-16507.679701766934
17333.57665939053,15362.622185066008,-15763.143093960654,-16280.720088567745
17224.54484993754,15222.119119419947,-15843.162339110657,-16404.079366216585
16863.854749662252,14973.835942010395,-16095.111202610877,-16827.533164922377
16997.093498360337,15124.37494091689,-15991.108535660333,-16692.21570398995
17153.1980816362,15222.63320954242,-15866.05052543289,-16504.662216265468
17338.650505381884,15347.333591858578,-15752.660125811117,-16285.346899669994
17235.45250123173,15210.25034311418,-15831.271211060432,-16409.443784885858
16870.493217765477,14959.284956369993,-16092.8983799098,-16833.76930162541
16994.210123325603,15105.75593778562,-15994.863628728825,-16702.318692483746
17147.766607733563,15205.847049456484,-15865.692897521603,-16515.055777437185
17341.66799088335,15343.287926112169,-15755.78937003486,-16288.56555087156
17241.93450712377,15215.30183736108,-15831.42767327162,-16400.547790592645
16869.062706120338,14961.76600000453,-16092.272531065051,-16825.454452688035
16995.193600081635,15106.13591744136,-15999.490439831072,-16699.36826221565
17155.545014804007,15216.53118330612,-15868.75508651198,-16509.8478209791
17348.06058979757,15350.485187826776,-15751.49783509944,-16277.523789110635
17248.79649267155,15219.548668807587,-15831.092397104789,-16395.853924257033
16866.022868874417,14952.601784777857,-16100.430917791238,-16832.741121380463
16999.395728039235,15113.579048344976,-15999.870419486811,-16696.194314502995
17174.141666190822,15228.48936658971,-15857.355696839775,-16500.080108652128
17364.91380511687,15356.56486231862,-15742.758303017416,-16276.607367587969
17262.453408533744,15220.10746241897,-15830.131272093213,-16395.630406812477
16892.53203779841,14961.497779071067,-16093.233656076629,-16821.341731708257
17013.879658446273,15114.942504756753,-15988.180457136688,-16687.63359637661
17174.029907468546,15219.839241485506,-15857.780379984426,-16503.27640810924
17369.18298830783,15349.94874595985,-15741.238384394454,-16278.976652500232
17270.298870837556,15217.693474017797,-15817.770757409426,-16396.278607401684
16901.025700691425,14957.34035460238,-16078.28033903603,-16828.85191784524
17023.826184728885,15099.519801082588,-15981.58669252237,-16702.65396865058
17185.384593651845,15211.323226848035,-15856.126350894732,-16509.26667562326
17371.351107519997,15346.12659765799,-15739.606707049215,-16282.575283357535
17276.825580218505,15214.921857705338,-15816.966094609035,-16390.981243965776
16902.567971058845,14953.451151067156,-16082.258949549074,-16824.247458487447
17035.493795334554,15104.392481373843,-15984.850047212843,-16694.696747624486
17183.417640139778,15205.422366311834,-15861.311955608364,-16512.798251247197
17360.666973670362,15331.396798061944,-15763.16544570511,-16296.634530619924
17278.032574419092,15209.266866358146,-15833.506385505962,-16395.00455796773
16910.77106127394,14960.67076452622,-16093.211304332175,-16821.90052531964
17036.454920346132,15105.04068196305,-15999.311625875427,-16695.21083774696
17192.44774489972,15208.90923844686,-15869.157417912176,-16506.025672677242
17369.160636563378,15332.380274817977,-15774.095448743756,-16291.471277650748
17289.878998980403,15216.01709318365,-15843.765836210949,-16388.611959053513
16922.751596301987,14953.585261533888,-16097.368728800862,-16814.256228715923
17046.04381871746,15098.961007471204,-16001.83737299888,-16692.30511096777
17196.5604658795,15196.839296440996,-15872.33136562483,-16509.199620389893
17373.452171498797,15316.018797876692,-15765.98176550648,-16295.338129441516
17288.537894313085,15193.888866172894,-15832.99229538349,-16393.574046322592
16925.143232958704,14939.615421249322,-16094.686519466224,-16817.608990384222
17045.060341961427,15088.232170132658,-16005.279541644995,-16699.34591047119
17209.368015452386,15197.331034819012,-15876.153513926689,-16508.03732967822
17393.144058363923,15327.619353248998,-15766.182931206577,-16285.838638048011
17308.699167811774,15208.663369257853,-15837.127368107722,-16383.515761317703
16939.87303255475,14948.667877753722,-16105.303598082495,-16817.385472939666
17057.778484556497,15097.776365015074,-16013.616742326823,-16698.183619759515
17221.08032954697,15213.893677460395,-15874.18656041462,-16502.382338331026
17404.16346838039,15344.360809846024,-15768.1722364631,-16288.632606104924
17326.558211631564,15231.77507302464,-15826.398530769176,-16378.330156604072
16935.715608086062,14958.189720891682,-16098.061632878977,-16816.647865372644
17055.476254877598,15108.929885498274,-16008.989931224578,-16696.551942414277
17223.248448759132,15218.811061240562,-15873.627766803238,-16500.996530174798
17395.245122342723,15334.213117863312,-15774.83305631078,-16289.012585760664
17321.66317959585,15223.124947920436,-15833.99812388398,-16377.547845548135
16943.35990468978,14961.609537793343,-16103.247237592608,-16815.23970547196
17044.345086138856,15092.546056812533,-16026.64780934427,-16710.365320487657
17211.424375942275,15202.784860466109,-15885.854171020292,-16510.048986679198
17403.694081746828,15335.531870786175,-15768.21693995201,-16285.7939345591
17326.938191287303,15220.599200796987,-15831.204155827065,-16377.726659503778
16937.436692409123,14958.726162758609,-16102.062595136476,-16820.76058635242
17040.1206064368,15102.22436216168,-16016.50011736156,-16707.77251813084
17202.215457226688,15203.05308139957,-15881.562636084873,-16518.565001316667
17382.325814047555,15323.618390991496,-15780.97978603599,-16306.312835969073
17322.467842396243,15221.403863597376,-15840.435426287107,-16385.929749718875
16945.25980296848,14961.184854648693,-16109.61748476237,-16821.14056600816
17047.4743303626,15092.769574257083,-16028.12302447832,-16715.953256601486
17205.344701450435,15193.151258605869,-15890.212761189076,-16526.94690548741
17399.715471233783,15329.40749280542,-15762.763114304917,-16298.847353321
17330.648580866884,15223.415520598355,-15817.971923109524,-16378.687784515356
16939.113073243272,14949.584299276388,-16098.151039856795,-16824.202754998536
17054.001039743547,15092.233132390158,-16014.376701638306,-16712.86871586665
17221.4156057138,15200.214409853746,-15881.495580851506,-16516.17336465995
17410.176087638865,15335.665981252909,-15770.586224864272,-16291.426574161838
17345.356028718477,15235.507814348675,-15822.777548167414,-16366.774304720677
16944.566898890364,14950.925403943707,-16106.689406238724,-16813.250400215435
17041.260545404024,15083.203027630214,-16031.69930359117,-16708.487773953413
17206.618750884387,15192.413651038843,-15895.554828113894,-16518.9002774835
17412.25479987321,15336.068312653104,-15774.766001077414,-16295.293425952606
17363.43858998282,15247.197776698802,-15815.60263819726,-16352.625650480468
16966.851588112306,14959.284956369993,-16096.362900300372,-16802.23099019897
17070.496627151566,15096.435260347756,-16017.818870284424,-16706.051433807785
17248.394161271353,15216.82175598404,-15877.874598249746,-16508.41730933396
17433.667771061395,15343.98083019028,-15762.897224771648,-16290.308986939071
17373.96626162127,15238.25707891668,-15813.456870729551,-16359.599394750525
16987.594006966832,14966.862197740342,-16088.875065907843,-16802.007472754416
17085.09231628088,15102.358472628412,-16005.0783759449,-16699.68118663802
17250.383466527877,15207.434023312811,-15873.42660110314,-16512.93236171393
17436.506442607217,15338.012914420717,-15765.042992239356,-16298.467373665258
17378.23544481223,15235.172538181849,-15816.988446353487,-16366.550787276125
17003.642559485743,14970.706697786654,-16085.544655984004,-16799.928760520073
17104.136002556803,15105.733586041164,-16007.760585279537,-16696.373128458636
17264.75563821264,15214.385415838413,-15870.878502235237,-16501.80119297519
17432.30431464962,15336.336533586567,-15768.12753297419,-16286.59859735949
17372.446342998308,15233.384398625423,-15825.504460990962,-16351.508063257705
16999.015748383492,14957.139188902282,-16102.33081606994,-16794.921969762083
17096.603464675365,15093.08249867946,-16022.088053475389,-16694.719099368944
17259.07829512099,15207.366968079445,-15883.931920997136,-16500.638902263512
17435.724131551284,15330.882707939472,-15776.822361567303,-16292.544161384603
17383.57751173705,15231.618610813452,-15833.439330272597,-16360.560519762104
17003.620207741285,14965.811665750942,-16099.156868357286,-16795.12313546218
17089.741479127584,15091.428469589768,-16038.65069611677,-16708.934808842518
17250.830501416982,15194.022976639626,-15907.267142208477,-16521.671893795956
17441.088550220556,15327.708760226818,-15783.170256992613,-16295.673405608346
17394.999253153714,15238.122968449949,-15813.523925962918,-16348.915260900889
16994.94773089263,14951.48419755509,-16092.85367642089,-16798.65471108612
17077.15744699925,15076.98924267164,-16034.090940247886,-16717.4955269689
17242.80622515753,15199.700319731275,-15894.213723446575,-16517.737986771823
17436.931125751868,15335.33070508608,-15770.429762653086,-16291.761850328669
17385.20918908229,15242.168634196358,-15823.649266201171,-16352.603298736012
16989.3597947788,14962.4812558271,-16102.33081606994,-16801.113402976203
17076.218673732124,15095.384728358356,-16032.347504180374,-16712.779308888832
17239.02878034458,15211.367930336944,-15888.871656521756,-16515.5475158152
17422.983637211757,15337.051789409135,-15780.510399402428,-16300.523734155147
17387.578473994552,15252.249270945702,-15818.284847531895,-16353.13974060294
16991.997300624527,14970.080848941903,-16098.262798579071,-16803.348577421737
17081.180761001204,15102.313769139502,-16028.12302447832,-16713.829840878232
17242.538004224065,15210.451508814278,-15892.492639123517,-16522.476556596346
17430.762044282204,15338.281135354178,-15782.700870359047,-16304.927027812842
17388.830171684047,15250.930518022838,-15828.879574403712,-16358.705324972312
16996.579408237863,14974.6853082997,-16103.716624226168,-16804.51086813341
17074.072906264413,15093.708347524209,-16043.277507219018,-16733.387617276625
17255.99375438616,15216.508831561663,-15899.064051993377,-16528.645638066013
17443.189614199357,15346.685391269371,-15780.108068002231,-16307.22925749174
17403.984654424745,15260.54176813862,-15813.83685038529,-16352.335077802549
17015.064300902402,14984.430668882213,-16088.785658930025,-16790.161048193106
17097.00579607556,15110.628618076877,-16027.8324518004,-16710.812355376765
17265.78381845758,15221.336808364013,-15888.648139077204,-16516.106309426585
17455.34896318304,15349.61346979302,-15778.007004023437,-16301.238989977715
17418.200363898322,15273.326965967057,-15802.616274668728,-16336.599449706013
17014.930190435673,14978.328642645913,-16087.51160949607,-16789.714013303997
17087.729822126606,15093.641292290842,-16037.734274594102,-16720.602419448187
17260.307641066032,15219.056930429571,-15895.04073799142,-16516.709806526876
17435.098282706535,15346.104245913535,-15781.739745347471,-16297.774469587144
17401.280093345653,15270.532997910144,-15806.41607122613,-16331.592658948024
17000.558018750908,14980.720279302632,-16086.952815884688,-16784.193132423537
17080.711374367642,15100.302112138525,-16026.580754110904,-16711.01352107686
17249.958783383227,15213.848973971484,-15882.456705863084,-16513.89348672551
17439.188651941855,15347.13242615848,-15768.194588207554,-16293.840562563011
17422.938933722846,15277.506742180198,-15792.93796931958,-16323.948362344308
17031.33637086587,14985.794125293984,-16078.973243114144,-16776.638242797642
17102.169049044736,15098.379862115367,-16030.246440201574,-16709.314788498257
17263.638050989874,15211.323226848035,-15892.447935634607,-16517.425062349448
17460.243995218756,15347.221833136302,-15773.201378965545,-16296.478068408736
17444.061332233112,15273.483428178244,-15800.761079878936,-16333.447853737816
17052.3246589094,14976.428744367213,-16083.175371071742,-16791.83742902725
17135.58490700542,15099.340987126949,-16020.143451707776,-16714.20982053397
17306.016958477136,15217.693474017797,-15871.102019679787,-16511.70301576889
17476.471361693308,15335.33070508608,-15771.88262604268,-16305.865801079966
17457.248861461743,15266.956718797292,-15797.564780421828,-16337.04648459512
17070.787199829483,14981.502590358568,-16074.637004689814,-16783.56728357879
17147.900718200293,15105.711234296708,-16017.952980751155,-16710.544134443302
17313.348330658475,15220.465090330255,-15874.81240925937,-16505.69039651041
17499.94069337138,15353.770894261706,-15762.137265460166,-16291.828905562032
17494.285702024186,15288.123820796469,-15784.712527360029,-16321.221449520765
17096.156429786257,14990.935026518706,-16064.735181896112,-16779.633376554655
17157.199043893703,15102.023196461583,-16016.634227828292,-16720.35655025918
17322.736063329707,15216.754700750676,-15877.539322082916,-16524.577620575146
17504.45574575135,15343.734961001272,-15767.59109110726,-16305.70933886878
17495.582103202596,15282.982919571748,-15791.21688499652,-16326.295295512116
17102.05729032246,14997.551142877475,-16071.932443610722,-16781.17564692207
17170.185407422236,15109.488679109656,-16016.723634806114,-16719.350721758692
17341.891508327903,15227.595296811498,-15865.13410391022,-16515.726329770845
17510.9824551323,15345.143120901956,-15759.969146248002,-16309.822059848557
17496.923207869913,15279.11606778098,-15786.433611683084,-16333.537260715637
17094.18947627419,14986.956416005662,-16064.913995851755,-16777.241739897938
17150.91820370176,15091.920207967783,-16022.9821232536,-16718.45665198048
17332.928458801325,15212.887848959906,-15872.66664179166,-16512.418271591458
17512.792946433183,15335.263649852712,-15758.717448558504,-16298.355614942982
17497.392594503475,15268.007250786692,-15776.330623189286,-16317.93574308583
17090.993176817083,14973.791238521486,-16061.158902783263,-16775.18537940805
17161.088247428925,15092.188428901249,-16018.824698784912,-16713.963951344962
17353.872043355947,15226.075378188538,-15864.418848087653,-16502.20352437538
17538.788025234702,15349.792283748662,-15761.35495440423,-16296.120440497452
17519.163193602944,15277.529093924652,-15790.12164951821,-16317.913391341375
17118.86580215285,14979.5356368465,-16067.305632508474,-16771.74321076193
17175.616881324873,15092.456649834712,-16014.846088271868,-16719.775404903343
17348.954659575782,15214.273657116137,-15871.929034224637,-16518.252076894292
17532.775405976226,15344.293754612656,-15763.031335238378,-16308.391548203415
17526.449862295372,15285.821591117572,-15778.208169723532,-16323.747196644212
17118.99991261958,14984.721241560132,-16064.17638828473,-16783.924911490074
17176.667413314273,15093.641292290842,-16022.713902320136,-16732.20297482049
17359.90701435888,15213.044311171094,-15865.558787054872,-16521.917762984966
17526.002827406268,15320.533850256665,-15760.93027125958,-16327.077606568051
17528.819147207636,15274.533960167642,-15777.805838323337,-16337.940554373332
17133.573250004443,14981.100258958371,-16048.396056699285,-16784.908388246105
17190.123163476368,15085.013518931097,-16002.9773119661,-16735.73455044443
17359.795255636604,15205.400014567378,-15858.76385674046,-16533.94300150192
17532.685998998404,15332.916716684906,-15750.134378687666,-16325.445929222817
17521.867754682036,15271.181198499347,-15762.15961720462,-16335.146586316418
17132.790938948507,14976.741668789587,-16041.958754296156,-16792.172705194083
17201.410794426298,15089.908550966806,-15996.16002990723,-16738.573221990257
17372.11106683148,15212.954904193271,-15856.305164850375,-16531.283143911736
17534.89882169948,15331.866184695506,-15756.705791557526,-16325.960019345286
17528.305057085163,15274.39984970091,-15767.41227715162,-16334.52073747167
17141.53047103053,14986.82230553893,-16032.280448947007,-16780.99683296643
17198.192143224733,15091.964911456696,-15991.332053104885,-16731.912402142574
17372.312232531578,15216.911162961862,-15846.336286823307,-16521.76130077378
17545.42649333793,15341.633897022475,-15745.887547241158,-16315.521754684658
17543.07956017012,15285.866294606483,-15758.806855536326,-16320.08151055354
17143.58683152042,14988.029299739515,-16041.89169906279,-16777.577016064766
17196.046375757025,15085.527609053566,-16007.179439923695,-16736.338047544723
17374.56975872156,15209.57979078052,-15862.407191086671,-16527.84097526562
17543.638353781505,15325.875917181484,-15761.533768359874,-16323.680141410843
17543.52659505923,15267.850788575506,-15770.474466141995,-16329.581001947046
17144.30208734299,14971.24313965358,-16045.020943286532,-16784.461353357
17179.416677882276,15061.83475993094,-16014.063777215932,-16749.92790817355
17364.600880694496,15202.494287788188,-15866.743429511003,-16536.245231180816
17544.107740415067,15329.966286416804,-15758.0692479693,-16321.04263556512
17546.678191027426,15277.506742180198,-15766.83113179578,-16319.478013453248
17142.022209408547,14976.67461355622,-16054.833359102411,-16783.23200741196
17189.74318382063,15086.55578929851,-16022.9821232536,-16742.954163903494
17385.49976176021,15219.77218625214,-15864.575310298838,-16529.293838655216
17556.0435719542,15331.285039339667,-15759.522111358896,-16325.557687945093
17552.37788586353,15272.365840955476,-15770.429762653086,-16322.719016399267
17149.01830542306,14980.385003135802,-16050.251251489077,-16777.59936780922
17194.191180967235,15080.74433574013,-16020.009341241044,-16743.848233681707
17376.693174444816,15210.16093613636,-15864.798827743392,-16529.092672955117
17557.161159176965,15337.521176042696,-15752.995401977943,-16316.125251784952
17565.543063347704,15285.93334983985,-15760.25971892592,-16309.442080192815
17152.862805469373,14984.855352026863,-16055.235690502608,-16772.994908451426
17185.92103551877,15080.006728173106,-16023.205640698152,-16738.260297567882
17367.43955224032,15203.410709310856,-15867.592795800305,-16530.254963666794
17545.739417760306,15323.2160595913,-15753.777713033882,-16320.550897187102
17569.700487816393,15285.665128906385,-15744.07705594028,-16299.383795187929
17169.336041132934,14984.005985737562,-16024.166765709731,-16754.51001578689
17197.78981182454,15069.4567047902,-16009.794594024968,-16734.728721943942
17384.181008837346,15211.77026173714,-15845.37516181173,-16513.26763788076
17555.90946148747,15332.112053884512,-15738.422064593084,-16305.597580146505
17568.873473271546,15292.638873176442,-15751.900166499636,-16295.13696374142
17167.279680643045,14988.275168928523,-16041.109388006853,-16754.42060880907
17206.730509606663,15089.394460844334,-16010.55455333645,-16716.35558800168
17384.650395470904,15221.91795371985,-15859.300298607386,-16500.75066098579
17551.059132940667,15331.03917015066,-15764.975937005993,-16308.570362159058
17574.95314776339,15292.348300498525,-15767.099352729245,-16295.695757352802
17172.822913267963,14988.006947995062,-16052.106446278864,-16756.4546175545
17210.30678871951,15083.583007285955,-16019.31643716293,-16727.285591040327
17384.315119304076,15203.00837791066,-15871.012612701968,-16521.51543158477
17543.861871226058,15310.833193163062,-15777.470562156506,-16329.55865020259
17572.76267680677,15277.551445669107,-15778.521094145906,-16308.592713903514
17184.02113724007,14987.202285194671,-16059.348411482384,-16756.924004188062
17211.960817809202,15073.122390880872,-16038.069550760933,-16735.13105334414
17387.06438387208,15194.805287695564,-15889.028118732944,-16529.13737644403
17550.500339329283,15312.800146675128,-15781.918559303112,-16326.27294376766
17581.457505399885,15284.435782961344,-15771.256777197932,-16297.260379464671
17186.010442496594,14989.571570106931,-16043.925707808225,-16748.31858257277
17225.908306349316,15083.873579963874,-16010.487498103084,-16724.871602639152
17403.49291604673,15208.506907046663,-15857.08747590631,-16515.323998370648
17563.66551681346,15325.451234036833,-15755.45409386803,-16319.410958219882
17588.09597350311,15294.002329588217,-15743.630021051173,-16288.856123549478
17186.323366918965,14988.92336951773,-16027.184251211198,-16750.106722129192
17215.380634710866,15074.150571125814,-16015.986027239089,-16740.495472013412
17400.095450889523,15206.696415745786,-15862.85422597578,-16521.068396695664
17564.112551702565,15321.427920034876,-15755.87877701268,-16316.684045396334
17596.544932907218,15293.108259810002,-15756.281108412875,-16288.252626449184
17192.224227455168,14992.63375909731,-16040.684704862202,-16746.351629060704
17215.358282966412,15077.70449849421,-16015.78486153899,-16730.79481491981
17409.0585004161,15218.386378095913,-15850.56076652536,-16508.529068056236
17580.161104221475,15339.823405721594,-15742.870061739692,-16304.479992923736
17597.506057918796,15298.047995334626,-15737.460939581508,-16280.965957756756
17168.106695187893,14975.579378077911,-16034.917954792734,-16749.704390729
17204.763556094596,15070.440181546232,-16015.963675494631,-16734.08052135474
17416.144003408433,15218.408729840368,-15851.499539792483,-16511.725367513343
17584.922025790456,15336.2694783532,-15741.238384394454,-16312.236048249728
17623.09880532012,15310.587323974052,-15727.067378409787,-16273.522826853135
17205.03177702806,14990.935026518706,-16020.50107961906,-16744.854062182196
17214.665378888294,15065.209873343692,-16018.9811609961,-16746.329277316247
17403.135288135443,15200.840258698496,-15865.245862632495,-16526.142242687016
17581.301043188698,15328.64753349394,-15749.061494953812,-16314.359463972982
17616.616799428084,15304.64175994894,-15730.800119733824,-16270.55004484058
17201.991939782136,14991.002081752073,-16023.27269593152,-16737.03095162284
17223.539021437053,15075.536379282044,-16013.281466159997,-16732.717064942964
17403.649378257916,15198.023938897126,-15864.932938210124,-16522.78948101872
17569.946357005403,15318.924524655882,-15758.806855536326,-16322.517850699169
17609.44188945793,15294.605826688508,-15742.244212894942,-16282.396469401894
17212.094928275936,14991.739689319098,-16023.607972098347,-16738.59557373471
17227.65174241683,15071.17778911326,-16018.556477851447,-16737.232117322936
17407.806802726605,15202.404880810367,-15865.75995275497,-16526.07518745365
17573.72380181835,15320.019760134192,-15762.0702102268,-16327.189365290327
17615.320398249674,15302.540695970143,-15747.899204242136,-16283.961091513764
17192.87242804437,14985.01181423805,-16034.292105947983,-16746.575146505256
17191.710137332695,15054.861015660885,-16029.151204723265,-16747.960954661485
17409.72905274976,15206.316436090046,-15867.413981844662,-16526.812795020676
17591.918121804967,15335.33070508608,-15745.909898985614,-16321.84729836551
17636.375741526575,15317.449309521831,-15722.127642885169,-16275.132152453918
17235.16192855381,15008.950532549685,-16006.374777123308,-16733.857003910187
17244.929640880782,15086.108754409404,-15992.650806027748,-16729.632524208133
17429.420939614887,15217.380549595422,-15837.395589041183,-16510.048986679198
17587.96186303638,15325.22771659228,-15737.505643070415,-16317.823984363557
17628.731444922858,15306.251085549724,-15723.938134186046,-16276.450905376782
17230.44571047374,14997.417032410744,-16006.68770154568,-16736.203937077993
17237.59826869944,15076.944539182728,-15993.567227550417,-16736.60626847819
17421.419015099887,15211.546744292587,-15836.23329832951,-16519.526126328245
17568.20292093789,15315.996446132238,-15744.92642222958,-16334.319571771572
17621.981218097357,15309.894419895938,-15716.003264904411,-16280.340108912003
17223.226097014678,15004.368424936349,-15998.171686908208,-16735.667495211066
17235.519556465097,15078.442106061231,-15996.227085140596,-16743.624716237155
17498.84545789307,15224.35429386548,-15829.70658894856,-16517.69328328291
17727.235582737398,15331.083873639567,-15738.086788426255,-16326.831737379043
17815.86024950269,15319.12569035598,-15713.879849181158,-16267.80078027258
17443.39077989945,15011.49863141759,-15998.059928185932,-16723.061111338273
17465.74252435476,15083.404193330312,-15996.897637474256,-16736.002771377895
17661.9684889279,15220.018055441147,-15843.408208299665,-16518.095614683105
17823.370435639674,15333.27434459619,-15747.87685249768,-16323.61308617748
17889.531599227383,15322.880783424473,-15727.514413298895,-16268.806608773068
17504.388690517986,15009.285808716511,-16005.12307943381,-16724.40221600559
17516.19041159039,15078.88914095034,-16002.105593932343,-16733.767596932365
17712.997521519366,15221.001532197182,-15841.396551298683,-16513.088823925118
17874.287709508862,15331.977943417782,-15743.58531756226,-16324.03776932213
17927.171936890118,15323.08194912457,-15718.216087605488,-16264.31390813755
17532.484833298306,15008.816422082951,-15997.63524504128,-16719.93186711453
17531.00961816426,15075.98341417115,-16001.83737299888,-16736.74037894492
17727.32498971522,15219.436910085313,-15839.921336164634,-16515.234591392826
17888.481067237983,15333.78843471866,-15726.597991776229,-16314.672388395356
17927.708378757045,15316.622294976984,-15701.899314153114,-16256.06611443354
17526.919248928934,15004.144907491793,-15984.35830883483,-16711.43820422151
17541.85021422508,15081.548998540522,-15986.235855369076,-16727.397349762603
17739.439635209994,15228.221145656247,-15828.589001725792,-16505.48923081031
17899.053442365344,15345.187824390869,-15724.87690745317,-16308.548010414605
17957.056219226866,15337.968210931804,-15696.110212339188,-16241.939811937787
17558.65872605547,15021.959247822671,-15981.318471588907,-16701.692843638997
17537.737493245306,15074.08351589245,-16004.385471866784,-16739.78021619084
17720.865335567636,15215.123023405436,-15852.66183050416,-16524.354103130594
17891.699718439548,15333.833138207572,-15736.20924189201,-16325.356522244994
17954.12814070322,15334.03430390767,-15701.452279264007,-16257.295460378584
17559.172816177943,15021.758082122577,-15981.430230311184,-16712.712253655463
17543.99598169279,15076.139876382338,-16001.278579387495,-16746.530443016345
17731.348303717175,15216.911162961862,-15842.00004839898,-16526.298704898203
17890.984462616976,15328.245202093744,-15733.862308724203,-16329.648057180411
17945.433312110104,15318.41043453341,-15705.475593265965,-16265.207977915765
17559.977478978333,15009.531677905525,-15995.333015362385,-16720.13303281463
17552.400237607984,15069.233187345648,-16017.17066969522,-16756.231100109948
17741.27247825533,15203.76833722214,-15856.461627061562,-16531.864289267574
17909.558762259338,15317.046978121636,-15744.322925129289,-16331.27973452565
17984.884141073722,15322.41139679091,-15705.788517688336,-16254.970878955231
17582.083354244634,15003.317892946949,-15987.398146080752,-16711.818183877254
17551.729685274327,15046.21089055668,-16018.578829595905,-16757.706315244
17750.995487093387,15199.47680228672,-15851.790112470402,-16525.203469419896
17904.350805801252,15309.246219306737,-15741.707771028015,-16328.217545535274
17972.791847323402,15315.16943158739,-15708.895410167625,-16254.188567899297
17578.61883385406,15006.44713717069,-15991.01912868251,-16708.510125697867
17562.525577846238,15056.895024406318,-16012.365044637329,-16749.659687240088
17758.03628659681,15200.884962187403,-15857.288641606408,-16526.209297920384
17918.745329230467,15315.303542054124,-15747.9662594755,-16327.479937968248
17982.000766038986,15320.422091534389,-15710.68354972405,-16248.734742252202
17591.448735171405,15014.739634363608,-15985.341785590865,-16699.25650349337
17571.130999461533,15063.578195998454,-16003.670216044216,-16744.56348950428
17766.731115189927,15207.545782035088,-15835.294525062389,-16519.07909143914
17929.764739246933,15322.389045046457,-15731.761244745405,-16323.121347799462
17992.23786499952,15318.544545000144,-15692.690395437528,-16250.656992275355
17584.542046134717,14996.522962632533,-15981.720802989104,-16712.421680977546
17563.553758091184,15051.709419692686,-15993.522524061504,-16751.336068074237
17759.109170330667,15194.358252806456,-15822.79989991187,-16525.136414186527
17924.713245000035,15299.903190124416,-15727.78263423236,-16339.438121251836
17998.60811216928,15306.295789038631,-15693.517409982374,-16258.144826667884
17610.760642380792,15003.58611388041,-15972.087201128865,-16702.273988994835
17584.877322301545,15051.620012714866,-15993.9248554617,-16748.586803506234
17774.978908893932,15196.638130740896,-15825.102129590769,-16521.18015541794
17932.82692823731,15309.55914372911,-15719.333674828253,-16322.316684999072
18007.057071573385,15313.537754242154,-15694.545590227315,-16245.583146284003
17608.905447591,14994.86893354284,-15983.575997778891,-16703.63744540661
17584.027956012244,15040.913527120772,-16010.018111469522,-16754.286498342335
17775.80592343878,15188.837371925996,-15843.117635621744,-16528.37741713255
17931.083492169797,15302.540695970143,-15736.321000614287,-16335.593621205524
18004.41956572766,15314.007140875716,-15698.0548141068,-16254.099160921474
17616.616799428084,14999.093413244897,-15977.093991886852,-16702.855134350673
17590.57701713765,15045.607393456388,-16000.965654965124,-16751.64899249661
17787.13825787762,15190.089069615491,-15832.165280838644,-16519.861402495077
17937.632553295203,15295.589303444542,-15726.374474331677,-16330.60918219199
18011.438013486626,15305.22290530478,-15687.571845957262,-16246.633678273402
17614.269866260274,14989.772735807031,-15974.50118953004,-16700.239980249404
17583.737383334326,15032.464567716666,-15999.803364253446,-16752.811283208284
17784.05371714279,15183.227084067714,-15829.103091848268,-16523.772957774756
17940.493576585483,15291.655396420409,-15731.850651723224,-16333.89488862692
18020.870449646765,15304.84292564904,-15690.902255881105,-16244.867890461432
17643.662410219004,14994.35484342037,-15971.26018658402,-16695.3896517026
17615.454508716408,15035.303239262492,-16005.614817811826,-16754.778236720354
17812.418080856572,15188.367985292434,-15843.452911788574,-16523.728254285845
17969.304975188374,15301.780736658662,-15743.898241984636,-16333.783129904645
18052.699333751123,15318.74571070024,-15703.083956609244,-16245.180814883808
17665.79063722976,15000.859201056865,-15981.139657633265,-16692.327462712226
17623.38937799804,15039.192442797716,-16010.085166702887,-16747.804492450297
17819.928266993556,15191.094898115982,-15848.102074635275,-16520.151975172994
17983.386574195218,15311.07906235207,-15739.584355304762,-16320.729711142743
18057.14733089773,15322.65726597992,-15701.653444964106,-16234.40727405635
17666.505893052326,15011.141003506304,-15971.416648795206,-16682.515046896344
17631.279543790763,15056.447989517212,-15997.54583806346,-16736.226288822447
17823.68336006205,15196.77224120763,-15840.480129776017,-16510.27250412375
17971.786018822913,15298.584437201553,-15744.814663507304,-16327.52464145716
18059.40485708772,15316.331722299066,-15706.548476999818,-16234.049646145064
17676.944157712955,15004.748404592086,-15976.714012231114,-16674.401363659068
17637.00159037132,15047.060256845984,-16008.20762016864,-16740.4507685245
17822.655179817102,15186.579845736009,-15848.1914816131,-16522.40950136298
17960.69955357308,15288.012062074193,-15747.340410630752,-16340.175728818862
18049.30186859392,15311.481393752263,-15696.669005950573,-16241.559832282048
17663.711924995416,14997.417032410744,-15975.149390119244,-16685.286663208804
17635.504023492816,15042.724018421652,-16007.179439923695,-16743.222384836958
17830.90297352111,15190.446697526775,-15839.496653019984,-16519.481422839337
17969.37203042174,15289.107297552502,-15750.469654854496,-16336.934725872845
18051.917022695183,15312.21900131929,-15708.62718923416,-16237.827090958011
17669.07634366469,14994.243084698091,-15988.158105392233,-16686.806581831763
17625.87042163258,15026.317837991455,-16027.720693078125,-16761.59551877922
17813.312150634785,15170.15131356136,-15864.62001378775,-16538.547460859714
17966.153379220174,15274.39984970091,-15756.862253768712,-16345.741313188231
18066.28919437995,15310.497916996232,-15701.944017642025,-16236.106006634953
17667.64583201955,14993.460773642157,-15981.005547166533,-16687.521837654334
17631.458357746407,15042.03111434354,-16018.668236573723,-16760.41087632309
17825.650313574115,15186.825714925018,-15856.483978806018,-16531.484309611835
17973.730620590522,15293.532942954656,-15753.665954311606,-16343.550842231614
18072.681793294167,15326.27824858168,-15698.993587373923,-16237.268297346627
17688.857637507634,15010.962189550664,-15969.047363882944,-16674.088439236693
17641.53899449575,15039.907698620284,-16015.159012694245,-16752.96774541947
17847.175043484574,15196.48166852971,-15845.08458913381,-16521.493079840315
17989.75682136498,15296.058690078104,-15748.525053086883,-16340.019266607676
18082.941243999157,15319.572725245089,-15702.391052531131,-16237.40240781336
17695.898437011056,15002.759099335564,-15978.92683493219,-16681.62097711813
17644.668238719492,15039.3489050089,-16023.943248265175,-16761.66257401259
17845.38690392815,15194.224142339724,-15860.306127107877,-16535.79819629171
17992.126106277243,15290.090774308535,-15758.65039332514,-16355.57608074857
18081.331918398373,15312.64368446394,-15706.369663044175,-16247.326582351518
17704.906190026544,15004.390776680802,-15979.798552965947,-16681.82214281823
17645.361142797607,15026.988390325118,-16032.928649536212,-16766.959937448497
17842.77174982688,15184.501133501666,-15872.107848180278,-16540.335600416136
18002.60907442678,15287.31915799608,-15767.769905062903,-16353.206795836306
18112.557305402435,15323.88661192496,-15707.666064222583,-16238.564698525037
17719.099547755664,15002.78145108002,-15980.0220704105,-16677.91058753855
17656.648773747536,15023.702683890187,-16026.089015732889,-16761.863739712684
17864.363534970707,15181.729517189207,-15861.33430735282,-16531.394902634012
18015.01429259948,15287.609730673998,-15756.124646201688,-16346.858900411
18119.575753161404,15320.444443278844,-15702.033424619844,-16236.64244850188
17731.393007206083,14998.333453933414,-15977.049288397944,-16679.25169220587
17659.30863133772,15010.15752675027,-16037.846033316378,-16771.989079950938
17862.038953547355,15172.118267073423,-15869.515045823462,-16539.66504808248
18007.86173437378,15279.004309058704,-15766.138227717664,-16355.017287137189
18112.15497400224,15310.184992573855,-15706.414366533088,-16241.470425304226
17731.281248483807,14997.81936381094,-15986.839352469367,-16681.531570140312
17666.617651774606,15020.819308855453,-16042.450492674172,-16773.218425895982
17875.472351964992,15181.036613111091,-15868.643327789703,-16540.55911786069
18029.721740451067,15286.670957406874,-15764.84182653926,-16354.6596592259
18134.841994624378,15329.921582927893,-15706.593180488728,-16232.328561822003
17752.224833038432,15014.471413430145,-15982.123134389298,-16672.81438980274
17679.82753274769,15022.719207134154,-16045.043295030988,-16775.006565452404
17876.321718254294,15181.684813700298,-15875.080630192831,-16540.26854518277
18017.204763556096,15286.626253917964,-15773.089620243269,-16358.057124383107
18117.13941301577,15319.528021756176,-15718.68547423905,-16252.623945787424
17748.067408569743,15014.091433774403,-15990.437983326672,-16686.82893357622
17683.090887438168,15033.179823539236,-16037.197832727175,-16780.03570795485
17887.96697711551,15185.305796302056,-15868.397458600695,-16551.623231366066
18019.663455446174,15275.606843901498,-15778.49874240145,-16374.887987957954
18119.30753222794,15318.164565344405,-15720.227744606464,-16254.769713255137
17741.540699188794,15006.4918406596,-15986.727593747091,-16696.037852291807
17683.49321883836,15025.02143681305,-16040.304725206464,-16793.357347650213
17883.742497413456,15182.265959056134,-15868.95625221208,-16563.402600694015
18025.07257760437,15285.151038783912,-15763.388963149664,-16386.71206077481
18140.36287550484,15332.536737029164,-15697.093689095223,-16263.822169759533
17765.23354831142,15022.808614111977,-15957.53621548846,-16691.74631735639
17688.231788662888,15029.625896170844,-16012.163878937232,-16791.926836005074
17882.423744490596,15180.969557877728,-15850.158435125166,-16565.57071990618
18018.92584787916,15282.02179456017,-15753.174215933588,-16390.0201189542
18127.622381165314,15326.233545092768,-15700.513505996883,-16260.983498213707
17758.908004630568,15023.367407723355,-15966.566320248405,-16683.364413185645
17685.013137461323,15031.369332238355,-16023.339751164884,-16787.65765281411
17884.72597416949,15182.355366033957,-15854.829949716324,-16563.71552511639
18016.578914711343,15277.21616950228,-15758.538634602864,-16387.315557875107
18134.81964287992,15328.84869919404,-15693.29389253782,-16259.530634824114
17777.929339162034,15032.531622950031,-15949.936622373656,-16682.49269515189
17695.898437011056,15036.800806140996,-16019.875230774313,-16794.13965870615
17898.628759220694,15193.441831283788,-15850.650173503182,-16561.681516370954
18046.776121470462,15293.868219121485,-15750.469654854496,-16379.224226382285
18165.44153278369,15342.170338889402,-15686.655424434592,-16253.07098067653
17782.779667708834,15025.78139612453,-15959.63727946726,-16685.219607975436
17705.241466193376,15030.765835138063,-16021.55161160846,-16792.37387089418
17910.296369826363,15187.697432958776,-15853.42178981564,-16562.955565804907
18044.92092668068,15283.988748072235,-15750.82728276578,-16389.550732320637
18158.244271069085,15330.860356195017,-15676.597139429708,-16256.31198362255
17792.681490502535,15026.317837991455,-15940.39242749124,-16680.279872450814
17716.97613203241,15035.035018329028,-16006.911218990232,-16796.106612218216
17929.205945635553,15199.67796798682,-15839.764873953449,-16556.182987234948
18066.155083913214,15289.777849886164,-15748.413294364607,-16382.062897928108
18175.768038722043,15334.123710885491,-15687.124811068155,-16256.781370256112
17811.859287245188,15027.92716359224,-15951.143616574243,-16681.218645717938
17727.861431582147,15028.731826392632,-16015.203716183152,-16797.782993052362
17938.660733540146,15199.253284842169,-15840.502481520472,-16561.905033815507
18089.84793303584,15307.189858816846,-15736.45511108102,-16373.52453154618
18195.415222098258,15345.299583113145,-15676.597139429708,-16242.386846826894
17820.777633282858,15037.605468941389,-15941.0629798249,-16662.711401308945
17732.577649662217,15038.633649186331,-16010.174573680708,-16788.194094681035
17934.45860558255,15194.268845828636,-15843.341153066296,-16563.335545460646
18074.87226425079,15294.02468133267,-15746.602803063728,-16382.711098517311
18199.438536100213,15351.155740160437,-15668.282290492332,-16242.40919857135
17845.00692427241,15054.03400111604,-15913.480927167053,-16656.229395416904
17741.786568377804,15045.585041711933,-15991.98025369409,-16783.522580089877
17943.779283020413,15204.52829653362,-15825.012722612944,-16553.27726045576
18079.119095697297,15289.464925463788,-15726.620343520684,-16380.85590372752
18205.13823093632,15347.37829534749,-15653.23956647391,-16237.648277002369
17829.18188919805,15037.583117196931,-15924.701502883614,-16663.33725015369
17721.9829227904,15026.720169391654,-16011.918009748222,-16800.28638843136
17917.58303851879,15181.707165444752,-15848.526757779928,-16572.52211243178
18057.169682642187,15275.942120068326,-15748.837977509258,-16392.367052122005
18183.948777192687,15337.565879531609,-15684.375546500152,-16250.321716108529
17825.851479274213,15037.963096852673,-15943.812244392902,-16664.320726909726
17729.18018450501,15037.203137541192,-16015.449585372162,-16786.003623724417
17928.378931090705,15193.419479539334,-15843.721132722038,-16552.271431955272
18062.936432711653,15289.174352785869,-15746.334582130265,-16379.246578126738
18172.996422409586,15336.492995797757,-15679.34640399771,-16236.888317690888
17817.022540214366,15038.097207319404,-15938.00079083452,-16650.306183136247
17721.89351581258,15038.231317786136,-16009.191096924676,-16783.27671090087
17927.64132352368,15202.226066854724,-15833.32757155032,-16551.690286599434
18064.56811005689,15290.806030131109,-15742.378323361674,-16383.873389228987
18196.08577443192,15356.006068707236,-15674.496075450908,-16239.92815493681
17831.66293283259,15050.45772200319,-15933.642200665738,-16661.750276297364
17734.499899685372,15044.489806233623,-15999.713957275626,-16786.65182431362
17944.382780120704,15211.68085475932,-15822.934010378602,-16553.03139126675
18074.760505528517,15304.194725059837,-15728.184965632556,-16379.38068859347
18198.544466322,15360.297603642655,-15657.419342687052,-16234.049646145064
17837.787310813346,15048.580175468944,-15916.476060924062,-16652.943688981974
17730.141309516588,15033.380989239336,-15994.953035706643,-16791.300987160324
17936.49261432798,15198.560380764056,-15816.027321341911,-16555.378324434558
18075.207540417618,15298.249161034724,-15714.72921547046,-16380.833551983063
18195.68344303172,15359.18001641989,-15639.448540144986,-16236.329524079503
17827.77372929737,15050.860053403385,-15903.065014250877,-16651.893156992573
17721.669998368026,15031.078759560438,-15999.870419486811,-16798.27473143038
17941.11942543023,15211.09970940348,-15825.191536568587,-16555.914766301485
18079.163799186208,15303.568876215086,-15725.726273742472,-16384.409831095916
18208.04395771551,15362.979812977292,-15653.91011880757,-16237.514166535637
17850.974840041978,15059.21960582967,-15898.929941526643,-16642.237203387882
17719.90421055606,15030.4976142046,-16000.473916587103,-16797.648882585632
17931.016436936432,15198.91800867534,-15833.8863651617,-16564.609594894602
18069.15021767023,15291.096602809026,-15739.606707049215,-16391.67414804389
18199.304425633483,15355.357868118032,-15669.399877715095,-16242.588012526992
17837.228517201962,15051.5529574815,-15920.029988292456,-16650.06031394724
17717.244352965874,15026.541355436011,-16017.21537318413,-16802.007472754416
17927.283695612394,15196.079337129517,-15840.65894373166,-16563.961394305396
18081.68954630965,15298.07034707908,-15733.415273835097,-16386.399136352436
18217.00700724209,15365.773781034206,-15656.704086864484,-16232.194451355272
17843.710523094003,15054.07870460495,-15916.945447557622,-16644.07004643322
17725.89447807008,15025.69198914671,-16008.855820757846,-16799.571132608788
17941.25353589696,15205.511773289654,-15831.964115138546,-16560.65333612601
18077.219197418595,15302.764213414695,-15729.68253251106,-16386.823819497087
18212.22373392865,15368.61245258003,-15648.702162349484,-16230.428663543304
17854.372305199184,15057.096190106417,-15914.084424267345,-16642.326610365704
17729.31429497174,15028.26243975907,-16014.041425471476,-16802.409804154613
17945.947402232578,15200.616741253942,-15835.339228551296,-16561.212129737392
18090.607892347325,15299.769079657684,-15730.710712756005,-16379.894778715943
18215.91177176377,15362.689240299374,-15655.251223474888,-16229.042855387075
17852.67357262058,15055.039829616528,-15911.111642254788,-16637.38687484108
17729.023722293823,15026.273134502548,-16013.102652204354,-16796.93362676306
17947.199099922072,15199.05211914207,-15843.60937399976,-16562.977917549364
18085.377584144782,15297.735070912251,-15739.740817515947,-16384.81216249611
18218.7504433096,15363.493903099765,-15663.2978514788,-16228.841689686978
17872.521921696894,15067.333289066946,-15916.81133709089,-16629.966095681917
17746.815710880248,15035.414997984768,-16017.684759817692,-16788.529370847868
17954.821044781333,15201.86843894344,-15842.201214099076,-16554.61836512308
18076.30277589593,15289.129649296958,-15753.487140355965,-16388.880179986976
18207.194591426207,15356.162530918424,-15676.775953385348,-16233.02146590012
17859.312040723806,15062.102980864403,-15917.325427213364,-16627.641514258565
17740.691332899492,15035.25853577358,-16009.0793382024,-16787.836466769753
17952.474111613526,15203.142488377393,-15841.195385598588,-16556.250042468317
18085.735212056068,15291.74480339823,-15747.407465864118,-16384.879217729478
18220.583286354933,15359.18001641989,-15666.650613147094,-16222.985532639686
17875.897035109643,15064.02523088756,-15907.356549186296,-16619.3713688101
17751.17430104903,15031.749311894097,-15999.64690204226,-16781.712088788998
17954.508120358958,15196.124040618426,-15829.8854029042,-16552.830225566653
18080.46020036461,15287.252102762712,-15735.225765135976,-16386.645005541446
18213.676597318245,15359.09060944207,-15657.352287453688,-16233.244983344674
17861.591918658247,15061.633594230843,-15903.869677051269,-16625.13811887957
17725.872126325623,15019.657018143776,-16002.73144277709,-16791.971539493985
17939.26423064044,15191.564284749544,-15831.070045360331,-16556.987650035342
18077.554473585424,15287.676785907364,-15732.25298312342,-16385.90739797442
18217.543449109013,15364.2762141557,-15655.899424064091,-16223.700788462256
17869.571491428793,15068.65204198981,-15909.122336998264,-16617.15854610903
17759.042115097298,15048.177844068749,-16005.994797467569,-16780.683908544055
17952.719980802536,15207.366968079445,-15835.003952384468,-16548.6057458646
18072.078296193875,15289.353166741512,-15738.39971284863,-16381.079421172077
18219.666864832267,15363.628013566497,-15659.118075265656,-16219.655122715849
17886.268244536906,15072.451838547213,-15903.176772973156,-16610.855354172632
17740.758388132857,15027.480128703131,-16008.45348935765,-16788.730536547966
17939.97948646301,15192.324244061025,-15841.485958276506,-16557.658202369
18066.80328450242,15277.059707291091,-15750.290840898851,-16389.081345687075
18213.833059529432,15356.341344874068,-15665.130694524134,-16220.34802679396
17878.623947933193,15068.22735884516,-15903.57910437335,-16609.6707117165
17739.573745676727,15032.799843883497,-16009.571076580416,-16786.51771384689
17951.714152302047,15204.930627933816,-15834.288696561898,-16549.07513249816
18073.53115958347,15280.434820703844,-15746.893375741647,-16386.265025885707
18217.81167004248,15366.220815923312,-15661.66617413356,-16216.995265125664
17873.86302636421,15066.953309411208,-15902.52857238395,-16608.441365771458
17726.117995514633,15022.741558878608,-16014.421405127216,-16792.686795316553
17945.813291765844,15200.952017420772,-15843.028228643923,-16554.46190291189
18094.76531681601,15296.50572496721,-15741.730122772473,-16378.508970559717
18229.32281843696,15372.412249137433,-15652.010220528868,-16210.848535400455
17878.57924444428,15066.573329755463,-15896.560656614383,-16605.915618648007
17730.11895777213,15013.6443988853,-16012.879134759802,-16795.52546686238
17948.7860737784,15194.291197573091,-15838.736693708504,-16556.115932001583
18084.885845766767,15284.324024239068,-15740.053741938324,-16384.18631365136
18221.879687533343,15356.542510574163,-15656.637031631117,-16221.286800061083
17891.29738703935,15081.124315395871,-15885.205970431089,-16596.974920865887
17738.523213687327,15025.759044380076,-16007.537067834985,-16788.93170224806
17944.53924233189,15192.458354527756,-15844.70460947807,-16562.7096966159
18068.09968568083,15275.048050290115,-15754.82824502328,-16397.642063813455
18214.36950139636,15351.89334772746,-15668.796380614804,-16227.455881530748
17883.54133171336,15062.17003609777,-15911.379863188253,-16615.48216527488
17735.528079930315,15011.476279673134,-16029.59823961237,-16804.667330344597
17941.722922530524,15185.752831191165,-15858.719153251548,-16569.214054252392
18067.89851998073,15280.97126257077,-15757.398695635642,-16398.58083708058
18215.576495596943,15356.117827429514,-15672.23854926092,-16231.97093391072
17885.441229992062,15073.189446114236,-15902.640331106226,-16610.117746605607
17729.11312927164,15021.109881533372,-16022.69155057568,-16799.191152953048
17945.612126065746,15198.24745634168,-15847.23035660152,-16561.79327509323
18070.893653737745,15276.366803212975,-15754.805893278826,-16403.654683071934
18216.02353048605,15361.057562954136,-15671.322127738254,-16237.201242113262
17898.6734627096,15084.678242764265,-15897.946464770612,-16612.732900706877
17748.402684736575,15025.580230424432,-16012.365044637329,-16808.958865280016
17955.46924537054,15202.15901162136,-15837.484996019006,-16576.65718515601
18074.24641540604,15286.000405073217,-15743.987648962457,-16418.563296623623
18218.437518887225,15368.008955479736,-15659.073371776743,-16248.26535561864
17905.960131402033,15087.94159745474,-15882.724926796547,-16619.61723799911
17759.623260453136,15034.073893317449,-16004.16195442223,-16820.447661930044
17963.135893718707,15204.640055255895,-15827.382007525208,-16591.05170858523
18085.444639378147,15290.336643497543,-15733.88466046866,-16422.027817014197
18228.31698993647,15373.306318915646,-15648.657458860573,-16248.06418991854
17888.726936426992,15081.392536329337,-15883.574293085849,-16629.943743937463
17728.30846647125,15025.535526935522,-16006.017149212024,-16830.595353912755
17939.711265529546,15202.494287788188,-15836.345057051783,-16594.560932464712
18075.945147984643,15301.64662619193,-15736.231593636465,-16423.815956570623
18231.22271671566,15391.210066224345,-15648.031610015823,-16248.667687018837
17901.310968555328,15104.548943585032,-15876.578197071338,-16617.6726362315
17734.45519619646,15047.350829523904,-15996.830582240893,-16820.894696819152
17939.286582384895,15219.705131018774,-15831.271211060432,-16592.325758019182
18073.128828183275,15309.93912338485,-15727.49206155444,-16419.993808268762
18225.36655966837,15402.318883218632,-15631.983057496913,-16241.135149137395
17896.170067330608,15122.676208338287,-15864.865882976756,-16615.61627574161
17737.51738518684,15061.41007678629,-15990.728556004591,-16819.888868318663
17948.69666680058,15231.596259068998,-15815.468527730529,-16587.72129866139
18085.48934286706,15326.769986959696,-15712.449337536018,-16414.092947732563
18232.921449294263,15409.42673795542,-15624.741092293394,-16242.878585204911
17900.93098889959,15119.32344666999,-15855.321688094342,-16617.89615367605
17744.222908523432,15061.79005644203,-15976.959881420122,-16820.782938096876
17964.611108852758,15242.570965596551,-15793.832039097791,-16584.03326082626
18097.089898239363,15323.484280524764,-15697.339558284231,-16419.859697802032
18241.23629823164,15399.703729117362,-15613.118185176634,-16245.381980583905
17918.365349574728,15124.71021708372,-15835.741559951492,-16613.314046062715
17739.260821254353,15053.989297627128,-15966.096933614845,-16826.415577699612
17947.802597022368,15221.515622319654,-15800.872838601214,-16594.695042931442
18090.183209202674,15312.286056552655,-15695.886694894636,-16422.027817014197
18241.862147076383,15401.201295995868,-15605.295074617276,-16243.8844137054
17913.49266928347,15122.117414726905,-15840.100150120275,-16616.46564203091
17745.206385279464,15050.83770165893,-15972.266015084508,-16832.584659169275
17951.89296625769,15223.929610720828,-15806.281960759396,-16602.071118601696
18083.365927143805,15310.45321350732,-15712.315227069286,-16434.63420088699
18241.169242998272,15398.832011083605,-15618.66141780155,-16253.361553354447
17929.608277035746,15124.397292661346,-15852.32655433733,-16612.531735006778
17759.869129642146,15054.659849960788,-15988.046346669957,-16830.125967279193
17979.385611937716,15239.285259161625,-15810.707606161548,-16586.938987605452
18109.182191989683,15329.966286416804,-15706.14614559962,-16415.50110763325
18251.56280416999,15409.71731063334,-15623.2882289038,-16247.080713162508
17933.49748057097,15128.71117934122,-15852.57242352634,-16607.390833782058
17758.773894163834,15060.627765730354,-15985.83352396888,-16821.81111834182
17968.477960643526,15235.105482948482,-15814.283885274395,-16589.285920773258
18095.63703484977,15322.970190402291,-15714.371587559175,-16423.145404236962
18248.99235355763,15413.785328124206,-15621.835365514204,-16245.225518372716
17924.668541511124,15128.532365385578,-15851.633650259217,-16607.413185526515
17748.357981247664,15057.78909418453,-15984.40301232374,-16825.38739745467
17963.98526000801,15232.669142802852,-15814.596809696772,-16593.130420819572
18096.665215094712,15321.070292123592,-15710.34827355722,-16425.53704089368
18249.84171984693,15415.729929891815,-15615.353359622164,-16238.944678180776
17934.056274182352,15139.3729614464,-15836.590926240797,-16593.644510942046
17758.259804041365,15062.12533260886,-15968.577977249382,-16816.491403161457
17967.405076909672,15243.35327665249,-15800.470507201018,-16583.362708492605
18105.829430321388,15328.98280966077,-15695.417308261074,-16418.049206501153
18270.85235963492,15416.691054903396,-15601.919961204523,-16232.194451355272
17949.8366057678,15131.058112509028,-15818.84364114328,-16587.631891683566
17766.08291460072,15052.357620281891,-15949.422532251185,-16812.110461248216
17981.039641027408,15237.787692283118,-15777.850541812248,-16581.507513702814
18101.91787504171,15315.325893798576,-15692.109250081689,-16424.9782472823
18252.635687903847,15393.936979047892,-15614.503993332864,-16250.366419597438
17947.35556213326,15120.441033892756,-15831.85235641627,-16601.51232499031
17754.929394117524,15038.87951837534,-15971.237834839563,-16826.75085386644
17963.717039074545,15215.793575739095,-15799.196457767066,-16593.95743536442
18095.078241238385,15305.245257049237,-15697.540723984328,-16426.878145560997
18258.17892052876,15407.14686002098,-15599.953007692458,-16235.234288601196
17952.876443013723,15129.918173541806,-15825.41505401314,-16588.838885884154
17752.493053971895,15036.107902062882,-15977.317509331408,-16826.549688166346
17950.26128891245,15215.547706550087,-15813.903905618658,-16601.10999359012
18084.975252744585,15303.479469237263,-15719.06545389479,-16430.85675607404
18239.381103441847,15397.982644794303,-15625.99278998289,-16240.9339834373
17938.146643417676,15125.492528139655,-15847.65503974617,-16590.00117659583
17757.589251707705,15039.25949803108,-15994.01426243952,-16826.773205610898
17973.8423793128,15223.706093276274,-15818.597771954272,-16591.766964407798
18100.91204654122,15312.576629230576,-15709.789479945835,-16427.43693917238
18247.31597272348,15397.692072116384,-15613.811089254748,-16246.387809084394
17953.79286453639,15127.593592118454,-15820.542373721884,-16588.28009227277
17764.384182022117,15037.650172430298,-15966.633375481772,-16828.337827722768
17964.946385019586,15212.217296626246,-15806.17020203712,-16605.267418058804
18100.509715141023,15297.802126145618,-15704.022729876368,-16437.808148599644
18266.49376946613,15396.95446454936,-15612.112356676143,-16244.510262550148
17955.35748664826,15123.95025777224,-15832.23233607201,-16587.162505050004
17748.134463803108,15025.02143681305,-15994.707166517635,-16835.088054548272
17966.868635042745,15214.117194904948,-15823.537507478895,-16598.986577866865
18102.364909930817,15305.088794838048,-15716.62911374916,-16429.515651406724
18264.77268514308,15401.514220418245,-15620.449557357975,-16235.614268256935
17965.28166118642,15134.61203987742,-15841.955344910068,-16579.71937414639
17766.440542512006,15043.618088199866,-15995.288311873474,-16828.918973078606
17967.293318187396,15221.828546742028,-15828.030208114413,-16596.460830743414
18095.05588949393,15309.3132745401,-15725.547459786829,-16427.39223568347
18265.644403176837,15405.693996631384,-15623.064711459248,-16233.177928111309
17968.254443198974,15144.066827782017,-15836.903850663168,-16567.5600251627
17763.08778084371,15048.468416746668,-15986.347614091352,-16817.541935150854
17969.997879266488,15231.77507302464,-15821.548202222371,-16592.43751674146
18102.543723886454,15321.584382246065,-15720.674779495572,-16425.872317060508
18272.79696140253,15424.022427084736,-15618.080272445712,-16224.058416373542
17961.75008556248,15146.100836527448,-15837.686161719104,-16569.169350763485
17750.66021092656,15040.98058235414,-15992.36023334983,-16825.5215079214
17961.392457651193,15228.4446631008,-15824.878612146213,-16592.23635104136
18088.372717901795,15315.951742643329,-15718.841936450235,-16422.05016875865
18259.85530136291,15416.087557803105,-15619.019045712836,-16224.661913473836
17970.0425827554,15151.532310430088,-15821.995237111478,-16555.378324434558
17755.309373773263,15045.40622775629,-15983.419535567706,-16815.70909210552
17959.17963495012,15221.314456619555,-15822.0846440893,-16592.638682441557
18090.160857458217,15306.429899505363,-15720.585372517751,-16427.906325805943
18260.771722885576,15413.71827289084,-15614.414586355042,-16226.315942563528
17966.73452457601,15148.80539760654,-15823.291638289886,-16554.126626745063
17754.75058016188,15043.685143433231,-15987.398146080752,-16811.886943803664
17962.375934407228,15224.287238632112,-15827.42671101412,-16583.5638741927
18100.35325292984,15308.866239650994,-15725.368645831186,-16418.96562802382
18270.47237997918,15421.04964507218,-15623.154118437067,-16220.7280064497
17964.164073963653,15145.720856871709,-15834.579269239815,-16550.28212669875
17743.440597467496,15033.001009583597,-16002.01618695452,-16815.530278149876
17954.731637803514,15212.776090237629,-15841.105978620766,-16593.08571733066
18088.73034581308,15304.619408204486,-15732.700018012529,-16419.077386746096
18263.69980140922,15410.521973433732,-15626.640990572096,-16216.391768025373
17979.251501470986,15150.414723207325,-15829.99716162648,-16545.588260363133
17751.978963849422,15037.046675330004,-15998.50696307504,-16815.08324326077
17966.08632398681,15222.007360697671,-15833.46168201705,-16584.815571882198
18099.30272094044,15305.02173960468,-15728.900221455126,-16418.563296623623
18276.59675795993,15412.935961834904,-15623.221173670432,-16214.73773893568
17991.902588832687,15152.80635986404,-15830.600658726771,-16540.93909751643
17763.64657445509,15035.683218918231,-16002.038538698976,-16814.971484538495
17967.472132143037,15216.86645947295,-15841.441254787596,-16591.454039985423
18099.749755829544,15305.088794838048,-15734.108177913213,-16420.507898391235
18283.972833630185,15411.036063556205,-15624.294057404288,-16212.59197146797
17996.70821389058,15145.497339427156,-15825.191536568587,-16532.66895206797
17765.65823145607,15029.514137448568,-16003.044367199464,-16813.540972893356
17972.88125430122,15217.648770528886,-15841.620068743236,-16587.989519594852
18106.00824427703,15310.430861762869,-15731.984762189955,-16414.24940994375
18277.13319982686,15414.724101391328,-15629.881993518116,-16215.363587780428
17999.770402880957,15160.316546001024,-15827.31495229184,-16525.918725242464
17766.105266345177,15045.4509312452,-16000.16099216473,-16803.169763466092
17979.832646826824,15234.501985848188,-15832.008818627455,-16576.23250201136
18116.02182579301,15315.057672865114,-15728.721407499484,-16409.73435756378
18282.89994989633,15411.14782227848,-15627.75857779486,-16210.02152085561
18004.911304105677,15154.683906398286,-15823.559859223353,-16529.18207993294
17773.36958329315,15035.996143340606,-16000.518620076016,-16813.85389731573
17973.641213612704,15215.882982716916,-15838.826100686323,-16593.264531286302
18102.364909930817,15300.08200408006,-15736.633925036662,-16423.10070074805
18280.173037072786,15407.303322232166,-15637.436883144008,-16215.676512202805
18006.632388428734,15159.020144822616,-15827.583173225305,-16524.64467580851
17761.523158731838,15028.418901970255,-16002.418518354718,-16811.976350781482
17967.494483887494,15209.44568031379,-15843.676429233126,-16590.60467369612
18103.81777332041,15296.4610214783,-15736.87979422567,-16424.464157159826
18291.86299942291,15411.952485078871,-15623.33293239271,-16212.16728832332
18020.04343510192,15159.33306924499,-15819.08951033229,-16525.628152564546
17778.823408940247,15035.705570662689,-16002.709091032635,-16813.22804847098
17981.8443038278,15214.787747238606,-15839.362542553252,-16591.38698475206
18104.55538088744,15293.59999818802,-15735.40457909162,-16426.475814160804
18281.67060395129,15408.465612943844,-15632.407740641564,-16219.699826204756
18006.542981450915,15155.443865709767,-15832.902888405668,-16526.7010362984
17757.857472641168,15033.649210172798,-16007.760585279537,-16809.540010635854
17974.35646943527,15219.436910085313,-15842.961173410557,-16585.530827704766
18110.366834445816,15309.827364662571,-15729.63782902215,-16411.701311075845
18288.82316217699,15425.877621874526,-15614.794566010782,-16200.477325973194
18017.94237112312,15176.409802008844,-15811.60167593976,-16510.876001224042
17770.955594891977,15053.609317971388,-15997.009396196532,-16799.951112264527
17965.907510031167,15228.399959611888,-15841.776530954425,-16591.409336496512
18097.268712195008,15308.419204761887,-15741.797178005836,-16431.10262526305
18282.43056326277,15423.19541253989,-15622.550621336772,-16214.715387191223
18004.307807005385,15167.960842604738,-15816.74257716448,-16523.79530951921
17759.824426153235,15035.280887518036,-16011.64978881476,-16827.600220155742
17961.727733818025,15217.268790873146,-15842.670600732636,-16609.33543554967
18095.279406938484,15303.255951792711,-15727.559116787806,-16442.099683535063
18283.14581908534,15421.116700305549,-15619.779005024317,-16236.128358379408
18026.883068905245,15171.00067985066,-15808.785356138393,-16546.728199330355
17774.867150171656,15034.655038673289,-15996.271788629509,-16844.81106338633
17969.014402510453,15216.285314117113,-15840.346019309283,-16622.165336867016
18093.468915637604,15304.64175994894,-15732.521204056884,-16451.979154584307
18276.99908936013,15420.222630527334,-15616.80622301176,-16240.129320636908
18007.45940297358,15164.451618725256,-15808.159507293643,-16545.700019085412
17759.220929052943,15034.4985764621,-15996.45060258515,-16840.296011006358
17956.7879982934,15214.474822816232,-15833.37227503923,-16615.03513038577
18090.809058047424,15305.60288496052,-15730.576602289271,-16447.91113709344
18280.083630094963,15424.983552096315,-15607.172621151522,-16228.97580015371
18026.65955146069,15187.138639347391,-15785.740707604971,-16518.02855944974
17771.447333269996,15044.199233555704,-15972.78010520698,-16821.498193919444
17975.675222358135,15220.666256030352,-15812.65220792916,-16604.663920958512
18112.222029235607,15314.722396698286,-15696.132564083644,-16434.54479390917
18291.63948197836,15428.045741086691,-15579.858789427137,-16218.515183748626
18031.129900351752,15179.24847355467,-15762.316079415808,-16517.514469327267
17783.249054342396,15051.21768131467,-15945.82390139388,-16815.731443849974
17980.65966137167,15226.097729932992,-15796.514248432428,-16605.267418058804
18111.23855247957,15303.03243434816,-15694.947921627514,-16446.033590559196
18303.48590653967,15422.658970672965,-15576.081344614193,-16228.21584084223
18039.26593533349,15175.895711886373,-15757.577509591283,-16516.910972226975
17779.985699651923,15037.985448597128,-15957.44680851064,-16821.788766597365
17993.28839698892,15231.506852091175,-15796.000158309957,-16601.10999359012
18126.974180576108,15312.710739697308,-15700.446450763518,-16441.138558523486
18312.158383388327,15429.81152889866,-15597.583722780197,-16230.518070521126
18055.89563320823,15188.993834137182,-15773.44724815455,-16516.285123382226
17792.23445561343,15046.83673940143,-15971.8189801954,-16828.449586445044
17975.451704913583,15222.655561286874,-15823.291638289886,-16619.170203110007
18115.39597694826,15314.1636030869,-15713.142241614134,-16445.74301788128
18308.15742113083,15431.778482410728,-15598.544847791774,-16228.908744920343
18047.267859848485,15194.470011528732,-15782.36559419222,-16516.262771637772
17783.293757831307,15052.089399348426,-15980.35734657733,-16827.309647477825
17985.08530677382,15227.371779366946,-15820.497670232971,-16614.498688518845
18114.9265903147,15314.811803676106,-15717.724349227472,-16450.369828983527
18310.12437464289,15446.307116306678,-15604.669225772528,-16228.506413520148
18063.13759841175,15208.19398262429,-15780.778620335892,-16506.405652332982
17799.9011039616,15059.063143618485,-15980.133829132776,-16816.200830483536
17990.539132420916,15234.993724226204,-15822.46462374504,-16603.501630246836
18118.972256061108,15315.12472809848,-15712.181116602556,-16438.903384077952
18316.405214834835,15438.662819702962,-15594.253312856355,-16219.900991904857
18071.027764204475,15204.595351766988,-15761.60082359324,-16493.97808241583
17795.430755070538,15043.014591099572,-15967.505093515529,-16819.95592355203
17990.047394042896,15220.196869396792,-15821.950533622568,-16615.079833874683
18128.136471287784,15309.402681517922,-15719.177212617064,-16446.12299753702
18326.19527890626,15433.320752778143,-15606.010330439847,-16222.091462861476
18068.05498219192,15190.647863226875,-15785.181913993589,-16501.197695874893
17786.490057288418,15031.3469804939,-15987.912236203225,-16824.582734654276
17990.673242887646,15226.231840399723,-15826.219716813532,-16606.63087447058
18124.649599152755,15308.150983828424,-15712.806965447304,-16437.025837543708
18296.28864482506,15416.735758392306,-15608.603132796665,-16225.846555929968
18060.45538907712,15188.613854481442,-15773.916634788113,-16493.73221322682
17785.03719389882,15033.02336132805,-15973.137733118265,-16813.764490337908
17986.13583876322,15220.286276374612,-15812.629856184703,-16603.367519780102
18122.816756107422,15304.731166926762,-15698.703014696004,-16437.517575921724
18311.688996754765,15425.452938729875,-15588.41950755352,-16216.123547091907
18080.39314513125,15199.812078453551,-15759.633870081172,-16484.947977655887
17798.738813249925,15039.281849775536,-15969.337936560863,-16813.22804847098
18000.753879636988,15227.416482855857,-15814.619161441227,-16594.80680165372
18129.09759629936,15307.50278323922,-15708.962465400991,-16431.90728806344
18324.02715969409,15430.035046343211,-15586.586664508184,-16208.792174910568
18085.53404635597,15203.120136632935,-15755.655259568128,-16474.82263741763
17794.961368436976,15037.113730563373,-15973.584768007371,-16810.836411814264
18001.6479494152,15223.750796765184,-15814.216830041032,-16596.14790632104
18135.758416147044,15303.434765748354,-15700.357043785698,-16421.379616424994
18321.881392226387,15426.145842807991,-15590.632330254595,-16205.72998592019
18091.077278980887,15203.567171522043,-15751.743704288448,-16469.36881177054
17803.924417963557,15034.78914914002,-15963.213558580108,-16801.314568676302
17989.220379498052,15210.227991369724,-15819.55889696585,-16598.62894995558
18122.213259007127,15296.97511160077,-15712.024654391367,-16433.650724130955
18324.34008411647,15429.520956220742,-15584.172676107011,-16200.030291084087
18080.72842129808,15194.470011528732,-15751.989573477456,-16467.35715476956
17793.70967074748,15027.480128703131,-15959.570224233894,-16801.04634774284
17982.067821272354,15204.237723855702,-15814.686216674592,-16595.94674062094
18116.49121242657,15290.895437108928,-15705.92262815507,-16424.508860648737
18300.13314487137,15415.28289500271,-15587.36897556412,-16203.472459730205
18077.91210149671,15203.522468033132,-15749.39677112064,-16463.44559948988
17789.060507900776,15038.45483523069,-15967.885073171268,-16803.527391377378
17981.598434638792,15218.364026351455,-15818.46366148754,-16599.99240636735
18124.336674730384,15307.391024516945,-15705.050910121312,-16428.554526395146
18302.92711292829,15420.893182860991,-15588.643024998071,-16210.937942378278
18077.53212184097,15196.951055163272,-15750.179082176575,-16472.922739138932
17810.406423855595,15046.993201612617,-15963.951166147132,-16806.500173389933
18006.520629706458,15229.20462241228,-15811.042882328378,-16597.19843831044
18133.16561379023,15301.55721921411,-15708.850706678715,-16436.02000904322
18325.502374828146,15431.219688799343,-15597.762536735838,-16213.39663426836
18104.421270420706,15219.81688974105,-15751.967221733,-16456.941241853387
17813.356854123696,15048.624878957857,-15962.25243356853,-16793.84908602823
18001.156211037185,15224.086072932014,-15816.250838786464,-16592.571627208188
18131.60099167836,15310.877896651971,-15702.748680442415,-16421.58078212509
18311.06314791002,15425.363531752057,-15598.634254769597,-16209.373320266406
18095.39116566076,15207.322264590535,-15757.845730524748,-16464.719648923834
17804.32674936375,15034.252707273092,-15969.025012138489,-16800.107574475715
17988.549827164392,15215.01126468316,-15821.592905711284,-16595.34324352065
18118.279351982997,15302.183068058855,-15717.232610849454,-16433.6283723865
18299.99903440464,15421.295514261188,-15610.793603753282,-16215.564753480525
18083.88001726628,15208.14927913538,-15771.480294642484,-16462.886805878497
17804.505563319395,15043.5510329665,-15983.64305301226,-16796.911275018607
17987.56635040836,15226.20948865527,-15832.411150027652,-16590.17999055147
18120.380415961798,15308.732129184262,-15724.318113841788,-16424.7770815822
18306.637502507867,15425.81056664116,-15617.923810234524,-16209.68624468878
18102.521372142004,15214.564229794054,-15766.115875973212,-16453.834349374098
17812.462784345484,15047.730809179642,-15979.128000632289,-16788.663481314597
17996.46234470157,15229.338732879012,-15831.60648722726,-16585.352013749125
18116.178288004197,15301.736033169753,-15723.692264997038,-16424.128880992994
18307.66568275281,15421.608438683565,-15601.830554226704,-16206.378186509392
18096.39699416125,15212.664331515352,-15744.054704195823,-16449.565166183136
17801.890409218122,15038.588945697422,-15956.552738732427,-16795.905446518118
17995.232998756528,15222.230878142223,-15806.393719481674,-16594.53858072026
18127.22004976512,15309.894419895938,-15691.952787870505,-16429.359189195537
18323.647180038355,15438.327543536132,-15578.093001615169,-16209.038044099576
18102.16374423072,15215.257133872168,-15738.712637271004,-16455.376619741513
17803.52208656336,15036.152605551792,-15951.143616574243,-16799.928760520073
17995.210647012074,15216.73234900622,-15796.424841454607,-16598.986577866865
18122.90616308524,15298.405623245912,-15696.467840250474,-16435.885898576485
18311.800755477045,15425.922325363435,-15581.713984216927,-16212.480212745691
18109.048081522957,15222.901430475884,-15733.147052901631,-16451.330953995104
17804.81848774177,15038.87951837534,-15959.436113767162,-16801.426327398578
17992.059051043874,15213.446642571287,-15821.101167333269,-16605.490935503356
18130.77397713351,15301.199591302824,-15710.080052623756,-16438.009314299743
18321.03202593709,15426.592877697096,-15598.209571624944,-16214.916552891322
18114.47955542559,15218.073453673536,-15745.887547241158,-16446.614735915035
17813.915647735077,15037.270192774558,-15967.438038282162,-16800.107574475715
17999.23396101403,15215.704168761276,-15826.353827280263,-16603.74749943584
18137.52420395901,15301.02077734718,-15708.560134000796,-16434.433035186892
18331.135014430885,15429.118624820549,-15589.045356398268,-16211.6755499453
18120.26865723952,15218.341674607002,-15738.153843659622,-16439.9315643229
17820.598819327213,15042.232280043636,-15965.269919069997,-16788.95405399252
18009.158135552185,15218.341674607002,-15825.8844406467,-16594.33741502016
18142.9333261172,15305.826402405071,-15717.947866672024,-16427.168718238918
18320.42852883679,15417.696883403883,-15611.844135742682,-16212.189640067774
18117.720558371613,15215.01126468316,-15754.291803156351,-16434.72360786481
17821.448185616515,15042.20992829918,-15977.719840731605,-16787.188266180547
18012.667359431667,15225.67304678834,-15824.968019124037,-16586.111973060604
18140.809910393946,15308.486259995254,-15708.336616556242,-16418.63035185699
18329.078653941,15432.851366144583,-15596.957873935447,-16197.817468383011
18132.1821370342,15228.15409042288,-15742.31126812831,-16422.161927480927
17818.38599662614,15033.917431106262,-15974.657651741223,-16781.33210913326
18002.787888382423,15213.58075303802,-15829.505423248462,-16586.804877138722
18146.688419185688,15306.116975082992,-15710.907067168602,-16418.272723945705
18336.54413658907,15430.325619021132,-15597.494315802374,-16197.750413149646
18133.277372512504,15227.327075878036,-15740.50077682743,-16420.977285024797
17824.1080432067,15043.21575679967,-15961.939509146156,-16777.755830020407
18014.61196119928,15230.098692190491,-15816.563763208838,-16580.456981713414
18146.33079127441,15314.901210653929,-15707.531953755852,-16412.841250043064
18323.15544166034,15431.286744032712,-15604.08808041669,-16196.699881160246
18135.624305680318,15238.659410316875,-15741.886584983658,-16415.67992158889
17828.399578142118,15051.68706794823,-15965.336974303364,-16774.000736951915
18008.442879729617,15226.410654355366,-15827.42671101412,-16582.893321859043
18140.07230282692,15312.397815274931,-15712.270523580377,-16413.377691909995
18321.076729426,15435.645334201496,-15600.60120828166,-16197.549247449548
18138.485328970597,15250.01409650017,-15733.325866857276,-16415.43405239988
17830.321828165273,15055.732733694642,-15954.92106138719,-16781.041536455337
18003.301978504896,15216.307665861568,-15822.37521676722,-16594.76209816481
18137.747721403568,15304.865277393494,-15713.388110803142,-16426.051131016153
18326.28468588408,15432.38197951102,-15594.834458212194,-16208.009863854631
18142.01690459453,15235.329000393034,-15729.079035410768,-16426.78873858318
17829.315999664785,15042.12052132136,-15949.221366551086,-16794.09495521724
18004.061937816376,15213.401939082378,-15809.433556727596,-16607.03320587077
18132.428006223203,15297.802126145618,-15704.134488598644,-16442.569070168625
18313.186563633277,15429.900935876482,-15595.46030705694,-16226.15948035234
18129.946962588663,15241.83335802953,-15728.25202086592,-16435.036532287184
17813.312150634785,15050.83770165893,-15954.67519219818,-16795.681929073566
17987.164019008163,15224.756625265674,-15818.709530676548,-16609.156621594026
18118.413462449727,15312.330760041566,-15712.53874451384,-16440.53506142319
18299.32848207098,15438.3945987695,-15605.85386822866,-16223.700788462256
18118.68168338319,15242.30274466309,-15742.132454172666,-16433.382503197492
17808.819449999268,15047.59669871291,-15957.312698043908,-16789.89282725964
17992.774306866446,15226.20948865527,-15814.55210620786,-16600.752365678833
18143.31330577294,15321.182050845868,-15695.529066983352,-16429.06861651762
18331.693808042262,15448.92227040795,-15578.651795226551,-16210.848535400455
18147.180157563707,15257.323116937056,-15711.68937822454,-16423.25716295924
17830.411235143096,15061.767704697577,-15942.024104836477,-16790.27280691538
18015.818955399867,15245.901375520394,-15806.237257270486,-16599.99240636735
18156.54553849048,15334.70485624133,-15691.505752981397,-16430.29796246266
18339.785139535088,15458.24294784581,-15584.709117973938,-16210.312093533528
18157.50666350206,15270.421239187866,-15714.192773603532,-16410.807241297633
17840.871851548178,15067.668565233776,-15942.784064147958,-16776.906463731106
18022.636237458737,15241.945116751804,-15803.935027591591,-16585.016737582297
18156.746704190577,15333.073178896091,-15692.735098926438,-16417.848040801055
18344.0319709816,15457.125360623046,-15580.149362105056,-16201.01376784012
18166.715582217646,15266.844960075015,-15702.078128108757,-16402.380633637982
17835.485081134448,15059.063143618485,-15942.337029258852,-16781.063888199795
18020.37871126875,15237.430064371832,-15807.377196237709,-16594.695042931442
18170.40362005277,15335.733036486274,-15686.364851756676,-16422.340741436572
18355.610174609446,15463.227386859346,-15581.445763283464,-16203.941846363765
18181.93712019171,15280.770096870674,-15702.0557763643,-16399.787831281166
17856.853348833723,15075.826951959963,-15937.86668036779,-16775.140675919138
18027.888897405734,15242.705076063285,-15805.969036337025,-16593.353938264125
18168.57077700744,15327.46289103781,-15686.208389545489,-16421.334912936083
18346.736532060688,15451.62683148704,-15578.629443482096,-16206.087613831474
18172.817608453945,15265.079172263047,-15709.878886923658,-16407.208610440328
17853.72410460998,15059.577233740954,-15938.224308279076,-16781.645033555633
18033.18626084164,15231.685666046818,-15797.855353099749,-16601.51232499031
18167.7884659515,15313.962437386805,-15686.141334312122,-16436.668209632422
18339.09223545697,15431.91259287746,-15579.389402793577,-16229.73575946519
18170.314213074947,15246.080189476035,-15706.14614559962,-16430.29796246266
17857.00981104491,15044.914489378274,-15930.982343075557,-16795.52546686238
18033.007446886,15224.10842467647,-15795.776640865404,-16613.24699082935
18157.73018094661,15302.74186167024,-15694.545590227315,-16452.69441040688
18328.653970796346,15424.782386396217,-15594.923865190014,-16236.396579312872
18163.720448460637,15259.267718704668,-15708.1578026006,-16418.608000112534
17856.898052322635,15059.711344207686,-15925.975552317566,-16785.243664412938
18022.971513625565,15224.06372118756,-15789.719318118016,-16603.613388969112
18151.15876807675,15310.900248396429,-15675.591310929218,-16436.712913121333
18330.39740686386,15431.219688799343,-15576.774248692303,-16228.528765264604
18177.958509678665,15262.26285246168,-15689.67290993606,-16410.33785466407
17858.350915712228,15059.063143618485,-15911.402214932708,-16782.293234144836
18024.022045614965,15232.669142802852,-15776.21886446701,-16602.89813314654
18155.22678556762,15317.002274632729,-15663.744886367904,-16434.880070075997
18341.997962236164,15445.502453506286,-15562.826760152191,-16215.944733136266
18195.012890698064,15277.104410780004,-15675.792476629314,-16393.10465968903
17867.515130938904,15068.897911178818,-15910.731662599048,-16768.144579904627
18029.14059509523,15230.72454103524,-15784.734879104482,-16599.925351133985
18157.59607047988,15309.201515817824,-15679.569921442262,-16444.603078914057
18340.500395357656,15442.887299405016,-15568.459399754933,-16229.825166443012
18176.46094280016,15269.63892813193,-15687.169514557068,-16412.461270387324
17847.420912673584,15060.22543433016,-15921.616962148782,-16790.98806273795
18014.79077515492,15230.791596268607,-15793.116783275222,-16619.125499621096
18154.176253578215,15319.103338611523,-15681.402764487597,-16451.01802957273
18340.4780436132,15442.328505793634,-15577.444801025964,-16231.143919365875
18186.183951638217,15278.669032891874,-15688.756488413394,-16404.973435994798
17854.640526132647,15070.84251294643,-15929.127148285765,-16784.059021956804
18011.862696631277,15231.708017791274,-15805.61140842574,-16615.213944341416
18157.998401880075,15325.65239973693,-15683.302662766298,-16438.411645699936
18338.242869167672,15441.121511593046,-15571.923920145504,-16215.900029647357
18173.33169857641,15263.06751526207,-15694.277369293854,-16392.925845733385
17851.37717144217,15056.135065094835,-15931.049398308922,-16776.928815475563
18016.46715598907,15223.34846536499,-15801.521039190417,-16606.921447148496
18156.299669301472,15318.3657310445,-15685.29196802282,-16431.12497700751
18341.37211339141,15443.714313949862,-15577.690670214972,-16212.63667495688
18193.291806375004,15276.947948568815,-15685.023747089355,-16386.063860185608
17862.083657036266,15065.500446021611,-15921.795776104424,-16771.407934595103
18018.83644090133,15231.86448000246,-15800.135231034188,-16602.406394768524
18162.714619960145,15318.70100721133,-15686.253093034398,-16432.711950863835
18350.603383851456,15440.987401126316,-15573.376783535095,-16218.87281165991
18196.063422687464,15265.794428085615,-15682.252130776898,-16390.80243001013
17863.022430303386,15053.698724949209,-15927.383712218252,-16777.64407129813
18016.154231566696,15221.940305464304,-15811.042882328378,-16615.973903652895
18161.32881180392,15320.690312467852,-15686.118982567668,-16430.141500251473
18341.37211339141,15442.90965114947,-15577.958891148435,-16210.692073189268
18200.71258553417,15280.054841048104,-15689.851723891705,-16379.581854293569
17868.766828628402,15065.321632065969,-15925.81909010638,-16769.306870616303
18023.10562409229,15226.231840399723,-15806.304312503851,-16613.604618740632
18161.26175657055,15313.962437386805,-15692.019843103868,-16444.938355080885
18343.137901203383,15442.90965114947,-15586.586664508184,-16231.568602510526
18200.55612332298,15279.78662011464,-15695.193790816522,-16395.13866843446
17866.48695069396,15060.091323863428,-15937.509052456506,-16782.449696356023
18029.252353817505,15227.86351774496,-15817.502536475962,-16619.728996721387
18170.26950958604,15313.873030408984,-15696.266674550376,-16446.90530859295
18348.4799681282,15437.075845846635,-15590.922902932514,-16228.841689686978
18210.41324262777,15280.211303259292,-15695.663177450084,-16386.868522986
17878.78041014438,15064.539321010034,-15931.20586052011,-16771.74321076193
18033.02979863045,15227.86351774496,-15814.954437608058,-16610.073043116696
18165.97797465062,15312.040187363647,-15704.335654298742,-16438.076369533108
18338.667552312323,15430.52678472123,-15602.165830393533,-16228.327599564504
18206.926370492743,15281.17242827087,-15695.529066983352,-16384.18631365136
17868.140979783653,15054.995126127616,-15938.157253045709,-16781.33210913326
18031.46517651858,15224.421349098844,-15809.299446260864,-16613.80578444073
18169.59895725238,15307.100451839024,-15693.96444487148,-16444.714837636333
18340.567450591025,15424.871793374035,-15593.13572563359,-16237.06713164653
18203.84182975791,15278.490218936233,-15685.090802322722,-16384.990976451754
17863.424761703583,15055.531567994543,-15927.33900872934,-16774.090143929738
18020.62458045776,15219.503965318676,-15801.588094423783,-16608.95545589393
18166.91674791774,15312.286056552655,-15673.95963358398,-16435.327104965105
18356.705410087758,15440.67447670394,-15564.771361919806,-16222.024407628109
18229.926315537254,15294.628178432964,-15655.072409519244,-16368.204816365816
17874.935910098066,15061.521835508567,-15905.0543195074,-16769.440981083033
18034.505013764505,15229.428139856833,-15784.511361659928,-16606.876743659584
18185.40164058228,15324.22188809179,-15662.62729914514,-16433.270744475216
18361.10870374545,15445.457750017376,-15555.517739715307,-16216.123547091907
18235.13427199534,15291.297768509125,-15646.981078026423,-16363.734467474756
17886.268244536906,15059.666640718777,-15901.18746771663,-16767.026992681862
18030.548754995914,15216.575886795032,-15790.345166962765,-16614.699854218943
18166.11208511735,15301.22194304728,-15672.797342872303,-16439.417474200425
