%OpenBCI Raw EEG Data
%Number of channels = 8
%Sample Rate = 250 Hz
%Board = OpenBCI_GUI$BoardCytonSerial
Sample Index, EXG Channel 0, EXG Channel 1, EXG Channel 2, EXG Channel 3, EXG Channel 4, EXG Channel 5, EXG Channel 6, EXG Channel 7, Accel Channel 0, Accel Channel 1, Accel Channel 2, Other, Other, Other, Other, Other, Other, Other, Analog Channel 0, Analog Channel 1, Analog Channel 2, Timestamp, Other, Timestamp (Formatted)
246.0, -34945.43253724963, -18230.619219615368, -35010.11848570329, -49984.26735213606, -53791.529392186334, -187500.02235174447, -29604.036164764904, -24185.2580529759, 0.0, 0.0, 0.0, 192.0, 0.0, 0.0, 0.0, 0.0, 0.0, 0.0, 0.0, 0.0, 0.0, 1.663499078605855E9, 0.0, 2022-09-18 16:04:38.605
247.0, -34630.33999566317, -18043.758635969, -35042.8190878414, -50031.18366374775, -53626.72998031736, -187500.02235174447, -29577.169367929622, -24205.799306130328, 0.0, 0.0, 0.0, 192.0, 0.0, 0.0, 0.0, 0.0, 0.0, 0.0, 0.0, 0.0, 0.0, 1.6634990786058805E9, 0.0, 2022-09-18 16:04:38.605
248.0, -34506.31016568067, -17253.535062496074, -35269.71164580723, -50258.389146135945, -53652.546245163234, -187500.02235174447, -29711.25748291701, -24418.252637178022, 0.65, -0.678, 0.392, 192.0, 20.0, 80.0, 234.0, 208.0, 12.0, 64.0, 0.0, 0.0, 0.0, 1.6634990786059008E9, 0.0, 2022-09-18 16:04:38.605
249.0, -34489.47930210582, -16075.128743067831, -35672.33361868067, -50662.12870623216, -53559.60769171807, -187500.02235174447, -29972.728189555193, -24794.231330660743, 0.65, -0.678, 0.392, 192.0, 0.0, 0.0, 0.0, 0.0, 0.0, 0.0, 0.0, 0.0, 0.0, 1.6634990786059167E9, 0.0, 2022-09-18 16:04:38.605
0.0, 0.0, 0.0, 0.0, 0.0, 0.0, 0.0, 0.0, 0.0, 0.656, -0.6900000000000001, 0.386, 192.0, 20.0, 128.0, 234.0, 112.0, 12.0, 16.0, 0.0, 0.0, 0.0, 1.6634990787064984E9, 0.0, 2022-09-18 16:04:38.706
1.0, -33363.331361214085, -10083.006034255748, -38721.33507982911, -49672.30405477334, -70285.14984669088, -187500.02235174447, -28811.778582546543, -23269.55178613088, 0.656, -0.6900000000000001, 0.386, 192.0, 0.0, 0.0, 0.0, 0.0, 0.0, 0.0, 0.0, 0.0, 0.0, 1.663499078723559E9, 0.0, 2022-09-18 16:04:38.723
2.0, -33179.42120783582, -8441.04688656889, -39073.62092418921, -50025.79689333402, -69503.1517151775, -187500.02235174447, -29083.88871954545, -23583.884368405863, 0.656, -0.6900000000000001, 0.386, 192.0, 0.0, 0.0, 0.0, 0.0, 0.0, 0.0, 0.0, 0.0, 0.0, 1.6634990787266157E9, 0.0, 2022-09-18 16:04:38.726
3.0, -33976.797339534445, -9411.112595929217, -38763.66928382746, -49715.062941916345, -69446.2441737943, -187500.02235174447, -28890.367316051404, -23336.24939158552, 0.656, -0.6900000000000001, 0.386, 192.0, 0.0, 0.0, 0.0, 0.0, 0.0, 0.0, 0.0, 0.0, 0.0, 1.6634990787305455E9, 0.0, 2022-09-18 16:04:38.730
4.0, -34173.29152504105, -11336.67067726501, -38368.356331390896, -49326.12023664954, -70254.17032887583, -187500.02235174447, -28598.162960787173, -22980.633137301582, 0.656, -0.6900000000000001, 0.386, 192.0, 0.0, 0.0, 0.0, 0.0, 0.0, 0.0, 0.0, 0.0, 0.0, 1.6634990787355485E9, 0.0, 2022-09-18 16:04:38.735
5.0, -33730.861095292705, -11146.189111016884, -38494.80014977457, -49460.14129640356, -70319.01273954067, -187500.02235174447, -28654.444653325638, -23080.56778676126, 0.656, -0.6900000000000001, 0.386, 192.0, 0.0, 0.0, 0.0, 0.0, 0.0, 0.0, 0.0, 0.0, 0.0, 1.6634990787385986E9, 0.0, 2022-09-18 16:04:38.738
6.0, -33388.924108615414, -10041.677658757884, -38775.31454268868, -49738.57697708333, -70237.49592751217, -187500.02235174447, -28852.23524001065, -23328.33687404834, 0.656, -0.6900000000000001, 0.386, 192.0, 0.0, 0.0, 0.0, 0.0, 0.0, 0.0, 0.0, 0.0, 0.0, 1.6634990787415843E9, 0.0, 2022-09-18 16:04:38.741
7.0, -33213.32880417452, -8427.56878466234, -39112.31179384134, -50069.33809153296, -69420.91964732643, -187500.02235174447, -29092.628251627477, -23623.424604347303, 0.656, -0.6900000000000001, 0.386, 192.0, 0.0, 0.0, 0.0, 0.0, 0.0, 0.0, 0.0, 0.0, 0.0, 1.6634990787456045E9, 0.0, 2022-09-18 16:04:38.745
8.0, -34007.44158118267, -9491.578875968324, -38754.92975174543, -49715.822901227824, -69393.49405687978, -187500.02235174447, -28874.028190854573, -23340.250353843017, 0.664, -0.676, 0.388, 192.0, 20.0, 192.0, 234.0, 224.0, 12.0, 32.0, 0.0, 0.0, 0.0, 1.663499078750604E9, 0.0, 2022-09-18 16:04:38.750
9.0, -34185.696743213746, -11379.5860266192, -38377.02880823956, -49355.42337363045, -70189.48438042216, -187500.02235174447, -28586.450646692592, -23012.41731791703, 0.664, -0.676, 0.388, 192.0, 0.0, 0.0, 0.0, 0.0, 0.0, 0.0, 0.0, 0.0, 0.0, 1.663499078754608E9, 0.0, 2022-09-18 16:04:38.754
10.0, -33733.38684241615, -11138.813035346633, -38483.40076010236, -49468.970235463414, -70218.7204621697, -187500.02235174447, -28633.18814434864, -23089.32967058774, 0.664, -0.676, 0.388, 192.0, 0.0, 0.0, 0.0, 0.0, 0.0, 0.0, 0.0, 0.0, 0.0, 1.6634990787585964E9, 0.0, 2022-09-18 16:04:38.758
11.0, -33358.81630883412, -9991.654454666908, -38747.71013828637, -49723.60130829827, -70097.05991709947, -187500.02235174447, -28806.7494400441, -23313.718833174567, 0.664, -0.676, 0.388, 192.0, 0.0, 0.0, 0.0, 0.0, 0.0, 0.0, 0.0, 0.0, 0.0, 1.6634990787626252E9, 0.0, 2022-09-18 16:04:38.762
12.0, -33212.65825184086, -8406.222868707522, -39077.107796324235, -50046.494608699635, -69260.00943899268, -187500.02235174447, -29057.066626199085, -23601.408136058824, 0.664, -0.676, 0.388, 192.0, 0.0, 0.0, 0.0, 0.0, 0.0, 0.0, 0.0, 0.0, 0.0, 1.6634990787667208E9, 0.0, 2022-09-18 16:04:38.766
13.0, -34048.34527353588, -9588.764260859998, -38719.99397516179, -49699.684941731095, -69294.56523592059, -187500.02235174447, -28846.177917263263, -23325.69936820261, 0.664, -0.676, 0.388, 192.0, 0.0, 0.0, 0.0, 0.0, 0.0, 0.0, 0.0, 0.0, 0.0, 1.6634990787696333E9, 0.0, 2022-09-18 16:04:38.769
14.0, -34169.84935639493, -11421.78612015082, -38349.759680004085, -49336.80437049918, -70067.84618709638, -187500.02235174447, -28568.07751275033, -22991.987823484877, 0.664, -0.676, 0.388, 192.0, 0.0, 0.0, 0.0, 0.0, 0.0, 0.0, 0.0, 0.0, 0.0, 1.6634990787746167E9, 0.0, 2022-09-18 16:04:38.774
15.0, -33719.10407770921, -11143.283384237693, -38475.01885593162, -49464.566941805715, -70088.61095769536, -187500.02235174447, -28633.05403388191, -23087.161551375575, 0.664, -0.676, 0.388, 192.0, 0.0, 0.0, 0.0, 0.0, 0.0, 0.0, 0.0, 0.0, 0.0, 1.663499078778621E9, 0.0, 2022-09-18 16:04:38.778
16.0, -33346.9698842728, -9984.88187609695, -38741.9433882169, -49723.53425306491, -70000.67919500818, -187500.02235174447, -28806.7494400441, -23318.23388555454, 0.664, -0.676, 0.388, 192.0, 0.0, 0.0, 0.0, 0.0, 0.0, 0.0, 0.0, 0.0, 0.0, 1.6634990787826598E9, 0.0, 2022-09-18 16:04:38.782
17.0, -33230.24907472719, -8436.151854533178, -39064.970799085, -50046.069925554984, -69190.20494105875, -187500.02235174447, -29061.26875415668, -23607.934845439773, 0.664, -0.676, 0.388, 192.0, 0.0, 0.0, 0.0, 0.0, 0.0, 0.0, 0.0, 0.0, 0.0, 1.6634990787866876E9, 0.0, 2022-09-18 16:04:38.786
18.0, -34048.56879098043, -9667.710622276143, -38677.05627406314, -49660.25646451193, -69246.84426150851, -187500.02235174447, -28830.777565333556, -23295.792734121413, 0.656, -0.67, 0.394, 192.0, 20.0, 128.0, 235.0, 16.0, 12.0, 80.0, 0.0, 0.0, 0.0, 1.6634990787906048E9, 0.0, 2022-09-18 16:04:38.790
19.0, -34150.49274569663, -11449.770504208864, -38346.54102880252, -49321.33696333611, -70026.4284046207, -187500.02235174447, -28578.873405322243, -22981.348393124154, 0.656, -0.67, 0.394, 192.0, 0.0, 0.0, 0.0, 0.0, 0.0, 0.0, 0.0, 0.0, 0.0, 1.663499078794672E9, 0.0, 2022-09-18 16:04:38.794
20.0, -33700.21685364447, -11121.557488627135, -38472.53781229709, -49447.17728461949, -70050.61299212134, -187500.02235174447, -28644.118147387286, -23074.354001802683, 0.656, -0.67, 0.394, 192.0, 0.0, 0.0, 0.0, 0.0, 0.0, 0.0, 0.0, 0.0, 0.0, 1.6634990787976336E9, 0.0, 2022-09-18 16:04:38.797
21.0, -33331.30131140963, -9926.968506213248, -38752.13578368852, -49723.95893620956, -69945.58214492585, -187500.02235174447, -28817.74649831611, -23317.13865007623, 0.656, -0.67, 0.394, 192.0, 0.0, 0.0, 0.0, 0.0, 0.0, 0.0, 0.0, 0.0, 0.0, 1.6634990788016772E9, 0.0, 2022-09-18 16:04:38.801
22.0, -33235.904066074385, -8395.89636276917, -39070.71519741001, -50031.63069863686, -69117.18179192327, -187500.02235174447, -29065.359123392, -23596.267234834104, 0.656, -0.67, 0.394, 192.0, 0.0, 0.0, 0.0, 0.0, 0.0, 0.0, 0.0, 0.0, 0.0, 1.6634990788067827E9, 0.0, 2022-09-18 16:04:38.806
23.0, -34088.51135832207, -9732.35186724089, -38690.288506780686, -49656.479019698985, -69235.86955498095, -187500.02235174447, -28823.51324838558, -23298.206722522584, 0.656, -0.67, 0.394, 192.0, 0.0, 0.0, 0.0, 0.0, 0.0, 0.0, 0.0, 0.0, 0.0, 1.663499078810704E9, 0.0, 2022-09-18 16:04:38.810
24.0, -34152.77262363108, -11457.593614768222, -38363.55070633301, -49334.97152745385, -69975.10879935132, -187500.02235174447, -28571.005591273977, -22997.64281483207, 0.656, -0.67, 0.394, 192.0, 0.0, 0.0, 0.0, 0.0, 0.0, 0.0, 0.0, 0.0, 0.0, 1.6634990788146539E9, 0.0, 2022-09-18 16:04:38.814
25.0, -33711.973871227965, -11112.48268037828, -38511.3404406715, -49472.188886664975, -69981.9707848991, -187500.02235174447, -28645.392196821238, -23098.80681023679, 0.656, -0.67, 0.394, 192.0, 0.0, 0.0, 0.0, 0.0, 0.0, 0.0, 0.0, 0.0, 0.0, 1.663499078818741E9, 0.0, 2022-09-18 16:04:38.818
26.0, -33330.630759075975, -9896.01134014265, -38790.8043015962, -49745.37190739774, -69859.86320493976, -187500.02235174447, -28832.94568454572, -23340.786795709944, 0.656, -0.67, 0.394, 192.0, 0.0, 0.0, 0.0, 0.0, 0.0, 0.0, 0.0, 0.0, 0.0, 1.6634990788226905E9, 0.0, 2022-09-18 16:04:38.822
27.0, -33254.81364188357, -8385.23458066399, -39089.200090074555, -50045.48878019915, -69017.26949420804, -187500.02235174447, -29070.790597294643, -23613.880409464888, 0.656, -0.67, 0.394, 192.0, 0.0, 0.0, 0.0, 0.0, 0.0, 0.0, 0.0, 0.0, 0.0, 1.6634990788257265E9, 0.0, 2022-09-18 16:04:38.825
28.0, -34130.48793440914, -9823.278763685079, -38713.42256229193, -49670.00182509444, -69202.81132493155, -187500.02235174447, -28841.394643949825, -23313.003577352, 0.658, -0.686, 0.388, 192.0, 20.0, 144.0, 234.0, 144.0, 12.0, 32.0, 0.0, 0.0, 0.0, 1.6634990788297439E9, 0.0, 2022-09-18 16:04:38.829
29.0, -34149.889248596344, -11485.399184870623, -38401.72748586267, -49356.831533531134, -69930.31590346288, -187500.02235174447, -28594.47492295205, -23020.88862906559, 0.658, -0.686, 0.388, 192.0, 0.0, 0.0, 0.0, 0.0, 0.0, 0.0, 0.0, 0.0, 0.0, 1.6634990788347855E9, 0.0, 2022-09-18 16:04:38.834
30.0, -33685.822330215255, -11063.130028620963, -38528.75244960219, -49480.302569902255, -69908.56765610787, -187500.02235174447, -28653.8635079698, -23111.837877254235, 0.658, -0.686, 0.388, 192.0, 0.0, 0.0, 0.0, 0.0, 0.0, 0.0, 0.0, 0.0, 0.0, 1.6634990788387532E9, 0.0, 2022-09-18 16:04:38.838
31.0, -33299.27126160518, -9805.084443698459, -38816.66526993099, -49755.76546856946, -69770.54563409634, -187500.02235174447, -28848.27898124206, -23353.571993538382, 0.658, -0.686, 0.388, 192.0, 0.0, 0.0, 0.0, 0.0, 0.0, 0.0, 0.0, 0.0, 0.0, 1.6634990788426938E9, 0.0, 2022-09-18 16:04:38.842
32.0, -33271.04100835812, -8385.122821941713, -39112.22238686352, -50041.398410963826, -68956.94213592316, -187500.02235174447, -29077.987859009252, -23617.076708921995, 0.658, -0.686, 0.388, 192.0, 0.0, 0.0, 0.0, 0.0, 0.0, 0.0, 0.0, 0.0, 0.0, 1.6634990788467667E9, 0.0, 2022-09-18 16:04:38.846
33.0, -34130.867914064875, -9889.462279017243, -38700.346791785574, -49626.10299898422, -69185.71224042324, -187500.02235174447, -28818.193533205216, -23280.101809513788, 0.658, -0.686, 0.388, 192.0, 0.0, 0.0, 0.0, 0.0, 0.0, 0.0, 0.0, 0.0, 0.0, 1.6634990788498514E9, 0.0, 2022-09-18 16:04:38.849
34.0, -34124.31885293947, -11470.98230969695, -38388.53995663404, -49332.781056497224, -69893.65904255617, -187500.02235174447, -28575.69945760959, -23002.35903291214, 0.658, -0.686, 0.388, 192.0, 0.0, 0.0, 0.0, 0.0, 0.0, 0.0, 0.0, 0.0, 0.0, 1.66349907885381E9, 0.0, 2022-09-18 16:04:38.853
35.0, -33683.67656274755, -11031.23408928324, -38526.18199898982, -49475.29577914427, -69886.73000177504, -187500.02235174447, -28645.68276949916, -23113.022519710365, 0.658, -0.686, 0.388, 192.0, 0.0, 0.0, 0.0, 0.0, 0.0, 0.0, 0.0, 0.0, 0.0, 1.6634990788577323E9, 0.0, 2022-09-18 16:04:38.857
36.0, -33294.890319691935, -9743.661849935275, -38811.032630328256, -49756.145448225194, -69731.89946793312, -187500.02235174447, -28846.401434707815, -23359.226984885572, 0.658, -0.686, 0.388, 192.0, 0.0, 0.0, 0.0, 0.0, 0.0, 0.0, 0.0, 0.0, 0.0, 1.6634990788627486E9, 0.0, 2022-09-18 16:04:38.862
37.0, -33284.02737188666, -8356.311423338822, -39090.11651159722, -50023.44996016622, -68906.67306264318, -187500.02235174447, -29063.168652435383, -23605.990243672164, 0.658, -0.686, 0.388, 192.0, 0.0, 0.0, 0.0, 0.0, 0.0, 0.0, 0.0, 0.0, 0.0, 1.6634990788667905E9, 0.0, 2022-09-18 16:04:38.866
38.0, -34161.37804524637, -9946.280413422635, -38691.42844574791, -49617.98931574694, -69159.11366452141, -187500.02235174447, -28812.650300580302, -23281.018231036454, 0.662, -0.68, 0.392, 192.0, 20.0, 176.0, 234.0, 192.0, 12.0, 64.0, 0.0, 0.0, 0.0, 1.6634990788708303E9, 0.0, 2022-09-18 16:04:38.870
39.0, -34129.57151288647, -11494.496344863934, -38402.487445174156, -49347.756725282285, -69835.54450697238, -187500.02235174447, -28600.532245699436, -23021.670940121527, 0.662, -0.68, 0.392, 192.0, 0.0, 0.0, 0.0, 0.0, 0.0, 0.0, 0.0, 0.0, 0.0, 1.6634990788738189E9, 0.0, 2022-09-18 16:04:38.873
40.0, -33684.68239124804, -11036.509100974692, -38535.5473799166, -49489.48913687338, -69827.05084407936, -187500.02235174447, -28673.264822157005, -23126.72413906147, 0.662, -0.68, 0.392, 192.0, 0.0, 0.0, 0.0, 0.0, 0.0, 0.0, 0.0, 0.0, 0.0, 1.663499078877826E9, 0.0, 2022-09-18 16:04:38.877
41.0, -33288.43066554435, -9720.728960124132, -38829.71868869289, -49782.14052702672, -69641.95604824496, -187500.02235174447, -28850.201231265215, -23384.082124719876, 0.662, -0.68, 0.392, 192.0, 0.0, 0.0, 0.0, 0.0, 0.0, 0.0, 0.0, 0.0, 0.0, 1.663499078881844E9, 0.0, 2022-09-18 16:04:38.881
42.0, -33310.24596813273, -8382.217095162523, -39074.850270134244, -50024.29932645552, -68801.84338114779, -187500.02235174447, -29046.360140604993, -23607.420755317304, 0.662, -0.68, 0.392, 192.0, 0.0, 0.0, 0.0, 0.0, 0.0, 0.0, 0.0, 0.0, 0.0, 1.6634990788857632E9, 0.0, 2022-09-18 16:04:38.885
43.0, -34178.18655707676, -10044.784551237173, -38633.76094505322, -49587.21096363199, -69112.44322209874, -187500.02235174447, -28773.601803016878, -23245.613067819246, 0.662, -0.68, 0.392, 192.0, 0.0, 0.0, 0.0, 0.0, 0.0, 0.0, 0.0, 0.0, 0.0, 1.6634990788899431E9, 0.0, 2022-09-18 16:04:38.889
44.0, -34113.92529176775, -11522.212507988514, -38383.71197983169, -49342.28054789073, -69775.75359055444, -187500.02235174447, -28583.008478046475, -23009.913922538035, 0.662, -0.68, 0.392, 192.0, 0.0, 0.0, 0.0, 0.0, 0.0, 0.0, 0.0, 0.0, 0.0, 1.6634990788948276E9, 0.0, 2022-09-18 16:04:38.894
45.0, -33678.826234200744, -11031.390551494427, -38529.065374024554, -49490.56202060724, -69774.14426495365, -187500.02235174447, -28646.576839277368, -23126.94765650602, 0.662, -0.68, 0.392, 192.0, 0.0, 0.0, 0.0, 0.0, 0.0, 0.0, 0.0, 0.0, 0.0, 1.6634990788989139E9, 0.0, 2022-09-18 16:04:38.898
46.0, -33271.77861592515, -9677.210113669647, -38822.99081361185, -49781.49232643752, -69591.23994007587, -187500.02235174447, -28843.048673039517, -23381.53402585197, 0.662, -0.68, 0.392, 192.0, 0.0, 0.0, 0.0, 0.0, 0.0, 0.0, 0.0, 0.0, 0.0, 1.663499078901951E9, 0.0, 2022-09-18 16:04:38.901
47.0, -33322.9641107278, -8388.363824887732, -39065.1719647851, -50022.13120724335, -68773.34490696728, -187500.02235174447, -29043.007378936694, -23606.28081635008, 0.662, -0.68, 0.392, 192.0, 0.0, 0.0, 0.0, 0.0, 0.0, 0.0, 0.0, 0.0, 0.0, 1.6634990789058971E9, 0.0, 2022-09-18 16:04:38.905
48.0, -34189.943574660254, -10122.81449113065, -38629.603520584526, -49583.67938800805, -69134.43733864276, -187500.02235174447, -28771.21016636016, -23247.378855631217, 0.668, -0.68, 0.386, 192.0, 20.0, 224.0, 234.0, 192.0, 12.0, 16.0, 0.0, 0.0, 0.0, 1.6634990789098592E9, 0.0, 2022-09-18 16:04:38.909
49.0, -34088.10902692188, -11530.102673781237, -38393.256174714115, -49349.12018169406, -69781.16271271261, -187500.02235174447, -28589.490483938516, -23019.771041842825, 0.668, -0.68, 0.386, 192.0, 0.0, 0.0, 0.0, 0.0, 0.0, 0.0, 0.0, 0.0, 0.0, 1.6634990789138722E9, 0.0, 2022-09-18 16:04:38.913
50.0, -33661.078949103234, -11007.138908760418, -38552.601760936, -49500.06151200074, -69777.98876499996, -187500.02235174447, -28665.978153464577, -23139.419929912085, 0.668, -0.68, 0.386, 192.0, 0.0, 0.0, 0.0, 0.0, 0.0, 0.0, 0.0, 0.0, 0.0, 1.6634990789178972E9, 0.0, 2022-09-18 16:04:38.917
51.0, -33271.06336010258, -9634.495930015557, -38877.19379391596, -49809.87904189576, -69578.54414922526, -187500.02235174447, -28872.75414142062, -23411.708880866634, 0.668, -0.68, 0.386, 192.0, 0.0, 0.0, 0.0, 0.0, 0.0, 0.0, 0.0, 0.0, 0.0, 1.6634990789228427E9, 0.0, 2022-09-18 16:04:38.922
52.0, -33354.21184947632, -8408.94978153107, -39090.04945636386, -50030.24489048063, -68783.17967452761, -187500.02235174447, -29060.441739611833, -23618.596627544957, 0.668, -0.68, 0.386, 192.0, 0.0, 0.0, 0.0, 0.0, 0.0, 0.0, 0.0, 0.0, 0.0, 1.663499078926986E9, 0.0, 2022-09-18 16:04:38.926
53.0, -34219.78315350809, -10191.63551230854, -38650.100070250046, -49590.966056700476, -69135.823146799, -187500.02235174447, -28780.754361242576, -23257.057160980363, 0.668, -0.68, 0.386, 192.0, 0.0, 0.0, 0.0, 0.0, 0.0, 0.0, 0.0, 0.0, 0.0, 1.6634990789299574E9, 0.0, 2022-09-18 16:04:38.929
54.0, -34082.11875940785, -11532.76253137142, -38420.34648899394, -49355.311614908176, -69764.93534623807, -187500.02235174447, -28582.337925712818, -23023.97316980042, 0.668, -0.68, 0.386, 192.0, 0.0, 0.0, 0.0, 0.0, 0.0, 0.0, 0.0, 0.0, 0.0, 1.6634990789339516E9, 0.0, 2022-09-18 16:04:38.933
55.0, -33648.025530341336, -10976.584074090013, -38572.60657222349, -49511.32679120622, -69783.30848018032, -187500.02235174447, -28674.762389035513, -23150.57345039528, 0.668, -0.68, 0.386, 192.0, 0.0, 0.0, 0.0, 0.0, 0.0, 0.0, 0.0, 0.0, 0.0, 1.6634990789379113E9, 0.0, 2022-09-18 16:04:38.937
56.0, -33243.593066167006, -9564.13263847025, -38893.01882899032, -49821.881928668256, -69557.13117803707, -187500.02235174447, -28898.950385922242, -23424.091747294875, 0.668, -0.68, 0.386, 192.0, 0.0, 0.0, 0.0, 0.0, 0.0, 0.0, 0.0, 0.0, 0.0, 1.6634990789419508E9, 0.0, 2022-09-18 16:04:38.941
57.0, -33372.38381771849, -8408.65920885315, -39122.683003268605, -50035.38579170535, -68776.25063374647, -187500.02235174447, -29081.00534451072, -23627.269104393614, 0.668, -0.68, 0.386, 192.0, 0.0, 0.0, 0.0, 0.0, 0.0, 0.0, 0.0, 0.0, 0.0, 1.6634990789460242E9, 0.0, 2022-09-18 16:04:38.946
58.0, -34228.83561001249, -10254.913300861514, -38649.183648727376, -49569.03899538982, -69192.57422597101, -187500.02235174447, -28777.334544340916, -23241.388588117195, 0.666, -0.684, 0.388, 192.0, 20.0, 208.0, 234.0, 160.0, 12.0, 32.0, 0.0, 0.0, 0.0, 1.6634990789509785E9, 0.0, 2022-09-18 16:04:38.950
59.0, -34047.898238646776, -11510.299028193836, -38417.083134303466, -49343.28637639122, -69798.17239024311, -187500.02235174447, -28575.14066399821, -23016.395928430073, 0.666, -0.684, 0.388, 192.0, 0.0, 0.0, 0.0, 0.0, 0.0, 0.0, 0.0, 0.0, 0.0, 1.663499078954981E9, 0.0, 2022-09-18 16:04:38.954
60.0, -33643.264608772355, -10943.995230674176, -38607.18472089586, -49510.41036968355, -69816.8808003522, -187500.02235174447, -28687.838159541865, -23151.48987191795, 0.666, -0.684, 0.388, 192.0, 0.0, 0.0, 0.0, 0.0, 0.0, 0.0, 0.0, 0.0, 0.0, 1.6634990789579775E9, 0.0, 2022-09-18 16:04:38.957
61.0, -33247.571676680054, -9513.617696001256, -38933.07315505423, -49831.873158439776, -69574.36437301211, -187500.02235174447, -28900.939691178763, -23435.334674755894, 0.666, -0.684, 0.388, 192.0, 0.0, 0.0, 0.0, 0.0, 0.0, 0.0, 0.0, 0.0, 0.0, 1.6634990789620116E9, 0.0, 2022-09-18 16:04:38.962
62.0, -33399.5858907206, -8421.556165403863, -39109.339011828786, -50014.688076339735, -68789.8851978642, -187500.02235174447, -29048.12592841696, -23611.734641997176, 0.666, -0.684, 0.388, 192.0, 0.0, 0.0, 0.0, 0.0, 0.0, 0.0, 0.0, 0.0, 0.0, 1.6634990789659696E9, 0.0, 2022-09-18 16:04:38.965
63.0, -34242.06784273003, -10334.083179722213, -38616.192473911346, -49528.537634436805, -69243.71501728476, -187500.02235174447, -28733.994511842076, -23207.25747433394, 0.666, -0.684, 0.388, 192.0, 0.0, 0.0, 0.0, 0.0, 0.0, 0.0, 0.0, 0.0, 0.0, 1.6634990789700515E9, 0.0, 2022-09-18 16:04:38.970
64.0, -34039.51633447604, -11542.865519865218, -38407.82951209897, -49325.98612618281, -69875.06239116935, -187500.02235174447, -28563.249535947984, -23006.672919592016, 0.666, -0.684, 0.388, 192.0, 0.0, 0.0, 0.0, 0.0, 0.0, 0.0, 0.0, 0.0, 0.0, 1.6634990789740088E9, 0.0, 2022-09-18 16:04:38.974
65.0, -33633.474544700926, -10939.301364338562, -38591.382037565956, -49506.78938708179, -69897.97292923606, -187500.02235174447, -28672.281345400974, -23154.797930097335, 0.666, -0.684, 0.388, 192.0, 0.0, 0.0, 0.0, 0.0, 0.0, 0.0, 0.0, 0.0, 0.0, 1.6634990789780023E9, 0.0, 2022-09-18 16:04:38.978
66.0, -33231.92545556134, -9475.820896127332, -38924.60184390567, -49831.604937506316, -69623.67232128052, -187500.02235174447, -28898.65981324432, -23436.720482912122, 0.666, -0.684, 0.388, 192.0, 0.0, 0.0, 0.0, 0.0, 0.0, 0.0, 0.0, 0.0, 0.0, 1.6634990789830425E9, 0.0, 2022-09-18 16:04:38.983
67.0, -33429.62663526853, -8457.743639677004, -39096.30794481134, -50004.540384357024, -68850.23490789354, -187500.02235174447, -29061.671085556878, -23607.510162295122, 0.666, -0.684, 0.388, 192.0, 0.0, 0.0, 0.0, 0.0, 0.0, 0.0, 0.0, 0.0, 0.0, 1.6634990789860282E9, 0.0, 2022-09-18 16:04:38.986
68.0, -34269.5381366656, -10422.39492206513, -38607.1623691514, -49515.08188427471, -69359.7652744967, -187500.02235174447, -28736.31909326543, -23198.942625396565, 0.662, -0.682, 0.39, 192.0, 20.0, 176.0, 234.0, 176.0, 12.0, 48.0, 0.0, 0.0, 0.0, 1.6634990789900331E9, 0.0, 2022-09-18 16:04:38.990
69.0, -34042.243247299586, -11564.770229431419, -38415.65262265833, -49335.68678327642, -69953.98640084105, -187500.02235174447, -28561.61785860275, -23016.328873196708, 0.662, -0.682, 0.39, 192.0, 0.0, 0.0, 0.0, 0.0, 0.0, 0.0, 0.0, 0.0, 0.0, 1.6634990789940288E9, 0.0, 2022-09-18 16:04:38.994
70.0, -33632.13344003361, -10936.663858492835, -38593.63956375594, -49508.97985803841, -69963.75411316802, -187500.02235174447, -28668.973287221586, -23162.375171467684, 0.662, -0.682, 0.39, 192.0, 0.0, 0.0, 0.0, 0.0, 0.0, 0.0, 0.0, 0.0, 0.0, 1.6634990789980395E9, 0.0, 2022-09-18 16:04:38.998
71.0, -33219.02849901062, -9421.506157100936, -38931.91086434256, -49833.19191136264, -69673.0473247823, -187500.02235174447, -28900.224435356195, -23449.371570273826, 0.662, -0.682, 0.39, 192.0, 0.0, 0.0, 0.0, 0.0, 0.0, 0.0, 0.0, 0.0, 0.0, 1.6634990790020616E9, 0.0, 2022-09-18 16:04:39.002
72.0, -33448.96089422237, -8466.170247336657, -39098.09608436777, -49988.469480093656, -68929.11421407631, -187500.02235174447, -29059.637076811443, -23602.5704267705, 0.662, -0.682, 0.39, 192.0, 0.0, 0.0, 0.0, 0.0, 0.0, 0.0, 0.0, 0.0, 0.0, 1.6634990790060236E9, 0.0, 2022-09-18 16:04:39.006
73.0, -34274.54492742359, -10486.566780396317, -38583.84949968452, -49491.836070041194, -69472.41806655146, -187500.02235174447, -28720.739927380077, -23180.748305409947, 0.662, -0.682, 0.39, 192.0, 0.0, 0.0, 0.0, 0.0, 0.0, 0.0, 0.0, 0.0, 0.0, 1.6634990790110233E9, 0.0, 2022-09-18 16:04:39.011
74.0, -34036.722366419126, -11562.28918579688, -38416.457285458724, -49343.71105953587, -70057.29616371349, -187500.02235174447, -28561.573155113838, -23026.36480645714, 0.662, -0.682, 0.39, 192.0, 0.0, 0.0, 0.0, 0.0, 0.0, 0.0, 0.0, 0.0, 0.0, 1.663499079014099E9, 0.0, 2022-09-18 16:04:39.014
75.0, -33639.42010872604, -10905.684340677779, -38604.63662202795, -49528.85055885918, -70061.85591958236, -187500.02235174447, -28683.971307751097, -23182.089410077264, 0.662, -0.682, 0.39, 192.0, 0.0, 0.0, 0.0, 0.0, 0.0, 0.0, 0.0, 0.0, 0.0, 1.6634990790180762E9, 0.0, 2022-09-18 16:04:39.018
76.0, -33222.58242637902, -9380.513057769902, -38942.237370280905, -49859.85754249782, -69740.77311048188, -187500.02235174447, -28921.48094433319, -23470.963355417654, 0.662, -0.682, 0.39, 192.0, 0.0, 0.0, 0.0, 0.0, 0.0, 0.0, 0.0, 0.0, 0.0, 1.6634990790220263E9, 0.0, 2022-09-18 16:04:39.022
77.0, -33476.85587130259, -8510.583163569352, -39073.21859278901, -49985.34023586992, -69006.13832546929, -187500.02235174447, -29037.17357363386, -23602.972758170697, 0.662, -0.682, 0.39, 192.0, 0.0, 0.0, 0.0, 0.0, 0.0, 0.0, 0.0, 0.0, 0.0, 1.6634990790260189E9, 0.0, 2022-09-18 16:04:39.026
78.0, -34279.97640132623, -10582.880447254234, -38585.97291540777, -49482.403633881055, -69609.14368738457, -187500.02235174447, -28702.366793437817, -23178.334317008772, 0.662, -0.682, 0.39, 192.0, 0.0, 0.0, 0.0, 0.0, 0.0, 0.0, 0.0, 0.0, 0.0, 1.663499079030116E9, 0.0, 2022-09-18 16:04:39.030
79.0, -34013.700069630155, -11578.807124949351, -38439.68074794779, -49351.06478346167, -70172.49705463613, -187500.02235174447, -28573.978373286533, -23036.803071117767, 0.658, -0.682, 0.382, 192.0, 20.0, 144.0, 234.0, 176.0, 11.0, 240.0, 0.0, 0.0, 0.0, 1.6634990790340517E9, 0.0, 2022-09-18 16:04:39.034
80.0, -33612.46390491294, -10892.317997493506, -38602.133226648955, -49528.47057920344, -70186.75746759863, -187500.02235174447, -28687.882863030776, -23187.051497346343, 0.658, -0.682, 0.382, 192.0, 0.0, 0.0, 0.0, 0.0, 0.0, 0.0, 0.0, 0.0, 0.0, 1.6634990790391316E9, 0.0, 2022-09-18 16:04:39.039
81.0, -33203.5387401031, -9343.61032767419, -38958.06240535527, -49869.31233040242, -69855.05757988186, -187500.02235174447, -28935.651950317857, -23484.21793987965, 0.658, -0.682, 0.382, 192.0, 0.0, 0.0, 0.0, 0.0, 0.0, 0.0, 0.0, 0.0, 0.0, 1.6634990790421865E9, 0.0, 2022-09-18 16:04:39.042
82.0, -33489.730476108845, -8536.511187137507, -39069.754072398435, -49972.26446536356, -69132.9174200198, -187500.02235174447, -29049.5564400621, -23594.277929577584, 0.658, -0.682, 0.382, 192.0, 0.0, 0.0, 0.0, 0.0, 0.0, 0.0, 0.0, 0.0, 0.0, 1.6634990790462031E9, 0.0, 2022-09-18 16:04:39.046
83.0, -34281.7421891382, -10627.24865999802, -38564.179964563846, -49470.53485757529, -69749.19971814152, -187500.02235174447, -28704.221988227608, -23172.075828561286, 0.658, -0.682, 0.382, 192.0, 0.0, 0.0, 0.0, 0.0, 0.0, 0.0, 0.0, 0.0, 0.0, 1.6634990790501573E9, 0.0, 2022-09-18 16:04:39.050
84.0, -33998.7244008451, -11568.547674244366, -38427.45434373073, -49348.449629360395, -70296.12455321844, -187500.02235174447, -28579.767475100456, -23040.535812441805, 0.658, -0.682, 0.382, 192.0, 0.0, 0.0, 0.0, 0.0, 0.0, 0.0, 0.0, 0.0, 0.0, 1.6634990790541253E9, 0.0, 2022-09-18 16:04:39.054
85.0, -33613.268567713334, -10875.82241008549, -38616.17012216689, -49535.243157773395, -70322.76783260916, -187500.02235174447, -28698.991680025065, -23198.003852129445, 0.658, -0.682, 0.382, 192.0, 0.0, 0.0, 0.0, 0.0, 0.0, 0.0, 0.0, 0.0, 0.0, 1.6634990790582209E9, 0.0, 2022-09-18 16:04:39.058
86.0, -33222.090688001, -9304.785347555322, -38990.09245515972, -49895.95560979314, -69965.22932830207, -187500.02235174447, -28963.189299486796, -23515.42097513926, 0.658, -0.682, 0.382, 192.0, 0.0, 0.0, 0.0, 0.0, 0.0, 0.0, 0.0, 0.0, 0.0, 1.6634990790622044E9, 0.0, 2022-09-18 16:04:39.062
87.0, -33521.24643579083, -8563.579149672883, -39047.0670517763, -49950.91854940874, -69244.65379055188, -187500.02235174447, -29018.241646080216, -23580.084571848463, 0.658, -0.682, 0.382, 192.0, 0.0, 0.0, 0.0, 0.0, 0.0, 0.0, 0.0, 0.0, 0.0, 1.6634990790671706E9, 0.0, 2022-09-18 16:04:39.067
88.0, -34299.4447707468, -10704.876268491302, -38529.80298159158, -49446.50673228583, -69904.05260372789, -187500.02235174447, -28681.423208883192, -23153.30036321883, 0.658, -0.682, 0.382, 192.0, 0.0, 0.0, 0.0, 0.0, 0.0, 0.0, 0.0, 0.0, 0.0, 1.6634990790701728E9, 0.0, 2022-09-18 16:04:39.070
89.0, -33991.50478738604, -11562.110371841238, -38410.735238878166, -49339.17365541145, -70409.62671156248, -187500.02235174447, -28569.642134862203, -23031.013969303844, 0.66, -0.6880000000000001, 0.378, 192.0, 20.0, 160.0, 234.0, 128.0, 11.0, 208.0, 0.0, 0.0, 0.0, 1.6634990790732243E9, 0.0, 2022-09-18 16:04:39.073
90.0, -33610.966338034435, -10842.272441658073, -38602.334392349054, -49525.542500679796, -70411.03487146317, -187500.02235174447, -28692.68848808867, -23188.794933413858, 0.66, -0.6880000000000001, 0.378, 192.0, 0.0, 0.0, 0.0, 0.0, 0.0, 0.0, 0.0, 0.0, 0.0, 1.6634990790782056E9, 0.0, 2022-09-18 16:04:39.078
91.0, -33204.27634767012, -9248.21308233894, -38956.87776289914, -49869.73701354707, -70021.75689002954, -187500.02235174447, -28935.24961891766, -23489.962338204663, 0.66, -0.6880000000000001, 0.378, 192.0, 0.0, 0.0, 0.0, 0.0, 0.0, 0.0, 0.0, 0.0, 0.0, 1.6634990790822291E9, 0.0, 2022-09-18 16:04:39.082
92.0, -33579.78565451928, -8639.508025587562, -39037.34404293824, -49949.6892034637, -69356.72543725079, -187500.02235174447, -29008.742154686708, -23580.28573754856, 0.66, -0.6880000000000001, 0.378, 192.0, 0.0, 0.0, 0.0, 0.0, 0.0, 0.0, 0.0, 0.0, 0.0, 1.6634990790863411E9, 0.0, 2022-09-18 16:04:39.086
93.0, -34320.20954134578, -10797.881877169833, -38514.0897052395, -49436.31433681421, -70040.28648618299, -187500.02235174447, -28667.565127320904, -23143.53265089186, 0.66, -0.6880000000000001, 0.378, 192.0, 0.0, 0.0, 0.0, 0.0, 0.0, 0.0, 0.0, 0.0, 0.0, 1.663499079090253E9, 0.0, 2022-09-18 16:04:39.090
94.0, -33986.14036871676, -11575.76728770343, -38421.73229715017, -49346.25915840378, -70512.42238431245, -187500.02235174447, -28571.02794301843, -23035.394911217085, 0.66, -0.6880000000000001, 0.378, 192.0, 0.0, 0.0, 0.0, 0.0, 0.0, 0.0, 0.0, 0.0, 0.0, 1.6634990790942116E9, 0.0, 2022-09-18 16:04:39.094
95.0, -33607.2335967104, -10824.323990860461, -38625.73666879376, -49534.840826373205, -70515.1940006249, -187500.02235174447, -28694.364868922818, -23195.053421861343, 0.66, -0.6880000000000001, 0.378, 192.0, 0.0, 0.0, 0.0, 0.0, 0.0, 0.0, 0.0, 0.0, 0.0, 1.663499079097262E9, 0.0, 2022-09-18 16:04:39.097
96.0, -33200.56595809054, -9189.427994421481, -38987.58905978073, -49891.48526090208, -70097.66341419976, -187500.02235174447, -28943.698578321768, -23508.804858780488, 0.66, -0.6880000000000001, 0.378, 192.0, 0.0, 0.0, 0.0, 0.0, 0.0, 0.0, 0.0, 0.0, 0.0, 1.6634990791012633E9, 0.0, 2022-09-18 16:04:39.101
97.0, -33582.66902955402, -8632.534281317507, -39014.880539760656, -49918.977906582106, -69420.74083337079, -187500.02235174447, -28989.944337599798, -23549.641495900334, 0.66, -0.6880000000000001, 0.378, 192.0, 0.0, 0.0, 0.0, 0.0, 0.0, 0.0, 0.0, 0.0, 0.0, 1.6634990791062405E9, 0.0, 2022-09-18 16:04:39.106
98.0, -34313.92870115384, -10834.046999698521, -38502.55620510056, -49410.34160975714, -70139.26001063109, -187500.02235174447, -28649.840193967844, -23115.66002555609, 0.66, -0.6880000000000001, 0.378, 192.0, 0.0, 0.0, 0.0, 0.0, 0.0, 0.0, 0.0, 0.0, 0.0, 1.6634990791102672E9, 0.0, 2022-09-18 16:04:39.110
99.0, -33971.32116214289, -11542.373781487202, -38443.03350961608, -49350.43893461692, -70606.90320812502, -187500.02235174447, -28588.641117649215, -23040.356998486164, 0.66, -0.684, 0.38, 192.0, 20.0, 160.0, 234.0, 160.0, 11.0, 224.0, 0.0, 0.0, 0.0, 1.6634990791142757E9, 0.0, 2022-09-18 16:04:39.114
100.0, -33587.45230286745, -10757.492274939093, -38630.251721173736, -49540.11583806465, -70608.89251338155, -187500.02235174447, -28690.67683108769, -23199.97080564151, 0.66, -0.684, 0.38, 192.0, 0.0, 0.0, 0.0, 0.0, 0.0, 0.0, 0.0, 0.0, 0.0, 1.6634990791184793E9, 0.0, 2022-09-18 16:04:39.118
101.0, -33189.79241726308, -9115.175499340952, -39001.469493087476, -49906.90796457625, -70166.0150487441, -187500.02235174447, -28953.01925575963, -23519.667806585767, 0.66, -0.684, 0.38, 192.0, 0.0, 0.0, 0.0, 0.0, 0.0, 0.0, 0.0, 0.0, 0.0, 1.663499079121281E9, 0.0, 2022-09-18 16:04:39.121
102.0, -33643.28696051681, -8682.691595875216, -39050.2186477445, -49947.02934587352, -69538.5121749058, -187500.02235174447, -29039.542858546123, -23579.481074748168, 0.66, -0.684, 0.38, 192.0, 0.0, 0.0, 0.0, 0.0, 0.0, 0.0, 0.0, 0.0, 0.0, 1.6634990791252785E9, 0.0, 2022-09-18 16:04:39.125
103.0, -34325.1045733815, -10892.027424815587, -38517.35305992998, -49419.39406626154, -70282.40058212288, -187500.02235174447, -28666.604002309323, -23129.04872048482, 0.66, -0.684, 0.38, 192.0, 0.0, 0.0, 0.0, 0.0, 0.0, 0.0, 0.0, 0.0, 0.0, 1.663499079129311E9, 0.0, 2022-09-18 16:04:39.129
104.0, -33947.20362987562, -11520.334961454268, -38442.877047404894, -49360.72073706636, -70681.15570320556, -187500.02235174447, -28582.494387924005, -23051.532870713818, 0.66, -0.684, 0.38, 192.0, 0.0, 0.0, 0.0, 0.0, 0.0, 0.0, 0.0, 0.0, 0.0, 1.6634990791343036E9, 0.0, 2022-09-18 16:04:39.134
105.0, -33563.31241885572, -10717.862632019835, -38646.657901603925, -49548.20716955748, -70688.71059283146, -187500.02235174447, -28696.510636390525, -23212.040747647377, 0.66, -0.684, 0.38, 192.0, 0.0, 0.0, 0.0, 0.0, 0.0, 0.0, 0.0, 0.0, 0.0, 1.6634990791382706E9, 0.0, 2022-09-18 16:04:39.138
106.0, -33155.303675568546, -9042.442922883383, -39014.99229848293, -49908.80786285495, -70217.69228192477, -187500.02235174447, -28952.92984878181, -23528.764966579078, 0.66, -0.684, 0.38, 192.0, 0.0, 0.0, 0.0, 0.0, 0.0, 0.0, 0.0, 0.0, 0.0, 1.6634990791423802E9, 0.0, 2022-09-18 16:04:39.142
107.0, -33626.411393453054, -8686.67020638826, -39007.616222812685, -49916.36275248084, -69616.87739096611, -187500.02235174447, -28991.419552733845, -23560.683257661254, 0.66, -0.684, 0.38, 192.0, 0.0, 0.0, 0.0, 0.0, 0.0, 0.0, 0.0, 0.0, 0.0, 1.663499079146346E9, 0.0, 2022-09-18 16:04:39.146
108.0, -34299.10949457997, -10910.042930846565, -38505.439580135295, -49413.046170836235, -70392.16999914289, -187500.02235174447, -28651.605981779812, -23131.552115863815, 0.66, -0.684, 0.38, 192.0, 0.0, 0.0, 0.0, 0.0, 0.0, 0.0, 0.0, 0.0, 0.0, 1.6634990791493745E9, 0.0, 2022-09-18 16:04:39.149
109.0, -33898.990917085524, -11465.41672532758, -38440.99950087065, -49356.87623702005, -70752.3013058068, -187500.02235174447, -28557.907469023165, -23055.332667271217, 0.654, -0.686, 0.38, 192.0, 20.0, 112.0, 234.0, 144.0, 11.0, 224.0, 0.0, 0.0, 0.0, 1.6634990791533613E9, 0.0, 2022-09-18 16:04:39.153
110.0, -33527.706089938416, -10644.0124683395, -38644.579189369586, -49554.86798940516, -70740.05254984529, -187500.02235174447, -28688.262842686516, -23225.340035598285, 0.654, -0.686, 0.38, 192.0, 0.0, 0.0, 0.0, 0.0, 0.0, 0.0, 0.0, 0.0, 0.0, 1.6634990791573625E9, 0.0, 2022-09-18 16:04:39.157
111.0, -33172.67098101032, -8990.788041447167, -39047.044700031845, -49945.77764818402, -70251.66693349683, -187500.02235174447, -28976.332125226516, -23568.6628304318, 0.654, -0.686, 0.38, 192.0, 0.0, 0.0, 0.0, 0.0, 0.0, 0.0, 0.0, 0.0, 0.0, 1.663499079162351E9, 0.0, 2022-09-18 16:04:39.162
112.0, -33685.28588834833, -8739.845006447436, -39017.58510083975, -49924.096456062376, -69667.45938866847, -187500.02235174447, -28996.716916169753, -23577.201196813727, 0.654, -0.686, 0.38, 192.0, 0.0, 0.0, 0.0, 0.0, 0.0, 0.0, 0.0, 0.0, 0.0, 1.6634990791663847E9, 0.0, 2022-09-18 16:04:39.166
113.0, -34321.237721590725, -10952.60065228947, -38489.41337936084, -49402.49614745333, -70428.75980481623, -187500.02235174447, -28634.57395250487, -23129.62986584066, 0.654, -0.686, 0.38, 192.0, 0.0, 0.0, 0.0, 0.0, 0.0, 0.0, 0.0, 0.0, 0.0, 1.663499079170356E9, 0.0, 2022-09-18 16:04:39.170
114.0, -33931.37859480126, -11479.453620845512, -38471.397873329865, -49376.07638550716, -70819.9153327841, -187500.02235174447, -28592.955004329087, -23076.410362292572, 0.654, -0.686, 0.38, 192.0, 0.0, 0.0, 0.0, 0.0, 0.0, 0.0, 0.0, 0.0, 0.0, 1.6634990791743076E9, 0.0, 2022-09-18 16:04:39.174
115.0, -33557.70213099744, -10641.777293893969, -38673.45764320584, -49573.62110300316, -70787.77352425737, -187500.02235174447, -28724.651482659756, -23242.752044528967, 0.654, -0.686, 0.38, 192.0, 0.0, 0.0, 0.0, 0.0, 0.0, 0.0, 0.0, 0.0, 0.0, 1.6634990791773791E9, 0.0, 2022-09-18 16:04:39.177
116.0, -33166.23367860719, -8938.95434605531, -39011.41601937008, -49926.801017141464, -70235.68543621128, -187500.02235174447, -28951.029950503107, -23547.428673199258, 0.654, -0.686, 0.38, 192.0, 0.0, 0.0, 0.0, 0.0, 0.0, 0.0, 0.0, 0.0, 0.0, 1.6634990791813707E9, 0.0, 2022-09-18 16:04:39.181
117.0, -33713.22556891746, -8777.574751087994, -38973.842736940715, -49887.39489166676, -69678.00941205137, -187500.02235174447, -28962.496395408678, -23538.264457972582, 0.654, -0.686, 0.38, 192.0, 0.0, 0.0, 0.0, 0.0, 0.0, 0.0, 0.0, 0.0, 0.0, 1.6634990791853764E9, 0.0, 2022-09-18 16:04:39.185
118.0, -34327.89854143841, -11022.628667667947, -38471.979018685706, -49384.793565844724, -70465.34961048956, -187500.02235174447, -28623.46513551058, -23105.087650428733, 0.654, -0.686, 0.38, 192.0, 0.0, 0.0, 0.0, 0.0, 0.0, 0.0, 0.0, 0.0, 0.0, 1.6634990791893988E9, 0.0, 2022-09-18 16:04:39.189
119.0, -33905.80819914439, -11453.279728088348, -38451.616579486916, -49365.72752782435, -70794.61315806069, -187500.02235174447, -28564.83650980431, -23062.149949330087, 0.654, -0.6880000000000001, 0.384, 192.0, 20.0, 112.0, 234.0, 128.0, 12.0, 0.0, 0.0, 0.0, 0.0, 1.6634990791945117E9, 0.0, 2022-09-18 16:04:39.194
120.0, -33551.823622205695, -10594.883334026736, -38666.1262710245, -49578.67259725006, -70763.16425361208, -187500.02235174447, -28704.557264394436, -23245.79188177489, 0.654, -0.6880000000000001, 0.384, 192.0, 0.0, 0.0, 0.0, 0.0, 0.0, 0.0, 0.0, 0.0, 0.0, 1.663499079198428E9, 0.0, 2022-09-18 16:04:39.198
121.0, -33155.25897207963, -8869.909807432867, -39017.07101071728, -49922.330668250404, -70181.54951114053, -187500.02235174447, -28957.44490116178, -23539.89613531782, 0.654, -0.6880000000000001, 0.384, 192.0, 0.0, 0.0, 0.0, 0.0, 0.0, 0.0, 0.0, 0.0, 0.0, 1.663499079202361E9, 0.0, 2022-09-18 16:04:39.202
122.0, -33730.838743548244, -8814.79040560608, -38972.658094484585, -49873.8720862713, -69664.95599328948, -187500.02235174447, -28960.97647678572, -23523.355844420894, 0.654, -0.6880000000000001, 0.384, 192.0, 0.0, 0.0, 0.0, 0.0, 0.0, 0.0, 0.0, 0.0, 0.0, 1.66349907920618E9, 0.0, 2022-09-18 16:04:39.206
123.0, -34332.704166496296, -11075.37878458247, -38474.10243440896, -49392.86254559309, -70479.83354089661, -187500.02235174447, -28617.743088930023, -23109.557999319793, 0.654, -0.6880000000000001, 0.384, 192.0, 0.0, 0.0, 0.0, 0.0, 0.0, 0.0, 0.0, 0.0, 0.0, 1.663499079209432E9, 0.0, 2022-09-18 16:04:39.209
124.0, -33922.57200748587, -11469.529446307355, -38483.26664963563, -49408.665228923, -70807.84539077824, -187500.02235174447, -28599.36995498776, -23099.63382478164, 0.654, -0.6880000000000001, 0.384, 192.0, 0.0, 0.0, 0.0, 0.0, 0.0, 0.0, 0.0, 0.0, 0.0, 1.6634990792134483E9, 0.0, 2022-09-18 16:04:39.213
125.0, -33557.54566878625, -10590.703557813593, -38704.25834706525, -49617.452873880015, -70777.17879738555, -187500.02235174447, -28736.341445009883, -23277.97839379053, 0.654, -0.6880000000000001, 0.384, 192.0, 0.0, 0.0, 0.0, 0.0, 0.0, 0.0, 0.0, 0.0, 0.0, 1.6634990792174475E9, 0.0, 2022-09-18 16:04:39.217
126.0, -33163.77498671711, -8851.0896386015, -39055.47130769149, -49958.58519775691, -70166.08210397746, -187500.02235174447, -28974.342819969992, -23571.166225810794, 0.654, -0.6880000000000001, 0.384, 192.0, 0.0, 0.0, 0.0, 0.0, 0.0, 0.0, 0.0, 0.0, 0.0, 1.6634990792225392E9, 0.0, 2022-09-18 16:04:39.222
127.0, -33766.981514332474, -8892.32860712154, -38975.60852475268, -49875.704929316635, -69685.58665342172, -187500.02235174447, -28962.16111924185, -23525.03222525504, 0.654, -0.6880000000000001, 0.384, 192.0, 0.0, 0.0, 0.0, 0.0, 0.0, 0.0, 0.0, 0.0, 0.0, 1.6634990792264307E9, 0.0, 2022-09-18 16:04:39.226
128.0, -34310.86651216346, -11124.396160172959, -38469.85560296245, -49374.601170373106, -70508.77904996622, -187500.02235174447, -28620.291187797928, -23090.268443854864, 0.654, -0.6880000000000001, 0.384, 192.0, 0.0, 0.0, 0.0, 0.0, 0.0, 0.0, 0.0, 0.0, 0.0, 1.663499079230492E9, 0.0, 2022-09-18 16:04:39.230
129.0, -33870.112463249265, -11432.40319876709, -38463.23948660368, -49388.16867925748, -70798.03297496235, -187500.02235174447, -28577.17467274364, -23079.67371698305, 0.664, -0.682, 0.382, 192.0, 20.0, 192.0, 234.0, 176.0, 11.0, 240.0, 0.0, 0.0, 0.0, 1.663499079233441E9, 0.0, 2022-09-18 16:04:39.233
130.0, -33498.49235993533, -10520.161452312643, -38674.1281955395, -49591.524850311864, -70756.72695120896, -187500.02235174447, -28709.96638655262, -23256.990105746998, 0.664, -0.682, 0.382, 192.0, 0.0, 0.0, 0.0, 0.0, 0.0, 0.0, 0.0, 0.0, 0.0, 1.6634990792375696E9, 0.0, 2022-09-18 16:04:39.237
131.0, -33155.16956510181, -8811.482347426694, -39076.325485268295, -49972.040947919006, -70151.39700787033, -187500.02235174447, -29007.915140141864, -23590.567539998003, 0.664, -0.682, 0.382, 192.0, 0.0, 0.0, 0.0, 0.0, 0.0, 0.0, 0.0, 0.0, 0.0, 1.6634990792414832E9, 0.0, 2022-09-18 16:04:39.241
132.0, -33786.44988375305, -8956.947500341834, -38972.50163227339, -49866.764231534515, -69713.99572062441, -187500.02235174447, -28960.820014574532, -23527.781489823043, 0.664, -0.682, 0.382, 192.0, 0.0, 0.0, 0.0, 0.0, 0.0, 0.0, 0.0, 0.0, 0.0, 1.6634990792454474E9, 0.0, 2022-09-18 16:04:39.245
133.0, -34295.62262244494, -11178.6885474549, -38462.99361741467, -49377.886876808036, -70541.18907942642, -187500.02235174447, -28599.41465847667, -23105.512333573384, 0.664, -0.682, 0.382, 192.0, 0.0, 0.0, 0.0, 0.0, 0.0, 0.0, 0.0, 0.0, 0.0, 1.6634990792494545E9, 0.0, 2022-09-18 16:04:39.249
134.0, -33847.827774027326, -11428.066960342761, -38492.587327073496, -49401.44561546393, -70799.97757672997, -187500.02235174447, -28590.541015927916, -23100.751412004403, 0.664, -0.682, 0.382, 192.0, 0.0, 0.0, 0.0, 0.0, 0.0, 0.0, 0.0, 0.0, 0.0, 1.6634990792545228E9, 0.0, 2022-09-18 16:04:39.254
135.0, -33491.74213310982, -10496.1780305121, -38727.59356827659, -49620.00097274792, -70768.61807925918, -187500.02235174447, -28745.840936403387, -23294.295167242904, 0.664, -0.682, 0.382, 192.0, 0.0, 0.0, 0.0, 0.0, 0.0, 0.0, 0.0, 0.0, 0.0, 1.6634990792574909E9, 0.0, 2022-09-18 16:04:39.257
136.0, -33152.46500402272, -8757.994622945145, -39108.31083158384, -49988.58123881593, -70102.67020495776, -187500.02235174447, -29006.21640756326, -23615.48973506567, 0.664, -0.682, 0.382, 192.0, 0.0, 0.0, 0.0, 0.0, 0.0, 0.0, 0.0, 0.0, 0.0, 1.6634990792615073E9, 0.0, 2022-09-18 16:04:39.261
137.0, -33802.6772502276, -8973.130163327476, -38962.800975179794, -49836.142341630744, -69676.95888006197, -187500.02235174447, -28938.043586974574, -23507.441402368713, 0.664, -0.682, 0.382, 192.0, 0.0, 0.0, 0.0, 0.0, 0.0, 0.0, 0.0, 0.0, 0.0, 1.6634990792655563E9, 0.0, 2022-09-18 16:04:39.265
138.0, -34291.08521832052, -11178.77795443272, -38467.75453898365, -49349.701327049894, -70539.66916080346, -187500.02235174447, -28587.679992637637, -23081.059525139277, 0.664, -0.682, 0.382, 192.0, 0.0, 0.0, 0.0, 0.0, 0.0, 0.0, 0.0, 0.0, 0.0, 1.6634990792695189E9, 0.0, 2022-09-18 16:04:39.269
139.0, -33852.32047466284, -11389.912532557551, -38494.397818374375, -49393.73426362685, -70798.10003019572, -187500.02235174447, -28583.589623402313, -23090.51431304387, 0.66, -0.686, 0.386, 192.0, 20.0, 160.0, 234.0, 144.0, 12.0, 16.0, 0.0, 0.0, 0.0, 1.6634990792735555E9, 0.0, 2022-09-18 16:04:39.273
140.0, -33491.406856942995, -10441.438608341052, -38710.58389074611, -49602.18663241704, -70749.9990761279, -187500.02235174447, -28728.943017595175, -23268.814178563855, 0.66, -0.686, 0.386, 192.0, 0.0, 0.0, 0.0, 0.0, 0.0, 0.0, 0.0, 0.0, 0.0, 1.6634990792775726E9, 0.0, 2022-09-18 16:04:39.277
141.0, -33159.349341314955, -8692.347549479908, -39082.31575278232, -49966.22949436063, -70083.76062914856, -187500.02235174447, -29003.13186682843, -23589.517008008603, 0.66, -0.686, 0.386, 192.0, 0.0, 0.0, 0.0, 0.0, 0.0, 0.0, 0.0, 0.0, 0.0, 1.6634990792825205E9, 0.0, 2022-09-18 16:04:39.282
142.0, -33853.92980026362, -9043.180530450409, -38932.112030042656, -49817.99272513303, -69729.64194174313, -187500.02235174447, -28932.76857528312, -23491.102277171885, 0.66, -0.686, 0.386, 192.0, 0.0, 0.0, 0.0, 0.0, 0.0, 0.0, 0.0, 0.0, 0.0, 1.6634990792855735E9, 0.0, 2022-09-18 16:04:39.285
143.0, -34303.28927079312, -11241.452245885403, -38457.65155048985, -49343.77811476924, -70590.02764106127, -187500.02235174447, -28596.643042164214, -23073.70580121348, 0.66, -0.686, 0.386, 192.0, 0.0, 0.0, 0.0, 0.0, 0.0, 0.0, 0.0, 0.0, 0.0, 1.6634990792895885E9, 0.0, 2022-09-18 16:04:39.289
144.0, -33849.23593392801, -11383.721099343431, -38510.42401914883, -49391.0073508033, -70815.84731529324, -187500.02235174447, -28583.14258851321, -23090.737830488426, 0.66, -0.686, 0.386, 192.0, 0.0, 0.0, 0.0, 0.0, 0.0, 0.0, 0.0, 0.0, 0.0, 1.663499079293612E9, 0.0, 2022-09-18 16:04:39.293
145.0, -33489.19403424192, -10421.187927864543, -38737.22717013683, -49607.93103074205, -70770.83090196025, -187500.02235174447, -28731.781689141, -23281.442914181105, 0.66, -0.686, 0.386, 192.0, 0.0, 0.0, 0.0, 0.0, 0.0, 0.0, 0.0, 0.0, 0.0, 1.6634990792976093E9, 0.0, 2022-09-18 16:04:39.297
146.0, -33188.361905617945, -8696.639084415327, -39122.258320123954, -49987.351892870895, -70078.15034129028, -187500.02235174447, -29015.939416401317, -23622.35172061345, 0.66, -0.686, 0.386, 192.0, 0.0, 0.0, 0.0, 0.0, 0.0, 0.0, 0.0, 0.0, 0.0, 1.6634990793015835E9, 0.0, 2022-09-18 16:04:39.301
147.0, -33885.93749832362, -9115.868403419066, -38939.55516094627, -49796.155070800196, -69718.68958696003, -187500.02235174447, -28927.605322313946, -23484.21793987965, 0.66, -0.686, 0.386, 192.0, 0.0, 0.0, 0.0, 0.0, 0.0, 0.0, 0.0, 0.0, 0.0, 1.6634990793055923E9, 0.0, 2022-09-18 16:04:39.305
148.0, -34288.447712474794, -11287.161563296506, -38462.70304473675, -49314.407922554965, -70586.07138229268, -187500.02235174447, -28587.590585659815, -23059.31127778426, 0.66, -0.686, 0.386, 192.0, 0.0, 0.0, 0.0, 0.0, 0.0, 0.0, 0.0, 0.0, 0.0, 1.663499079310642E9, 0.0, 2022-09-18 16:04:39.310
149.0, -33827.57709355081, -11363.783343289299, -38525.71261235626, -49384.77121410027, -70782.78908524384, -187500.02235174447, -28583.634326891224, -23101.109039915686, 0.66, -0.6940000000000001, 0.386, 192.0, 20.0, 160.0, 234.0, 80.0, 12.0, 16.0, 0.0, 0.0, 0.0, 1.6634990793136322E9, 0.0, 2022-09-18 16:04:39.313
150.0, -33473.726627078846, -10365.800305104292, -38736.37780384753, -49613.3625046447, -70704.96031105045, -187500.02235174447, -28732.36283449684, -23303.32527200285, 0.66, -0.6940000000000001, 0.386, 192.0, 0.0, 0.0, 0.0, 0.0, 0.0, 0.0, 0.0, 0.0, 0.0, 1.6634990793176167E9, 0.0, 2022-09-18 16:04:39.317
151.0, -33186.394952105875, -8647.688764058204, -39125.186398647595, -49985.541401570015, -69976.80753192992, -187500.02235174447, -29005.59055871851, -23634.376959130404, 0.66, -0.6940000000000001, 0.386, 192.0, 0.0, 0.0, 0.0, 0.0, 0.0, 0.0, 0.0, 0.0, 0.0, 1.6634990793216522E9, 0.0, 2022-09-18 16:04:39.321
152.0, -33913.83247540385, -9190.098546755142, -38924.80300960577, -49785.02390206145, -69694.10266805919, -187500.02235174447, -28906.192351125763, -23491.191684149708, 0.66, -0.6940000000000001, 0.386, 192.0, 0.0, 0.0, 0.0, 0.0, 0.0, 0.0, 0.0, 0.0, 0.0, 1.6634990793256555E9, 0.0, 2022-09-18 16:04:39.325
153.0, -34286.54781419609, -11320.510366023824, -38469.38621632889, -49341.52058857925, -70566.82653031666, -187500.02235174447, -28591.435085706125, -23101.310205615784, 0.66, -0.6940000000000001, 0.386, 192.0, 0.0, 0.0, 0.0, 0.0, 0.0, 0.0, 0.0, 0.0, 0.0, 1.6634990793296294E9, 0.0, 2022-09-18 16:04:39.329
154.0, -33810.45565729805, -11327.886441694074, -38519.789400075606, -49398.092853795635, -70747.02629411535, -187500.02235174447, -28591.18921651712, -23124.824240782767, 0.66, -0.6940000000000001, 0.386, 192.0, 0.0, 0.0, 0.0, 0.0, 0.0, 0.0, 0.0, 0.0, 0.0, 1.6634990793336492E9, 0.0, 2022-09-18 16:04:39.333
155.0, -33446.41279535447, -10313.698388778972, -38755.8461732681, -49623.97958326097, -70716.98554956741, -187500.02235174447, -28740.87884913431, -23316.535152975935, 0.66, -0.6940000000000001, 0.386, 192.0, 0.0, 0.0, 0.0, 0.0, 0.0, 0.0, 0.0, 0.0, 0.0, 1.6634990793387835E9, 0.0, 2022-09-18 16:04:39.338
156.0, -33164.66905649532, -8588.389586018275, -39134.618834807734, -49994.191526674214, -69986.59759600135, -187500.02235174447, -29020.476820525746, -23636.12039519792, 0.66, -0.6940000000000001, 0.386, 192.0, 0.0, 0.0, 0.0, 0.0, 0.0, 0.0, 0.0, 0.0, 0.0, 1.6634990793417077E9, 0.0, 2022-09-18 16:04:39.341
157.0, -33910.47971373555, -9220.385160492082, -38916.95754730196, -49781.71584388207, -69739.02967441436, -187500.02235174447, -28915.49067681917, -23473.042067651997, 0.66, -0.6940000000000001, 0.386, 192.0, 0.0, 0.0, 0.0, 0.0, 0.0, 0.0, 0.0, 0.0, 0.0, 1.6634990793457327E9, 0.0, 2022-09-18 16:04:39.345
158.0, -34236.0328717271, -11315.928258410486, -38434.69630893425, -49327.37193433904, -70604.84684763514, -187500.02235174447, -28562.623687103238, -23061.27823129633, 0.66, -0.6940000000000001, 0.386, 192.0, 0.0, 0.0, 0.0, 0.0, 0.0, 0.0, 0.0, 0.0, 0.0, 1.6634990793496995E9, 0.0, 2022-09-18 16:04:39.349
159.0, -33788.103912842744, -11302.33839778166, -38540.50946718567, -49435.912005414015, -70811.75694605791, -187500.02235174447, -28612.244559794017, -23134.14491822063, 0.666, -0.6920000000000001, 0.38, 192.0, 20.0, 208.0, 234.0, 96.0, 11.0, 224.0, 0.0, 0.0, 0.0, 1.6634990793536952E9, 0.0, 2022-09-18 16:04:39.353
160.0, -33427.25735035627, -10259.003670096836, -38785.61869688257, -49672.10288907324, -70755.76582619737, -187500.02235174447, -28772.59597451639, -23334.729472962557, 0.666, -0.6920000000000001, 0.38, 192.0, 0.0, 0.0, 0.0, 0.0, 0.0, 0.0, 0.0, 0.0, 0.0, 1.6634990793576956E9, 0.0, 2022-09-18 16:04:39.357
161.0, -33173.810919977535, -8567.356594485831, -39145.92881750212, -50032.792989348534, -70011.60919804683, -187500.02235174447, -29031.40682356439, -23643.04943597906, 0.666, -0.6920000000000001, 0.38, 192.0, 0.0, 0.0, 0.0, 0.0, 0.0, 0.0, 0.0, 0.0, 0.0, 1.6634990793616872E9, 0.0, 2022-09-18 16:04:39.361
162.0, -33946.24250486404, -9313.770748826355, -38880.39009337308, -49775.47970717904, -69825.9332568566, -187500.02235174447, -28897.05048764354, -23434.150032299764, 0.666, -0.6920000000000001, 0.38, 192.0, 0.0, 0.0, 0.0, 0.0, 0.0, 0.0, 0.0, 0.0, 0.0, 1.6634990793667881E9, 0.0, 2022-09-18 16:04:39.366
163.0, -34254.42835741382, -11388.705538356966, -38435.970358368206, -49343.73341128033, -70702.68043311601, -187500.02235174447, -28590.585719416824, -23040.22288801943, 0.666, -0.6920000000000001, 0.38, 192.0, 0.0, 0.0, 0.0, 0.0, 0.0, 0.0, 0.0, 0.0, 0.0, 1.6634990793697195E9, 0.0, 2022-09-18 16:04:39.369
164.0, -33786.561642475324, -11318.923392167497, -38520.705821598276, -49428.62533672158, -70862.49540597147, -187500.02235174447, -28612.825705149855, -23080.768952461356, 0.666, -0.6920000000000001, 0.38, 192.0, 0.0, 0.0, 0.0, 0.0, 0.0, 0.0, 0.0, 0.0, 0.0, 1.6634990793726747E9, 0.0, 2022-09-18 16:04:39.372
165.0, -33421.84822819808, -10237.322477975187, -38760.80826053718, -49663.78804013587, -70792.93677722654, -187500.02235174447, -28760.97306739963, -23271.764608831956, 0.666, -0.6920000000000001, 0.38, 192.0, 0.0, 0.0, 0.0, 0.0, 0.0, 0.0, 0.0, 0.0, 0.0, 1.6634990793777962E9, 0.0, 2022-09-18 16:04:39.377
166.0, -33193.92748998731, -8543.864911063303, -39133.36713711824, -50024.63460262235, -70012.61502654733, -187500.02235174447, -29045.17549814886, -23575.05542934602, 0.666, -0.6920000000000001, 0.38, 192.0, 0.0, 0.0, 0.0, 0.0, 0.0, 0.0, 0.0, 0.0, 0.0, 1.6634990793817444E9, 0.0, 2022-09-18 16:04:39.381
167.0, -34011.174322506704, -9389.43140380757, -38887.989686487876, -49775.68087287914, -69869.47445505553, -187500.02235174447, -28902.727830735188, -23377.28719440546, 0.666, -0.6920000000000001, 0.38, 192.0, 0.0, 0.0, 0.0, 0.0, 0.0, 0.0, 0.0, 0.0, 0.0, 1.663499079385743E9, 0.0, 2022-09-18 16:04:39.385
168.0, -34281.33985773801, -11432.827881911742, -38448.3755765409, -49355.49042886382, -70730.41894798505, -187500.02235174447, -28581.645021634704, -22986.913977493525, 0.666, -0.6920000000000001, 0.38, 192.0, 0.0, 0.0, 0.0, 0.0, 0.0, 0.0, 0.0, 0.0, 0.0, 1.663499079389746E9, 0.0, 2022-09-18 16:04:39.389
169.0, -33807.818151452324, -11306.875801906086, -38536.3967462059, -49459.31428185872, -70827.67138811009, -187500.02235174447, -28617.005481362998, -23050.571745702237, 0.66, -0.68, 0.38, 192.0, 20.0, 160.0, 234.0, 192.0, 11.0, 224.0, 0.0, 0.0, 0.0, 1.6634990793947413E9, 0.0, 2022-09-18 16:04:39.394
170.0, -33435.23692312681, -10207.907582272004, -38778.3543799346, -49693.314694561326, -70725.65802641607, -187500.02235174447, -28777.669820507745, -23252.11742545574, 0.66, -0.68, 0.38, 192.0, 0.0, 0.0, 0.0, 0.0, 0.0, 0.0, 0.0, 0.0, 0.0, 1.6634990793978107E9, 0.0, 2022-09-18 16:04:39.397
171.0, -33207.7408680607, -8525.961163754602, -39121.1854363901, -50027.22740497916, -69885.43360059662, -187500.02235174447, -29028.18817236283, -23543.271248730573, 0.66, -0.68, 0.38, 192.0, 0.0, 0.0, 0.0, 0.0, 0.0, 0.0, 0.0, 0.0, 0.0, 1.6634990794007976E9, 0.0, 2022-09-18 16:04:39.400
172.0, -34012.47072368512, -9457.112486018239, -38832.73617419436, -49741.482703862515, -69778.27933767789, -187500.02235174447, -28847.29550448603, -23321.676054200656, 0.66, -0.68, 0.38, 192.0, 0.0, 0.0, 0.0, 0.0, 0.0, 0.0, 0.0, 0.0, 0.0, 1.6634990794058213E9, 0.0, 2022-09-18 16:04:39.405
173.0, -34263.30199996257, -11466.757829994898, -38442.117088093415, -49370.24258020432, -70631.4230717925, -187500.02235174447, -28564.165957470654, -22985.17054142601, 0.66, -0.68, 0.38, 192.0, 0.0, 0.0, 0.0, 0.0, 0.0, 0.0, 0.0, 0.0, 0.0, 1.6634990794098365E9, 0.0, 2022-09-18 16:04:39.409
174.0, -33790.60730822173, -11304.730034438377, -38534.85447583848, -49468.23262789639, -70710.3917849531, -187500.02235174447, -28602.253330022497, -23044.648533421583, 0.66, -0.68, 0.38, 192.0, 0.0, 0.0, 0.0, 0.0, 0.0, 0.0, 0.0, 0.0, 0.0, 1.6634990794138296E9, 0.0, 2022-09-18 16:04:39.413
175.0, -33407.386649535496, -10182.91833197097, -38792.01129579679, -49709.72087499152, -70625.63396997857, -187500.02235174447, -28777.669820507745, -23254.79963479038, 0.66, -0.68, 0.38, 192.0, 0.0, 0.0, 0.0, 0.0, 0.0, 0.0, 0.0, 0.0, 0.0, 1.663499079417826E9, 0.0, 2022-09-18 16:04:39.417
176.0, -33220.48136240022, -8533.136073724756, -39154.71305307306, -50064.44305949725, -69794.99844253046, -187500.02235174447, -29049.690550528834, -23572.172054311282, 0.66, -0.68, 0.38, 192.0, 0.0, 0.0, 0.0, 0.0, 0.0, 0.0, 0.0, 0.0, 0.0, 1.6634990794208357E9, 0.0, 2022-09-18 16:04:39.420
177.0, -34054.55905849446, -9569.541760628434, -38841.90038942103, -49767.835410575324, -69752.50777632091, -187500.02235174447, -28874.519929232592, -23342.61963875528, 0.66, -0.68, 0.38, 192.0, 0.0, 0.0, 0.0, 0.0, 0.0, 0.0, 0.0, 0.0, 0.0, 1.6634990794248123E9, 0.0, 2022-09-18 16:04:39.424
178.0, -34246.02410149862, -11505.269885691392, -38450.431937030786, -49378.95976054189, -70578.5611961557, -187500.02235174447, -28576.32530645434, -22985.282300148287, 0.66, -0.68, 0.38, 192.0, 0.0, 0.0, 0.0, 0.0, 0.0, 0.0, 0.0, 0.0, 0.0, 1.6634990794288435E9, 0.0, 2022-09-18 16:04:39.428
179.0, -33773.1729475466, -11275.315138735192, -38552.49000221372, -49482.31422690323, -70631.98186540388, -187500.02235174447, -28638.41845255118, -23057.32197252774, 0.66, -0.68, 0.38, 192.0, 0.0, 0.0, 0.0, 0.0, 0.0, 0.0, 0.0, 0.0, 0.0, 1.663499079432806E9, 0.0, 2022-09-18 16:04:39.432
180.0, -33399.11650408703, -10121.026351574224, -38808.864511116095, -49727.40110485567, -70531.55547756619, -187500.02235174447, -28820.428707650746, -23274.51387339996, 0.656, -0.686, 0.386, 192.0, 20.0, 128.0, 234.0, 144.0, 12.0, 16.0, 0.0, 0.0, 0.0, 1.6634990794377842E9, 0.0, 2022-09-18 16:04:39.437
181.0, -33240.97791206573, -8508.63856180174, -39164.07843399983, -50069.89688514434, -69722.37762479516, -187500.02235174447, -29064.845033269532, -23580.598661970933, 0.656, -0.686, 0.386, 192.0, 0.0, 0.0, 0.0, 0.0, 0.0, 0.0, 0.0, 0.0, 0.0, 1.6634990794419513E9, 0.0, 2022-09-18 16:04:39.441
182.0, -34072.30634359197, -9620.839014153364, -38837.54179925225, -49752.97150051255, -69731.16186036609, -187500.02235174447, -28879.482016501668, -23334.103624117808, 0.656, -0.686, 0.386, 192.0, 0.0, 0.0, 0.0, 0.0, 0.0, 0.0, 0.0, 0.0, 0.0, 1.663499079445888E9, 0.0, 2022-09-18 16:04:39.445
183.0, -34225.79577276656, -11506.253362447425, -38452.95768415424, -49377.3057314522, -70558.84695754612, -187500.02235174447, -28583.030829790932, -22989.126800194597, 0.656, -0.686, 0.386, 192.0, 0.0, 0.0, 0.0, 0.0, 0.0, 0.0, 0.0, 0.0, 0.0, 1.6634990794489253E9, 0.0, 2022-09-18 16:04:39.448
184.0, -33760.81243286281, -11248.090713988628, -38564.6046477085, -49487.857459528146, -70615.8215541627, -187500.02235174447, -28629.18718209114, -23063.46870225295, 0.656, -0.686, 0.386, 192.0, 0.0, 0.0, 0.0, 0.0, 0.0, 0.0, 0.0, 0.0, 0.0, 1.6634990794528296E9, 0.0, 2022-09-18 16:04:39.452
185.0, -33385.772512647214, -10079.452106887355, -38827.90819739201, -49735.7383055375, -70505.22512259784, -187500.02235174447, -28801.921463241753, -23279.811236835867, 0.656, -0.686, 0.386, 192.0, 0.0, 0.0, 0.0, 0.0, 0.0, 0.0, 0.0, 0.0, 0.0, 1.6634990794568694E9, 0.0, 2022-09-18 16:04:39.456
186.0, -33253.60664768299, -8493.618189527773, -39162.44675665459, -50068.82400141049, -69687.19597902251, -187500.02235174447, -29063.772149535675, -23578.832874158965, 0.656, -0.686, 0.386, 192.0, 0.0, 0.0, 0.0, 0.0, 0.0, 0.0, 0.0, 0.0, 0.0, 1.6634990794608588E9, 0.0, 2022-09-18 16:04:39.460
187.0, -34103.41997187376, -9706.312084950458, -38824.0636973457, -49726.64114554419, -69734.22404935648, -187500.02235174447, -28865.154548305818, -23310.880161628746, 0.656, -0.686, 0.386, 192.0, 0.0, 0.0, 0.0, 0.0, 0.0, 0.0, 0.0, 0.0, 0.0, 1.6634990794658353E9, 0.0, 2022-09-18 16:04:39.465
188.0, -34215.469266828215, -11537.18817677357, -38464.53588778208, -49363.91703652347, -70542.46312886037, -187500.02235174447, -28595.972489830554, -22979.96258496792, 0.656, -0.686, 0.386, 192.0, 0.0, 0.0, 0.0, 0.0, 0.0, 0.0, 0.0, 0.0, 0.0, 1.6634990794699483E9, 0.0, 2022-09-18 16:04:39.469
189.0, -33761.43828170756, -11236.93719350543, -38582.24017408373, -49491.50079387436, -70614.5698564732, -187500.02235174447, -28652.656513769212, -23071.18005409003, 0.656, -0.686, 0.386, 192.0, 0.0, 0.0, 0.0, 0.0, 0.0, 0.0, 0.0, 0.0, 0.0, 1.6634990794738672E9, 0.0, 2022-09-18 16:04:39.473
190.0, -33372.51792818522, -10023.773911449183, -38830.90333114903, -49745.61777658675, -70481.21934905283, -187500.02235174447, -28822.21684720717, -23290.56242591887, 0.658, -0.684, 0.386, 192.0, 20.0, 144.0, 234.0, 160.0, 12.0, 16.0, 0.0, 0.0, 0.0, 1.6634990794768486E9, 0.0, 2022-09-18 16:04:39.476
191.0, -33261.6532756869, -8473.546323006907, -39154.02014899494, -50065.85121939793, -69648.46040588146, -187500.02235174447, -29076.736161319754, -23577.603528213924, 0.658, -0.684, 0.386, 192.0, 0.0, 0.0, 0.0, 0.0, 0.0, 0.0, 0.0, 0.0, 0.0, 1.6634990794809253E9, 0.0, 2022-09-18 16:04:39.480
192.0, -34118.17212321426, -9767.041774635527, -38792.86066208609, -49706.97161042352, -69733.77701446737, -187500.02235174447, -28847.13904227484, -23292.931710831133, 0.658, -0.684, 0.386, 192.0, 0.0, 0.0, 0.0, 0.0, 0.0, 0.0, 0.0, 0.0, 0.0, 1.66349907948493E9, 0.0, 2022-09-18 16:04:39.484
193.0, -34213.30114761605, -11564.323194542312, -38460.356111568944, -49371.42722266045, -70549.70509406389, -187500.02235174447, -28586.18242575913, -22981.303689635242, 0.658, -0.684, 0.386, 192.0, 0.0, 0.0, 0.0, 0.0, 0.0, 0.0, 0.0, 0.0, 0.0, 1.663499079488921E9, 0.0, 2022-09-18 16:04:39.488
194.0, -33751.64821763614, -11230.119911446562, -38582.709560717296, -49504.88948880309, -70608.15490581452, -187500.02235174447, -28676.639935569758, -23078.109094871175, 0.658, -0.684, 0.386, 192.0, 0.0, 0.0, 0.0, 0.0, 0.0, 0.0, 0.0, 0.0, 0.0, 1.663499079493898E9, 0.0, 2022-09-18 16:04:39.493
195.0, -33374.75310263075, -10004.93139087336, -38851.66810174801, -49777.26784673546, -70454.95604931784, -187500.02235174447, -28856.77264413508, -23316.199876809107, 0.658, -0.684, 0.386, 192.0, 0.0, 0.0, 0.0, 0.0, 0.0, 0.0, 0.0, 0.0, 0.0, 1.6634990794979634E9, 0.0, 2022-09-18 16:04:39.497
196.0, -33272.180947325345, -8471.646424728206, -39150.913256515654, -50071.08152760047, -69601.45468729195, -187500.02235174447, -29067.639001326443, -23580.24103405965, 0.658, -0.684, 0.386, 192.0, 0.0, 0.0, 0.0, 0.0, 0.0, 0.0, 0.0, 0.0, 0.0, 1.6634990795019531E9, 0.0, 2022-09-18 16:04:39.501
197.0, -34135.89705656732, -9840.511958660121, -38759.847135525604, -49701.54013652088, -69718.60017998221, -187500.02235174447, -28823.625007107858, -23284.393344449207, 0.658, -0.684, 0.386, 192.0, 0.0, 0.0, 0.0, 0.0, 0.0, 0.0, 0.0, 0.0, 0.0, 1.663499079504944E9, 0.0, 2022-09-18 16:04:39.504
198.0, -34197.364353819416, -11568.234749821991, -38445.20162882825, -49387.38636820154, -70499.4360207839, -187500.02235174447, -28606.902492869198, -22988.65741356104, 0.658, -0.684, 0.386, 192.0, 0.0, 0.0, 0.0, 0.0, 0.0, 0.0, 0.0, 0.0, 0.0, 1.6634990795089302E9, 0.0, 2022-09-18 16:04:39.508
199.0, -33734.92911278357, -11190.132640616017, -38570.751377433706, -49508.66693361604, -70544.16186143897, -187500.02235174447, -28666.916926731697, -23073.52698725784, 0.658, -0.684, 0.386, 192.0, 0.0, 0.0, 0.0, 0.0, 0.0, 0.0, 0.0, 0.0, 0.0, 1.6634990795129511E9, 0.0, 2022-09-18 16:04:39.512
200.0, -33348.91448604041, -9939.06079996357, -38845.007281900325, -49788.30960849638, -70384.99508917273, -187500.02235174447, -28849.7094928872, -23315.19404830862, 0.662, -0.686, 0.388, 192.0, 20.0, 176.0, 234.0, 144.0, 12.0, 32.0, 0.0, 0.0, 0.0, 1.663499079516984E9, 0.0, 2022-09-18 16:04:39.516
201.0, -33293.52686328016, -8465.611453725274, -39152.097898971784, -50085.14077486286, -69528.96798002339, -187500.02235174447, -29086.682687602366, -23585.13606609536, 0.662, -0.686, 0.388, 192.0, 0.0, 0.0, 0.0, 0.0, 0.0, 0.0, 0.0, 0.0, 0.0, 1.6634990795219972E9, 0.0, 2022-09-18 16:04:39.521
202.0, -34208.0261359246, -9956.629271105441, -38832.691470705446, -49730.32918337932, -69709.92770313355, -187500.02235174447, -28923.53730482308, -23303.414678980673, 0.662, -0.686, 0.388, 192.0, 0.0, 0.0, 0.0, 0.0, 0.0, 0.0, 0.0, 0.0, 0.0, 1.663499079526036E9, 0.0, 2022-09-18 16:04:39.526
203.0, -34210.73069700369, -11620.671942314142, -38488.85458574946, -49408.88874636755, -70469.0823518136, -187500.02235174447, -28598.74410614301, -23003.45426839045, 0.662, -0.686, 0.388, 192.0, 0.0, 0.0, 0.0, 0.0, 0.0, 0.0, 0.0, 0.0, 0.0, 1.6634990795300615E9, 0.0, 2022-09-18 16:04:39.530
204.0, -33746.35085420023, -11199.45331805388, -38597.528767291165, -49553.48218124893, -70487.03080261122, -187500.02235174447, -28689.514540376014, -23117.850496512714, 0.662, -0.686, 0.388, 192.0, 0.0, 0.0, 0.0, 0.0, 0.0, 0.0, 0.0, 0.0, 0.0, 1.6634990795330353E9, 0.0, 2022-09-18 16:04:39.533
205.0, -33315.096296679534, -9874.5313137211, -38826.3659270246, -49770.96465479906, -70271.76115176216, -187500.02235174447, -28821.143963473318, -23302.878237113746, 0.662, -0.686, 0.388, 192.0, 0.0, 0.0, 0.0, 0.0, 0.0, 0.0, 0.0, 0.0, 0.0, 1.6634990795370173E9, 0.0, 2022-09-18 16:04:39.537
206.0, -33287.24602308822, -8454.927319875636, -39133.36713711824, -50058.34103326095, -69454.42491226493, -187500.02235174447, -29071.818777539585, -23564.23718502965, 0.662, -0.686, 0.388, 192.0, 0.0, 0.0, 0.0, 0.0, 0.0, 0.0, 0.0, 0.0, 0.0, 1.6634990795411425E9, 0.0, 2022-09-18 16:04:39.541
207.0, -34177.58305997647, -10002.606809450008, -38733.04739392369, -49668.34779600475, -69681.16100801957, -187500.02235174447, -28818.46175413868, -23253.61499233425, 0.662, -0.686, 0.388, 192.0, 0.0, 0.0, 0.0, 0.0, 0.0, 0.0, 0.0, 0.0, 0.0, 1.663499079544999E9, 0.0, 2022-09-18 16:04:39.544
208.0, -34170.654019195325, -11600.197744393081, -38449.2249428302, -49380.99376928732, -70443.13197650098, -187500.02235174447, -28602.9015306117, -22986.35518388214, 0.662, -0.686, 0.388, 192.0, 0.0, 0.0, 0.0, 0.0, 0.0, 0.0, 0.0, 0.0, 0.0, 1.6634990795490267E9, 0.0, 2022-09-18 16:04:39.549
209.0, -33740.33823494175, -11162.483532724802, -38607.76586625169, -49534.95258509548, -70481.44286649738, -187500.02235174447, -28690.542720620957, -23108.172191163565, 0.662, -0.686, 0.388, 192.0, 0.0, 0.0, 0.0, 0.0, 0.0, 0.0, 0.0, 0.0, 0.0, 1.6634990795540931E9, 0.0, 2022-09-18 16:04:39.554
210.0, -33353.09426225356, -9863.847179871462, -38901.914823283536, -49825.68172522566, -70305.08760274501, -187500.02235174447, -28901.16320862332, -23363.406761098715, 0.656, -0.68, 0.38, 192.0, 20.0, 128.0, 234.0, 192.0, 11.0, 224.0, 0.0, 0.0, 0.0, 1.6634990795580845E9, 0.0, 2022-09-18 16:04:39.558
211.0, -33330.831924776074, -8463.175113579646, -39154.40012865068, -50070.92506538929, -69441.7961766477, -187500.02235174447, -29086.347411435538, -23587.885330663365, 0.656, -0.68, 0.38, 192.0, 0.0, 0.0, 0.0, 0.0, 0.0, 0.0, 0.0, 0.0, 0.0, 1.66349907956107E9, 0.0, 2022-09-18 16:04:39.561
212.0, -34201.9241096883, -10080.055603987646, -38724.978414175326, -49644.3196707153, -69709.14539207761, -187500.02235174447, -28818.573512860956, -23239.041654949386, 0.656, -0.68, 0.38, 192.0, 0.0, 0.0, 0.0, 0.0, 0.0, 0.0, 0.0, 0.0, 0.0, 1.663499079565047E9, 0.0, 2022-09-18 16:04:39.565
213.0, -34146.91646658379, -11609.652532297676, -38437.60203571344, -49368.67795809245, -70440.06978751061, -187500.02235174447, -28590.31749848336, -22977.25802388883, 0.656, -0.68, 0.38, 192.0, 0.0, 0.0, 0.0, 0.0, 0.0, 0.0, 0.0, 0.0, 0.0, 1.6634990795690773E9, 0.0, 2022-09-18 16:04:39.569
214.0, -33694.070123919264, -11135.01323878923, -38580.943772905324, -49511.14797725058, -70481.95695661986, -187500.02235174447, -28678.651592570735, -23088.010917664877, 0.656, -0.68, 0.38, 192.0, 0.0, 0.0, 0.0, 0.0, 0.0, 0.0, 0.0, 0.0, 0.0, 1.663499079573074E9, 0.0, 2022-09-18 16:04:39.573
215.0, -33316.012718202204, -9810.337103645457, -38896.25983193634, -49817.94802164412, -70304.595864367, -187500.02235174447, -28904.42656331379, -23354.935449950153, 0.656, -0.68, 0.38, 192.0, 0.0, 0.0, 0.0, 0.0, 0.0, 0.0, 0.0, 0.0, 0.0, 1.663499079577107E9, 0.0, 2022-09-18 16:04:39.577
216.0, -33366.92999207139, -8487.337349335832, -39173.913201560164, -50087.107728374926, -69475.52495903075, -187500.02235174447, -29128.368691011514, -23603.330386081983, 0.656, -0.68, 0.38, 192.0, 0.0, 0.0, 0.0, 0.0, 0.0, 0.0, 0.0, 0.0, 0.0, 1.663499079582138E9, 0.0, 2022-09-18 16:04:39.582
217.0, -34237.88806651688, -10152.855235678582, -38741.07167018315, -49650.62286265169, -69773.89839576464, -187500.02235174447, -28849.038940553542, -23246.84241376429, 0.656, -0.68, 0.38, 192.0, 0.0, 0.0, 0.0, 0.0, 0.0, 0.0, 0.0, 0.0, 0.0, 1.663499079585103E9, 0.0, 2022-09-18 16:04:39.585
218.0, -34148.59284741794, -11613.742901532996, -38463.507707537145, -49391.05205429221, -70471.02695358121, -187500.02235174447, -28615.954949373598, -22994.22299793041, 0.656, -0.68, 0.38, 192.0, 0.0, 0.0, 0.0, 0.0, 0.0, 0.0, 0.0, 0.0, 0.0, 1.6634990795890956E9, 0.0, 2022-09-18 16:04:39.589
219.0, -33697.73581000994, -11102.491450606758, -38597.372305079974, -49526.928308836024, -70485.55558747717, -187500.02235174447, -28700.15397073674, -23091.922472944556, 0.656, -0.68, 0.38, 192.0, 0.0, 0.0, 0.0, 0.0, 0.0, 0.0, 0.0, 0.0, 0.0, 1.663499079593155E9, 0.0, 2022-09-18 16:04:39.593
220.0, -33299.07009590508, -9734.83291087543, -38908.486236153396, -49834.600071263325, -70274.33160237451, -187500.02235174447, -28917.547037309057, -23363.496168076537, 0.656, -0.684, 0.384, 192.0, 20.0, 128.0, 234.0, 160.0, 12.0, 0.0, 0.0, 0.0, 0.0, 1.6634990795971296E9, 0.0, 2022-09-18 16:04:39.597
221.0, -33371.95913457384, -8467.176075837146, -39155.58477110681, -50081.74330970566, -69437.97402834584, -187500.02235174447, -29113.348318737546, -23598.211836601717, 0.656, -0.684, 0.384, 192.0, 0.0, 0.0, 0.0, 0.0, 0.0, 0.0, 0.0, 0.0, 0.0, 1.6634990796011217E9, 0.0, 2022-09-18 16:04:39.601
222.0, -34247.342854421484, -10230.862823827603, -38699.25155630727, -49631.512121142405, -69794.81962857481, -187500.02235174447, -28831.8057455785, -23229.54216355588, 0.656, -0.684, 0.384, 192.0, 0.0, 0.0, 0.0, 0.0, 0.0, 0.0, 0.0, 0.0, 0.0, 1.6634990796051145E9, 0.0, 2022-09-18 16:04:39.605
223.0, -34129.03507101954, -11623.354151648778, -38443.27937880509, -49379.33974019763, -70490.09299160159, -187500.02235174447, -28633.121089115273, -22983.717678036413, 0.656, -0.684, 0.384, 192.0, 0.0, 0.0, 0.0, 0.0, 0.0, 0.0, 0.0, 0.0, 0.0, 1.6634990796101327E9, 0.0, 2022-09-18 16:04:39.610
224.0, -33700.797999000315, -11072.249540358727, -38611.856235487016, -49541.881625876624, -70511.41655581196, -187500.02235174447, -28739.515392722536, -23116.643502312127, 0.656, -0.684, 0.384, 192.0, 0.0, 0.0, 0.0, 0.0, 0.0, 0.0, 0.0, 0.0, 0.0, 1.6634990796131053E9, 0.0, 2022-09-18 16:04:39.613
225.0, -33300.79118022814, -9672.739764778587, -38914.09652401168, -49851.587397049356, -70282.66880305634, -187500.02235174447, -28943.743281810675, -23389.267729433504, 0.656, -0.684, 0.384, 192.0, 0.0, 0.0, 0.0, 0.0, 0.0, 0.0, 0.0, 0.0, 0.0, 1.6634990796171725E9, 0.0, 2022-09-18 16:04:39.617
226.0, -33401.91047214394, -8466.594930481308, -39134.57413131883, -50073.36140553492, -69461.15278734599, -187500.02235174447, -29115.94112109436, -23596.602511000936, 0.656, -0.684, 0.384, 192.0, 0.0, 0.0, 0.0, 0.0, 0.0, 0.0, 0.0, 0.0, 0.0, 1.6634990796211147E9, 0.0, 2022-09-18 16:04:39.621
227.0, -34265.246601730185, -10296.353435081654, -38663.84639309006, -49603.706551040006, -69870.45793181157, -187500.02235174447, -28821.255722195594, -23207.12336386721, 0.656, -0.684, 0.384, 192.0, 0.0, 0.0, 0.0, 0.0, 0.0, 0.0, 0.0, 0.0, 0.0, 1.6634990796252215E9, 0.0, 2022-09-18 16:04:39.625
228.0, -34127.8057250745, -11634.328858176334, -38449.40375678585, -49391.029702547756, -70555.94123076693, -187500.02235174447, -28679.322144904396, -23001.1296869671, 0.656, -0.684, 0.384, 192.0, 0.0, 0.0, 0.0, 0.0, 0.0, 0.0, 0.0, 0.0, 0.0, 1.6634990796292224E9, 0.0, 2022-09-18 16:04:39.629
229.0, -33703.0555251903, -11071.310767091605, -38617.64533730094, -49557.90782665108, -70584.30559448071, -187500.02235174447, -28792.869006737354, -23139.352874678716, 0.656, -0.684, 0.384, 192.0, 0.0, 0.0, 0.0, 0.0, 0.0, 0.0, 0.0, 0.0, 0.0, 1.6634990796331975E9, 0.0, 2022-09-18 16:04:39.633
230.0, -33291.604613257005, -9640.262680085025, -38921.02556479282, -49863.72439428859, -70343.66671367487, -187500.02235174447, -28972.085293780005, -23405.159819741228, 0.654, -0.684, 0.384, 192.0, 20.0, 112.0, 234.0, 160.0, 12.0, 0.0, 0.0, 0.0, 0.0, 1.6634990796382499E9, 0.0, 2022-09-18 16:04:39.638
231.0, -33419.52364677473, -8487.739680736027, -39132.87539874022, -50064.82303915299, -69536.07583476018, -187500.02235174447, -29154.34141806858, -23593.182694099272, 0.654, -0.684, 0.384, 192.0, 0.0, 0.0, 0.0, 0.0, 0.0, 0.0, 0.0, 0.0, 0.0, 1.6634990796411974E9, 0.0, 2022-09-18 16:04:39.641
232.0, -34286.03372407362, -10368.683680139027, -38668.98729431478, -49601.24785914992, -69990.33033732537, -187500.02235174447, -28850.536507432047, -23211.124326124707, 0.654, -0.684, 0.384, 192.0, 0.0, 0.0, 0.0, 0.0, 0.0, 0.0, 0.0, 0.0, 0.0, 1.6634990796441953E9, 0.0, 2022-09-18 16:04:39.644
233.0, -34117.41216390278, -11621.811881281363, -38440.86539040392, -49398.517536940286, -70632.16067935953, -187500.02235174447, -28684.887729273767, -23008.930445782, 0.654, -0.684, 0.384, 192.0, 0.0, 0.0, 0.0, 0.0, 0.0, 0.0, 0.0, 0.0, 0.0, 1.6634990796491876E9, 0.0, 2022-09-18 16:04:39.649
234.0, -33704.28487113534, -11042.8569964, -38626.76484903871, -49566.60265524419, -70672.70674380145, -187500.02235174447, -28796.847617250398, -23143.845575314233, 0.654, -0.684, 0.384, 192.0, 0.0, 0.0, 0.0, 0.0, 0.0, 0.0, 0.0, 0.0, 0.0, 1.663499079653187E9, 0.0, 2022-09-18 16:04:39.653
235.0, -33277.433607272345, -9564.959653015096, -38938.66109116806, -49882.25399044204, -70411.66072030792, -187500.02235174447, -29009.591520976013, -23422.415366460726, 0.654, -0.684, 0.384, 192.0, 0.0, 0.0, 0.0, 0.0, 0.0, 0.0, 0.0, 0.0, 0.0, 1.6634990796572635E9, 0.0, 2022-09-18 16:04:39.657
236.0, -33438.634388284016, -8465.432639769631, -39126.57220680382, -50069.27103629959, -69603.42164080401, -187500.02235174447, -29178.548357313677, -23601.5198947811, 0.654, -0.684, 0.384, 192.0, 0.0, 0.0, 0.0, 0.0, 0.0, 0.0, 0.0, 0.0, 0.0, 1.66349907966122E9, 0.0, 2022-09-18 16:04:39.661
237.0, -34286.95014559629, -10395.595180463217, -38631.10108746304, -49584.57345778626, -70076.42925696723, -187500.02235174447, -28852.99519932213, -23197.19918932905, 0.654, -0.684, 0.384, 192.0, 0.0, 0.0, 0.0, 0.0, 0.0, 0.0, 0.0, 0.0, 0.0, 1.6634990796662505E9, 0.0, 2022-09-18 16:04:39.666
238.0, -34100.22367241665, -11601.024758937927, -38451.88480042038, -49413.09087432514, -70716.27029374485, -187500.02235174447, -28712.290967975972, -23019.547524398273, 0.654, -0.684, 0.384, 192.0, 0.0, 0.0, 0.0, 0.0, 0.0, 0.0, 0.0, 0.0, 0.0, 1.6634990796692178E9, 0.0, 2022-09-18 16:04:39.669
239.0, -33684.436522059026, -10994.465469654258, -38649.384814427474, -49597.96215271499, -70736.07393933224, -187500.02235174447, -28834.286789213038, -23170.622965171693, 0.654, -0.684, 0.384, 192.0, 0.0, 0.0, 0.0, 0.0, 0.0, 0.0, 0.0, 0.0, 0.0, 1.6634990796732159E9, 0.0, 2022-09-18 16:04:39.673
240.0, -33258.18875529632, -9497.233867315515, -38940.13630630211, -49893.608676625336, -70434.66066535244, -187500.02235174447, -29010.396183776404, -23423.264732750027, 0.658, -0.684, 0.384, 192.0, 20.0, 144.0, 234.0, 160.0, 12.0, 0.0, 0.0, 0.0, 0.0, 1.663499079678244E9, 0.0, 2022-09-18 16:04:39.678
241.0, -33480.72272309336, -8496.948599451614, -39123.442962580084, -50076.62476022539, -69663.70429559998, -187500.02235174447, -29169.518252553735, -23601.296377336548, 0.658, -0.684, 0.384, 192.0, 0.0, 0.0, 0.0, 0.0, 0.0, 0.0, 0.0, 0.0, 0.0, 1.6634990796812975E9, 0.0, 2022-09-18 16:04:39.681
242.0, -34305.993831872205, -10474.809762812825, -38622.07098270309, -49581.13128914015, -70187.80799958801, -187500.02235174447, -28853.37517897787, -23185.48687523447, 0.658, -0.684, 0.384, 192.0, 0.0, 0.0, 0.0, 0.0, 0.0, 0.0, 0.0, 0.0, 0.0, 1.6634990796842177E9, 0.0, 2022-09-18 16:04:39.684
243.0, -34088.6454687888, -11600.443613582089, -38467.75453898365, -49427.77597043228, -70810.75111755742, -187500.02235174447, -28732.58635194139, -23023.704948866958, 0.658, -0.684, 0.384, 192.0, 0.0, 0.0, 0.0, 0.0, 0.0, 0.0, 0.0, 0.0, 0.0, 1.6634990796892412E9, 0.0, 2022-09-18 16:04:39.689
244.0, -33684.39181857012, -10949.247890621173, -38652.91639005142, -49608.98156273145, -70827.96196078802, -187500.02235174447, -28829.03412926604, -23175.741514651956, 0.658, -0.684, 0.384, 192.0, 0.0, 0.0, 0.0, 0.0, 0.0, 0.0, 0.0, 0.0, 0.0, 1.6634990796932335E9, 0.0, 2022-09-18 16:04:39.693
245.0, -33252.37730173794, -9415.471186098002, -38963.53858274682, -49926.666906674734, -70511.01422441176, -187500.02235174447, -29053.64680929742, -23454.378361031817, 0.658, -0.684, 0.384, 192.0, 0.0, 0.0, 0.0, 0.0, 0.0, 0.0, 0.0, 0.0, 0.0, 1.6634990796972632E9, 0.0, 2022-09-18 16:04:39.697
246.0, -33491.45156043191, -8470.551189249896, -39111.842407207776, -50074.90367590233, -69728.72552022047, -187500.02235174447, -29187.62316556253, -23603.82212446, 0.658, -0.684, 0.384, 192.0, 0.0, 0.0, 0.0, 0.0, 0.0, 0.0, 0.0, 0.0, 0.0, 1.6634990797012796E9, 0.0, 2022-09-18 16:04:39.701
247.0, -34322.288253580125, -10517.389836000186, -38604.94954645033, -49567.98846340042, -70296.6386433409, -187500.02235174447, -28853.79986212252, -23173.863968117712, 0.658, -0.684, 0.384, 192.0, 0.0, 0.0, 0.0, 0.0, 0.0, 0.0, 0.0, 0.0, 0.0, 1.663499079705266E9, 0.0, 2022-09-18 16:04:39.705
248.0, -34081.26939311855, -11582.159886617648, -38448.3755765409, -49421.74099942935, -70887.97639465051, -187500.02235174447, -28721.522238436013, -23018.094661008676, 0.658, -0.684, 0.384, 192.0, 0.0, 0.0, 0.0, 0.0, 0.0, 0.0, 0.0, 0.0, 0.0, 1.6634990797093048E9, 0.0, 2022-09-18 16:04:39.709
249.0, -33667.717417206455, -10902.599799942947, -38619.58993906855, -49591.748367756416, -70886.50117951646, -187500.02235174447, -28822.03803325153, -23157.703656876525, 0.658, -0.684, 0.384, 192.0, 0.0, 0.0, 0.0, 0.0, 0.0, 0.0, 0.0, 0.0, 0.0, 1.6634990797122717E9, 0.0, 2022-09-18 16:04:39.712
250.0, -33248.46574645826, -9362.609310461201, -38966.489013014914, -49931.5842904549, -70557.50585287879, -187500.02235174447, -29057.73717853274, -23453.93132614271, 0.664, -0.684, 0.38, 192.0, 20.0, 192.0, 234.0, 160.0, 11.0, 224.0, 0.0, 0.0, 0.0, 1.6634990797173517E9, 0.0, 2022-09-18 16:04:39.717
251.0, -33523.45925849191, -8505.755186767004, -39116.20099737657, -50066.544123476044, -69790.08105875028, -187500.02235174447, -29204.67754658193, -23595.171999355796, 0.664, -0.684, 0.38, 192.0, 0.0, 0.0, 0.0, 0.0, 0.0, 0.0, 0.0, 0.0, 0.0, 1.6634990797213657E9, 0.0, 2022-09-18 16:04:39.721
252.0, -34340.12494565546, -10598.839592795324, -38596.768807979686, -49557.30432955079, -70386.1126763955, -187500.02235174447, -28875.4139990108, -23167.0690378033, 0.664, -0.684, 0.38, 192.0, 0.0, 0.0, 0.0, 0.0, 0.0, 0.0, 0.0, 0.0, 0.0, 1.6634990797253635E9, 0.0, 2022-09-18 16:04:39.725
253.0, -34052.860325915855, -11581.802258706362, -38433.53401822258, -49419.81874940619, -70943.3416656663, -187500.02235174447, -28710.122848763807, -23018.876972064612, 0.664, -0.684, 0.38, 192.0, 0.0, 0.0, 0.0, 0.0, 0.0, 0.0, 0.0, 0.0, 0.0, 1.6634990797293477E9, 0.0, 2022-09-18 16:04:39.729
254.0, -33655.37925426713, -10899.24703827465, -38619.321718135085, -49602.14192892813, -70963.16766299817, -187500.02235174447, -28822.194495462718, -23166.599651169738, 0.664, -0.684, 0.38, 192.0, 0.0, 0.0, 0.0, 0.0, 0.0, 0.0, 0.0, 0.0, 0.0, 1.6634990797333343E9, 0.0, 2022-09-18 16:04:39.733
255.0, -33243.52601093364, -9333.842615347221, -38973.30629507379, -49948.07987786292, -70617.76615593031, -187500.02235174447, -29076.199719452827, -23469.26462283905, 0.664, -0.684, 0.38, 192.0, 0.0, 0.0, 0.0, 0.0, 0.0, 0.0, 0.0, 0.0, 0.0, 1.6634990797373435E9, 0.0, 2022-09-18 16:04:39.737
0.0, -33544.29108432425, -8548.491722165552, -39075.140842812165, -50049.37798373437, -69867.95453643257, -187500.02235174447, -29172.155758399458, -23576.776513669076, 0.664, -0.684, 0.38, 192.0, 0.0, 0.0, 0.0, 0.0, 0.0, 0.0, 0.0, 0.0, 0.0, 1.6634990797404096E9, 0.0, 2022-09-18 16:04:39.740
1.0, -34349.08799518204, -10680.82579145739, -38576.898107158915, -49548.609500957675, -70491.61291022455, -187500.02235174447, -28845.127385273863, -23155.602592897725, 0.664, -0.684, 0.38, 192.0, 0.0, 0.0, 0.0, 0.0, 0.0, 0.0, 0.0, 0.0, 0.0, 1.6634990797453947E9, 0.0, 2022-09-18 16:04:39.745
2.0, -34040.16453506524, -11583.836267451796, -38432.684651933276, -49415.10253132612, -71030.87109695328, -187500.02235174447, -28721.030500057997, -23011.433841160997, 0.664, -0.684, 0.38, 192.0, 0.0, 0.0, 0.0, 0.0, 0.0, 0.0, 0.0, 0.0, 0.0, 1.663499079749509E9, 0.0, 2022-09-18 16:04:39.749
3.0, -33641.40941398256, -10860.824389555979, -38618.494703590244, -49597.87274573717, -71041.93521045867, -187500.02235174447, -28841.5064026721, -23159.737665621957, 0.664, -0.684, 0.38, 192.0, 0.0, 0.0, 0.0, 0.0, 0.0, 0.0, 0.0, 0.0, 0.0, 1.6634990797533653E9, 0.0, 2022-09-18 16:04:39.753
4.0, -33230.24907472719, -9269.514294804847, -38986.225603368955, -49954.45012503268, -70653.35013310316, -187500.02235174447, -29094.505798161725, -23469.17521586123, 0.668, -0.678, 0.388, 192.0, 20.0, 224.0, 234.0, 208.0, 12.0, 32.0, 0.0, 0.0, 0.0, 1.6634990797573931E9, 0.0, 2022-09-18 16:04:39.757
5.0, -33567.201622390945, -8564.540274684463, -39058.91347633761, -50038.313870228994, -69917.24013295653, -187500.02235174447, -29201.25772968027, -23565.62299318588, 0.668, -0.678, 0.388, 192.0, 0.0, 0.0, 0.0, 0.0, 0.0, 0.0, 0.0, 0.0, 0.0, 1.6634990797613678E9, 0.0, 2022-09-18 16:04:39.761
6.0, -34344.55059105761, -10720.947172754666, -38524.55032164459, -49520.96039306646, -70565.01603901578, -187500.02235174447, -28826.866010053876, -23131.52976411936, 0.668, -0.678, 0.388, 192.0, 0.0, 0.0, 0.0, 0.0, 0.0, 0.0, 0.0, 0.0, 0.0, 1.6634990797654378E9, 0.0, 2022-09-18 16:04:39.765
7.0, -34027.96048259264, -11570.693441712076, -38425.97912859668, -49422.03157210727, -71069.27139392751, -187500.02235174447, -28738.800136899965, -23020.173373243022, 0.668, -0.678, 0.388, 192.0, 0.0, 0.0, 0.0, 0.0, 0.0, 0.0, 0.0, 0.0, 0.0, 1.6634990797684205E9, 0.0, 2022-09-18 16:04:39.768
8.0, -33630.50176268837, -10836.729209033158, -38617.086543689555, -49600.331437627254, -71077.74270507607, -187500.02235174447, -28851.832908610453, -23169.639488415658, 0.668, -0.678, 0.388, 192.0, 0.0, 0.0, 0.0, 0.0, 0.0, 0.0, 0.0, 0.0, 0.0, 1.6634990797723792E9, 0.0, 2022-09-18 16:04:39.772
9.0, -33211.920644273836, -9215.11014880063, -38978.58130676524, -49954.003090143575, -70668.75048503286, -187500.02235174447, -29094.259928972715, -23482.206282878673, 0.668, -0.678, 0.388, 192.0, 0.0, 0.0, 0.0, 0.0, 0.0, 0.0, 0.0, 0.0, 0.0, 1.6634990797774358E9, 0.0, 2022-09-18 16:04:39.777
10.0, -33596.19183494947, -8601.599466991362, -39060.20987751602, -50027.47327416817, -69953.9640490966, -187500.02235174447, -29183.711610282855, -23568.61812694289, 0.668, -0.678, 0.388, 192.0, 0.0, 0.0, 0.0, 0.0, 0.0, 0.0, 0.0, 0.0, 0.0, 1.6634990797814472E9, 0.0, 2022-09-18 16:04:39.781
11.0, -34346.71871026978, -10796.652531224792, -38540.35300497449, -49499.592125367184, -70634.30644682724, -187500.02235174447, -28833.303312457003, -23118.76691803538, 0.668, -0.678, 0.388, 192.0, 0.0, 0.0, 0.0, 0.0, 0.0, 0.0, 0.0, 0.0, 0.0, 1.6634990797854195E9, 0.0, 2022-09-18 16:04:39.785
12.0, -33998.54558688946, -11562.870331152717, -38424.3698029959, -49407.2123655334, -71098.12749601931, -187500.02235174447, -28710.16755225272, -23010.69623359397, 0.668, -0.678, 0.388, 192.0, 0.0, 0.0, 0.0, 0.0, 0.0, 0.0, 0.0, 0.0, 0.0, 1.6634990797894855E9, 0.0, 2022-09-18 16:04:39.789
13.0, -33610.474599656416, -10799.737071959624, -38627.03306997217, -49606.277001652365, -71095.71350761813, -187500.02235174447, -28838.980655548654, -23179.78718039837, 0.668, -0.678, 0.388, 192.0, 0.0, 0.0, 0.0, 0.0, 0.0, 0.0, 0.0, 0.0, 0.0, 1.6634990797935123E9, 0.0, 2022-09-18 16:04:39.793
14.0, -33205.79626629308, -9161.62242431908, -39012.06421995929, -49980.40050034529, -70653.48424356988, -187500.02235174447, -29109.99555706925, -23507.12847794634, 0.662, -0.684, 0.39, 192.0, 20.0, 176.0, 234.0, 160.0, 12.0, 48.0, 0.0, 0.0, 0.0, 1.6634990797965062E9, 0.0, 2022-09-18 16:04:39.796
15.0, -33614.92259680302, -8640.223281410132, -39066.133089796676, -50022.39942817682, -69976.74047669655, -187500.02235174447, -29180.358848614556, -23565.80180714152, 0.662, -0.684, 0.39, 192.0, 0.0, 0.0, 0.0, 0.0, 0.0, 0.0, 0.0, 0.0, 0.0, 1.6634990798005304E9, 0.0, 2022-09-18 16:04:39.800
16.0, -34347.56807655908, -10862.903101790322, -38540.15183927439, -49500.642657356584, -70693.18094172252, -187500.02235174447, -28817.9029605273, -23120.108022702698, 0.662, -0.684, 0.39, 192.0, 0.0, 0.0, 0.0, 0.0, 0.0, 0.0, 0.0, 0.0, 0.0, 1.6634990798044348E9, 0.0, 2022-09-18 16:04:39.804
17.0, -33976.26089766752, -11567.340680043779, -38449.26964631911, -49421.293964540244, -71150.00589490008, -187500.02235174447, -28738.621322944324, -23025.47073667893, 0.662, -0.684, 0.39, 192.0, 0.0, 0.0, 0.0, 0.0, 0.0, 0.0, 0.0, 0.0, 0.0, 1.663499079809553E9, 0.0, 2022-09-18 16:04:39.809
18.0, -33588.88281451259, -10775.41837399225, -38648.60250337154, -49615.0612372233, -71146.87665067633, -187500.02235174447, -28854.112786544894, -23192.59472997126, 0.662, -0.684, 0.39, 192.0, 0.0, 0.0, 0.0, 0.0, 0.0, 0.0, 0.0, 0.0, 0.0, 1.6634990798135476E9, 0.0, 2022-09-18 16:04:39.813
19.0, -33179.331800858, -9090.879153118034, -39023.77653405387, -49976.53364855453, -70669.93512748899, -187500.02235174447, -29110.554350680635, -23507.687271557723, 0.662, -0.684, 0.39, 192.0, 0.0, 0.0, 0.0, 0.0, 0.0, 0.0, 0.0, 0.0, 0.0, 1.6634990798174627E9, 0.0, 2022-09-18 16:04:39.817
20.0, -33664.69993170499, -8685.753784865592, -39081.555793470834, -50018.93490778624, -70036.21846869212, -187500.02235174447, -29192.518197598245, -23569.020458343086, 0.662, -0.684, 0.39, 192.0, 0.0, 0.0, 0.0, 0.0, 0.0, 0.0, 0.0, 0.0, 0.0, 1.6634990798205595E9, 0.0, 2022-09-18 16:04:39.820
21.0, -34380.156919974914, -10951.818341233533, -38551.662987668875, -49501.760244579345, -70791.41685860358, -187500.02235174447, -28843.048673039517, -23127.886429773145, 0.662, -0.684, 0.39, 192.0, 0.0, 0.0, 0.0, 0.0, 0.0, 0.0, 0.0, 0.0, 0.0, 1.6634990798245955E9, 0.0, 2022-09-18 16:04:39.824
22.0, -33971.81290052091, -11565.440781765079, -38454.38819579938, -49419.058790094714, -71203.806543804, -187500.02235174447, -28752.658218462257, -23027.28122797981, 0.662, -0.684, 0.39, 192.0, 0.0, 0.0, 0.0, 0.0, 0.0, 0.0, 0.0, 0.0, 0.0, 1.663499079828504E9, 0.0, 2022-09-18 16:04:39.828
23.0, -33595.47657912691, -10743.097751509877, -38650.5247533947, -49626.6617925956, -71193.59179658792, -187500.02235174447, -28873.7152664322, -23209.515000523927, 0.662, -0.684, 0.39, 192.0, 0.0, 0.0, 0.0, 0.0, 0.0, 0.0, 0.0, 0.0, 0.0, 1.6634990798324907E9, 0.0, 2022-09-18 16:04:39.832
24.0, -33176.56018454554, -9039.648954826469, -39014.6570223161, -49981.87571547934, -70690.54343587678, -187500.02235174447, -29131.922618379907, -23519.51134437458, 0.662, -0.684, 0.39, 192.0, 0.0, 0.0, 0.0, 0.0, 0.0, 0.0, 0.0, 0.0, 0.0, 1.66349907983751E9, 0.0, 2022-09-18 16:04:39.837
25.0, -33661.436577014516, -8699.142479794322, -39015.03700197185, -49976.15366889878, -70059.53133815901, -187500.02235174447, -29172.06635142164, -23537.37038819437, 0.654, -0.6920000000000001, 0.384, 192.0, 20.0, 112.0, 234.0, 96.0, 12.0, 0.0, 0.0, 0.0, 0.0, 1.6634990798416684E9, 0.0, 2022-09-18 16:04:39.841
26.0, -34349.24445739323, -10976.941702001299, -38492.54262358459, -49452.31818584421, -70844.79282436286, -187500.02235174447, -28832.163373489784, -23085.86515019717, 0.654, -0.6920000000000001, 0.384, 192.0, 0.0, 0.0, 0.0, 0.0, 0.0, 0.0, 0.0, 0.0, 0.0, 1.6634990798456368E9, 0.0, 2022-09-18 16:04:39.845
27.0, -33948.00829267601, -11560.478694496, -38459.104413879446, -49413.314391769694, -71264.4244747668, -187500.02235174447, -28778.675649008233, -23027.013007046346, 0.654, -0.6920000000000001, 0.384, 192.0, 0.0, 0.0, 0.0, 0.0, 0.0, 0.0, 0.0, 0.0, 0.0, 1.6634990798485394E9, 0.0, 2022-09-18 16:04:39.848
28.0, -33548.381453559574, -10699.109518421832, -38652.15643073993, -49602.25368765041, -71252.17571880529, -187500.02235174447, -28870.27309778608, -23192.862950904724, 0.654, -0.6920000000000001, 0.384, 192.0, 0.0, 0.0, 0.0, 0.0, 0.0, 0.0, 0.0, 0.0, 0.0, 1.6634990798525383E9, 0.0, 2022-09-18 16:04:39.852
29.0, -33163.976152417206, -8972.280797038175, -39054.55488616883, -49990.27997139454, -70725.00982582687, -187500.02235174447, -29144.35018829706, -23531.402472424805, 0.654, -0.6920000000000001, 0.384, 192.0, 0.0, 0.0, 0.0, 0.0, 0.0, 0.0, 0.0, 0.0, 0.0, 1.6634990798567317E9, 0.0, 2022-09-18 16:04:39.856
30.0, -33700.7532955114, -8738.325087824474, -39040.78621158436, -49974.23141887563, -70138.90238271981, -187500.02235174447, -29187.891386495998, -23544.008856297598, 0.654, -0.6920000000000001, 0.384, 192.0, 0.0, 0.0, 0.0, 0.0, 0.0, 0.0, 0.0, 0.0, 0.0, 1.6634990798605337E9, 0.0, 2022-09-18 16:04:39.860
31.0, -34348.05981493709, -11016.437234453826, -38490.46391135024, -49446.059697396726, -70961.17835774164, -187500.02235174447, -28827.648321109813, -23089.66494675457, 0.654, -0.6920000000000001, 0.384, 192.0, 0.0, 0.0, 0.0, 0.0, 0.0, 0.0, 0.0, 0.0, 0.0, 1.6634990798656216E9, 0.0, 2022-09-18 16:04:39.865
32.0, -33933.43495529115, -11520.267906220903, -38458.880896434894, -49418.1647203165, -71363.6438684039, -187500.02235174447, -28775.16642512875, -23036.020760061834, 0.654, -0.6920000000000001, 0.384, 192.0, 0.0, 0.0, 0.0, 0.0, 0.0, 0.0, 0.0, 0.0, 0.0, 1.6634990798696277E9, 0.0, 2022-09-18 16:04:39.869
33.0, -33560.04906416524, -10665.559549994416, -38664.60635240154, -49627.041772251345, -71354.77022585514, -187500.02235174447, -28908.785153482575, -23214.857067448746, 0.654, -0.6920000000000001, 0.384, 192.0, 0.0, 0.0, 0.0, 0.0, 0.0, 0.0, 0.0, 0.0, 0.0, 1.6634990798725865E9, 0.0, 2022-09-18 16:04:39.872
34.0, -33161.36099831593, -8959.450895720827, -39035.48884814845, -49988.73770102712, -70825.23504796447, -187500.02235174447, -29170.524081054224, -23531.67069335827, 0.654, -0.6920000000000001, 0.384, 192.0, 0.0, 0.0, 0.0, 0.0, 0.0, 0.0, 0.0, 0.0, 0.0, 1.6634990798766415E9, 0.0, 2022-09-18 16:04:39.876
35.0, -33707.48117059245, -8811.862327082436, -38983.543394034314, -49931.24901428807, -70288.01086998115, -187500.02235174447, -29157.470662292322, -23508.156658191285, 0.654, -0.6900000000000001, 0.382, 192.0, 20.0, 112.0, 234.0, 112.0, 11.0, 240.0, 0.0, 0.0, 0.0, 1.663499079880617E9, 0.0, 2022-09-18 16:04:39.880
36.0, -34350.250285893715, -11091.360281868016, -38470.2802861071, -49427.798322176735, -71131.38689176881, -187500.02235174447, -28821.278073940048, -23071.783551190325, 0.654, -0.6900000000000001, 0.382, 192.0, 0.0, 0.0, 0.0, 0.0, 0.0, 0.0, 0.0, 0.0, 0.0, 1.663499079884612E9, 0.0, 2022-09-18 16:04:39.884
37.0, -33945.50489729702, -11549.973374602007, -38482.931373468804, -49436.671964725494, -71529.24794307326, -187500.02235174447, -28812.002099991096, -23053.499824225884, 0.654, -0.6900000000000001, 0.382, 192.0, 0.0, 0.0, 0.0, 0.0, 0.0, 0.0, 0.0, 0.0, 0.0, 1.6634990798886662E9, 0.0, 2022-09-18 16:04:39.888
38.0, -33560.38434033207, -10659.077544102376, -38678.620896175016, -49634.529606643875, -71521.5812947251, -187500.02235174447, -28919.759860010134, -23219.953265184555, 0.654, -0.6900000000000001, 0.382, 192.0, 0.0, 0.0, 0.0, 0.0, 0.0, 0.0, 0.0, 0.0, 0.0, 1.663499079893684E9, 0.0, 2022-09-18 16:04:39.893
39.0, -33164.04320765057, -8902.14102293742, -39043.58017964127, -50003.914535512275, -70930.46706086006, -187500.02235174447, -29178.727171269322, -23540.90196381831, 0.654, -0.6900000000000001, 0.382, 192.0, 0.0, 0.0, 0.0, 0.0, 0.0, 0.0, 0.0, 0.0, 0.0, 1.663499079897644E9, 0.0, 2022-09-18 16:04:39.897
40.0, -33755.76093861592, -8859.9409294058, -38992.26057437189, -49941.66492720425, -70413.80648777563, -187500.02235174447, -29186.19265391739, -23511.68823381522, 0.654, -0.6900000000000001, 0.382, 192.0, 0.0, 0.0, 0.0, 0.0, 0.0, 0.0, 0.0, 0.0, 0.0, 1.6634990799006655E9, 0.0, 2022-09-18 16:04:39.900
41.0, -34343.61181779049, -11135.773198100711, -38470.45910006274, -49427.61950822109, -71258.81418690851, -187500.02235174447, -28819.042899494518, -23064.072199353242, 0.654, -0.6900000000000001, 0.382, 192.0, 0.0, 0.0, 0.0, 0.0, 0.0, 0.0, 0.0, 0.0, 0.0, 1.663499079904629E9, 0.0, 2022-09-18 16:04:39.904
42.0, -33894.34175423882, -11500.218391444492, -38441.71475669322, -49412.24150803584, -71596.37023167255, -187500.02235174447, -28790.209149147173, -23020.598056387673, 0.654, -0.6900000000000001, 0.382, 192.0, 0.0, 0.0, 0.0, 0.0, 0.0, 0.0, 0.0, 0.0, 0.0, 1.6634990799087305E9, 0.0, 2022-09-18 16:04:39.908
43.0, -33532.01997661829, -10620.364322705786, -38652.71522435132, -49636.29539445584, -71601.46642940836, -187500.02235174447, -28921.078612932997, -23214.29827383736, 0.654, -0.6900000000000001, 0.382, 192.0, 0.0, 0.0, 0.0, 0.0, 0.0, 0.0, 0.0, 0.0, 0.0, 1.6634990799127018E9, 0.0, 2022-09-18 16:04:39.912
44.0, -33166.59130651847, -8886.070118674055, -39040.808563328814, -50021.17008223177, -70992.47079997907, -187500.02235174447, -29194.082819710115, -23547.69689413272, 0.654, -0.6900000000000001, 0.382, 192.0, 0.0, 0.0, 0.0, 0.0, 0.0, 0.0, 0.0, 0.0, 0.0, 1.6634990799166937E9, 0.0, 2022-09-18 16:04:39.916
45.0, -33768.99317133345, -8923.755159825701, -38938.50462895687, -49913.50172919056, -70486.136732833, -187500.02235174447, -29155.43665354689, -23476.193663620194, 0.668, -0.684, 0.376, 192.0, 20.0, 224.0, 234.0, 160.0, 11.0, 192.0, 0.0, 0.0, 0.0, 1.6634990799207473E9, 0.0, 2022-09-18 16:04:39.920
46.0, -34343.70122476831, -11202.046120410696, -38425.84501812995, -49413.962592358905, -71368.02481031715, -187500.02235174447, -28810.25866392358, -23043.396835732085, 0.668, -0.684, 0.376, 192.0, 0.0, 0.0, 0.0, 0.0, 0.0, 0.0, 0.0, 0.0, 0.0, 1.6634990799257917E9, 0.0, 2022-09-18 16:04:39.925
47.0, -33892.33009723784, -11510.723711338487, -38442.0723846045, -49431.12873210058, -71701.28932014576, -187500.02235174447, -28782.721314754646, -23030.254009992364, 0.668, -0.684, 0.376, 192.0, 0.0, 0.0, 0.0, 0.0, 0.0, 0.0, 0.0, 0.0, 0.0, 1.6634990799287817E9, 0.0, 2022-09-18 16:04:39.928
48.0, -33514.74207815434, -10579.684147797127, -38673.52469843921, -49645.861941082716, -71670.62272675309, -187500.02235174447, -28945.330255667002, -23216.242875604974, 0.668, -0.684, 0.376, 192.0, 0.0, 0.0, 0.0, 0.0, 0.0, 0.0, 0.0, 0.0, 0.0, 1.6634990799327133E9, 0.0, 2022-09-18 16:04:39.932
49.0, -33151.45917552223, -8815.997399806667, -39063.182659528575, -50026.5568526455, -71004.54074198494, -187500.02235174447, -29204.185808203914, -23552.323705234972, 0.668, -0.684, 0.376, 192.0, 0.0, 0.0, 0.0, 0.0, 0.0, 0.0, 0.0, 0.0, 0.0, 1.6634990799367108E9, 0.0, 2022-09-18 16:04:39.936
50.0, -33806.25352934045, -8989.82691643559, -38962.443347268505, -49906.90796457625, -70555.0024574998, -187500.02235174447, -29154.699045979865, -23476.014849664552, 0.668, -0.684, 0.376, 192.0, 0.0, 0.0, 0.0, 0.0, 0.0, 0.0, 0.0, 0.0, 0.0, 1.663499079940775E9, 0.0, 2022-09-18 16:04:39.940
51.0, -34325.998643159706, -11262.708754862399, -38455.125803366405, -49399.50101369632, -71445.58536357706, -187500.02235174447, -28789.73976251361, -23034.970228072434, 0.668, -0.684, 0.376, 192.0, 0.0, 0.0, 0.0, 0.0, 0.0, 0.0, 0.0, 0.0, 0.0, 1.6634990799447253E9, 0.0, 2022-09-18 16:04:39.944
52.0, -33857.90841077667, -11504.264057190903, -38469.2297541177, -49427.999487876834, -71741.4330531875, -187500.02235174447, -28781.581375787424, -23037.31716124024, 0.668, -0.684, 0.376, 192.0, 0.0, 0.0, 0.0, 0.0, 0.0, 0.0, 0.0, 0.0, 0.0, 1.6634990799487538E9, 0.0, 2022-09-18 16:04:39.948
53.0, -33489.730476108845, -10549.978679416023, -38707.54405350018, -49645.32549921578, -71709.85003827215, -187500.02235174447, -28946.82782254551, -23228.089300166288, 0.668, -0.684, 0.376, 192.0, 0.0, 0.0, 0.0, 0.0, 0.0, 0.0, 0.0, 0.0, 0.0, 1.6634990799538083E9, 0.0, 2022-09-18 16:04:39.953
54.0, -33144.21721031871, -8776.16659118731, -39119.57611078931, -50032.63652713734, -71021.72923347107, -187500.02235174447, -29239.03217780974, -23571.52385372208, 0.668, -0.684, 0.376, 192.0, 0.0, 0.0, 0.0, 0.0, 0.0, 0.0, 0.0, 0.0, 0.0, 1.663499079956797E9, 0.0, 2022-09-18 16:04:39.956
55.0, -33830.192247652085, -9032.384637878495, -38970.40056829459, -49887.99838876705, -70598.67776616548, -187500.02235174447, -29153.76027271274, -23475.344297330892, 0.666, -0.6900000000000001, 0.378, 192.0, 20.0, 208.0, 234.0, 112.0, 11.0, 208.0, 0.0, 0.0, 0.0, 1.6634990799607544E9, 0.0, 2022-09-18 16:04:39.960
56.0, -34321.12596286845, -11285.552237695723, -38463.82063195952, -49380.94906579841, -71503.0293468272, -187500.02235174447, -28819.71345182818, -23026.78948960179, 0.666, -0.6900000000000001, 0.378, 192.0, 0.0, 0.0, 0.0, 0.0, 0.0, 0.0, 0.0, 0.0, 0.0, 1.6634990799647963E9, 0.0, 2022-09-18 16:04:39.964
57.0, -33841.97161698003, -11465.796704983319, -38502.82442603403, -49410.11809231259, -71781.30856529577, -187500.02235174447, -28804.804838276486, -23026.543620412784, 0.666, -0.6900000000000001, 0.378, 192.0, 0.0, 0.0, 0.0, 0.0, 0.0, 0.0, 0.0, 0.0, 0.0, 1.6634990799688337E9, 0.0, 2022-09-18 16:04:39.968
58.0, -33471.826728800144, -10489.830135086791, -38744.893818485005, -49641.6151096362, -71726.88206754709, -187500.02235174447, -28962.764616342145, -23233.297256624373, 0.666, -0.6900000000000001, 0.378, 192.0, 0.0, 0.0, 0.0, 0.0, 0.0, 0.0, 0.0, 0.0, 0.0, 1.6634990799728086E9, 0.0, 2022-09-18 16:04:39.972
59.0, -33140.79739341705, -8720.130767837854, -39135.13292493021, -50027.98736429064, -70975.48347419304, -187500.02235174447, -29240.417985965967, -23574.742504923644, 0.666, -0.6900000000000001, 0.378, 192.0, 0.0, 0.0, 0.0, 0.0, 0.0, 0.0, 0.0, 0.0, 0.0, 1.663499079976807E9, 0.0, 2022-09-18 16:04:39.976
60.0, -33868.726655093036, -9093.091975819108, -39024.82706604327, -49885.8749730438, -70564.81487331568, -187500.02235174447, -29211.852456552086, -23483.681498012724, 0.666, -0.6900000000000001, 0.378, 192.0, 0.0, 0.0, 0.0, 0.0, 0.0, 0.0, 0.0, 0.0, 0.0, 1.6634990799817915E9, 0.0, 2022-09-18 16:04:39.981
61.0, -34294.48268347773, -11297.37631051258, -38471.889611707884, -49365.52636212425, -71418.15977313039, -187500.02235174447, -28781.760189743065, -23022.654416877558, 0.666, -0.6900000000000001, 0.378, 192.0, 0.0, 0.0, 0.0, 0.0, 0.0, 0.0, 0.0, 0.0, 0.0, 1.6634990799847932E9, 0.0, 2022-09-18 16:04:39.984
62.0, -33804.73361071749, -11417.271067770847, -38495.247184663676, -49402.138519542044, -71665.660639484, -187500.02235174447, -28788.018678190554, -23032.60094316017, 0.666, -0.6900000000000001, 0.378, 192.0, 0.0, 0.0, 0.0, 0.0, 0.0, 0.0, 0.0, 0.0, 0.0, 1.6634990799878428E9, 0.0, 2022-09-18 16:04:39.987
63.0, -33444.84817324259, -10430.150977391122, -38746.32433013014, -49639.73756310196, -71642.6159909506, -187500.02235174447, -28951.186412714294, -23243.847280007278, 0.666, -0.6900000000000001, 0.378, 192.0, 0.0, 0.0, 0.0, 0.0, 0.0, 0.0, 0.0, 0.0, 0.0, 1.6634990799928064E9, 0.0, 2022-09-18 16:04:39.992
64.0, -33147.34645454246, -8678.511819662073, -39159.18340196412, -50040.50434118562, -70930.44470911559, -187500.02235174447, -29245.6035906796, -23599.128258124383, 0.666, -0.6900000000000001, 0.378, 192.0, 0.0, 0.0, 0.0, 0.0, 0.0, 0.0, 0.0, 0.0, 0.0, 1.6634990799967918E9, 0.0, 2022-09-18 16:04:39.996
65.0, -33911.41848700267, -9168.730279055868, -39014.50056010492, -49880.55525786344, -70619.26372280881, -187500.02235174447, -29197.010898233762, -23489.291785871006, 0.66, -0.686, 0.38, 192.0, 20.0, 160.0, 234.0, 144.0, 11.0, 224.0, 0.0, 0.0, 0.0, 1.663499080000942E9, 0.0, 2022-09-18 16:04:40.000
66.0, -34331.586579273535, -11388.929055801518, -38520.1917314758, -49400.23862126334, -71541.20612635686, -187500.02235174447, -28866.13802506185, -23061.166472574052, 0.66, -0.686, 0.38, 192.0, 0.0, 0.0, 0.0, 0.0, 0.0, 0.0, 0.0, 0.0, 0.0, 1.6634990800048409E9, 0.0, 2022-09-18 16:04:40.004
67.0, -33831.64511104168, -11449.368172808669, -38527.880731568424, -49432.80511293472, -71781.21915831795, -187500.02235174447, -28804.849541765398, -23053.522175970338, 0.66, -0.686, 0.38, 192.0, 0.0, 0.0, 0.0, 0.0, 0.0, 0.0, 0.0, 0.0, 0.0, 1.6634990800098772E9, 0.0, 2022-09-18 16:04:40.009
68.0, -33467.66930433146, -10420.87500344217, -38783.830557326146, -49687.16796483612, -71736.67213161851, -187500.02235174447, -28980.914232839852, -23271.809312320867, 0.66, -0.686, 0.38, 192.0, 0.0, 0.0, 0.0, 0.0, 0.0, 0.0, 0.0, 0.0, 0.0, 1.6634990800128202E9, 0.0, 2022-09-18 16:04:40.012
69.0, -33169.56408853103, -8658.23878744111, -39182.36216096427, -50068.734594432666, -70972.84596834732, -187500.02235174447, -29281.679306230464, -23604.760897727123, 0.66, -0.686, 0.38, 192.0, 0.0, 0.0, 0.0, 0.0, 0.0, 0.0, 0.0, 0.0, 0.0, 1.663499080016955E9, 0.0, 2022-09-18 16:04:40.016
70.0, -33926.77413544347, -9232.812730409232, -38971.00406539489, -49850.738030760054, -70688.66588934253, -187500.02235174447, -29157.20244135886, -23438.329808512906, 0.66, -0.686, 0.38, 192.0, 0.0, 0.0, 0.0, 0.0, 0.0, 0.0, 0.0, 0.0, 0.0, 1.663499080020862E9, 0.0, 2022-09-18 16:04:40.020
71.0, -34305.12211383845, -11413.851250869186, -38486.61941130393, -49376.65753086299, -71603.72395559835, -187500.02235174447, -28803.03905046452, -23015.12187899612, 0.66, -0.686, 0.38, 192.0, 0.0, 0.0, 0.0, 0.0, 0.0, 0.0, 0.0, 0.0, 0.0, 1.663499080024856E9, 0.0, 2022-09-18 16:04:40.024
72.0, -33811.64029975418, -11416.868736370652, -38565.74458667572, -49446.68554624147, -71805.94018768551, -187500.02235174447, -28815.13134421484, -23048.582440445716, 0.66, -0.686, 0.38, 192.0, 0.0, 0.0, 0.0, 0.0, 0.0, 0.0, 0.0, 0.0, 0.0, 1.6634990800290065E9, 0.0, 2022-09-18 16:04:40.029
73.0, -33443.26119938627, -10373.534008685829, -38817.42522924247, -49695.39340679567, -71731.50887864934, -187500.02235174447, -28975.6392211484, -23264.83556805081, 0.66, -0.686, 0.38, 192.0, 0.0, 0.0, 0.0, 0.0, 0.0, 0.0, 0.0, 0.0, 0.0, 1.6634990800329304E9, 0.0, 2022-09-18 16:04:40.032
74.0, -33161.85273669395, -8625.962868447647, -39208.245481043516, -50076.6694637143, -70924.94617997958, -187500.02235174447, -29264.3567042776, -23598.23418834617, 0.66, -0.686, 0.38, 192.0, 0.0, 0.0, 0.0, 0.0, 0.0, 0.0, 0.0, 0.0, 0.0, 1.6634990800358753E9, 0.0, 2022-09-18 16:04:40.035
75.0, -33954.40089159023, -9307.624019101146, -38996.350943607205, -49857.309443629914, -70675.70187755846, -187500.02235174447, -29156.107205880548, -23434.06062532194, 0.666, -0.6880000000000001, 0.378, 192.0, 20.0, 208.0, 234.0, 128.0, 11.0, 208.0, 0.0, 0.0, 0.0, 1.6634990800399096E9, 0.0, 2022-09-18 16:04:40.039
76.0, -34297.544872468105, -11448.809379197286, -38530.272368225145, -49395.90238283901, -71605.22152247686, -187500.02235174447, -28803.106105697883, -23024.37550120062, 0.666, -0.6880000000000001, 0.378, 192.0, 0.0, 0.0, 0.0, 0.0, 0.0, 0.0, 0.0, 0.0, 0.0, 1.6634990800439544E9, 0.0, 2022-09-18 16:04:40.043
77.0, -33834.237913398494, -11415.572335192244, -38643.97569226929, -49503.63779111359, -71828.0013594629, -187500.02235174447, -28867.99321985164, -23098.42683058105, 0.666, -0.6880000000000001, 0.378, 192.0, 0.0, 0.0, 0.0, 0.0, 0.0, 0.0, 0.0, 0.0, 0.0, 1.6634990800489726E9, 0.0, 2022-09-18 16:04:40.048
78.0, -33459.756786794285, -10334.463159377952, -38886.69328530947, -49746.06481147585, -71756.27461150583, -187500.02235174447, -29010.329128543035, -23309.494353472513, 0.666, -0.6880000000000001, 0.378, 192.0, 0.0, 0.0, 0.0, 0.0, 0.0, 0.0, 0.0, 0.0, 0.0, 1.6634990800529523E9, 0.0, 2022-09-18 16:04:40.052
79.0, -33168.13357688589, -8572.765716644015, -39228.13853360874, -50084.09024287346, -70936.88201151873, -187500.02235174447, -29281.36638180809, -23605.09617389395, 0.666, -0.6880000000000001, 0.378, 192.0, 0.0, 0.0, 0.0, 0.0, 0.0, 0.0, 0.0, 0.0, 0.0, 1.6634990800569756E9, 0.0, 2022-09-18 16:04:40.056
80.0, -33964.6156388063, -9335.854272348199, -38979.2518590989, -49832.25313809552, -70758.67155297656, -187500.02235174447, -29156.218964602827, -23411.708880866634, 0.666, -0.6880000000000001, 0.378, 192.0, 0.0, 0.0, 0.0, 0.0, 0.0, 0.0, 0.0, 0.0, 0.0, 1.6634990800609798E9, 0.0, 2022-09-18 16:04:40.060
81.0, -34286.12313105144, -11442.036800627327, -38540.66592939686, -49400.23862126334, -71687.72181126139, -187500.02235174447, -28846.66965564128, -23021.447422676974, 0.666, -0.6880000000000001, 0.378, 192.0, 0.0, 0.0, 0.0, 0.0, 0.0, 0.0, 0.0, 0.0, 0.0, 1.6634990800659595E9, 0.0, 2022-09-18 16:04:40.065
82.0, -33801.22438683801, -11370.690032325987, -38616.393639611444, -49488.192735694975, -71890.56389219331, -187500.02235174447, -28866.85328088442, -23073.929318658033, 0.666, -0.6880000000000001, 0.378, 192.0, 0.0, 0.0, 0.0, 0.0, 0.0, 0.0, 0.0, 0.0, 0.0, 1.6634990800689678E9, 0.0, 2022-09-18 16:04:40.068
83.0, -33428.41964106794, -10288.88795243358, -38852.629226759585, -49747.69648882109, -71848.87788878416, -187500.02235174447, -29024.477782783248, -23302.14062954672, 0.666, -0.6880000000000001, 0.378, 192.0, 0.0, 0.0, 0.0, 0.0, 0.0, 0.0, 0.0, 0.0, 0.0, 1.6634990800719419E9, 0.0, 2022-09-18 16:04:40.071
84.0, -33196.408533621856, -8570.977577087591, -39227.24446383053, -50113.751007765655, -71047.00905645003, -187500.02235174447, -29321.487763105368, -23626.889124737874, 0.666, -0.6880000000000001, 0.378, 192.0, 0.0, 0.0, 0.0, 0.0, 0.0, 0.0, 0.0, 0.0, 0.0, 1.6634990800759816E9, 0.0, 2022-09-18 16:04:40.075
85.0, -34002.27832821349, -9417.885174499175, -38933.07315505423, -49826.50873977051, -70888.51283651743, -187500.02235174447, -29163.6844472509, -23400.331842938882, 0.654, -0.68, 0.382, 192.0, 20.0, 112.0, 234.0, 192.0, 11.0, 240.0, 0.0, 0.0, 0.0, 1.6634990800810146E9, 0.0, 2022-09-18 16:04:40.081
86.0, -34269.06875003204, -11495.055138475316, -38492.87789975142, -49397.467004950886, -71835.46684211098, -187500.02235174447, -28832.31983570097, -23015.211285973943, 0.654, -0.68, 0.382, 192.0, 0.0, 0.0, 0.0, 0.0, 0.0, 0.0, 0.0, 0.0, 0.0, 1.6634990800850525E9, 0.0, 2022-09-18 16:04:40.085
87.0, -33776.369247003706, -11359.20123567596, -38602.334392349054, -49503.63779111359, -72014.7948878759, -187500.02235174447, -28897.7210399772, -23085.7980949638, 0.654, -0.68, 0.382, 192.0, 0.0, 0.0, 0.0, 0.0, 0.0, 0.0, 0.0, 0.0, 0.0, 1.6634990800890603E9, 0.0, 2022-09-18 16:04:40.089
88.0, -33397.0824953416, -10248.654812414028, -38849.07529939119, -49748.255282432474, -71956.25566914746, -187500.02235174447, -29076.13266421946, -23293.80342886489, 0.654, -0.68, 0.382, 192.0, 0.0, 0.0, 0.0, 0.0, 0.0, 0.0, 0.0, 0.0, 0.0, 1.6634990800929968E9, 0.0, 2022-09-18 16:04:40.092
89.0, -33189.74771377417, -8539.394562172241, -39215.68861194714, -50113.30397287655, -71126.7377289221, -187500.02235174447, -29334.362367911624, -23618.797793245056, 0.654, -0.68, 0.382, 192.0, 0.0, 0.0, 0.0, 0.0, 0.0, 0.0, 0.0, 0.0, 0.0, 1.6634990800961363E9, 0.0, 2022-09-18 16:04:40.096
90.0, -34039.00224435356, -9494.417547514147, -38913.76124784485, -49821.18902459014, -71022.42213754918, -187500.02235174447, -29174.10036016707, -23394.54274112496, 0.654, -0.68, 0.382, 192.0, 0.0, 0.0, 0.0, 0.0, 0.0, 0.0, 0.0, 0.0, 0.0, 1.6634990801000223E9, 0.0, 2022-09-18 16:04:40.100
91.0, -34274.29905823458, -11540.697400653053, -38485.05478919206, -49405.64774342153, -71968.28090766442, -187500.02235174447, -28877.7162286897, -23017.759384841847, 0.654, -0.68, 0.382, 192.0, 0.0, 0.0, 0.0, 0.0, 0.0, 0.0, 0.0, 0.0, 0.0, 1.6634990801049876E9, 0.0, 2022-09-18 16:04:40.104
92.0, -33788.70740994304, -11377.484962640401, -38594.46657830079, -49520.647468644085, -72142.28923824898, -187500.02235174447, -28931.740395038178, -23093.531798545337, 0.654, -0.68, 0.382, 192.0, 0.0, 0.0, 0.0, 0.0, 0.0, 0.0, 0.0, 0.0, 0.0, 1.663499080109049E9, 0.0, 2022-09-18 16:04:40.109
93.0, -33408.638347224995, -10212.154413718512, -38866.15203215504, -49780.55355317039, -72035.22438230805, -187500.02235174447, -29099.870216830997, -23319.53028673295, 0.654, -0.68, 0.382, 192.0, 0.0, 0.0, 0.0, 0.0, 0.0, 0.0, 0.0, 0.0, 0.0, 1.6634990801130073E9, 0.0, 2022-09-18 16:04:40.113
94.0, -33189.680658540805, -8494.422852328164, -39207.28435603194, -50106.3749320954, -71153.51511877956, -187500.02235174447, -29349.85212681915, -23605.185580871774, 0.654, -0.68, 0.382, 192.0, 0.0, 0.0, 0.0, 0.0, 0.0, 0.0, 0.0, 0.0, 0.0, 1.6634990801170616E9, 0.0, 2022-09-18 16:04:40.117
95.0, -34053.6873404607, -9557.98590874504, -38914.87883506761, -49803.687608681634, -71095.46763842912, -187500.02235174447, -29190.797113275185, -23368.547662323435, 0.658, -0.682, 0.384, 192.0, 20.0, 144.0, 234.0, 176.0, 12.0, 0.0, 0.0, 0.0, 0.0, 1.663499080120046E9, 0.0, 2022-09-18 16:04:40.120
96.0, -34269.89576457689, -11559.76343867343, -38520.52700764263, -49420.86928139559, -72007.26234999447, -187500.02235174447, -28885.9193189048, -23022.74382385538, 0.658, -0.682, 0.384, 192.0, 0.0, 0.0, 0.0, 0.0, 0.0, 0.0, 0.0, 0.0, 0.0, 1.6634990801240675E9, 0.0, 2022-09-18 16:04:40.124
97.0, -33771.16129054562, -11328.065255649717, -38641.38288991248, -49531.59982342718, -72099.73151680607, -187500.02235174447, -28939.96583699773, -23098.2033131365, 0.658, -0.682, 0.384, 192.0, 0.0, 0.0, 0.0, 0.0, 0.0, 0.0, 0.0, 0.0, 0.0, 1.6634990801281147E9, 0.0, 2022-09-18 16:04:40.128
98.0, -33375.66952415342, -10140.360610528065, -38912.822474577726, -49786.40971021768, -71921.94574140856, -187500.02235174447, -29101.658356387423, -23320.446708255615, 0.658, -0.682, 0.384, 192.0, 0.0, 0.0, 0.0, 0.0, 0.0, 0.0, 0.0, 0.0, 0.0, 1.663499080132072E9, 0.0, 2022-09-18 16:04:40.132
99.0, -33204.76808604814, -8473.523971262452, -39274.33958939786, -50128.19023468378, -70967.92858456714, -187500.02235174447, -29366.258307249347, -23627.00088346015, 0.658, -0.682, 0.384, 192.0, 0.0, 0.0, 0.0, 0.0, 0.0, 0.0, 0.0, 0.0, 0.0, 1.6634990801370895E9, 0.0, 2022-09-18 16:04:40.137
100.0, -34084.77861699803, -9629.735008446576, -38943.6902336705, -49799.88781212423, -70917.92773222062, -187500.02235174447, -29208.07501173914, -23370.53696757996, 0.658, -0.682, 0.384, 192.0, 0.0, 0.0, 0.0, 0.0, 0.0, 0.0, 0.0, 0.0, 0.0, 1.663499080141049E9, 0.0, 2022-09-18 16:04:40.141
101.0, -34262.05030227307, -11577.600130748766, -38571.86896465647, -49430.88286291157, -71805.71667024096, -187500.02235174447, -28930.443993859768, -23038.390044974094, 0.658, -0.682, 0.384, 192.0, 0.0, 0.0, 0.0, 0.0, 0.0, 0.0, 0.0, 0.0, 0.0, 1.6634990801450756E9, 0.0, 2022-09-18 16:04:40.145
102.0, -33773.50822371343, -11309.446252518446, -38679.98435258679, -49540.562872953764, -71900.08573533127, -187500.02235174447, -28953.10866273745, -23114.497734844415, 0.658, -0.682, 0.384, 192.0, 0.0, 0.0, 0.0, 0.0, 0.0, 0.0, 0.0, 0.0, 0.0, 1.663499080148173E9, 0.0, 2022-09-18 16:04:40.148
103.0, -33360.872669324, -10094.584237883597, -38917.426933935516, -49783.39222471622, -71750.21728875843, -187500.02235174447, -29129.32981602309, -23322.346606534316, 0.658, -0.682, 0.384, 192.0, 0.0, 0.0, 0.0, 0.0, 0.0, 0.0, 0.0, 0.0, 0.0, 1.6634990801520824E9, 0.0, 2022-09-18 16:04:40.152
104.0, -33225.063470013556, -8469.880636916238, -39270.539792840456, -50127.519682350125, -70854.13585354517, -187500.02235174447, -29400.076496610225, -23632.81233701853, 0.658, -0.682, 0.384, 192.0, 0.0, 0.0, 0.0, 0.0, 0.0, 0.0, 0.0, 0.0, 0.0, 1.6634990801560698E9, 0.0, 2022-09-18 16:04:40.156
105.0, -34125.771716329065, -9723.366465969857, -38939.91278885756, -49786.2532480065, -70913.92676996312, -187500.02235174447, -29206.510389627267, -23362.132711664763, 0.66, -0.6880000000000001, 0.382, 192.0, 20.0, 160.0, 234.0, 128.0, 11.0, 240.0, 0.0, 0.0, 0.0, 1.663499080160153E9, 0.0, 2022-09-18 16:04:40.160
106.0, -34226.645139055865, -11592.77696523392, -38537.894313084405, -49393.264876993286, -71835.46684211098, -187500.02235174447, -28887.86392067241, -22998.380422399096, 0.66, -0.6880000000000001, 0.382, 192.0, 0.0, 0.0, 0.0, 0.0, 0.0, 0.0, 0.0, 0.0, 0.0, 1.6634990801651187E9, 0.0, 2022-09-18 16:04:40.165
107.0, -33749.70361586852, -11289.061461575206, -38661.007721544236, -49530.839864115704, -71986.45287590657, -187500.02235174447, -28970.073636779027, -23101.33255736024, 0.66, -0.6880000000000001, 0.382, 192.0, 0.0, 0.0, 0.0, 0.0, 0.0, 0.0, 0.0, 0.0, 0.0, 1.6634990801690948E9, 0.0, 2022-09-18 16:04:40.169
108.0, -33361.36440770202, -10058.664984543919, -38942.81851563675, -49808.180309317155, -71879.61153741021, -187500.02235174447, -29178.570709058135, -23345.838289956846, 0.66, -0.6880000000000001, 0.382, 192.0, 0.0, 0.0, 0.0, 0.0, 0.0, 0.0, 0.0, 0.0, 0.0, 1.663499080173135E9, 0.0, 2022-09-18 16:04:40.173
109.0, -33238.36275796447, -8460.850532156293, -39263.20842065912, -50126.08917070498, -70994.21423604658, -187500.02235174447, -29424.350491088688, -23635.785119031087, 0.66, -0.6880000000000001, 0.382, 192.0, 0.0, 0.0, 0.0, 0.0, 0.0, 0.0, 0.0, 0.0, 0.0, 1.663499080176191E9, 0.0, 2022-09-18 16:04:40.176
110.0, -34130.82321057597, -9800.70350178522, -38899.813759304736, -49768.997701287, -71122.15562130876, -187500.02235174447, -29202.06239248066, -23352.968496438087, 0.66, -0.6880000000000001, 0.382, 192.0, 0.0, 0.0, 0.0, 0.0, 0.0, 0.0, 0.0, 0.0, 0.0, 1.6634990801803043E9, 0.0, 2022-09-18 16:04:40.180
111.0, -34231.36135713594, -11640.050904756894, -38538.363699717964, -49416.39893250453, -72048.74718770351, -187500.02235174447, -28939.474098619714, -23025.247219234374, 0.66, -0.6880000000000001, 0.382, 192.0, 0.0, 0.0, 0.0, 0.0, 0.0, 0.0, 0.0, 0.0, 0.0, 1.6634990801845374E9, 0.0, 2022-09-18 16:04:40.184
112.0, -33747.82606933428, -11286.401603985025, -38674.82109961761, -49551.13524808112, -72180.3319073119, -187500.02235174447, -29019.426288536346, -23128.66874082908, 0.66, -0.6880000000000001, 0.382, 192.0, 0.0, 0.0, 0.0, 0.0, 0.0, 0.0, 0.0, 0.0, 0.0, 1.6634990801881883E9, 0.0, 2022-09-18 16:04:40.188
113.0, -33350.054425007635, -10007.703007185819, -38934.347204488186, -49824.58648974735, -72034.28560904093, -187500.02235174447, -29168.15479614196, -23371.028705957975, 0.66, -0.6880000000000001, 0.382, 192.0, 0.0, 0.0, 0.0, 0.0, 0.0, 0.0, 0.0, 0.0, 0.0, 1.6634990801921856E9, 0.0, 2022-09-18 16:04:40.192
114.0, -33272.605630469996, -8447.081857571824, -39268.12580443929, -50146.45160990377, -71128.77173766753, -187500.02235174447, -29434.87816272714, -23660.819072821032, 0.66, -0.6880000000000001, 0.382, 192.0, 0.0, 0.0, 0.0, 0.0, 0.0, 0.0, 0.0, 0.0, 0.0, 1.6634990801971953E9, 0.0, 2022-09-18 16:04:40.197
115.0, -34145.88828633884, -9858.102781546448, -38864.922686210004, -49745.8412940313, -71306.13282992039, -187500.02235174447, -29183.44338934939, -23336.47290903007, 0.654, -0.676, 0.38, 192.0, 20.0, 112.0, 234.0, 224.0, 11.0, 224.0, 0.0, 0.0, 0.0, 1.663499080201347E9, 0.0, 2022-09-18 16:04:40.201
116.0, -34201.9241096883, -11631.82546279734, -38527.50075191269, -49417.60592670512, -72203.28714886752, -187500.02235174447, -28935.92017125132, -23032.913867582545, 0.654, -0.676, 0.38, 192.0, 0.0, 0.0, 0.0, 0.0, 0.0, 0.0, 0.0, 0.0, 0.0, 1.6634990802041893E9, 0.0, 2022-09-18 16:04:40.204
117.0, -33752.00584554742, -11262.775810095765, -38680.632553175994, -49570.067175634766, -72309.92732166378, -187500.02235174447, -29050.495213329224, -23149.34410445024, 0.654, -0.676, 0.38, 192.0, 0.0, 0.0, 0.0, 0.0, 0.0, 0.0, 0.0, 0.0, 0.0, 1.663499080208184E9, 0.0, 2022-09-18 16:04:40.208
118.0, -33356.424672177396, -9992.950855845316, -38955.20138206499, -49848.8157807369, -72182.90235792426, -187500.02235174447, -29228.012767793272, -23391.815828301413, 0.654, -0.676, 0.38, 192.0, 0.0, 0.0, 0.0, 0.0, 0.0, 0.0, 0.0, 0.0, 0.0, 1.663499080212249E9, 0.0, 2022-09-18 16:04:40.212
119.0, -33275.42195027137, -8458.861226899771, -39234.754649967515, -50128.16788293933, -71254.92498337329, -187500.02235174447, -29436.621598794653, -23644.614058090934, 0.654, -0.676, 0.38, 192.0, 0.0, 0.0, 0.0, 0.0, 0.0, 0.0, 0.0, 0.0, 0.0, 1.6634990802162347E9, 0.0, 2022-09-18 16:04:40.216
120.0, -34171.52573722908, -9957.500989139198, -38830.56805498219, -49719.86856697423, -71494.31216648963, -187500.02235174447, -29202.978814003327, -23315.574027964358, 0.654, -0.676, 0.38, 192.0, 0.0, 0.0, 0.0, 0.0, 0.0, 0.0, 0.0, 0.0, 0.0, 1.663499080220247E9, 0.0, 2022-09-18 16:04:40.220
121.0, -34202.885234699876, -11661.039192800426, -38512.41332440535, -49415.92954587097, -72378.72599109722, -187500.02235174447, -28957.936639539796, -23030.030492547812, 0.654, -0.676, 0.38, 192.0, 0.0, 0.0, 0.0, 0.0, 0.0, 0.0, 0.0, 0.0, 0.0, 1.6634990802252116E9, 0.0, 2022-09-18 16:04:40.225
122.0, -33742.10402275372, -11244.22386219786, -38664.762814612724, -49563.47341102045, -72468.9599834633, -187500.02235174447, -29038.157050389895, -23140.24694445693, 0.654, -0.676, 0.38, 192.0, 0.0, 0.0, 0.0, 0.0, 0.0, 0.0, 0.0, 0.0, 0.0, 1.663499080228269E9, 0.0, 2022-09-18 16:04:40.228
123.0, -33336.2186951898, -9924.420407345344, -38949.05465233978, -49849.32987085937, -72297.1644755798, -187500.02235174447, -29260.422797253468, -23388.86539803331, 0.654, -0.676, 0.38, 192.0, 0.0, 0.0, 0.0, 0.0, 0.0, 0.0, 0.0, 0.0, 0.0, 1.66349908023221E9, 0.0, 2022-09-18 16:04:40.232
124.0, -33296.47729354826, -8447.48418897202, -39232.854751688814, -50125.351563137956, -71372.71867665276, -187500.02235174447, -29461.67790432905, -23639.026121977106, 0.654, -0.676, 0.38, 192.0, 0.0, 0.0, 0.0, 0.0, 0.0, 0.0, 0.0, 0.0, 0.0, 1.6634990802363627E9, 0.0, 2022-09-18 16:04:40.236
125.0, -34204.89689170085, -10034.390990065454, -38840.4698777759, -49720.56147105235, -71671.24857559784, -187500.02235174447, -29230.06912828316, -23314.098812830307, 0.654, -0.676, 0.38, 192.0, 0.0, 0.0, 0.0, 0.0, 0.0, 0.0, 0.0, 0.0, 0.0, 1.663499080240264E9, 0.0, 2022-09-18 16:04:40.240
126.0, -34203.24286261116, -11673.466762717577, -38524.77383908914, -49436.940185658954, -72527.40979521391, -187500.02235174447, -28983.708200896766, -23047.062521822754, 0.662, -0.684, 0.384, 192.0, 20.0, 176.0, 234.0, 160.0, 12.0, 0.0, 0.0, 0.0, 0.0, 1.6634990802442536E9, 0.0, 2022-09-18 16:04:40.244
127.0, -33733.29743543833, -11218.876983985541, -38660.94066631087, -49568.41314654507, -72589.77116224423, -187500.02235174447, -29045.913105715885, -23142.258601457906, 0.662, -0.684, 0.384, 192.0, 0.0, 0.0, 0.0, 0.0, 0.0, 0.0, 0.0, 0.0, 0.0, 1.6634990802482705E9, 0.0, 2022-09-18 16:04:40.248
128.0, -33316.16918041339, -9871.178552052803, -38955.693120443, -49858.04705119694, -72376.06613350703, -187500.02235174447, -29238.316921987167, -23390.094743978352, 0.662, -0.684, 0.384, 192.0, 0.0, 0.0, 0.0, 0.0, 0.0, 0.0, 0.0, 0.0, 0.0, 1.6634990802533126E9, 0.0, 2022-09-18 16:04:40.253
129.0, -33319.27607289267, -8466.684337459128, -39235.9616441681, -50135.990993498686, -71459.42109339489, -187500.02235174447, -29467.377599165156, -23643.652933079356, 0.662, -0.684, 0.384, 192.0, 0.0, 0.0, 0.0, 0.0, 0.0, 0.0, 0.0, 0.0, 0.0, 1.6634990802562883E9, 0.0, 2022-09-18 16:04:40.256
130.0, -34213.03292668259, -10110.319865980133, -38808.0598483157, -49699.751996964456, -71800.37460331614, -187500.02235174447, -29200.274252924235, -23289.93657707412, 0.662, -0.684, 0.384, 192.0, 0.0, 0.0, 0.0, 0.0, 0.0, 0.0, 0.0, 0.0, 0.0, 1.6634990802593088E9, 0.0, 2022-09-18 16:04:40.259
131.0, -34162.00389409112, -11665.196617269114, -38499.918699254835, -49420.243432550844, -72621.98002600433, -187500.02235174447, -28975.92979382632, -23022.78852734429, 0.662, -0.684, 0.384, 192.0, 0.0, 0.0, 0.0, 0.0, 0.0, 0.0, 0.0, 0.0, 0.0, 1.663499080264326E9, 0.0, 2022-09-18 16:04:40.264
132.0, -33710.498656093914, -11181.34840504508, -38657.25262847574, -49576.88445769363, -72666.66116317049, -187500.02235174447, -29066.94609724833, -23145.38784568165, 0.662, -0.684, 0.384, 192.0, 0.0, 0.0, 0.0, 0.0, 0.0, 0.0, 0.0, 0.0, 0.0, 1.663499080268308E9, 0.0, 2022-09-18 16:04:40.268
133.0, -33310.3130233661, -9818.383731649368, -38962.62216122415, -49881.8740107863, -72451.7491402327, -187500.02235174447, -29247.190564535926, -23412.938226811675, 0.662, -0.684, 0.384, 192.0, 0.0, 0.0, 0.0, 0.0, 0.0, 0.0, 0.0, 0.0, 0.0, 1.6634990802722867E9, 0.0, 2022-09-18 16:04:40.272
134.0, -33338.63268359097, -8454.457933242074, -39218.84020791533, -50136.79565629908, -71531.2372483298, -187500.02235174447, -29454.704160058995, -23652.39246516138, 0.662, -0.684, 0.384, 192.0, 0.0, 0.0, 0.0, 0.0, 0.0, 0.0, 0.0, 0.0, 0.0, 1.6634990802763352E9, 0.0, 2022-09-18 16:04:40.276
135.0, -34224.78994426608, -10192.037843708737, -38757.63431282453, -49677.53436297588, -71905.33839527826, -187500.02235174447, -29164.44440656238, -23277.643117623702, 0.662, -0.684, 0.384, 192.0, 0.0, 0.0, 0.0, 0.0, 0.0, 0.0, 0.0, 0.0, 0.0, 1.663499080281432E9, 0.0, 2022-09-18 16:04:40.281
136.0, -34144.56953341598, -11697.539591495943, -38498.91287075435, -49415.54956621523, -72711.69992824792, -187500.02235174447, -28966.184433243805, -23025.493088423384, 0.656, -0.686, 0.39, 192.0, 20.0, 128.0, 234.0, 144.0, 12.0, 48.0, 0.0, 0.0, 0.0, 1.6634990802843552E9, 0.0, 2022-09-18 16:04:40.284
137.0, -33705.268347891375, -11171.871265396032, -38672.51886993872, -49580.19251587302, -72759.19738521545, -187500.02235174447, -29069.203623438316, -23157.256621987417, 0.656, -0.686, 0.39, 192.0, 0.0, 0.0, 0.0, 0.0, 0.0, 0.0, 0.0, 0.0, 0.0, 1.6634990802873576E9, 0.0, 2022-09-18 16:04:40.287
138.0, -33285.323773065065, -9751.26144305008, -38974.446234041, -49878.297731673454, -72497.57021636609, -187500.02235174447, -29277.790102695242, -23417.989721058577, 0.656, -0.686, 0.39, 192.0, 0.0, 0.0, 0.0, 0.0, 0.0, 0.0, 0.0, 0.0, 0.0, 1.66349908029236E9, 0.0, 2022-09-18 16:04:40.292
139.0, -33342.81245980412, -8444.042020325902, -39209.87715838876, -50106.71020826224, -71578.35472564158, -187500.02235174447, -29474.55250913531, -23628.386691616382, 0.656, -0.686, 0.39, 192.0, 0.0, 0.0, 0.0, 0.0, 0.0, 0.0, 0.0, 0.0, 0.0, 1.6634990802964156E9, 0.0, 2022-09-18 16:04:40.296
140.0, -34238.1339357059, -10252.767533393804, -38748.0454144532, -49644.811409093316, -72015.73366114302, -187500.02235174447, -29196.899139511486, -23248.921125998633, 0.656, -0.686, 0.39, 192.0, 0.0, 0.0, 0.0, 0.0, 0.0, 0.0, 0.0, 0.0, 0.0, 1.6634990803004043E9, 0.0, 2022-09-18 16:04:40.300
141.0, -34129.9067890533, -11691.236399559546, -38502.53385335611, -49407.100606811124, -72791.49565595337, -187500.02235174447, -29001.433134249823, -23019.74869009837, 0.656, -0.686, 0.39, 192.0, 0.0, 0.0, 0.0, 0.0, 0.0, 0.0, 0.0, 0.0, 0.0, 1.6634990803043923E9, 0.0, 2022-09-18 16:04:40.304
