%OpenBCI Raw EEG Data
%Number of channels = 8
%Sample Rate = 250 Hz
%Board = OpenBCI_GUI$BoardCytonSerial
Sample Index, EXG Channel 0, EXG Channel 1, EXG Channel 2, EXG Channel 3, EXG Channel 4, EXG Channel 5, EXG Channel 6, EXG Channel 7, Accel Channel 0, Accel Channel 1, Accel Channel 2, Other, Other, Other, Other, Other, Other, Other, Analog Channel 0, Analog Channel 1, Analog Channel 2, Timestamp, Other, Timestamp (Formatted)
18.0, -43829.84862683399, -43929.224482682286, -39234.21820810058, -59815.10100544703, -58413.75838682156, -76714.6067875155, -62625.92227767972, -68258.00308680572, 0.0, 0.0, 0.0, 192.0, 0.0, 0.0, 0.0, 0.0, 0.0, 0.0, 0.0, 0.0, 0.0, 1.6635025084147522E9, 0.0, 2022-09-18 17:01:48.414
19.0, -41576.077529916474, -42561.096556317396, -39308.76127585903, -59896.304893053166, -58464.49684673511, -76800.57159669061, -62699.25835123758, -68338.84934650056, 0.0, 0.0, 0.0, 192.0, 0.0, 0.0, 0.0, 0.0, 0.0, 0.0, 0.0, 0.0, 0.0, 1.663502508414785E9, 0.0, 2022-09-18 17:01:48.414
0.0, 0.0, 0.0, 0.0, 0.0, 0.0, 0.0, 0.0, 0.0, 0.418, -0.89, 0.228, 192.0, 13.0, 16.0, 228.0, 48.0, 7.0, 32.0, 0.0, 0.0, 0.0, 1.663502508498015E9, 0.0, 2022-09-18 17:01:48.498
1.0, -43026.95161425491, -42420.88406334926, -38634.34209040905, -59614.44939547174, -57132.60109813227, -76317.93037866717, -62470.75646767098, -67973.42067640075, 0.418, -0.89, 0.228, 192.0, 0.0, 0.0, 0.0, 0.0, 0.0, 0.0, 0.0, 0.0, 0.0, 1.6635025085140584E9, 0.0, 2022-09-18 17:01:48.514
2.0, -43682.14829947332, -43452.26060775049, -38548.13141204493, -59509.30678955398, -57105.667246063625, -76191.82183645033, -62381.88593171668, -67871.98846006257, 0.418, -0.89, 0.228, 192.0, 0.0, 0.0, 0.0, 0.0, 0.0, 0.0, 0.0, 0.0, 0.0, 1.6635025085170753E9, 0.0, 2022-09-18 17:01:48.517
3.0, -45830.061534650515, -44867.52836317162, -38475.42118733182, -59443.145625966274, -57030.58773643825, -76115.2671116909, -62312.28259948285, -67807.86130522029, 0.418, -0.89, 0.228, 192.0, 0.0, 0.0, 0.0, 0.0, 0.0, 0.0, 0.0, 0.0, 0.0, 1.663502508521076E9, 0.0, 2022-09-18 17:01:48.521
4.0, -45981.98634171324, -44512.78382692145, -38508.09943772548, -59489.30197826648, -57033.85109112872, -76168.91129838364, -62346.972506877486, -67850.75430283003, 0.418, -0.89, 0.228, 192.0, 0.0, 0.0, 0.0, 0.0, 0.0, 0.0, 0.0, 0.0, 0.0, 1.663502508524048E9, 0.0, 2022-09-18 17:01:48.524
5.0, -44910.57782299254, -43560.465402658636, -38560.760147662186, -59551.17160691877, -57073.03369915888, -76245.8012993099, -62397.48744934648, -67910.54521924797, 0.418, -0.89, 0.228, 192.0, 0.0, 0.0, 0.0, 0.0, 0.0, 0.0, 0.0, 0.0, 0.0, 1.6635025085280433E9, 0.0, 2022-09-18 17:01:48.528
6.0, -42923.30657521565, -42437.87138913529, -38613.9125959769, -59605.15106977834, -57108.84119377628, -76300.1607418252, -62449.656420905165, -67960.30020240549, 0.418, -0.89, 0.228, 192.0, 0.0, 0.0, 0.0, 0.0, 0.0, 0.0, 0.0, 0.0, 0.0, 1.6635025085321336E9, 0.0, 2022-09-18 17:01:48.532
7.0, -43675.01809299208, -43523.4732655851, -38530.92056881435, -59501.371920272344, -57086.04241443186, -76177.60612697675, -62363.98218440798, -67859.58324188986, 0.418, -0.89, 0.228, 192.0, 0.0, 0.0, 0.0, 0.0, 0.0, 0.0, 0.0, 0.0, 0.0, 1.6635025085371623E9, 0.0, 2022-09-18 17:01:48.537
8.0, -45724.13661767681, -44860.04052877909, -38472.91779195282, -59445.78313181199, -57022.78697762334, -76116.76467856941, -62309.60039014821, -67806.76606974198, 0.394, -0.886, 0.234, 192.0, 12.0, 80.0, 228.0, 80.0, 7.0, 80.0, 0.0, 0.0, 0.0, 1.66350250854107E9, 0.0, 2022-09-18 17:01:48.541
9.0, -45833.01196491861, -44487.61576266477, -38515.319051184546, -59495.47105973614, -57036.89092837465, -76177.96375488803, -62352.38162903567, -67854.93407904316, 0.394, -0.886, 0.234, 192.0, 0.0, 0.0, 0.0, 0.0, 0.0, 0.0, 0.0, 0.0, 0.0, 1.663502508544126E9, 0.0, 2022-09-18 17:01:48.544
10.0, -44739.050536042516, -43525.909605730725, -38569.566734977576, -59552.69152554173, -57073.45838230353, -76251.36688367926, -62404.640007572176, -67911.84162042638, 0.394, -0.886, 0.234, 192.0, 0.0, 0.0, 0.0, 0.0, 0.0, 0.0, 0.0, 0.0, 0.0, 1.6635025085481303E9, 0.0, 2022-09-18 17:01:48.548
11.0, -42829.8092281591, -42454.21051433212, -38619.58993906855, -59600.166630764805, -57108.05888272034, -76299.84781740283, -62452.517444195444, -67957.12625469283, 0.394, -0.886, 0.234, 192.0, 0.0, 0.0, 0.0, 0.0, 0.0, 0.0, 0.0, 0.0, 0.0, 1.6635025085520859E9, 0.0, 2022-09-18 17:01:48.552
12.0, -43685.79163381954, -43588.762711139054, -38534.116868271456, -59494.12995506883, -57082.26496961892, -76172.7781501744, -62365.81502745331, -67854.30823019841, 0.394, -0.886, 0.234, 192.0, 0.0, 0.0, 0.0, 0.0, 0.0, 0.0, 0.0, 0.0, 0.0, 1.6635025085561264E9, 0.0, 2022-09-18 17:01:48.556
13.0, -45657.08138431089, -44845.511894883144, -38480.785606001096, -59441.15632070975, -57018.22722175446, -76115.84825704673, -62318.33992223024, -67804.12856389626, 0.394, -0.886, 0.234, 192.0, 0.0, 0.0, 0.0, 0.0, 0.0, 0.0, 0.0, 0.0, 0.0, 1.6635025085601234E9, 0.0, 2022-09-18 17:01:48.560
14.0, -45723.10843743187, -44443.78399178791, -38521.42107742084, -59490.30780676697, -57033.49346321743, -76176.01915312042, -62360.36120180622, -67850.93311678566, 0.394, -0.886, 0.234, 192.0, 0.0, 0.0, 0.0, 0.0, 0.0, 0.0, 0.0, 0.0, 0.0, 1.6635025085651655E9, 0.0, 2022-09-18 17:01:48.565
15.0, -44618.14995028376, -43478.859183652305, -38576.24990656971, -59550.456351096196, -57073.65954800363, -76250.87514530125, -62416.039397244385, -67909.89701865877, 0.394, -0.886, 0.234, 192.0, 0.0, 0.0, 0.0, 0.0, 0.0, 0.0, 0.0, 0.0, 0.0, 1.6635025085691311E9, 0.0, 2022-09-18 17:01:48.569
16.0, -42781.93179153583, -42459.39611904575, -38619.321718135085, -59590.443621926745, -57105.71194955253, -76292.62820394376, -62460.25114777698, -67948.90081273328, 0.394, -0.886, 0.234, 192.0, 0.0, 0.0, 0.0, 0.0, 0.0, 0.0, 0.0, 0.0, 0.0, 1.6635025085721283E9, 0.0, 2022-09-18 17:01:48.572
17.0, -43733.93729137627, -43647.92777871225, -38530.22766473623, -59482.48469620761, -57081.750879496445, -76165.71499892653, -62364.83155069728, -67847.13332022825, 0.394, -0.886, 0.234, 192.0, 0.0, 0.0, 0.0, 0.0, 0.0, 0.0, 0.0, 0.0, 0.0, 1.6635025085761836E9, 0.0, 2022-09-18 17:01:48.576
18.0, -45626.683011851674, -44836.81706629003, -38478.50572806665, -59435.34486715137, -57020.574154922266, -76114.82007680179, -62315.25538149541, -67803.05568016239, 0.39, -0.898, 0.23600000000000002, 192.0, 12.0, 48.0, 227.0, 240.0, 7.0, 96.0, 0.0, 0.0, 0.0, 1.6635025085801597E9, 0.0, 2022-09-18 17:01:48.580
19.0, -45657.34960524435, -44417.20776763055, -38515.83314130702, -59480.80831537346, -57032.0629515723, -76172.5322809854, -62352.7169052025, -67845.63575334975, 0.39, -0.898, 0.23600000000000002, 192.0, 0.0, 0.0, 0.0, 0.0, 0.0, 0.0, 0.0, 0.0, 0.0, 1.6635025085841408E9, 0.0, 2022-09-18 17:01:48.584
20.0, -44542.0646121579, -43447.09735478131, -38568.76207217718, -59539.7051620132, -57068.049260145344, -76248.57291562235, -62404.014158727434, -67903.30325404445, 0.39, -0.898, 0.23600000000000002, 192.0, 0.0, 0.0, 0.0, 0.0, 0.0, 0.0, 0.0, 0.0, 0.0, 1.6635025085882092E9, 0.0, 2022-09-18 17:01:48.588
21.0, -42778.377864167436, -42477.0763489099, -38607.69881101833, -59578.88777004335, -57099.699330294054, -76285.29683176242, -62442.4368074461, -67941.30121961847, 0.39, -0.898, 0.23600000000000002, 192.0, 0.0, 0.0, 0.0, 0.0, 0.0, 0.0, 0.0, 0.0, 0.0, 1.6635025085932927E9, 0.0, 2022-09-18 17:01:48.593
22.0, -43814.69414409329, -43716.771151634595, -38517.97890877473, -59475.510951937555, -57078.64398701716, -76160.86467037973, -62348.60418422273, -67844.87579403828, 0.39, -0.898, 0.23600000000000002, 192.0, 0.0, 0.0, 0.0, 0.0, 0.0, 0.0, 0.0, 0.0, 0.0, 1.663502508597152E9, 0.0, 2022-09-18 17:01:48.597
23.0, -45627.71119209662, -44843.05320299306, -38472.96249544174, -59437.11065496334, -57021.44587295603, -76117.43523090307, -62306.225276735466, -67808.91183720969, 0.39, -0.898, 0.23600000000000002, 192.0, 0.0, 0.0, 0.0, 0.0, 0.0, 0.0, 0.0, 0.0, 0.0, 1.6635025086001365E9, 0.0, 2022-09-18 17:01:48.600
24.0, -45623.4196571612, -44406.25541284745, -38509.70876332626, -59482.507047952065, -57035.37100975168, -76172.71109494104, -62344.75968417641, -67851.67072435269, 0.39, -0.898, 0.23600000000000002, 192.0, 0.0, 0.0, 0.0, 0.0, 0.0, 0.0, 0.0, 0.0, 0.0, 1.6635025086042056E9, 0.0, 2022-09-18 17:01:48.604
25.0, -44495.61768717977, -43430.6017673733, -38565.52106923117, -59544.7566562601, -57069.300957834836, -76245.86835454326, -62400.28141740339, -67909.4276320252, 0.39, -0.898, 0.23600000000000002, 192.0, 0.0, 0.0, 0.0, 0.0, 0.0, 0.0, 0.0, 0.0, 0.0, 1.663502508608254E9, 0.0, 2022-09-18 17:01:48.608
26.0, -42804.06001854659, -42511.72155281562, -38603.72020050528, -59581.97231077818, -57096.88301049269, -76274.34447697931, -62435.55247015387, -67940.80948124046, 0.39, -0.898, 0.23600000000000002, 192.0, 0.0, 0.0, 0.0, 0.0, 0.0, 0.0, 0.0, 0.0, 0.0, 1.6635025086122277E9, 0.0, 2022-09-18 17:01:48.612
27.0, -43909.577299306075, -43791.023646715126, -38516.43663840731, -59481.3894607293, -57076.87819920519, -76149.01824581841, -62341.69749518603, -67844.51816612699, 0.39, -0.898, 0.23600000000000002, 192.0, 0.0, 0.0, 0.0, 0.0, 0.0, 0.0, 0.0, 0.0, 0.0, 1.6635025086162522E9, 0.0, 2022-09-18 17:01:48.616
28.0, -45637.14362825676, -44848.08234549551, -38476.8293472325, -59447.52656787951, -57021.87055610068, -76114.0154140014, -62306.225276735466, -67813.49394482303, 0.384, -0.9, 0.234, 192.0, 12.0, 0.0, 227.0, 224.0, 7.0, 80.0, 0.0, 0.0, 0.0, 1.6635025086203425E9, 0.0, 2022-09-18 17:01:48.620
29.0, -45595.099996936326, -44393.1796423411, -38518.2918331971, -59496.901571381284, -57041.271870287885, -76177.29320255437, -62350.325268545785, -67861.14786400174, 0.384, -0.9, 0.234, 192.0, 0.0, 0.0, 0.0, 0.0, 0.0, 0.0, 0.0, 0.0, 0.0, 1.663502508624307E9, 0.0, 2022-09-18 17:01:48.624
30.0, -44435.580901572815, -43394.973086711536, -38571.71250244528, -59558.34651688892, -57071.8714084472, -76253.84792731381, -62404.03651047189, -67920.31293157494, 0.384, -0.9, 0.234, 192.0, 0.0, 0.0, 0.0, 0.0, 0.0, 0.0, 0.0, 0.0, 0.0, 1.6635025086272557E9, 0.0, 2022-09-18 17:01:48.627
31.0, -42804.97644006925, -42521.69043084269, -38607.07296217358, -59590.085994015455, -57102.33683613978, -76281.07235206036, -62439.97811555602, -67949.6831237892, 0.384, -0.9, 0.234, 192.0, 0.0, 0.0, 0.0, 0.0, 0.0, 0.0, 0.0, 0.0, 0.0, 1.6635025086322753E9, 0.0, 2022-09-18 17:01:48.632
32.0, -43974.26324775973, -43843.32672874055, -38518.98473727521, -59485.1892572867, -57083.89664696415, -76158.11540581172, -62347.91128014461, -67851.53661388595, 0.384, -0.9, 0.234, 192.0, 0.0, 0.0, 0.0, 0.0, 0.0, 0.0, 0.0, 0.0, 0.0, 1.6635025086363297E9, 0.0, 2022-09-18 17:01:48.636
33.0, -45624.76076182852, -44841.51093262565, -38488.742827027185, -59459.66356511874, -57034.94632660703, -76130.75687059843, -62320.820965864776, -67827.9108199967, 0.384, -0.9, 0.234, 192.0, 0.0, 0.0, 0.0, 0.0, 0.0, 0.0, 0.0, 0.0, 0.0, 1.66350250864023E9, 0.0, 2022-09-18 17:01:48.640
34.0, -45552.2517028155, -44374.71710142101, -38529.221836235745, -59506.57987673043, -57054.92878615008, -76192.71590622854, -62361.05410588433, -67873.95541357463, 0.384, -0.9, 0.234, 192.0, 0.0, 0.0, 0.0, 0.0, 0.0, 0.0, 0.0, 0.0, 0.0, 1.6635025086442332E9, 0.0, 2022-09-18 17:01:48.644
35.0, -44365.955217594535, -43360.84197292828, -38581.994304894724, -59565.141447203336, -57085.39421384266, -76266.2531454865, -62412.64193208718, -67930.46062355765, 0.384, -0.9, 0.234, 192.0, 0.0, 0.0, 0.0, 0.0, 0.0, 0.0, 0.0, 0.0, 0.0, 1.663502508648321E9, 0.0, 2022-09-18 17:01:48.648
36.0, -42798.96382081078, -42539.43771594021, -38613.89024423245, -59589.50484865962, -57113.66917057862, -76286.21325328508, -62443.19676675758, -67952.72296103514, 0.384, -0.9, 0.234, 192.0, 0.0, 0.0, 0.0, 0.0, 0.0, 0.0, 0.0, 0.0, 0.0, 1.6635025086523144E9, 0.0, 2022-09-18 17:01:48.652
37.0, -44038.345699113095, -43906.26924112669, -38521.26461520966, -59478.86371360585, -57088.188181899575, -76156.55078369984, -62347.15132083313, -67848.54148012894, 0.384, -0.9, 0.234, 192.0, 0.0, 0.0, 0.0, 0.0, 0.0, 0.0, 0.0, 0.0, 0.0, 1.6635025086553009E9, 0.0, 2022-09-18 17:01:48.655
38.0, -45612.73552331156, -44837.0852872235, -38489.34632412748, -59450.49934989207, -57032.95702135051, -76128.18641998607, -62321.04448330933, -67822.0546629494, 0.38, -0.898, 0.23800000000000002, 192.0, 11.0, 224.0, 227.0, 240.0, 7.0, 112.0, 0.0, 0.0, 0.0, 1.6635025086602616E9, 0.0, 2022-09-18 17:01:48.660
39.0, -45508.30817321637, -44350.37605170919, -38528.95361530228, -59494.800507402484, -57047.59741396874, -76186.56917650333, -62362.75283846293, -67864.61238439231, 0.38, -0.898, 0.23800000000000002, 192.0, 0.0, 0.0, 0.0, 0.0, 0.0, 0.0, 0.0, 0.0, 0.0, 1.6635025086643705E9, 0.0, 2022-09-18 17:01:48.664
40.0, -44299.27996388435, -43320.69823988655, -38587.358723564, -59556.91600524378, -57078.24165561696, -76264.95674430809, -62419.90624903516, -67924.73857697709, 0.38, -0.898, 0.23800000000000002, 192.0, 0.0, 0.0, 0.0, 0.0, 0.0, 0.0, 0.0, 0.0, 0.0, 1.663502508668292E9, 0.0, 2022-09-18 17:01:48.668
41.0, -42797.91328882138, -42552.58054167993, -38611.61036629801, -59576.33967117545, -57106.04722571936, -76279.99946832651, -62443.26382199095, -67944.13989116429, 0.38, -0.898, 0.23800000000000002, 192.0, 0.0, 0.0, 0.0, 0.0, 0.0, 0.0, 0.0, 0.0, 0.0, 1.663502508672311E9, 0.0, 2022-09-18 17:01:48.672
42.0, -44106.04913306822, -43970.50815469124, -38520.258786709164, -59475.15332402627, -57085.3718620982, -76154.58383018778, -62348.648887711635, -67850.59784061884, 0.38, -0.898, 0.23800000000000002, 192.0, 0.0, 0.0, 0.0, 0.0, 0.0, 0.0, 0.0, 0.0, 0.0, 1.6635025086764748E9, 0.0, 2022-09-18 17:01:48.676
43.0, -45610.947383755134, -44847.747069328674, -38497.10237945347, -59460.267062219034, -57038.254384786414, -76136.1659927566, -62329.78401539136, -67836.96327650109, 0.38, -0.898, 0.23800000000000002, 192.0, 0.0, 0.0, 0.0, 0.0, 0.0, 0.0, 0.0, 0.0, 0.0, 1.663502508680284E9, 0.0, 2022-09-18 17:01:48.680
44.0, -45473.41710012163, -44342.329423705276, -38540.08478404102, -59507.25042906409, -57060.494370519446, -76197.29801384188, -62372.74406823445, -67881.80087587844, 0.38, -0.898, 0.23800000000000002, 192.0, 0.0, 0.0, 0.0, 0.0, 0.0, 0.0, 0.0, 0.0, 0.0, 1.6635025086833649E9, 0.0, 2022-09-18 17:01:48.683
45.0, -44226.65914614906, -43290.65749533862, -38599.02633416967, -59572.65163334032, -57088.456402833035, -76275.12678803525, -62432.400874185674, -67942.61997254133, 0.38, -0.898, 0.23800000000000002, 192.0, 0.0, 0.0, 0.0, 0.0, 0.0, 0.0, 0.0, 0.0, 0.0, 1.6635025086874087E9, 0.0, 2022-09-18 17:01:48.687
46.0, -42787.8997073054, -42580.22964957114, -38622.272148403186, -59593.57286615048, -57115.792586301875, -76283.08400906135, -62454.484397707514, -67957.4391791152, 0.38, -0.898, 0.23800000000000002, 192.0, 0.0, 0.0, 0.0, 0.0, 0.0, 0.0, 0.0, 0.0, 0.0, 1.6635025086923828E9, 0.0, 2022-09-18 17:01:48.692
47.0, -44158.866305216114, -44041.18437065892, -38528.595987390996, -59491.60420794538, -57091.317426123314, -76154.76264414343, -62357.50017851594, -67858.24213722255, 0.38, -0.898, 0.23800000000000002, 192.0, 0.0, 0.0, 0.0, 0.0, 0.0, 0.0, 0.0, 0.0, 0.0, 1.6635025086963663E9, 0.0, 2022-09-18 17:01:48.696
48.0, -45597.02224695948, -44862.63333113591, -38509.082914481514, -59481.657681662764, -57047.59741396874, -76144.27967599388, -62341.83160565277, -67846.77569231698, 0.38, -0.894, 0.24, 192.0, 11.0, 224.0, 228.0, 16.0, 7.0, 128.0, 0.0, 0.0, 0.0, 1.6635025087003531E9, 0.0, 2022-09-18 17:01:48.700
49.0, -45429.92060541161, -44340.362470193206, -38544.666891654364, -59524.796548461505, -57065.09882987724, -76203.98118543401, -62378.39905958165, -67887.88055037029, 0.38, -0.894, 0.24, 192.0, 0.0, 0.0, 0.0, 0.0, 0.0, 0.0, 0.0, 0.0, 0.0, 1.6635025087044065E9, 0.0, 2022-09-18 17:01:48.704
50.0, -44152.987796424364, -43260.79556474633, -38602.40144758242, -59586.30854920251, -57091.56329531233, -76280.04417181542, -62436.89357482119, -67946.75504526557, 0.38, -0.894, 0.24, 192.0, 0.0, 0.0, 0.0, 0.0, 0.0, 0.0, 0.0, 0.0, 0.0, 1.6635025087073953E9, 0.0, 2022-09-18 17:01:48.707
51.0, -42788.860832316976, -42603.47546380466, -38612.68325003186, -59592.07529927198, -57110.45051937706, -76274.8585671018, -62446.34836272578, -67950.84541450089, 0.38, -0.894, 0.24, 192.0, 0.0, 0.0, 0.0, 0.0, 0.0, 0.0, 0.0, 0.0, 0.0, 1.663502508711337E9, 0.0, 2022-09-18 17:01:48.711
52.0, -44228.38023047212, -44097.287249241745, -38517.330708185524, -59486.79858288749, -57082.77905974139, -76147.05129230635, -62348.24655631144, -67852.92242204219, 0.38, -0.894, 0.24, 192.0, 0.0, 0.0, 0.0, 0.0, 0.0, 0.0, 0.0, 0.0, 0.0, 1.66350250871555E9, 0.0, 2022-09-18 17:01:48.715
53.0, -45610.746218055036, -44856.30778745506, -38495.5377573416, -59472.649928647275, -57033.225242283974, -76136.21069624551, -62332.10859681471, -67839.42196839118, 0.38, -0.894, 0.24, 192.0, 0.0, 0.0, 0.0, 0.0, 0.0, 0.0, 0.0, 0.0, 0.0, 1.6635025087203605E9, 0.0, 2022-09-18 17:01:48.720
54.0, -45430.14412285616, -44320.73763856145, -38534.899179327396, -59516.19112684621, -57051.10663784822, -76196.91803418614, -62371.782943222875, -67881.48795145607, 0.38, -0.894, 0.24, 192.0, 0.0, 0.0, 0.0, 0.0, 0.0, 0.0, 0.0, 0.0, 0.0, 1.6635025087243755E9, 0.0, 2022-09-18 17:01:48.724
55.0, -44138.54856950624, -43226.12800909615, -38591.225575354765, -59575.26678744159, -57072.85488520323, -76271.1034740333, -62429.07046426183, -67938.39549283928, 0.38, -0.894, 0.24, 192.0, 0.0, 0.0, 0.0, 0.0, 0.0, 0.0, 0.0, 0.0, 0.0, 1.663502508728584E9, 0.0, 2022-09-18 17:01:48.728
56.0, -42858.62062676199, -42635.751382798124, -38602.557909793606, -59581.68173810026, -57096.90536223714, -76265.80611059739, -62438.50290042197, -67943.33522836391, 0.38, -0.894, 0.24, 192.0, 0.0, 0.0, 0.0, 0.0, 0.0, 0.0, 0.0, 0.0, 0.0, 1.663502508732411E9, 0.0, 2022-09-18 17:01:48.732
57.0, -44370.60438044124, -44175.78657576878, -38506.42305689133, -59477.52260893853, -57068.20572235653, -76138.40116720214, -62338.501195728924, -67845.8592707943, 0.38, -0.894, 0.24, 192.0, 0.0, 0.0, 0.0, 0.0, 0.0, 0.0, 0.0, 0.0, 0.0, 1.663502508735463E9, 0.0, 2022-09-18 17:01:48.735
58.0, -45685.64691372477, -44869.160040516865, -38490.19569041678, -59468.00076580057, -57020.73061713346, -76130.57805664279, -62328.46526246849, -67836.40448288972, 0.382, -0.892, 0.23600000000000002, 192.0, 11.0, 240.0, 228.0, 32.0, 7.0, 96.0, 0.0, 0.0, 0.0, 1.6635025087394476E9, 0.0, 2022-09-18 17:01:48.739
59.0, -45471.13722218719, -44307.460702355, -38532.66400488186, -59512.30192331099, -57040.154283065116, -76188.71494397103, -62370.77711472239, -67877.37523047629, 0.382, -0.892, 0.23600000000000002, 192.0, 0.0, 0.0, 0.0, 0.0, 0.0, 0.0, 0.0, 0.0, 0.0, 1.6635025087435217E9, 0.0, 2022-09-18 17:01:48.743
60.0, -44154.84299121416, -43200.93759309502, -38593.99719166722, -59577.65842409831, -57064.42827754358, -76268.51067167649, -62431.0374177739, -67939.51308006204, 0.382, -0.892, 0.23600000000000002, 192.0, 0.0, 0.0, 0.0, 0.0, 0.0, 0.0, 0.0, 0.0, 0.0, 1.6635025087484686E9, 0.0, 2022-09-18 17:01:48.748
61.0, -42956.74478492079, -42679.91842984181, -38601.82030222658, -59580.519447388586, -57090.46805983401, -76261.13459600623, -62437.16179575465, -67942.46351033014, 0.382, -0.892, 0.23600000000000002, 192.0, 0.0, 0.0, 0.0, 0.0, 0.0, 0.0, 0.0, 0.0, 0.0, 1.6635025087524843E9, 0.0, 2022-09-18 17:01:48.752
62.0, -44522.32802180386, -44242.70769866797, -38500.85747252196, -59471.0853065354, -57057.09690536224, -76134.55666715583, -62332.62268693718, -67842.57356435938, 0.382, -0.892, 0.23600000000000002, 192.0, 0.0, 0.0, 0.0, 0.0, 0.0, 0.0, 0.0, 0.0, 0.0, 1.663502508756569E9, 0.0, 2022-09-18 17:01:48.756
63.0, -45770.695301377214, -44871.4399184513, -38485.12184442543, -59464.02215528753, -57010.582925150746, -76132.07562352129, -62320.86566935369, -67837.79029104594, 0.382, -0.892, 0.23600000000000002, 192.0, 0.0, 0.0, 0.0, 0.0, 0.0, 0.0, 0.0, 0.0, 0.0, 1.663502508760465E9, 0.0, 2022-09-18 17:01:48.760
64.0, -45530.05642057138, -44290.18280389104, -38520.30349019808, -59505.68580695222, -57028.889003859644, -76189.51960677143, -62356.762570948915, -67879.00690782153, 0.382, -0.892, 0.23600000000000002, 192.0, 0.0, 0.0, 0.0, 0.0, 0.0, 0.0, 0.0, 0.0, 0.0, 1.6635025087644897E9, 0.0, 2022-09-18 17:01:48.764
65.0, -44184.16847993952, -43159.29629317478, -38578.12745310396, -59567.48838037114, -57050.972527381484, -76263.83915708533, -62416.106452477754, -67938.82017598393, 0.382, -0.892, 0.23600000000000002, 192.0, 0.0, 0.0, 0.0, 0.0, 0.0, 0.0, 0.0, 0.0, 0.0, 1.6635025087675593E9, 0.0, 2022-09-18 17:01:48.767
66.0, -43066.44714670743, -42706.94168888828, -38581.12258686097, -59564.5603018475, -57073.994824170455, -76244.5496016204, -62417.514612378436, -67933.81338522595, 0.382, -0.892, 0.23600000000000002, 192.0, 0.0, 0.0, 0.0, 0.0, 0.0, 0.0, 0.0, 0.0, 0.0, 1.6635025087715569E9, 0.0, 2022-09-18 17:01:48.771
67.0, -44690.99428546361, -44301.6045453077, -38486.4853008372, -59462.234015731105, -57046.52453023488, -76122.35261468323, -62320.53039318686, -67837.85734627931, 0.382, -0.892, 0.23600000000000002, 192.0, 0.0, 0.0, 0.0, 0.0, 0.0, 0.0, 0.0, 0.0, 0.0, 1.6635025087755153E9, 0.0, 2022-09-18 17:01:48.775
68.0, -45879.99533176367, -44875.88791559791, -38479.71272226724, -59464.58094889891, -57008.347750705216, -76127.22529497449, -62320.48568969795, -67838.48319512406, 0.386, -0.898, 0.23600000000000002, 192.0, 12.0, 16.0, 227.0, 240.0, 7.0, 96.0, 0.0, 0.0, 0.0, 1.663502508780557E9, 0.0, 2022-09-18 17:01:48.780
69.0, -45608.443988376144, -44278.87282119666, -38518.58240587502, -59508.300961053494, -57031.414750983095, -76187.19502534808, -62360.56236750631, -67880.3703642333, 0.386, -0.898, 0.23600000000000002, 192.0, 0.0, 0.0, 0.0, 0.0, 0.0, 0.0, 0.0, 0.0, 0.0, 1.6635025087845893E9, 0.0, 2022-09-18 17:01:48.784
70.0, -44221.40648620206, -43126.595691036666, -38578.93211590435, -59571.154066461815, -57057.05220187333, -76263.59328789632, -62422.02966475841, -67939.58013529541, 0.386, -0.898, 0.23600000000000002, 192.0, 0.0, 0.0, 0.0, 0.0, 0.0, 0.0, 0.0, 0.0, 0.0, 1.6635025087885876E9, 0.0, 2022-09-18 17:01:48.788
71.0, -43173.33318869271, -42739.12820090392, -38576.92045890337, -59559.754676789606, -57081.5720655408, -76241.62152309675, -62415.547658866366, -67927.532545034, 0.386, -0.898, 0.23600000000000002, 192.0, 0.0, 0.0, 0.0, 0.0, 0.0, 0.0, 0.0, 0.0, 0.0, 1.663502508791511E9, 0.0, 2022-09-18 17:01:48.791
72.0, -44829.932728997795, -44354.77934536688, -38488.876937493915, -59460.982318041606, -57056.24753907294, -76126.84531531874, -62323.10084379922, -67837.27620092347, 0.386, -0.898, 0.23600000000000002, 192.0, 0.0, 0.0, 0.0, 0.0, 0.0, 0.0, 0.0, 0.0, 0.0, 1.663502508795632E9, 0.0, 2022-09-18 17:01:48.795
73.0, -45935.78528592412, -44863.79562184759, -38488.56401307154, -59463.061030275945, -57022.69757064553, -76139.96578931401, -62326.11832930068, -67843.3111719264, 0.386, -0.898, 0.23600000000000002, 192.0, 0.0, 0.0, 0.0, 0.0, 0.0, 0.0, 0.0, 0.0, 0.0, 1.663502508799606E9, 0.0, 2022-09-18 17:01:48.799
74.0, -45622.279718193975, -44242.61829169015, -38529.02067053565, -59505.30582729648, -57048.22326281348, -76201.00840342145, -62368.40782981012, -67884.86306486883, 0.386, -0.898, 0.23600000000000002, 192.0, 0.0, 0.0, 0.0, 0.0, 0.0, 0.0, 0.0, 0.0, 0.0, 1.6635025088045602E9, 0.0, 2022-09-18 17:01:48.804
75.0, -44193.17623295501, -43075.65606542302, -38588.05162764211, -59568.002470493615, -57069.45742004603, -76273.56216592339, -62428.98105728401, -67942.61997254133, 0.386, -0.898, 0.23600000000000002, 192.0, 0.0, 0.0, 0.0, 0.0, 0.0, 0.0, 0.0, 0.0, 0.0, 1.6635025088085604E9, 0.0, 2022-09-18 17:01:48.808
76.0, -43221.76941892737, -42765.927942505834, -38580.72025546077, -59556.84895001042, -57093.30673137984, -76244.9519330206, -62418.341626923284, -67930.90765844675, 0.386, -0.898, 0.23600000000000002, 192.0, 0.0, 0.0, 0.0, 0.0, 0.0, 0.0, 0.0, 0.0, 0.0, 1.6635025088125792E9, 0.0, 2022-09-18 17:01:48.812
77.0, -44914.44467478331, -44390.98917138448, -38487.267611893134, -59460.80350408596, -57061.902530420135, -76125.97359728499, -62322.31853274328, -67841.54538411443, 0.386, -0.898, 0.23600000000000002, 192.0, 0.0, 0.0, 0.0, 0.0, 0.0, 0.0, 0.0, 0.0, 0.0, 1.66350250881559E9, 0.0, 2022-09-18 17:01:48.815
78.0, -45952.03500414312, -44836.75001105667, -38491.78266427311, -59474.952158326174, -57034.8122161403, -76144.3243794828, -62331.34863750323, -67854.9117272987, 0.384, -0.902, 0.234, 192.0, 12.0, 0.0, 227.0, 208.0, 7.0, 80.0, 0.0, 0.0, 0.0, 1.6635025088195589E9, 0.0, 2022-09-18 17:01:48.819
79.0, -45605.292392407944, -44205.89437555008, -38537.96136831777, -59521.1979176042, -57068.56335026781, -76208.3397756028, -62375.91801594711, -67900.64339645427, 0.384, -0.902, 0.234, 192.0, 0.0, 0.0, 0.0, 0.0, 0.0, 0.0, 0.0, 0.0, 0.0, 1.6635025088236065E9, 0.0, 2022-09-18 17:01:48.823
80.0, -44144.0694503867, -43027.42100088847, -38604.16723539439, -59584.25218871262, -57095.6760162921, -76287.1073230633, -62441.81095860135, -67961.4401413727, 0.384, -0.902, 0.234, 192.0, 0.0, 0.0, 0.0, 0.0, 0.0, 0.0, 0.0, 0.0, 0.0, 1.6635025088276E9, 0.0, 2022-09-18 17:01:48.827
81.0, -43252.6595297646, -42793.10766376348, -38596.45588355731, -59564.24737742513, -57118.87712703671, -76254.20555522508, -62430.232754973506, -67942.86584173034, 0.384, -0.902, 0.234, 192.0, 0.0, 0.0, 0.0, 0.0, 0.0, 0.0, 0.0, 0.0, 0.0, 1.663502508831628E9, 0.0, 2022-09-18 17:01:48.831
82.0, -44981.25403896023, -44437.36904112924, -38507.38418190291, -59466.72671636662, -57081.90734170763, -76137.44004219056, -62337.62947769517, -67853.19064297565, 0.384, -0.902, 0.234, 192.0, 0.0, 0.0, 0.0, 0.0, 0.0, 0.0, 0.0, 0.0, 0.0, 1.6635025088366525E9, 0.0, 2022-09-18 17:01:48.836
83.0, -45953.10788787698, -44827.71990629672, -38516.637804107406, -59482.507047952065, -57049.5643674808, -76157.57896394479, -62351.644021468644, -67869.93209957267, 0.384, -0.902, 0.234, 192.0, 0.0, 0.0, 0.0, 0.0, 0.0, 0.0, 0.0, 0.0, 0.0, 1.6635025088406231E9, 0.0, 2022-09-18 17:01:48.840
84.0, -45569.12726987926, -44179.27344790381, -38559.709615672786, -59526.003542662096, -57074.620673015204, -76216.38640360671, -62396.21339991253, -67909.36057679183, 0.384, -0.902, 0.234, 192.0, 0.0, 0.0, 0.0, 0.0, 0.0, 0.0, 0.0, 0.0, 0.0, 1.66350250884356E9, 0.0, 2022-09-18 17:01:48.843
85.0, -44067.13474597153, -42986.07027364615, -38620.95339548033, -59592.72349986118, -57096.860658748235, -76291.42120974317, -62459.96057509907, -67973.37597291183, 0.384, -0.902, 0.234, 192.0, 0.0, 0.0, 0.0, 0.0, 0.0, 0.0, 0.0, 0.0, 0.0, 1.663502508847675E9, 0.0, 2022-09-18 17:01:48.847
86.0, -43252.011329175395, -42827.14937056892, -38605.39658133943, -59570.28234842806, -57114.78675780139, -76247.7011975886, -62440.648667889676, -67952.45474010168, 0.384, -0.902, 0.234, 192.0, 0.0, 0.0, 0.0, 0.0, 0.0, 0.0, 0.0, 0.0, 0.0, 1.6635025088516176E9, 0.0, 2022-09-18 17:01:48.851
87.0, -45020.12372256801, -44484.307704485385, -38515.40845816237, -59475.57800717092, -57079.56040853982, -76134.48961192246, -62348.89475690064, -67864.29945996993, 0.384, -0.902, 0.234, 192.0, 0.0, 0.0, 0.0, 0.0, 0.0, 0.0, 0.0, 0.0, 0.0, 1.6635025088556473E9, 0.0, 2022-09-18 17:01:48.855
88.0, -45930.6890881883, -44825.529435340104, -38524.1926937333, -59492.27476027903, -57054.3699925387, -76162.9210308696, -62362.99870765194, -67881.51030320053, 0.388, -0.904, 0.234, 192.0, 12.0, 32.0, 227.0, 192.0, 7.0, 80.0, 0.0, 0.0, 0.0, 1.663502508859701E9, 0.0, 2022-09-18 17:01:48.859
89.0, -45512.71146687406, -44169.30456987674, -38563.84468839702, -59532.06086540948, -57084.34368185326, -76225.95295023358, -62402.22601917101, -67922.21282985364, 0.388, -0.904, 0.234, 192.0, 0.0, 0.0, 0.0, 0.0, 0.0, 0.0, 0.0, 0.0, 0.0, 1.6635025088646743E9, 0.0, 2022-09-18 17:01:48.864
90.0, -43976.74429139427, -42972.301599061684, -38625.31198564911, -59595.830392340475, -57107.410682131136, -76301.07716334786, -62465.97319435754, -67981.91433929377, 0.388, -0.904, 0.234, 192.0, 0.0, 0.0, 0.0, 0.0, 0.0, 0.0, 0.0, 0.0, 0.0, 1.6635025088686736E9, 0.0, 2022-09-18 17:01:48.868
91.0, -43257.28634086685, -42907.23567095229, -38603.54138654964, -59568.136580960345, -57125.18031897311, -76249.8469650563, -62443.4873394355, -67952.8347197574, 0.388, -0.904, 0.234, 192.0, 0.0, 0.0, 0.0, 0.0, 0.0, 0.0, 0.0, 0.0, 0.0, 1.663502508871712E9, 0.0, 2022-09-18 17:01:48.871
92.0, -45073.566743560645, -44573.647627073246, -38506.73598131371, -59470.414754201745, -57079.806277728836, -76132.85793457723, -62346.123140588184, -67862.06428552441, 0.388, -0.904, 0.234, 192.0, 0.0, 0.0, 0.0, 0.0, 0.0, 0.0, 0.0, 0.0, 0.0, 1.6635025088757374E9, 0.0, 2022-09-18 17:01:48.875
93.0, -45935.78528592412, -44846.20479896126, -38510.982812760216, -59487.6926526657, -57048.335021535764, -76157.64601917817, -62354.57209999229, -67878.15754153223, 0.388, -0.904, 0.234, 192.0, 0.0, 0.0, 0.0, 0.0, 0.0, 0.0, 0.0, 0.0, 0.0, 1.663502508879697E9, 0.0, 2022-09-18 17:01:48.879
94.0, -45498.67457135613, -44161.59321803966, -38554.792231892614, -59535.45833056669, -57080.49918180695, -76222.22020890954, -62395.31933013432, -67923.57628626541, 0.388, -0.904, 0.234, 192.0, 0.0, 0.0, 0.0, 0.0, 0.0, 0.0, 0.0, 0.0, 0.0, 1.6635025088837209E9, 0.0, 2022-09-18 17:01:48.883
95.0, -43920.552005833626, -42937.65639515596, -38620.372250124485, -59602.64767439934, -57108.08123446479, -76302.68648894865, -62460.40760998817, -67984.37303118384, 0.388, -0.904, 0.234, 192.0, 0.0, 0.0, 0.0, 0.0, 0.0, 0.0, 0.0, 0.0, 0.0, 1.6635025088877306E9, 0.0, 2022-09-18 17:01:48.887
96.0, -43290.94806801654, -42949.525171461726, -38599.51807254768, -59571.019955995085, -57129.31539169734, -76250.29399994541, -62434.54664165338, -67950.86776624534, 0.388, -0.904, 0.234, 192.0, 0.0, 0.0, 0.0, 0.0, 0.0, 0.0, 0.0, 0.0, 0.0, 1.6635025088926916E9, 0.0, 2022-09-18 17:01:48.892
97.0, -45145.852285129105, -44620.16160728474, -38509.68641158181, -59476.67324264923, -57087.271760376905, -76141.35159747025, -62342.47980624197, -67863.40539019172, 0.388, -0.904, 0.234, 192.0, 0.0, 0.0, 0.0, 0.0, 0.0, 0.0, 0.0, 0.0, 0.0, 1.6635025088967445E9, 0.0, 2022-09-18 17:01:48.896
98.0, -45949.129277363936, -44835.34185115598, -38521.42107742084, -59495.47105973614, -57061.70136472004, -76175.43800776459, -62358.59541399425, -67882.35966948983, 0.388, -0.904, 0.234, 192.0, 0.0, 0.0, 0.0, 0.0, 0.0, 0.0, 0.0, 0.0, 0.0, 1.6635025088997464E9, 0.0, 2022-09-18 17:01:48.899
99.0, -45471.696015798574, -44130.72545894688, -38559.32963601704, -59536.01712417807, -57087.31646386581, -76236.52532536094, -62397.01806271292, -67921.13994611979, 0.382, -0.898, 0.24, 192.0, 11.0, 240.0, 227.0, 240.0, 7.0, 128.0, 0.0, 0.0, 0.0, 1.663502508903767E9, 0.0, 2022-09-18 17:01:48.903
100.0, -43855.5531329576, -42893.71286555682, -38617.35476462302, -59597.506773174624, -57105.44372861907, -76308.49794250703, -62456.451351219584, -67980.28266194853, 0.382, -0.898, 0.24, 192.0, 0.0, 0.0, 0.0, 0.0, 0.0, 0.0, 0.0, 0.0, 0.0, 1.6635025089077585E9, 0.0, 2022-09-18 17:01:48.907
101.0, -43314.75267586144, -42988.70777949188, -38581.74843570572, -59551.73040053015, -57113.691522323075, -76243.14144171971, -62415.57001061083, -67939.06604517293, 0.382, -0.898, 0.24, 192.0, 0.0, 0.0, 0.0, 0.0, 0.0, 0.0, 0.0, 0.0, 0.0, 1.6635025089117732E9, 0.0, 2022-09-18 17:01:48.911
102.0, -45206.69373353646, -44668.08374739692, -38490.03922820559, -59458.97066104063, -57065.3670508107, -76133.28261772188, -62322.94438158803, -67854.68820985415, 0.382, -0.898, 0.24, 192.0, 0.0, 0.0, 0.0, 0.0, 0.0, 0.0, 0.0, 0.0, 0.0, 1.6635025089157877E9, 0.0, 2022-09-18 17:01:48.915
103.0, -45959.880466446935, -44834.22426393322, -38503.494978367686, -59481.590626429395, -57039.729599920465, -76162.45164423605, -62340.468149240995, -67876.61527116482, 0.382, -0.898, 0.24, 192.0, 0.0, 0.0, 0.0, 0.0, 0.0, 0.0, 0.0, 0.0, 0.0, 1.6635025089198606E9, 0.0, 2022-09-18 17:01:48.919
104.0, -45452.31705335582, -44113.60402269412, -38545.00216782119, -59528.12695838535, -57070.23973110196, -76226.77996477843, -62379.42723982659, -67923.4868792876, 0.382, -0.898, 0.24, 192.0, 0.0, 0.0, 0.0, 0.0, 0.0, 0.0, 0.0, 0.0, 0.0, 1.6635025089248073E9, 0.0, 2022-09-18 17:01:48.924
105.0, -43799.78553054161, -42865.415557076405, -38609.28578487466, -59594.422232439785, -57095.69836803656, -76305.39105002774, -62444.9402028251, -67987.21170272968, 0.382, -0.898, 0.24, 192.0, 0.0, 0.0, 0.0, 0.0, 0.0, 0.0, 0.0, 0.0, 0.0, 1.6635025089277973E9, 0.0, 2022-09-18 17:01:48.927
106.0, -43356.61749322623, -43040.22855046136, -38577.389845536934, -59549.69639178472, -57108.39415888717, -76240.5933428518, -62408.88683901869, -67946.46447258764, 0.382, -0.898, 0.24, 192.0, 0.0, 0.0, 0.0, 0.0, 0.0, 0.0, 0.0, 0.0, 0.0, 1.663502508931811E9, 0.0, 2022-09-18 17:01:48.931
107.0, -45276.945266359486, -44706.126416459854, -38490.19569041678, -59456.355506939355, -57054.92878615008, -76131.29331246535, -62321.84914610972, -67860.767884346, 0.382, -0.898, 0.24, 192.0, 0.0, 0.0, 0.0, 0.0, 0.0, 0.0, 0.0, 0.0, 0.0, 1.6635025089359944E9, 0.0, 2022-09-18 17:01:48.935
108.0, -45972.24098113072, -44810.86669097742, -38504.59021384599, -59475.33213798191, -57027.14556779213, -76162.94338261407, -62343.99972486493, -67876.07882929788, 0.382, -0.898, 0.24, 192.0, 0.0, 0.0, 0.0, 0.0, 0.0, 0.0, 0.0, 0.0, 0.0, 1.6635025089398243E9, 0.0, 2022-09-18 17:01:48.939
109.0, -45425.31614605381, -44062.44087963592, -38546.410327721875, -59519.11920536986, -57052.40303902663, -76224.72360428853, -62389.50787657594, -67918.65890248524, 0.386, -0.892, 0.24, 192.0, 12.0, 16.0, 228.0, 32.0, 7.0, 128.0, 0.0, 0.0, 0.0, 1.6635025089438283E9, 0.0, 2022-09-18 17:01:48.943
110.0, -43737.33475653348, -42800.21551850027, -38610.381020352965, -59584.47570615718, -57075.42533581559, -76298.73023018005, -62455.55728144137, -67979.58975787042, 0.386, -0.892, 0.24, 192.0, 0.0, 0.0, 0.0, 0.0, 0.0, 0.0, 0.0, 0.0, 0.0, 1.6635025089479558E9, 0.0, 2022-09-18 17:01:48.947
111.0, -43391.35210410978, -43062.64735015004, -38571.86896465647, -59534.653667766295, -57087.405870843635, -76227.0928892008, -62411.36788265323, -67929.41009156825, 0.386, -0.892, 0.24, 192.0, 0.0, 0.0, 0.0, 0.0, 0.0, 0.0, 0.0, 0.0, 0.0, 1.6635025089528828E9, 0.0, 2022-09-18 17:01:48.952
112.0, -45337.20556941099, -44730.89214931633, -38488.16168167134, -59449.20294871366, -57040.82483539878, -76126.39828042964, -62327.4147304791, -67848.5638318734, 0.386, -0.892, 0.24, 192.0, 0.0, 0.0, 0.0, 0.0, 0.0, 0.0, 0.0, 0.0, 0.0, 1.6635025089558616E9, 0.0, 2022-09-18 17:01:48.955
113.0, -45975.750205010205, -44793.74525472466, -38508.43471389231, -59479.26604500604, -57024.73157939096, -76167.16786231611, -62350.34762029024, -67875.29651824194, 0.386, -0.892, 0.24, 192.0, 0.0, 0.0, 0.0, 0.0, 0.0, 0.0, 0.0, 0.0, 0.0, 1.663502508959814E9, 0.0, 2022-09-18 17:01:48.959
114.0, -45392.32497123778, -44027.97448968583, -38552.44529872481, -59524.796548461505, -57056.00166988393, -76231.4961828585, -62391.74305102147, -67918.63655074079, 0.386, -0.892, 0.24, 192.0, 0.0, 0.0, 0.0, 0.0, 0.0, 0.0, 0.0, 0.0, 0.0, 1.6635025089638872E9, 0.0, 2022-09-18 17:01:48.963
115.0, -43674.39224414733, -42760.69763430329, -38617.22065415629, -59588.32020620349, -57083.695481264054, -76303.06646860439, -62456.853682619774, -67978.38276366983, 0.386, -0.892, 0.24, 192.0, 0.0, 0.0, 0.0, 0.0, 0.0, 0.0, 0.0, 0.0, 0.0, 1.6635025089678738E9, 0.0, 2022-09-18 17:01:48.967
116.0, -43436.010889531484, -43114.03401065279, -38576.02638912516, -59534.74307474412, -57100.25812390544, -76228.63515956822, -62410.69733031957, -67928.9854084236, 0.386, -0.892, 0.24, 192.0, 0.0, 0.0, 0.0, 0.0, 0.0, 0.0, 0.0, 0.0, 0.0, 1.6635025089718475E9, 0.0, 2022-09-18 17:01:48.971
117.0, -45400.952744597525, -44773.76279518161, -38498.108207953956, -59452.22043421512, -57054.57115823879, -76132.29914096584, -62332.89090787064, -67853.01182902, 0.386, -0.892, 0.24, 192.0, 0.0, 0.0, 0.0, 0.0, 0.0, 0.0, 0.0, 0.0, 0.0, 1.6635025089758737E9, 0.0, 2022-09-18 17:01:48.975
118.0, -45980.89110623492, -44789.744292467156, -38524.393859433396, -59487.20091428768, -57040.86953888769, -76173.96279263054, -62362.30580357383, -67886.51709395851, 0.386, -0.892, 0.24, 192.0, 0.0, 0.0, 0.0, 0.0, 0.0, 0.0, 0.0, 0.0, 0.0, 1.663502508980847E9, 0.0, 2022-09-18 17:01:48.980
119.0, -45361.21134295599, -44010.47307377733, -38576.51812750317, -59541.292135869524, -57074.687728248566, -76242.78381380842, -62413.312484420836, -67939.66954227323, 0.384, -0.898, 0.23800000000000002, 192.0, 12.0, 0.0, 227.0, 240.0, 7.0, 112.0, 0.0, 0.0, 0.0, 1.6635025089838967E9, 0.0, 2022-09-18 17:01:48.983
120.0, -43619.518711509554, -42747.51010507466, -38642.679291090884, -59606.49217444565, -57101.599228572755, -76315.02465188797, -62481.23943582052, -68004.31078723798, 0.384, -0.898, 0.23800000000000002, 192.0, 0.0, 0.0, 0.0, 0.0, 0.0, 0.0, 0.0, 0.0, 0.0, 1.6635025089879265E9, 0.0, 2022-09-18 17:01:48.987
121.0, -43482.54722148743, -43188.37591271113, -38591.04676139913, -59542.81205449248, -57111.29988566636, -76229.8868572577, -62423.77310082592, -67946.41976909873, 0.384, -0.898, 0.23800000000000002, 192.0, 0.0, 0.0, 0.0, 0.0, 0.0, 0.0, 0.0, 0.0, 0.0, 1.6635025089918525E9, 0.0, 2022-09-18 17:01:48.991
122.0, -45459.00022494796, -44830.49152260918, -38511.5416063716, -59461.608166886355, -57061.254329830925, -76134.93664681156, -62345.38553302116, -67868.32277397189, 0.384, -0.898, 0.23800000000000002, 192.0, 0.0, 0.0, 0.0, 0.0, 0.0, 0.0, 0.0, 0.0, 0.0, 1.6635025089959457E9, 0.0, 2022-09-18 17:01:48.995
123.0, -45983.640370802925, -44793.43233030228, -38539.81656310756, -59497.52742022603, -57052.35833553772, -76185.22807183601, -62377.14736189215, -67901.87274239931, 0.384, -0.898, 0.23800000000000002, 192.0, 0.0, 0.0, 0.0, 0.0, 0.0, 0.0, 0.0, 0.0, 0.0, 1.663502508999898E9, 0.0, 2022-09-18 17:01:48.999
124.0, -45320.03942966931, -43983.58392519759, -38588.498662531216, -59546.947127216714, -57087.49527782146, -76258.72060760506, -62424.26483920394, -67952.74531277959, 0.384, -0.898, 0.23800000000000002, 192.0, 0.0, 0.0, 0.0, 0.0, 0.0, 0.0, 0.0, 0.0, 0.0, 1.663502509003908E9, 0.0, 2022-09-18 17:01:49.003
125.0, -43553.178733966204, -42713.89308141388, -38649.7200905943, -59607.006264568125, -57116.19491770207, -76332.25784686302, -62483.6981277106, -68010.41281347428, 0.384, -0.898, 0.23800000000000002, 192.0, 0.0, 0.0, 0.0, 0.0, 0.0, 0.0, 0.0, 0.0, 0.0, 1.6635025090079408E9, 0.0, 2022-09-18 17:01:49.007
126.0, -43526.960137720125, -43241.3048435813, -38593.57250852257, -59536.195938133715, -57124.822691061825, -76244.1025667313, -62424.04132175939, -67942.59762079688, 0.384, -0.898, 0.23800000000000002, 192.0, 0.0, 0.0, 0.0, 0.0, 0.0, 0.0, 0.0, 0.0, 0.0, 1.6635025090109873E9, 0.0, 2022-09-18 17:01:49.010
127.0, -45508.129359260725, -44853.51381939815, -38516.771914574136, -59456.17669298372, -57069.233902601474, -76153.66740866512, -62350.07939935677, -67867.85338733833, 0.384, -0.898, 0.23800000000000002, 192.0, 0.0, 0.0, 0.0, 0.0, 0.0, 0.0, 0.0, 0.0, 0.0, 1.6635025090148969E9, 0.0, 2022-09-18 17:01:49.014
128.0, -45973.26916137566, -44759.56943745249, -38545.2480370102, -59491.78302190102, -57056.225187328484, -76198.59441502028, -62383.11527766172, -67901.35865227683, 0.384, -0.898, 0.23800000000000002, 192.0, 0.0, 0.0, 0.0, 0.0, 0.0, 0.0, 0.0, 0.0, 0.0, 1.6635025090200062E9, 0.0, 2022-09-18 17:01:49.020
129.0, -45266.238780765394, -43924.55296809113, -38593.70661898931, -59541.515653314076, -57087.51762956591, -76266.54371816442, -62430.94801079608, -67950.62189705634, 0.374, -0.896, 0.246, 192.0, 11.0, 176.0, 228.0, 0.0, 7.0, 176.0, 0.0, 0.0, 0.0, 1.6635025090240755E9, 0.0, 2022-09-18 17:01:49.024
130.0, -43475.17114581718, -42660.89709531034, -38649.16129698292, -59600.792479609554, -57111.746920555466, -76332.03432941847, -62486.40268878969, -68007.84236286192, 0.374, -0.896, 0.246, 192.0, 0.0, 0.0, 0.0, 0.0, 0.0, 0.0, 0.0, 0.0, 0.0, 1.663502509028058E9, 0.0, 2022-09-18 17:01:49.028
131.0, -43553.93869327768, -43280.263934166906, -38587.47048228628, -59531.88205145384, -57122.49810963847, -76240.77215680745, -62420.442690902084, -67942.73173126362, 0.374, -0.896, 0.246, 192.0, 0.0, 0.0, 0.0, 0.0, 0.0, 0.0, 0.0, 0.0, 0.0, 1.663502509031971E9, 0.0, 2022-09-18 17:01:49.031
132.0, -45532.62687118374, -44872.40104346288, -38510.24520519319, -59460.423524430225, -57070.50795203543, -76157.84718487826, -62345.47493999898, -67876.23529150907, 0.374, -0.896, 0.246, 192.0, 0.0, 0.0, 0.0, 0.0, 0.0, 0.0, 0.0, 0.0, 0.0, 1.663502509035967E9, 0.0, 2022-09-18 17:01:49.035
133.0, -45943.027251127634, -44738.26822498658, -38539.74950787419, -59499.67318769374, -57063.82478044329, -76209.70323201457, -62379.740164248964, -67913.74151870508, 0.374, -0.896, 0.246, 192.0, 0.0, 0.0, 0.0, 0.0, 0.0, 0.0, 0.0, 0.0, 0.0, 1.6635025090390592E9, 0.0, 2022-09-18 17:01:49.039
134.0, -45193.37209384109, -43880.698845469815, -38586.03997064113, -59548.712915028686, -57094.22315290251, -76278.9042328482, -62427.52819389442, -67959.45083611619, 0.374, -0.896, 0.246, 192.0, 0.0, 0.0, 0.0, 0.0, 0.0, 0.0, 0.0, 0.0, 0.0, 1.6635025090429657E9, 0.0, 2022-09-18 17:01:49.042
135.0, -43401.43274085912, -42636.86897002089, -38641.94168352386, -59607.430947712775, -57122.229888705006, -76343.07609117939, -62485.21804633356, -68013.96674084268, 0.374, -0.896, 0.246, 192.0, 0.0, 0.0, 0.0, 0.0, 0.0, 0.0, 0.0, 0.0, 0.0, 1.6635025090479686E9, 0.0, 2022-09-18 17:01:49.047
136.0, -43601.346743267386, -43349.62139721172, -38578.61919148197, -59533.22315612116, -57129.02481901942, -76246.91888653266, -62416.84406004478, -67943.02230394153, 0.374, -0.896, 0.246, 192.0, 0.0, 0.0, 0.0, 0.0, 0.0, 0.0, 0.0, 0.0, 0.0, 1.6635025090519967E9, 0.0, 2022-09-18 17:01:49.051
137.0, -45579.431424073155, -44911.114264859476, -38503.80790279006, -59461.317594208434, -57075.11241139322, -76166.229089049, -62342.85978589771, -67877.59874792084, 0.374, -0.896, 0.246, 192.0, 0.0, 0.0, 0.0, 0.0, 0.0, 0.0, 0.0, 0.0, 0.0, 1.66350250905599E9, 0.0, 2022-09-18 17:01:49.055
138.0, -45946.51412326266, -44741.643338399335, -38529.646519380396, -59498.46619349316, -57065.3670508107, -76213.32421461632, -62373.3699170792, -67911.66280647073, 0.374, -0.896, 0.246, 192.0, 0.0, 0.0, 0.0, 0.0, 0.0, 0.0, 0.0, 0.0, 0.0, 1.6635025090599802E9, 0.0, 2022-09-18 17:01:49.059
139.0, -45158.68218644645, -43862.14689757191, -38579.06622637108, -59554.94905173172, -57095.474850592, -76283.73220965055, -62424.220135715026, -67967.78803679801, 0.376, -0.892, 0.242, 192.0, 11.0, 192.0, 228.0, 32.0, 7.0, 144.0, 0.0, 0.0, 0.0, 1.6635025090629895E9, 0.0, 2022-09-18 17:01:49.062
140.0, -43343.318205275325, -42620.86512099089, -38635.52673286518, -59614.82937512748, -57122.60986836075, -76342.85257373484, -62481.530008498434, -68024.74028167014, 0.376, -0.892, 0.242, 192.0, 0.0, 0.0, 0.0, 0.0, 0.0, 0.0, 0.0, 0.0, 0.0, 1.6635025090670035E9, 0.0, 2022-09-18 17:01:49.067
141.0, -43654.36508111538, -43423.51626438097, -38566.549249476106, -59532.82082472096, -57125.60500211776, -76237.0394154834, -62406.98694073999, -67945.77156850953, 0.376, -0.892, 0.242, 192.0, 0.0, 0.0, 0.0, 0.0, 0.0, 0.0, 0.0, 0.0, 0.0, 1.6635025090710285E9, 0.0, 2022-09-18 17:01:49.071
142.0, -45628.158226985724, -44947.234683899245, -38490.01687646114, -59459.216530229634, -57064.38357405467, -76155.52260345491, -62333.24853578193, -67876.90584384273, 0.376, -0.892, 0.242, 192.0, 0.0, 0.0, 0.0, 0.0, 0.0, 0.0, 0.0, 0.0, 0.0, 1.6635025090760117E9, 0.0, 2022-09-18 17:01:49.076
143.0, -45933.93009113432, -44721.41500966728, -38515.721382584736, -59494.2417137911, -57052.738315193455, -76203.24357786699, -62362.8198936963, -67910.74638494807, 0.376, -0.892, 0.242, 192.0, 0.0, 0.0, 0.0, 0.0, 0.0, 0.0, 0.0, 0.0, 0.0, 1.6635025090799828E9, 0.0, 2022-09-18 17:01:49.079
144.0, -45103.67454334194, -43816.750504583186, -38567.733891932236, -59551.32806912996, -57084.276626619896, -76277.02668631395, -62415.39119665518, -67966.6480978308, 0.376, -0.892, 0.242, 192.0, 0.0, 0.0, 0.0, 0.0, 0.0, 0.0, 0.0, 0.0, 0.0, 1.6635025090840645E9, 0.0, 2022-09-18 17:01:49.084
145.0, -43289.338742415755, -42592.67957123275, -38630.27407291819, -59612.527145448585, -57118.47479563652, -76338.69514926615, -62477.52904624093, -68023.93561886974, 0.376, -0.892, 0.242, 192.0, 0.0, 0.0, 0.0, 0.0, 0.0, 0.0, 0.0, 0.0, 0.0, 1.6635025090883472E9, 0.0, 2022-09-18 17:01:49.088
146.0, -43712.501968443634, -43479.6638464527, -38559.37433950596, -59525.31063858398, -57119.61473460373, -76229.21630492405, -62400.14730693666, -67941.14475740728, 0.376, -0.892, 0.242, 192.0, 0.0, 0.0, 0.0, 0.0, 0.0, 0.0, 0.0, 0.0, 0.0, 1.6635025090910232E9, 0.0, 2022-09-18 17:01:49.091
147.0, -45675.85684965335, -44975.0179022572, -38498.06350446505, -59465.47501867712, -57066.506989777925, -76163.41276924763, -62341.38457076366, -67886.76296314753, 0.376, -0.892, 0.242, 192.0, 0.0, 0.0, 0.0, 0.0, 0.0, 0.0, 0.0, 0.0, 0.0, 1.6635025090950382E9, 0.0, 2022-09-18 17:01:49.095
148.0, -45934.98062312372, -44713.34602991892, -38537.20140900629, -59507.96568488666, -57068.183370612074, -76221.32613913133, -62385.126934662694, -67925.4314810552, 0.376, -0.892, 0.242, 192.0, 0.0, 0.0, 0.0, 0.0, 0.0, 0.0, 0.0, 0.0, 0.0, 1.663502509099066E9, 0.0, 2022-09-18 17:01:49.099
149.0, -45057.853467208566, -43782.75350126666, -38589.10215963151, -59560.671098312276, -57097.71002503754, -76290.39302949823, -62437.76529285494, -67974.78413281252, 0.38, -0.898, 0.24, 192.0, 11.0, 224.0, 227.0, 240.0, 7.0, 128.0, 0.0, 0.0, 0.0, 1.6635025091031013E9, 0.0, 2022-09-18 17:01:49.103
150.0, -43244.56819827178, -42581.23547807163, -38639.684157333875, -59612.5718489375, -57122.02872300491, -76342.18202140117, -62488.548456257406, -68022.43805199124, 0.38, -0.898, 0.24, 192.0, 0.0, 0.0, 0.0, 0.0, 0.0, 0.0, 0.0, 0.0, 0.0, 1.6635025091080773E9, 0.0, 2022-09-18 17:01:49.108
151.0, -43786.754463524165, -43553.245789199565, -38560.760147662186, -59519.141557114315, -57119.145347970174, -76228.21047642357, -62403.29890290486, -67934.39453058178, 0.38, -0.898, 0.24, 192.0, 0.0, 0.0, 0.0, 0.0, 0.0, 0.0, 0.0, 0.0, 0.0, 1.6635025091121428E9, 0.0, 2022-09-18 17:01:49.112
152.0, -45729.56809157945, -44995.6709141339, -38493.6825625518, -59457.62955637331, -57060.561425752814, -76162.76456865843, -62337.182442806065, -67878.38105897678, 0.38, -0.898, 0.24, 192.0, 0.0, 0.0, 0.0, 0.0, 0.0, 0.0, 0.0, 0.0, 0.0, 1.6635025091160715E9, 0.0, 2022-09-18 17:01:49.116
153.0, -45942.42375402734, -44690.72606453014, -38530.65234788088, -59500.38844351631, -57062.19310309805, -76220.11914493074, -62376.49916130295, -67918.70360597415, 0.38, -0.898, 0.24, 192.0, 0.0, 0.0, 0.0, 0.0, 0.0, 0.0, 0.0, 0.0, 0.0, 1.6635025091191113E9, 0.0, 2022-09-18 17:01:49.119
154.0, -45022.113027824525, -43730.98686110817, -38588.76688346468, -59560.78285703455, -57099.45346110505, -76296.71857317908, -62433.585516641804, -67978.00278401408, 0.38, -0.898, 0.24, 192.0, 0.0, 0.0, 0.0, 0.0, 0.0, 0.0, 0.0, 0.0, 0.0, 1.6635025091231177E9, 0.0, 2022-09-18 17:01:49.123
155.0, -43212.31463102277, -42549.83127711192, -38642.29931143514, -59613.80119488254, -57130.85766206475, -76347.65819879272, -62489.53193301344, -68026.01433110409, 0.38, -0.898, 0.24, 192.0, 0.0, 0.0, 0.0, 0.0, 0.0, 0.0, 0.0, 0.0, 0.0, 1.6635025091271675E9, 0.0, 2022-09-18 17:01:49.127
156.0, -43865.946694129314, -43605.615926458355, -38555.44043248182, -59514.872373923354, -57122.20753696055, -76225.37180487774, -62398.51562959143, -67932.22641136961, 0.38, -0.898, 0.24, 192.0, 0.0, 0.0, 0.0, 0.0, 0.0, 0.0, 0.0, 0.0, 0.0, 1.6635025091311913E9, 0.0, 2022-09-18 17:01:49.131
157.0, -45786.34152249593, -45008.7243328958, -38494.17430092982, -59459.8870825633, -57061.969585653496, -76160.68585642408, -62341.07164634128, -67881.6220619228, 0.38, -0.898, 0.24, 192.0, 0.0, 0.0, 0.0, 0.0, 0.0, 0.0, 0.0, 0.0, 0.0, 1.6635025091362343E9, 0.0, 2022-09-18 17:01:49.136
158.0, -45950.20216109779, -44672.576448032436, -38533.80394384908, -59508.01038837557, -57066.082306633274, -76220.40971760867, -62383.89758871766, -67926.95139967816, 0.38, -0.898, 0.24, 192.0, 0.0, 0.0, 0.0, 0.0, 0.0, 0.0, 0.0, 0.0, 0.0, 1.6635025091401393E9, 0.0, 2022-09-18 17:01:49.140
159.0, -44977.118966236, -43692.161880989304, -38585.97291540777, -59566.48255187066, -57097.35239712625, -76297.94791912413, -62436.49124342099, -67984.35067943939, 0.376, -0.908, 0.244, 192.0, 11.0, 192.0, 227.0, 160.0, 7.0, 160.0, 0.0, 0.0, 0.0, 1.6635025091441207E9, 0.0, 2022-09-18 17:01:49.144
160.0, -43181.13394750762, -42545.69620438769, -38633.73859330876, -59613.33180824898, -57128.06369400784, -76343.99251270205, -62484.25692132198, -68027.71306368269, 0.376, -0.908, 0.244, 192.0, 0.0, 0.0, 0.0, 0.0, 0.0, 0.0, 0.0, 0.0, 0.0, 1.6635025091471663E9, 0.0, 2022-09-18 17:01:49.147
161.0, -43945.76477357921, -43683.556459374005, -38550.59010393502, -59515.02883613454, -57125.850871306764, -76224.85771475527, -62392.79358301087, -67936.54029804948, 0.376, -0.908, 0.244, 192.0, 0.0, 0.0, 0.0, 0.0, 0.0, 0.0, 0.0, 0.0, 0.0, 1.6635025091511657E9, 0.0, 2022-09-18 17:01:49.151
162.0, -45832.67668875178, -45033.44536226337, -38498.33172539851, -59465.452666932666, -57071.469077047004, -76170.40886526214, -62342.23393705296, -67890.49570447156, 0.376, -0.908, 0.244, 192.0, 0.0, 0.0, 0.0, 0.0, 0.0, 0.0, 0.0, 0.0, 0.0, 1.663502509155146E9, 0.0, 2022-09-18 17:01:49.155
163.0, -45949.24103608621, -44655.49971526858, -38537.42492645084, -59510.178507587734, -57077.7722689834, -76227.45051711208, -62384.25521662894, -67934.10395790386, 0.376, -0.908, 0.244, 192.0, 0.0, 0.0, 0.0, 0.0, 0.0, 0.0, 0.0, 0.0, 0.0, 1.66350250915917E9, 0.0, 2022-09-18 17:01:49.159
164.0, -44928.81684646808, -43641.42342107576, -38593.50545328921, -59571.288176928545, -57109.19882168756, -76304.09464884934, -62441.632144645715, -67995.05716503349, 0.376, -0.908, 0.244, 192.0, 0.0, 0.0, 0.0, 0.0, 0.0, 0.0, 0.0, 0.0, 0.0, 1.6635025091641872E9, 0.0, 2022-09-18 17:01:49.164
165.0, -43155.56355185075, -42533.7380211041, -38644.93681728087, -59621.959581608724, -57144.7380953715, -76352.10619593933, -62492.9517499151, -68042.88989816784, 0.376, -0.908, 0.244, 192.0, 0.0, 0.0, 0.0, 0.0, 0.0, 0.0, 0.0, 0.0, 0.0, 1.663502509168342E9, 0.0, 2022-09-18 17:01:49.168
166.0, -44027.50510305227, -43754.6797102308, -38558.41321449437, -59521.935525171226, -57138.30079296837, -76228.25517991248, -62400.68374880359, -67948.20790865517, 0.376, -0.908, 0.244, 192.0, 0.0, 0.0, 0.0, 0.0, 0.0, 0.0, 0.0, 0.0, 0.0, 1.6635025091721945E9, 0.0, 2022-09-18 17:01:49.172
167.0, -45863.209171677736, -45046.632891492, -38503.360867900956, -59473.45459144767, -57080.78975448487, -76177.67318221011, -62349.74412318994, -67901.93979763267, 0.376, -0.908, 0.244, 192.0, 0.0, 0.0, 0.0, 0.0, 0.0, 0.0, 0.0, 0.0, 0.0, 1.663502509175187E9, 0.0, 2022-09-18 17:01:49.175
168.0, -45922.70951541776, -44631.181017301205, -38540.04008055211, -59516.03466463503, -57085.90830396513, -76234.78188929343, -62388.39028935317, -67942.75408300807, 0.376, -0.908, 0.244, 192.0, 0.0, 0.0, 0.0, 0.0, 0.0, 0.0, 0.0, 0.0, 0.0, 1.6635025091792848E9, 0.0, 2022-09-18 17:01:49.179
169.0, -44852.26212170865, -43592.316638507444, -38598.19931962482, -59576.40672640881, -57114.607943845745, -76312.07422161987, -62447.73417088201, -68002.94733082621, 0.376, -0.91, 0.23800000000000002, 192.0, 11.0, 192.0, 227.0, 144.0, 7.0, 112.0, 0.0, 0.0, 0.0, 1.6635025091833453E9, 0.0, 2022-09-18 17:01:49.183
170.0, -43097.2702023113, -42530.29585245799, -38641.11466897901, -59614.85172687194, -57141.810016847856, -76348.39580635975, -62490.94009291412, -68041.30292431152, 0.376, -0.91, 0.23800000000000002, 192.0, 0.0, 0.0, 0.0, 0.0, 0.0, 0.0, 0.0, 0.0, 0.0, 1.6635025091872945E9, 0.0, 2022-09-18 17:01:49.187
171.0, -44075.56135363119, -43836.86707459296, -38550.321883001554, -59506.423414519246, -57130.85766206475, -76220.07444144183, -62395.11816443422, -67937.65788527226, 0.376, -0.91, 0.23800000000000002, 192.0, 0.0, 0.0, 0.0, 0.0, 0.0, 0.0, 0.0, 0.0, 0.0, 1.6635025091911976E9, 0.0, 2022-09-18 17:01:49.191
172.0, -45882.6775410983, -45083.11093844306, -38507.85356853647, -59464.49154192109, -57077.25817886093, -76178.0308101214, -62356.3155360598, -67899.2799400425, 0.376, -0.91, 0.23800000000000002, 192.0, 0.0, 0.0, 0.0, 0.0, 0.0, 0.0, 0.0, 0.0, 0.0, 1.6635025091962416E9, 0.0, 2022-09-18 17:01:49.196
173.0, -45909.16435827784, -44644.21208431865, -38553.31701675856, -59514.00065588959, -57092.63617904618, -76243.61082835327, -62404.640007572176, -67946.4868243321, 0.376, -0.91, 0.23800000000000002, 192.0, 0.0, 0.0, 0.0, 0.0, 0.0, 0.0, 0.0, 0.0, 0.0, 1.6635025092002199E9, 0.0, 2022-09-18 17:01:49.200
174.0, -44786.81621394351, -43578.61501915634, -38613.2643953877, -59577.05492699801, -57125.49324339548, -76324.79236421494, -62464.833255390324, -68007.57414192846, 0.376, -0.91, 0.23800000000000002, 192.0, 0.0, 0.0, 0.0, 0.0, 0.0, 0.0, 0.0, 0.0, 0.0, 1.663502509203227E9, 0.0, 2022-09-18 17:01:49.203
175.0, -43055.919475068986, -42557.22970452663, -38653.6763493629, -59613.108290804426, -57156.42805772163, -76360.24223092107, -62503.41236632018, -68040.27474406657, 0.376, -0.91, 0.23800000000000002, 192.0, 0.0, 0.0, 0.0, 0.0, 0.0, 0.0, 0.0, 0.0, 0.0, 1.6635025092072973E9, 0.0, 2022-09-18 17:01:49.207
176.0, -44142.728345719384, -43933.09133447306, -38559.57550520605, -59505.506992996576, -57145.67686863862, -76232.05497646988, -62403.14244069367, -67938.70841726166, 0.376, -0.91, 0.23800000000000002, 192.0, 0.0, 0.0, 0.0, 0.0, 0.0, 0.0, 0.0, 0.0, 0.0, 1.66350250921128E9, 0.0, 2022-09-18 17:01:49.211
177.0, -45916.65219267037, -45116.906776059484, -38521.35402218748, -59475.4886001931, -57094.98311221399, -76199.42142956513, -62367.82668445429, -67910.83579192589, 0.376, -0.91, 0.23800000000000002, 192.0, 0.0, 0.0, 0.0, 0.0, 0.0, 0.0, 0.0, 0.0, 0.0, 1.6635025092153056E9, 0.0, 2022-09-18 17:01:49.215
178.0, -45896.17799474931, -44635.36079351435, -38563.464708741274, -59524.88595543933, -57107.72360655351, -76262.56510765138, -62412.55252510936, -67957.12625469283, 0.376, -0.91, 0.23800000000000002, 192.0, 0.0, 0.0, 0.0, 0.0, 0.0, 0.0, 0.0, 0.0, 0.0, 1.6635025092192423E9, 0.0, 2022-09-18 17:01:49.219
179.0, -44714.68713458623, -43531.09521044436, -38623.34503213704, -59589.72836610417, -57136.7361708565, -76342.98668420156, -62473.505732238984, -68018.34768275592, 0.368, -0.906, 0.23800000000000002, 192.0, 11.0, 128.0, 227.0, 176.0, 7.0, 112.0, 0.0, 0.0, 0.0, 1.6635025092243614E9, 0.0, 2022-09-18 17:01:49.224
180.0, -43015.731038538346, -42558.19082953821, -38663.287599478674, -59626.742854922166, -57168.20742704957, -76371.77573106, -62513.068319924874, -68051.40591280532, 0.368, -0.906, 0.23800000000000002, 192.0, 0.0, 0.0, 0.0, 0.0, 0.0, 0.0, 0.0, 0.0, 0.0, 1.6635025092272997E9, 0.0, 2022-09-18 17:01:49.227
181.0, -44216.7349716109, -44018.83262620361, -38565.923400631356, -59518.158080358284, -57152.87413035323, -76237.57585735034, -62410.92084776412, -67948.87846098882, 0.368, -0.906, 0.23800000000000002, 192.0, 0.0, 0.0, 0.0, 0.0, 0.0, 0.0, 0.0, 0.0, 0.0, 1.6635025092313006E9, 0.0, 2022-09-18 17:01:49.231
182.0, -45947.296434318596, -45150.0097095978, -38525.19852223379, -59485.68099566472, -57095.36309186972, -76201.1872173771, -62375.38157408018, -67919.59767575236, 0.368, -0.906, 0.23800000000000002, 192.0, 0.0, 0.0, 0.0, 0.0, 0.0, 0.0, 0.0, 0.0, 0.0, 1.663502509235278E9, 0.0, 2022-09-18 17:01:49.235
183.0, -45883.683369598795, -44632.566825457434, -38560.13429881744, -59528.3504758299, -57105.086100707784, -76260.17347099465, -62413.46894663203, -67961.3954378838, 0.368, -0.906, 0.23800000000000002, 192.0, 0.0, 0.0, 0.0, 0.0, 0.0, 0.0, 0.0, 0.0, 0.0, 1.6635025092392912E9, 0.0, 2022-09-18 17:01:49.239
184.0, -44650.58233148841, -43498.305201328425, -38623.18856992586, -59598.15497376383, -57139.284269724405, -76348.1722889152, -62475.740906684514, -68029.63531370585, 0.368, -0.906, 0.23800000000000002, 192.0, 0.0, 0.0, 0.0, 0.0, 0.0, 0.0, 0.0, 0.0, 0.0, 1.6635025092433195E9, 0.0, 2022-09-18 17:01:49.243
185.0, -42984.46094804537, -42569.16553606577, -38652.55876214013, -59625.60291595494, -57168.36388926076, -76370.0769984814, -62499.81373546288, -68054.62456400688, 0.368, -0.906, 0.23800000000000002, 192.0, 0.0, 0.0, 0.0, 0.0, 0.0, 0.0, 0.0, 0.0, 0.0, 1.6635025092474196E9, 0.0, 2022-09-18 17:01:49.247
186.0, -44289.69106551303, -44091.92283057247, -38547.97494983375, -59507.27278080855, -57145.96744131654, -76235.47479337154, -62388.81497249782, -67944.36340860884, 0.368, -0.906, 0.23800000000000002, 192.0, 0.0, 0.0, 0.0, 0.0, 0.0, 0.0, 0.0, 0.0, 0.0, 1.6635025092523515E9, 0.0, 2022-09-18 17:01:49.252
187.0, -45975.9513707103, -45154.70357593341, -38510.04403949309, -59474.70628913716, -57086.154173154144, -76206.75280174646, -62356.80727443782, -67915.44025128368, 0.368, -0.906, 0.23800000000000002, 192.0, 0.0, 0.0, 0.0, 0.0, 0.0, 0.0, 0.0, 0.0, 0.0, 1.6635025092553215E9, 0.0, 2022-09-18 17:01:49.255
188.0, -45876.01672125062, -44607.890499578774, -38551.506525457684, -59521.28732458202, -57099.498164593955, -76265.82846234184, -62400.75080403696, -67958.78028378251, 0.368, -0.906, 0.23800000000000002, 192.0, 0.0, 0.0, 0.0, 0.0, 0.0, 0.0, 0.0, 0.0, 0.0, 1.663502509259318E9, 0.0, 2022-09-18 17:01:49.259
189.0, -44583.840022544864, -43435.00506103099, -38616.23717740025, -59588.40961318131, -57129.15892948615, -76348.8204895044, -62466.017897846454, -68020.18052580125, 0.372, -0.9, 0.232, 192.0, 11.0, 160.0, 227.0, 224.0, 7.0, 64.0, 0.0, 0.0, 0.0, 1.6635025092633965E9, 0.0, 2022-09-18 17:01:49.263
190.0, -42962.19861056788, -42562.12473656234, -38649.76479408322, -59614.02471232709, -57163.759429902966, -76364.37730364529, -62497.64561625071, -68042.73343595666, 0.372, -0.9, 0.232, 192.0, 0.0, 0.0, 0.0, 0.0, 0.0, 0.0, 0.0, 0.0, 0.0, 1.6635025092673707E9, 0.0, 2022-09-18 17:01:49.267
191.0, -44369.19622054055, -44151.534933034774, -38547.70672890028, -59497.97445511514, -57143.44169419309, -76225.41650836664, -62390.55840856534, -67933.45575731466, 0.372, -0.9, 0.232, 192.0, 0.0, 0.0, 0.0, 0.0, 0.0, 0.0, 0.0, 0.0, 0.0, 1.6635025092713437E9, 0.0, 2022-09-18 17:01:49.271
192.0, -46009.12135948198, -45159.28568354675, -38518.40359191938, -59475.95798682666, -57092.18914415707, -76203.9364819451, -62367.53611177637, -67911.57339949292, 0.372, -0.9, 0.232, 192.0, 0.0, 0.0, 0.0, 0.0, 0.0, 0.0, 0.0, 0.0, 0.0, 1.6635025092753828E9, 0.0, 2022-09-18 17:01:49.275
193.0, -45870.47348862571, -44589.18208946969, -38562.16830756287, -59523.813071705474, -57110.629333332705, -76267.52719492045, -62413.9830367545, -67956.56746108145, 0.372, -0.9, 0.232, 192.0, 0.0, 0.0, 0.0, 0.0, 0.0, 0.0, 0.0, 0.0, 0.0, 1.663502509280419E9, 0.0, 2022-09-18 17:01:49.280
194.0, -44526.39603929473, -43393.07318843284, -38631.95045375234, -59598.55730516402, -57143.93343257111, -76354.67664655168, -62484.52514225545, -68029.27768579456, 0.372, -0.9, 0.232, 192.0, 0.0, 0.0, 0.0, 0.0, 0.0, 0.0, 0.0, 0.0, 0.0, 1.6635025092833936E9, 0.0, 2022-09-18 17:01:49.283
195.0, -42954.66607268644, -42579.827318170945, -38656.98440754228, -59619.18796529627, -57173.3483282743, -76370.38992290378, -62508.08388091134, -68050.7130087272, 0.372, -0.9, 0.232, 192.0, 0.0, 0.0, 0.0, 0.0, 0.0, 0.0, 0.0, 0.0, 0.0, 1.6635025092873943E9, 0.0, 2022-09-18 17:01:49.287
196.0, -44455.60806460477, -44224.13339902561, -38551.90885685788, -59502.13187958382, -57146.973269817034, -76234.4466131266, -62399.65556855864, -67942.59762079688, 0.372, -0.9, 0.232, 192.0, 0.0, 0.0, 0.0, 0.0, 0.0, 0.0, 0.0, 0.0, 0.0, 1.6635025092913647E9, 0.0, 2022-09-18 17:01:49.291
197.0, -46035.094086539044, -45160.112698091594, -38527.23253097922, -59485.368071242345, -57095.787775014374, -76217.30282512937, -62380.50012356045, -67926.59377176689, 0.372, -0.9, 0.232, 192.0, 0.0, 0.0, 0.0, 0.0, 0.0, 0.0, 0.0, 0.0, 0.0, 1.6635025092954497E9, 0.0, 2022-09-18 17:01:49.295
198.0, -45843.137305156866, -44554.44747858614, -38570.84078441153, -59534.47485381066, -57115.658475835146, -76283.93337535065, -62425.29301944888, -67974.42650490123, 0.372, -0.9, 0.232, 192.0, 0.0, 0.0, 0.0, 0.0, 0.0, 0.0, 0.0, 0.0, 0.0, 1.663502509299394E9, 0.0, 2022-09-18 17:01:49.299
199.0, -44420.9852124435, -43319.31243173032, -38640.60057885654, -59607.27448550159, -57148.40378146217, -76370.38992290378, -62494.2481510935, -68042.5099185121, 0.372, -0.9, 0.232, 192.0, 0.0, 0.0, 0.0, 0.0, 0.0, 0.0, 0.0, 0.0, 0.0, 1.6635025093034258E9, 0.0, 2022-09-18 17:01:49.303
200.0, -42888.549612587645, -42571.11013783338, -38660.158355254935, -59622.56307870902, -57181.03732836692, -76377.00603926255, -62509.42498557866, -68057.12795938588, 0.382, -0.902, 0.23800000000000002, 192.0, 11.0, 240.0, 227.0, 208.0, 7.0, 112.0, 0.0, 0.0, 0.0, 1.6635025093084388E9, 0.0, 2022-09-18 17:01:49.308
201.0, -44472.50598341298, -44275.832983950735, -38552.847630125005, -59502.713024939665, -57153.16470303115, -76237.2405811835, -62396.0792894458, -67945.54805106498, 0.382, -0.902, 0.23800000000000002, 192.0, 0.0, 0.0, 0.0, 0.0, 0.0, 0.0, 0.0, 0.0, 0.0, 1.6635025093114622E9, 0.0, 2022-09-18 17:01:49.311
202.0, -45994.43626337484, -45150.255578786804, -38525.73496410072, -59482.797620629986, -57095.72071978101, -76222.44372635409, -62372.833475212276, -67928.67248400122, 0.382, -0.902, 0.23800000000000002, 192.0, 0.0, 0.0, 0.0, 0.0, 0.0, 0.0, 0.0, 0.0, 0.0, 1.6635025093144743E9, 0.0, 2022-09-18 17:01:49.314
203.0, -45781.602952671405, -44534.24150159854, -38569.902011144404, -59532.68671425423, -57115.725531068514, -76286.77204689647, -62417.13463272269, -67976.48286539112, 0.382, -0.902, 0.23800000000000002, 192.0, 0.0, 0.0, 0.0, 0.0, 0.0, 0.0, 0.0, 0.0, 0.0, 1.6635025093194146E9, 0.0, 2022-09-18 17:01:49.319
204.0, -44333.29931894533, -43284.28724816886, -38637.2701689327, -59606.447470956744, -57145.74392387199, -76374.81556830592, -62486.96148240108, -68046.55558425852, 0.382, -0.902, 0.23800000000000002, 192.0, 0.0, 0.0, 0.0, 0.0, 0.0, 0.0, 0.0, 0.0, 0.0, 1.663502509323417E9, 0.0, 2022-09-18 17:01:49.323
205.0, -42890.941249244366, -42609.28691736304, -38649.09424174955, -59614.22587802719, -57177.25988355397, -76373.0721322384, -62498.02559590645, -68054.15517737332, 0.382, -0.902, 0.23800000000000002, 192.0, 0.0, 0.0, 0.0, 0.0, 0.0, 0.0, 0.0, 0.0, 0.0, 1.663502509327521E9, 0.0, 2022-09-18 17:01:49.327
206.0, -44575.65928407422, -44360.54609543635, -38537.69314738431, -59491.179524800726, -57145.162778516155, -76229.81980202434, -62382.95881545053, -67936.02620792702, 0.382, -0.902, 0.23800000000000002, 192.0, 0.0, 0.0, 0.0, 0.0, 0.0, 0.0, 0.0, 0.0, 0.0, 1.6635025093314812E9, 0.0, 2022-09-18 17:01:49.331
207.0, -46052.55079895864, -45170.394500541035, -38517.46481865225, -59481.76944038504, -57093.977283713495, -76222.42137460964, -62367.35729782073, -67927.10786188935, 0.382, -0.902, 0.23800000000000002, 192.0, 0.0, 0.0, 0.0, 0.0, 0.0, 0.0, 0.0, 0.0, 0.0, 1.6635025093365183E9, 0.0, 2022-09-18 17:01:49.336
208.0, -45809.96731638519, -44526.97718465057, -38563.73292967474, -59533.24550786561, -57116.59724910227, -76289.43190448666, -62413.26778093193, -67977.06401074697, 0.382, -0.902, 0.23800000000000002, 192.0, 0.0, 0.0, 0.0, 0.0, 0.0, 0.0, 0.0, 0.0, 0.0, 1.6635025093394744E9, 0.0, 2022-09-18 17:01:49.339
209.0, -44312.19927217952, -43245.26110234989, -38632.062212474615, -59605.03931105606, -57142.41351394815, -76374.61440260583, -62484.50279051099, -68045.14742435783, 0.382, -0.902, 0.23800000000000002, 192.0, 0.0, 0.0, 0.0, 0.0, 0.0, 0.0, 0.0, 0.0, 0.0, 1.6635025093425868E9, 0.0, 2022-09-18 17:01:49.342
210.0, -42946.79825863818, -42644.46856313569, -38642.187552712865, -59606.64863665684, -57170.464953239556, -76365.83016703489, -62491.94592141461, -68045.86268018039, 0.374, -0.898, 0.23600000000000002, 192.0, 11.0, 176.0, 227.0, 240.0, 7.0, 96.0, 0.0, 0.0, 0.0, 1.6635025093474903E9, 0.0, 2022-09-18 17:01:49.347
211.0, -44710.90968977329, -44431.9375672266, -38528.238359479714, -59481.41181247376, -57131.952897543066, -76221.92963623162, -62373.63813801267, -67927.21962061162, 0.374, -0.898, 0.23600000000000002, 192.0, 0.0, 0.0, 0.0, 0.0, 0.0, 0.0, 0.0, 0.0, 0.0, 1.663502509351494E9, 0.0, 2022-09-18 17:01:49.351
212.0, -46118.04141021269, -45164.158363838, -38514.469684895244, -59477.679071149716, -57083.91899870861, -76220.56617981986, -62365.144475119654, -67922.30223683146, 0.374, -0.898, 0.23600000000000002, 192.0, 0.0, 0.0, 0.0, 0.0, 0.0, 0.0, 0.0, 0.0, 0.0, 1.6635025093554957E9, 0.0, 2022-09-18 17:01:49.355
213.0, -45827.84871194944, -44492.77901563395, -38560.71544417327, -59527.59051651842, -57108.75178679846, -76289.23073878656, -62411.636103586694, -67969.35265890988, 0.374, -0.898, 0.23600000000000002, 192.0, 0.0, 0.0, 0.0, 0.0, 0.0, 0.0, 0.0, 0.0, 0.0, 1.6635025093596144E9, 0.0, 2022-09-18 17:01:49.359
214.0, -44284.90779219959, -43193.33799998021, -38633.29155841965, -59603.094709288445, -57140.37950520271, -76378.61536486332, -62483.496962010504, -68038.73247369916, 0.374, -0.898, 0.23600000000000002, 192.0, 0.0, 0.0, 0.0, 0.0, 0.0, 0.0, 0.0, 0.0, 0.0, 1.6635025093645618E9, 0.0, 2022-09-18 17:01:49.364
215.0, -43006.67858203394, -42674.86693559491, -38642.00873875723, -59600.18898250926, -57171.67194744015, -76362.61151583333, -62485.70978471158, -68033.30099979651, 0.374, -0.898, 0.23600000000000002, 192.0, 0.0, 0.0, 0.0, 0.0, 0.0, 0.0, 0.0, 0.0, 0.0, 1.6635025093675835E9, 0.0, 2022-09-18 17:01:49.367
216.0, -44834.3807261444, -44494.008361578984, -38531.658176381374, -59478.70725139466, -57135.6856388671, -76222.93546473212, -62370.44183855556, -67917.8765914293, 0.374, -0.898, 0.23600000000000002, 192.0, 0.0, 0.0, 0.0, 0.0, 0.0, 0.0, 0.0, 0.0, 0.0, 1.6635025093705564E9, 0.0, 2022-09-18 17:01:49.370
217.0, -46161.96258806736, -45154.18948581094, -38524.61737687795, -59482.59645492989, -57096.279513392394, -76232.72552880354, -62368.89956818814, -67920.71526297514, 0.374, -0.898, 0.23600000000000002, 192.0, 0.0, 0.0, 0.0, 0.0, 0.0, 0.0, 0.0, 0.0, 0.0, 1.66350250937558E9, 0.0, 2022-09-18 17:01:49.375
218.0, -45836.02945042008, -44466.471012410046, -38574.953505391306, -59537.090007911924, -57126.38731317369, -76305.10047734981, -62420.12976647971, -67972.37014441135, 0.374, -0.898, 0.23600000000000002, 192.0, 0.0, 0.0, 0.0, 0.0, 0.0, 0.0, 0.0, 0.0, 0.0, 1.6635025093795922E9, 0.0, 2022-09-18 17:01:49.379
219.0, -44246.48514348092, -43147.24870291337, -38639.99708175625, -59605.93338083427, -57151.06363905235, -76387.19843473416, -62487.073241123355, -68037.36901728738, 0.374, -0.898, 0.23600000000000002, 192.0, 0.0, 0.0, 0.0, 0.0, 0.0, 0.0, 0.0, 0.0, 0.0, 1.663502509383602E9, 0.0, 2022-09-18 17:01:49.383
220.0, -43060.52393442678, -42714.65304072536, -38639.14771546695, -59596.90327607433, -57179.56211323287, -76365.40548389024, -62482.15585734318, -68027.62365670486, 0.374, -0.9, 0.23800000000000002, 192.0, 11.0, 176.0, 227.0, 224.0, 7.0, 112.0, 0.0, 0.0, 0.0, 1.6635025093875792E9, 0.0, 2022-09-18 17:01:49.387
221.0, -44955.2589601587, -44561.08594668937, -38528.81950483555, -59477.85788510536, -57138.12197901273, -76224.63419731072, -62367.33494607627, -67914.277960572, 0.374, -0.9, 0.23800000000000002, 192.0, 0.0, 0.0, 0.0, 0.0, 0.0, 0.0, 0.0, 0.0, 0.0, 1.6635025093915524E9, 0.0, 2022-09-18 17:01:49.391
222.0, -46214.33272532615, -45150.92613112046, -38521.666946609854, -59484.22813227512, -57092.926751724095, -76231.89851425869, -62366.820855953796, -67921.2293530976, 0.374, -0.9, 0.23800000000000002, 192.0, 0.0, 0.0, 0.0, 0.0, 0.0, 0.0, 0.0, 0.0, 0.0, 1.6635025093957107E9, 0.0, 2022-09-18 17:01:49.395
223.0, -45856.771869274606, -44442.53229409842, -38566.3033802871, -59535.994772433616, -57118.00540900295, -76296.18213131215, -62410.45146113056, -67968.68210657622, 0.374, -0.9, 0.23800000000000002, 192.0, 0.0, 0.0, 0.0, 0.0, 0.0, 0.0, 0.0, 0.0, 0.0, 1.663502509398598E9, 0.0, 2022-09-18 17:01:49.398
224.0, -44233.9905183304, -43108.89310942806, -38635.52673286518, -59613.98000883818, -57144.29106048239, -76379.01769626352, -62478.78074393043, -68040.54296500003, 0.374, -0.9, 0.23800000000000002, 192.0, 0.0, 0.0, 0.0, 0.0, 0.0, 0.0, 0.0, 0.0, 0.0, 1.6635025094026256E9, 0.0, 2022-09-18 17:01:49.402
225.0, -43134.30704287375, -42757.03194821262, -38628.53063685067, -59598.15497376383, -57168.69916542759, -76345.73594876956, -62468.543644969905, -68022.63921769134, 0.374, -0.9, 0.23800000000000002, 192.0, 0.0, 0.0, 0.0, 0.0, 0.0, 0.0, 0.0, 0.0, 0.0, 1.6635025094075968E9, 0.0, 2022-09-18 17:01:49.407
226.0, -45074.50551682777, -44620.67569740721, -38517.420115163346, -59478.52843743902, -57128.77894983041, -76210.1949703926, -62353.70038195854, -67910.6793297147, 0.374, -0.9, 0.23800000000000002, 192.0, 0.0, 0.0, 0.0, 0.0, 0.0, 0.0, 0.0, 0.0, 0.0, 1.6635025094117503E9, 0.0, 2022-09-18 17:01:49.411
227.0, -46255.30347291273, -45143.952386850404, -38518.85062680848, -59490.01723408905, -57093.44084184657, -76231.69734855859, -62359.04244888335, -67922.39164380929, 0.374, -0.9, 0.23800000000000002, 192.0, 0.0, 0.0, 0.0, 0.0, 0.0, 0.0, 0.0, 0.0, 0.0, 1.6635025094156575E9, 0.0, 2022-09-18 17:01:49.415
228.0, -45853.41910760631, -44416.02312517442, -38564.939923875325, -59539.191071890724, -57121.46992939353, -76302.12769533726, -62406.45049887306, -67968.7938652985, 0.374, -0.9, 0.23800000000000002, 192.0, 0.0, 0.0, 0.0, 0.0, 0.0, 0.0, 0.0, 0.0, 0.0, 1.6635025094196415E9, 0.0, 2022-09-18 17:01:49.419
229.0, -44184.79432878427, -43067.00594031882, -38635.973767754294, -59614.96348559421, -57151.242453007995, -76391.69113536968, -62480.077145108844, -68039.67124696627, 0.374, -0.9, 0.23800000000000002, 192.0, 0.0, 0.0, 0.0, 0.0, 0.0, 0.0, 0.0, 0.0, 0.0, 1.66350250942362E9, 0.0, 2022-09-18 17:01:49.423
230.0, -43177.22239222794, -42801.89189933442, -38624.574378082085, -59592.3658719499, -57176.32111028685, -76356.73300704158, -62465.660269935164, -68016.71600541068, 0.378, -0.9, 0.23600000000000002, 192.0, 11.0, 208.0, 227.0, 224.0, 7.0, 96.0, 0.0, 0.0, 0.0, 1.6635025094266372E9, 0.0, 2022-09-18 17:01:49.426
231.0, -45159.53155273575, -44672.26352361006, -38518.515350641654, -59475.35448972637, -57130.41062717565, -76223.82953451033, -62356.471998270994, -67905.76194593453, 0.378, -0.9, 0.23600000000000002, 192.0, 0.0, 0.0, 0.0, 0.0, 0.0, 0.0, 0.0, 0.0, 0.0, 1.6635025094316497E9, 0.0, 2022-09-18 17:01:49.431
232.0, -46260.51142937082, -45122.785284851234, -38523.76801058865, -59487.469135221145, -57090.19983890055, -76242.40383415269, -62367.737277476466, -67915.26143732804, 0.378, -0.9, 0.23600000000000002, 192.0, 0.0, 0.0, 0.0, 0.0, 0.0, 0.0, 0.0, 0.0, 0.0, 1.6635025094356487E9, 0.0, 2022-09-18 17:01:49.435
233.0, -45819.980897901165, -44377.93575262258, -38571.69015070083, -59538.60992653489, -57118.96653401453, -76310.39784078572, -62417.04522574488, -67962.75889429556, 0.378, -0.9, 0.23600000000000002, 192.0, 0.0, 0.0, 0.0, 0.0, 0.0, 0.0, 0.0, 0.0, 0.0, 1.6635025094396973E9, 0.0, 2022-09-18 17:01:49.439
234.0, -44106.07148481268, -43013.51821583727, -38642.83575330207, -59613.19769778225, -57145.47570293852, -76398.91074882874, -62490.291892324916, -68032.31752304047, 0.378, -0.9, 0.23600000000000002, 192.0, 0.0, 0.0, 0.0, 0.0, 0.0, 0.0, 0.0, 0.0, 0.0, 1.6635025094437644E9, 0.0, 2022-09-18 17:01:49.443
235.0, -43185.78311035432, -42837.49822825172, -38625.44609611584, -59581.72644158918, -57165.74873515949, -76355.1236814408, -62469.169493814654, -68000.17571451375, 0.378, -0.9, 0.23600000000000002, 192.0, 0.0, 0.0, 0.0, 0.0, 0.0, 0.0, 0.0, 0.0, 0.0, 1.663502509446643E9, 0.0, 2022-09-18 17:01:49.446
236.0, -45199.09414042165, -44719.6045183664, -38517.420115163346, -59462.94927155367, -57116.82076654682, -76221.86258099826, -62358.26013782742, -67887.94760560365, 0.378, -0.9, 0.23600000000000002, 192.0, 0.0, 0.0, 0.0, 0.0, 0.0, 0.0, 0.0, 0.0, 0.0, 1.6635025094506392E9, 0.0, 2022-09-18 17:01:49.450
237.0, -46218.87012945058, -45100.344133418104, -38522.359850687964, -59478.01434731655, -57079.783925984375, -76245.62248535425, -62367.044373398356, -67899.65991969823, 0.378, -0.9, 0.23600000000000002, 192.0, 0.0, 0.0, 0.0, 0.0, 0.0, 0.0, 0.0, 0.0, 0.0, 1.6635025094546769E9, 0.0, 2022-09-18 17:01:49.454
238.0, -45733.70316430368, -44336.5626736358, -38568.985589621734, -59526.74115022912, -57107.6789030646, -76315.20346584362, -62412.2843041759, -67944.51987082003, 0.378, -0.9, 0.23600000000000002, 192.0, 0.0, 0.0, 0.0, 0.0, 0.0, 0.0, 0.0, 0.0, 0.0, 1.663502509458736E9, 0.0, 2022-09-18 17:01:49.458
239.0, -43977.4818989613, -42965.394910024996, -38639.259474189224, -59602.58061916597, -57135.84210107829, -76402.82230410843, -62483.51931375496, -68013.94438909822, 0.378, -0.9, 0.23600000000000002, 192.0, 0.0, 0.0, 0.0, 0.0, 0.0, 0.0, 0.0, 0.0, 0.0, 1.6635025094637213E9, 0.0, 2022-09-18 17:01:49.463
240.0, -43158.24576118538, -42883.74398752976, -38617.2653576452, -59572.182246706754, -57158.6408804227, -76353.29083839546, -62456.04901981939, -67981.57906312693, 0.374, -0.9, 0.23800000000000002, 192.0, 11.0, 176.0, 227.0, 224.0, 7.0, 112.0, 0.0, 0.0, 0.0, 1.6635025094676912E9, 0.0, 2022-09-18 17:01:49.467
241.0, -45198.40123634353, -44764.59857995494, -38512.68154533882, -59462.61399538684, -57110.428167632606, -76223.27074089894, -62346.480768499474, -67875.98942232007, 0.374, -0.9, 0.23800000000000002, 192.0, 0.0, 0.0, 0.0, 0.0, 0.0, 0.0, 0.0, 0.0, 0.0, 1.663502509471799E9, 0.0, 2022-09-18 17:01:49.471
242.0, -46154.98884379731, -45089.078854212625, -38519.40942041986, -59479.80248687298, -57073.95012068154, -76251.65745635718, -62356.471998270994, -67893.24496903956, 0.374, -0.9, 0.23800000000000002, 192.0, 0.0, 0.0, 0.0, 0.0, 0.0, 0.0, 0.0, 0.0, 0.0, 1.6635025094747255E9, 0.0, 2022-09-18 17:01:49.474
243.0, -45643.245654493054, -44311.46166461249, -38566.23632505373, -59533.06669390997, -57100.25812390544, -76324.34532932584, -62402.22601917101, -67944.31870511993, 0.374, -0.9, 0.23800000000000002, 192.0, 0.0, 0.0, 0.0, 0.0, 0.0, 0.0, 0.0, 0.0, 0.0, 1.663502509478776E9, 0.0, 2022-09-18 17:01:49.478
244.0, -43851.23924627772, -42920.64671762547, -38639.08066023358, -59611.45426171473, -57125.247374206476, -76408.56670243344, -62477.618453218754, -68015.73252865464, 0.374, -0.9, 0.23800000000000002, 192.0, 0.0, 0.0, 0.0, 0.0, 0.0, 0.0, 0.0, 0.0, 0.0, 1.6635025094827473E9, 0.0, 2022-09-18 17:01:49.482
245.0, -43140.6325865546, -42928.91686307393, -38609.93398546386, -59571.24347343964, -57142.860548837256, -76349.51339358251, -62444.78374061391, -67973.97947001213, 0.374, -0.9, 0.23800000000000002, 192.0, 0.0, 0.0, 0.0, 0.0, 0.0, 0.0, 0.0, 0.0, 0.0, 1.6635025094867516E9, 0.0, 2022-09-18 17:01:49.486
246.0, -45224.508073867335, -44811.693705522266, -38505.99837374668, -59460.691745363685, -57089.46223133353, -76221.41554610916, -62338.34473351774, -67866.13230301527, 0.374, -0.9, 0.23800000000000002, 192.0, 0.0, 0.0, 0.0, 0.0, 0.0, 0.0, 0.0, 0.0, 0.0, 1.6635025094907207E9, 0.0, 2022-09-18 17:01:49.490
247.0, -46113.973392721826, -45064.67074926743, -38521.68929835431, -59484.89868460879, -57058.90739666312, -76251.16571797917, -62358.975393649984, -67885.39950673575, 0.374, -0.9, 0.23800000000000002, 192.0, 0.0, 0.0, 0.0, 0.0, 0.0, 0.0, 0.0, 0.0, 0.0, 1.6635025094958427E9, 0.0, 2022-09-18 17:01:49.495
248.0, -45568.85904894579, -44266.75817570188, -38569.92436288886, -59535.23481312214, -57087.80820224383, -76318.84680018983, -62408.618618085224, -67931.6899695027, 0.374, -0.9, 0.23800000000000002, 192.0, 0.0, 0.0, 0.0, 0.0, 0.0, 0.0, 0.0, 0.0, 0.0, 1.6635025094997694E9, 0.0, 2022-09-18 17:01:49.499
249.0, -43749.85173342845, -42871.18230714587, -38636.97959625478, -59605.93338083427, -57110.65168507716, -76398.21784475063, -62479.47364800855, -67995.25833073359, 0.374, -0.9, 0.23800000000000002, 192.0, 0.0, 0.0, 0.0, 0.0, 0.0, 0.0, 0.0, 0.0, 0.0, 1.663502509502742E9, 0.0, 2022-09-18 17:01:49.502
250.0, -43147.89690350257, -42973.59800024009, -38603.00494468271, -59556.42426686577, -57125.91792654013, -76330.78263172897, -62442.07917953482, -67944.51987082003, 0.372, -0.902, 0.228, 192.0, 11.0, 160.0, 227.0, 208.0, 7.0, 32.0, 0.0, 0.0, 0.0, 1.663502509506766E9, 0.0, 2022-09-18 17:01:49.506
251.0, -45262.595446419175, -44849.06582225154, -38504.09847546798, -59447.57127136842, -57072.25138810294, -76209.03267968091, -62342.92684113108, -67840.07016898038, 0.372, -0.902, 0.228, 192.0, 0.0, 0.0, 0.0, 0.0, 0.0, 0.0, 0.0, 0.0, 0.0, 1.6635025095107608E9, 0.0, 2022-09-18 17:01:49.510
252.0, -46086.0784156416, -45036.95458614285, -38521.26461520966, -59471.77821061352, -57043.59645171124, -76244.5943051093, -62368.31842283231, -67861.66195412421, 0.372, -0.902, 0.228, 192.0, 0.0, 0.0, 0.0, 0.0, 0.0, 0.0, 0.0, 0.0, 0.0, 1.6635025095147688E9, 0.0, 2022-09-18 17:01:49.514
253.0, -45505.71537085955, -44220.110085023654, -38567.666836698874, -59522.96370541617, -57071.82670495829, -76313.05769837591, -62417.156984467154, -67909.76290819203, 0.372, -0.902, 0.228, 192.0, 0.0, 0.0, 0.0, 0.0, 0.0, 0.0, 0.0, 0.0, 0.0, 1.663502509518804E9, 0.0, 2022-09-18 17:01:49.518
254.0, -43662.07643295246, -42820.08621932104, -38634.81147704262, -59594.712805117706, -57094.69253953607, -76392.98753654808, -62485.93330215613, -67977.22047295814, 0.372, -0.902, 0.228, 192.0, 0.0, 0.0, 0.0, 0.0, 0.0, 0.0, 0.0, 0.0, 0.0, 1.6635025095237918E9, 0.0, 2022-09-18 17:01:49.523
255.0, -43179.47991841792, -43018.65911706199, -38594.01954341168, -59542.610888792384, -57111.031664732895, -76322.57954151387, -62439.55343241137, -67924.9844461661, 0.372, -0.902, 0.228, 192.0, 0.0, 0.0, 0.0, 0.0, 0.0, 0.0, 0.0, 0.0, 0.0, 1.6635025095277889E9, 0.0, 2022-09-18 17:01:49.527
0.0, -45326.65554602809, -44886.12501455844, -38496.990620731194, -59439.41288464223, -57058.48271351847, -76205.16582789015, -62339.551727718324, -67827.32967464086, 0.372, -0.902, 0.228, 192.0, 0.0, 0.0, 0.0, 0.0, 0.0, 0.0, 0.0, 0.0, 0.0, 1.6635025095307908E9, 0.0, 2022-09-18 17:01:49.530
1.0, -46094.370912834514, -45013.70877190933, -38515.7437343292, -59465.67618437722, -57031.81708238329, -76240.995674252, -62363.535149518866, -67850.48608189655, 0.372, -0.902, 0.228, 192.0, 0.0, 0.0, 0.0, 0.0, 0.0, 0.0, 0.0, 0.0, 0.0, 1.6635025095349076E9, 0.0, 2022-09-18 17:01:49.534
2.0, -45481.553135103364, -44172.63497980058, -38563.08472908554, -59516.81697569096, -57060.53907400836, -76309.88375066326, -62410.45146113056, -67898.14000107527, 0.372, -0.902, 0.228, 192.0, 0.0, 0.0, 0.0, 0.0, 0.0, 0.0, 0.0, 0.0, 0.0, 1.6635025095388308E9, 0.0, 2022-09-18 17:01:49.538
3.0, -43605.414760758256, -42769.37011115195, -38632.71041306382, -59594.288121973055, -57086.89178072116, -76392.13817025878, -62479.026613119444, -67966.96102225316, 0.372, -0.902, 0.228, 192.0, 0.0, 0.0, 0.0, 0.0, 0.0, 0.0, 0.0, 0.0, 0.0, 1.6635025095428658E9, 0.0, 2022-09-18 17:01:49.542
4.0, -43224.27281430636, -43062.58029491667, -38587.246964841725, -59541.0015631916, -57104.70612105205, -76318.73504146756, -62424.35424618176, -67913.18272509369, 0.374, -0.904, 0.23600000000000002, 192.0, 11.0, 176.0, 227.0, 192.0, 7.0, 96.0, 0.0, 0.0, 0.0, 1.6635025095468357E9, 0.0, 2022-09-18 17:01:49.546
5.0, -45396.63885791765, -44924.99469816622, -38488.47460609372, -59443.19032945518, -57051.24074831495, -76205.4340488236, -62320.79861412032, -67817.53961056944, 0.374, -0.904, 0.23600000000000002, 192.0, 0.0, 0.0, 0.0, 0.0, 0.0, 0.0, 0.0, 0.0, 0.0, 1.6635025095518396E9, 0.0, 2022-09-18 17:01:49.551
6.0, -46112.96756422133, -45004.16457702692, -38508.90410052587, -59475.10862053736, -57029.7607218934, -76249.6010958673, -62341.74219867495, -67845.92632602768, 0.374, -0.904, 0.23600000000000002, 192.0, 0.0, 0.0, 0.0, 0.0, 0.0, 0.0, 0.0, 0.0, 0.0, 1.663502509555967E9, 0.0, 2022-09-18 17:01:49.555
7.0, -45458.15085865866, -44141.946034663444, -38560.44722323981, -59527.36699907386, -57061.7684199534, -76323.9653496701, -62391.58658881028, -67896.1283440743, 0.374, -0.904, 0.23600000000000002, 192.0, 0.0, 0.0, 0.0, 0.0, 0.0, 0.0, 0.0, 0.0, 0.0, 1.6635025095588765E9, 0.0, 2022-09-18 17:01:49.558
8.0, -43540.304129159944, -42726.67827924231, -38628.88826476196, -59598.04321504155, -57085.28245512038, -76399.42483895122, -62463.089819322806, -67958.9367459937, 0.374, -0.904, 0.23600000000000002, 192.0, 0.0, 0.0, 0.0, 0.0, 0.0, 0.0, 0.0, 0.0, 0.0, 1.6635025095629537E9, 0.0, 2022-09-18 17:01:49.562
9.0, -43265.73530027096, -43110.61419375112, -38579.58031649355, -59535.32422009996, -57098.02294945991, -76314.8681896768, -62409.5797430968, -67896.10599232985, 0.374, -0.904, 0.23600000000000002, 192.0, 0.0, 0.0, 0.0, 0.0, 0.0, 0.0, 0.0, 0.0, 0.0, 1.6635025095668736E9, 0.0, 2022-09-18 17:01:49.566
10.0, -45452.09353591127, -44956.64476831493, -38489.41337936084, -59441.9833352546, -57044.57992846727, -76207.31159535785, -62320.128061786665, -67804.97793018556, 0.374, -0.904, 0.23600000000000002, 192.0, 0.0, 0.0, 0.0, 0.0, 0.0, 0.0, 0.0, 0.0, 0.0, 1.6635025095709608E9, 0.0, 2022-09-18 17:01:49.570
11.0, -46102.19402339387, -44980.18115522637, -38515.69903084028, -59474.99686181508, -57023.41282646809, -76250.15988947867, -62352.44868426904, -67831.37534038727, 0.374, -0.904, 0.23600000000000002, 192.0, 0.0, 0.0, 0.0, 0.0, 0.0, 0.0, 0.0, 0.0, 0.0, 1.6635025095748904E9, 0.0, 2022-09-18 17:01:49.574
12.0, -45405.24427953295, -44100.4611969544, -38569.03029311065, -59529.31160084148, -57053.27475706038, -76320.34436706833, -62407.925714007106, -67879.23042526608, 0.374, -0.904, 0.23600000000000002, 192.0, 0.0, 0.0, 0.0, 0.0, 0.0, 0.0, 0.0, 0.0, 0.0, 1.6635025095799596E9, 0.0, 2022-09-18 17:01:49.579
13.0, -43469.31498876989, -42699.36444751793, -38639.885323033974, -59601.75360462113, -57082.35437659674, -76399.08956278439, -62481.93233989863, -67943.7375597641, 0.374, -0.904, 0.23600000000000002, 192.0, 0.0, 0.0, 0.0, 0.0, 0.0, 0.0, 0.0, 0.0, 0.0, 1.663502509583998E9, 0.0, 2022-09-18 17:01:49.583
14.0, -43315.51263517292, -43185.64899988759, -38584.74356946273, -59533.625487521356, -57095.11722268072, -76309.4590675186, -62421.82849905831, -67876.12353278679, 0.378, -0.908, 0.23, 192.0, 11.0, 208.0, 227.0, 160.0, 7.0, 48.0, 0.0, 0.0, 0.0, 1.66350250958695E9, 0.0, 2022-09-18 17:01:49.586
15.0, -45504.0389900254, -45000.40948395842, -38491.82736776202, -59438.85409103085, -57038.29908827533, -76204.7411447455, -62329.53814620235, -67786.18011309864, 0.378, -0.908, 0.23, 192.0, 0.0, 0.0, 0.0, 0.0, 0.0, 0.0, 0.0, 0.0, 0.0, 1.663502509591046E9, 0.0, 2022-09-18 17:01:49.591
16.0, -46089.207659865344, -44962.56798059559, -38516.570748874045, -59470.81708560194, -57017.62372465417, -76249.8469650563, -62360.09298087275, -67817.33844486934, 0.378, -0.908, 0.23, 192.0, 0.0, 0.0, 0.0, 0.0, 0.0, 0.0, 0.0, 0.0, 0.0, 1.6635025095949829E9, 0.0, 2022-09-18 17:01:49.594
17.0, -45356.74099406493, -44058.23875167832, -38567.42096750986, -59524.08129263893, -57045.250480800925, -76322.42307930268, -62411.859621031246, -67865.50645417052, 0.378, -0.908, 0.23, 192.0, 0.0, 0.0, 0.0, 0.0, 0.0, 0.0, 0.0, 0.0, 0.0, 1.6635025095990596E9, 0.0, 2022-09-18 17:01:49.599
18.0, -43402.30445889288, -42655.77854583008, -38635.41497414291, -59593.595217894945, -57071.133800880176, -76395.17800750471, -62479.13837184172, -67926.75023397806, 0.378, -0.908, 0.23, 192.0, 0.0, 0.0, 0.0, 0.0, 0.0, 0.0, 0.0, 0.0, 0.0, 1.6635025096030157E9, 0.0, 2022-09-18 17:01:49.603
19.0, -43363.88181017421, -43233.74995395541, -38577.54630774812, -59520.884993181826, -57079.85098121774, -76298.84198890234, -62412.84309778728, -67855.1128929988, 0.378, -0.908, 0.23, 192.0, 0.0, 0.0, 0.0, 0.0, 0.0, 0.0, 0.0, 0.0, 0.0, 1.663502509607123E9, 0.0, 2022-09-18 17:01:49.607
20.0, -45550.64237721472, -45019.52022546771, -38492.8331962625, -59434.339038650876, -57021.51292818939, -76200.22609236553, -62323.48082345496, -67772.72436293654, 0.378, -0.908, 0.23, 192.0, 0.0, 0.0, 0.0, 0.0, 0.0, 0.0, 0.0, 0.0, 0.0, 1.6635025096109917E9, 0.0, 2022-09-18 17:01:49.610
21.0, -46077.27182832621, -44931.94609069182, -38518.515350641654, -59471.19706525768, -57003.09509075822, -76246.6953690881, -62349.65471621212, -67805.44731681912, 0.378, -0.908, 0.23, 192.0, 0.0, 0.0, 0.0, 0.0, 0.0, 0.0, 0.0, 0.0, 0.0, 1.663502509613997E9, 0.0, 2022-09-18 17:01:49.613
22.0, -45300.81692943775, -44007.746160953786, -38567.06333959858, -59526.18235661773, -57031.213585282996, -76320.52318102398, -62397.82272551331, -67856.34223894385, 0.378, -0.908, 0.23, 192.0, 0.0, 0.0, 0.0, 0.0, 0.0, 0.0, 0.0, 0.0, 0.0, 1.6635025096189873E9, 0.0, 2022-09-18 17:01:49.618
23.0, -43333.12580980371, -42621.53567332455, -38629.44705837334, -59592.41057543881, -57058.460361774014, -76394.41804819323, -62461.63695593321, -67917.74248096258, 0.378, -0.908, 0.23, 192.0, 0.0, 0.0, 0.0, 0.0, 0.0, 0.0, 0.0, 0.0, 0.0, 1.6635025096230824E9, 0.0, 2022-09-18 17:01:49.623
24.0, -43417.95068001159, -43297.98886751996, -38565.565772720074, -59514.85002217889, -57068.54099852336, -76295.51157897849, -62391.854809743745, -67843.06530273739, 0.384, -0.904, 0.23, 192.0, 12.0, 0.0, 227.0, 192.0, 7.0, 48.0, 0.0, 0.0, 0.0, 1.6635025096270795E9, 0.0, 2022-09-18 17:01:49.627
25.0, -45600.28560164996, -45047.05757463665, -38477.32108561052, -59428.50523334804, -57004.48089891445, -76195.1298946297, -62304.99593079042, -67759.8944616192, 0.384, -0.904, 0.23, 192.0, 0.0, 0.0, 0.0, 0.0, 0.0, 0.0, 0.0, 0.0, 0.0, 1.663502509631003E9, 0.0, 2022-09-18 17:01:49.631
26.0, -46070.87922941199, -44911.94127940432, -38508.09943772548, -59468.604262900866, -56988.99114000692, -76244.84017429831, -62339.10469282922, -67794.56201726937, 0.384, -0.904, 0.23, 192.0, 0.0, 0.0, 0.0, 0.0, 0.0, 0.0, 0.0, 0.0, 0.0, 1.6635025096349783E9, 0.0, 2022-09-18 17:01:49.634
27.0, -45258.840353350686, -43970.57520992461, -38563.1517843189, -59527.72462698515, -57019.68008514406, -76319.60675950132, -62394.514667333926, -67848.13914872875, 0.384, -0.904, 0.23, 192.0, 0.0, 0.0, 0.0, 0.0, 0.0, 0.0, 0.0, 0.0, 0.0, 1.6635025096390018E9, 0.0, 2022-09-18 17:01:49.639
28.0, -43283.79550979084, -42595.04885614501, -38626.742497294246, -59593.662273128306, -57046.97156512399, -76388.98657429058, -62460.295851265895, -67909.22646632511, 0.384, -0.904, 0.23, 192.0, 0.0, 0.0, 0.0, 0.0, 0.0, 0.0, 0.0, 0.0, 0.0, 1.6635025096420324E9, 0.0, 2022-09-18 17:01:49.642
29.0, -43482.03313136496, -43354.427022269614, -38560.82720289555, -59510.759652943576, -57054.03471637186, -76285.07331431787, -62388.68086203109, -67829.85542176431, 0.384, -0.904, 0.23, 192.0, 0.0, 0.0, 0.0, 0.0, 0.0, 0.0, 0.0, 0.0, 0.0, 1.6635025096470258E9, 0.0, 2022-09-18 17:01:49.647
30.0, -45647.96187257313, -45061.80972597715, -38483.82544324701, -59430.203965926645, -56993.103860986696, -76196.00161266347, -62313.80251810581, -67749.12092079174, 0.384, -0.904, 0.23, 192.0, 0.0, 0.0, 0.0, 0.0, 0.0, 0.0, 0.0, 0.0, 0.0, 1.663502509651055E9, 0.0, 2022-09-18 17:01:49.651
31.0, -46055.121249571, -44878.525421443635, -38518.47064715274, -59472.49346643609, -56982.01739573687, -76248.08117724433, -62351.442855768546, -67785.04017413141, 0.384, -0.904, 0.23, 192.0, 0.0, 0.0, 0.0, 0.0, 0.0, 0.0, 0.0, 0.0, 0.0, 1.6635025096550596E9, 0.0, 2022-09-18 17:01:49.655
32.0, -45193.57325954119, -43910.35961036201, -38572.271296056664, -59530.20567061969, -57009.398282694616, -76320.18790485716, -62403.8800482607, -67836.44918637862, 0.384, -0.904, 0.23, 192.0, 0.0, 0.0, 0.0, 0.0, 0.0, 0.0, 0.0, 0.0, 0.0, 1.6635025096590202E9, 0.0, 2022-09-18 17:01:49.659
33.0, -43210.95117461099, -42557.0955940599, -38631.79399154115, -59593.70697661722, -57035.70628591851, -76383.42098992121, -62463.33568851182, -67892.26149228352, 0.384, -0.904, 0.23, 192.0, 0.0, 0.0, 0.0, 0.0, 0.0, 0.0, 0.0, 0.0, 0.0, 1.6635025096630526E9, 0.0, 2022-09-18 17:01:49.663
34.0, -43530.98345172208, -43419.53765386792, -38555.79806039311, -59506.17754533023, -57040.847187143234, -76273.0480758009, -62379.98603343798, -67806.22962787504, 0.386, -0.908, 0.228, 192.0, 12.0, 16.0, 227.0, 160.0, 7.0, 32.0, 0.0, 0.0, 0.0, 1.663502509667061E9, 0.0, 2022-09-18 17:01:49.667
35.0, -45678.56141073244, -45084.16147043246, -38478.05869317755, -59431.14273919377, -56979.55870384678, -76188.51377827094, -62301.37494818866, -67734.56993515133, 0.386, -0.908, 0.228, 192.0, 0.0, 0.0, 0.0, 0.0, 0.0, 0.0, 0.0, 0.0, 0.0, 1.6635025096700659E9, 0.0, 2022-09-18 17:01:49.670
36.0, -46029.439095191854, -44852.95502578677, -38512.61449010545, -59474.169847270234, -56972.29438689881, -76242.40383415269, -62339.90935562961, -67771.62912745823, 0.386, -0.908, 0.228, 192.0, 0.0, 0.0, 0.0, 0.0, 0.0, 0.0, 0.0, 0.0, 0.0, 1.6635025096751008E9, 0.0, 2022-09-18 17:01:49.675
37.0, -45124.70753487439, -43862.86215339448, -38566.77276692066, -59533.759597988086, -57001.79868957981, -76318.15389611172, -62394.4252603561, -67826.72617754056, 0.386, -0.908, 0.228, 192.0, 0.0, 0.0, 0.0, 0.0, 0.0, 0.0, 0.0, 0.0, 0.0, 1.663502509679208E9, 0.0, 2022-09-18 17:01:49.679
38.0, -43150.646168070576, -42536.57669264993, -38626.29546240514, -59594.779860351075, -57028.754893392914, -76379.42002766371, -62452.83036861782, -67881.91263460073, 0.386, -0.908, 0.228, 192.0, 0.0, 0.0, 0.0, 0.0, 0.0, 0.0, 0.0, 0.0, 0.0, 1.6635025096830773E9, 0.0, 2022-09-18 17:01:49.683
39.0, -43589.72383615063, -43488.313971556905, -38550.03131032363, -59501.5954377169, -57031.30299226082, -76264.68852337463, -62369.279547843886, -67792.21508410157, 0.386, -0.908, 0.228, 192.0, 0.0, 0.0, 0.0, 0.0, 0.0, 0.0, 0.0, 0.0, 0.0, 1.663502509687163E9, 0.0, 2022-09-18 17:01:49.687
40.0, -45709.9879634366, -45101.37231366304, -38476.3823123434, -59427.72292229211, -56964.53833157282, -76181.71884795652, -62297.61985512017, -67720.64479835569, 0.386, -0.908, 0.228, 192.0, 0.0, 0.0, 0.0, 0.0, 0.0, 0.0, 0.0, 0.0, 0.0, 1.6635025096911368E9, 0.0, 2022-09-18 17:01:49.691
41.0, -46005.29921118012, -44825.194159173276, -38513.79913256158, -59472.11348678035, -56957.586939047214, -76237.97818875054, -62338.501195728924, -67760.20738604157, 0.386, -0.908, 0.228, 192.0, 0.0, 0.0, 0.0, 0.0, 0.0, 0.0, 0.0, 0.0, 0.0, 1.6635025096951454E9, 0.0, 2022-09-18 17:01:49.695
42.0, -45054.344243329084, -43812.749542325684, -38568.13622333243, -59532.709065998686, -56985.86189578318, -76314.9128931657, -62396.54867607936, -67815.9079332242, 0.386, -0.908, 0.228, 192.0, 0.0, 0.0, 0.0, 0.0, 0.0, 0.0, 0.0, 0.0, 0.0, 1.6635025096981492E9, 0.0, 2022-09-18 17:01:49.698
43.0, -43084.97674286088, -42519.768180819534, -38624.84259901555, -59591.561209149506, -57012.683989129546, -76373.2732979385, -62455.28906050791, -67868.5686431609, 0.386, -0.908, 0.228, 192.0, 0.0, 0.0, 0.0, 0.0, 0.0, 0.0, 0.0, 0.0, 0.0, 1.6635025097031393E9, 0.0, 2022-09-18 17:01:49.703
44.0, -43642.675118765255, -43562.47705965961, -38542.40936546437, -59495.73928066961, -57010.784090850844, -76254.78670058092, -62364.652736741635, -67778.62522347274, 0.386, -0.908, 0.228, 192.0, 0.0, 0.0, 0.0, 0.0, 0.0, 0.0, 0.0, 0.0, 0.0, 1.663502509707087E9, 0.0, 2022-09-18 17:01:49.707
45.0, -45735.51365560456, -45119.05254352719, -38471.01789367413, -59425.93478273568, -56944.310002840764, -76178.36608628822, -62294.33414868524, -67710.0277197394, 0.378, -0.908, 0.224, 192.0, 11.0, 208.0, 227.0, 160.0, 7.0, 0.0, 0.0, 0.0, 0.0, 1.6635025097112176E9, 0.0, 2022-09-18 17:01:49.711
46.0, -45981.539306824125, -44798.886155949374, -38505.55133885758, -59468.11252452285, -56936.53159577031, -76233.93252300413, -62331.95213460352, -67746.90809809066, 0.378, -0.908, 0.224, 192.0, 0.0, 0.0, 0.0, 0.0, 0.0, 0.0, 0.0, 0.0, 0.0, 1.6635025097151418E9, 0.0, 2022-09-18 17:01:49.715
47.0, -44986.28318146267, -43761.787564967584, -38561.587162207026, -59529.44571130821, -56962.5937298052, -76312.00716638651, -62388.90437947564, -67804.08386040734, 0.378, -0.908, 0.224, 192.0, 0.0, 0.0, 0.0, 0.0, 0.0, 0.0, 0.0, 0.0, 0.0, 1.6635025097191467E9, 0.0, 2022-09-18 17:01:49.719
48.0, -43028.35977415559, -42492.99079096208, -38616.70656403382, -59583.313415445504, -56990.26518944087, -76365.15961470123, -62443.95672606907, -67850.6648958522, 0.378, -0.908, 0.224, 192.0, 0.0, 0.0, 0.0, 0.0, 0.0, 0.0, 0.0, 0.0, 0.0, 1.6635025097232113E9, 0.0, 2022-09-18 17:01:49.723
49.0, -43697.07926476947, -43612.72378119514, -38529.512408913666, -59476.96381532715, -56985.52661961635, -76239.40870039567, -62349.542957489844, -67748.76329288045, 0.378, -0.908, 0.224, 192.0, 0.0, 0.0, 0.0, 0.0, 0.0, 0.0, 0.0, 0.0, 0.0, 1.663502509726146E9, 0.0, 2022-09-18 17:01:49.726
50.0, -45754.15501048029, -45120.5501104057, -38465.27349534911, -59416.010608197525, -56925.31102005375, -76173.1804815746, -62287.38275615964, -67689.79939100736, 0.378, -0.908, 0.224, 192.0, 0.0, 0.0, 0.0, 0.0, 0.0, 0.0, 0.0, 0.0, 0.0, 1.663502509730216E9, 0.0, 2022-09-18 17:01:49.730
51.0, -45944.703631961784, -44762.98925435415, -38502.019763233635, -59461.36229769734, -56923.45582526396, -76230.62446482474, -62327.99587583493, -67728.84788857077, 0.378, -0.908, 0.224, 192.0, 0.0, 0.0, 0.0, 0.0, 0.0, 0.0, 0.0, 0.0, 0.0, 1.6635025097351732E9, 0.0, 2022-09-18 17:01:49.735
52.0, -44901.92769788834, -43702.82366309448, -38559.77667090615, -59525.712969984175, -56952.490741311405, -76310.37548904127, -62385.81983874081, -67788.61645324426, 0.378, -0.908, 0.224, 192.0, 0.0, 0.0, 0.0, 0.0, 0.0, 0.0, 0.0, 0.0, 0.0, 1.6635025097391396E9, 0.0, 2022-09-18 17:01:49.739
53.0, -42965.28315130272, -42475.98111343159, -38612.39267735394, -59577.70312758722, -56981.212732936474, -76359.34816114286, -62436.58065039881, -67834.83986077784, 0.378, -0.908, 0.224, 192.0, 0.0, 0.0, 0.0, 0.0, 0.0, 0.0, 0.0, 0.0, 0.0, 1.6635025097431903E9, 0.0, 2022-09-18 17:01:49.743
54.0, -43752.15396310735, -43679.577848860965, -38521.33167044302, -59471.800562357974, -56972.00381422089, -76231.40677588068, -62338.14356781764, -67732.40181593917, 0.378, -0.908, 0.224, 192.0, 0.0, 0.0, 0.0, 0.0, 0.0, 0.0, 0.0, 0.0, 0.0, 1.6635025097471988E9, 0.0, 2022-09-18 17:01:49.747
55.0, -45769.98004555465, -45126.898005831004, -38458.50091677915, -59414.64715178576, -56904.99328434388, -76169.26892629491, -62279.17966594454, -67675.98601293398, 0.372, -0.902, 0.23, 192.0, 11.0, 160.0, 227.0, 208.0, 7.0, 48.0, 0.0, 0.0, 0.0, 1.6635025097512074E9, 0.0, 2022-09-18 17:01:49.751
56.0, -45910.34900073397, -44729.28282371555, -38492.76614102914, -59457.607204628854, -56903.205144787455, -76227.9422554901, -62317.62466640767, -67716.0850424868, 0.372, -0.902, 0.23, 192.0, 0.0, 0.0, 0.0, 0.0, 0.0, 0.0, 0.0, 0.0, 0.0, 1.6635025097542138E9, 0.0, 2022-09-18 17:01:49.754
57.0, -44821.5284730826, -43642.451601320696, -38549.58427543453, -59518.04632163601, -56929.02140963333, -76307.69327970664, -62374.442800813056, -67774.66896470415, 0.372, -0.902, 0.23, 192.0, 0.0, 0.0, 0.0, 0.0, 0.0, 0.0, 0.0, 0.0, 0.0, 1.663502509758189E9, 0.0, 2022-09-18 17:01:49.758
58.0, -42914.276470455705, -42459.999616146044, -38599.473369058775, -59565.99081349264, -56957.54223555831, -76350.98860871657, -62423.102548492265, -67817.91959022518, 0.372, -0.902, 0.23, 192.0, 0.0, 0.0, 0.0, 0.0, 0.0, 0.0, 0.0, 0.0, 0.0, 1.6635025097632933E9, 0.0, 2022-09-18 17:01:49.763
59.0, -43816.48228364972, -43744.04027987007, -38504.07612372353, -59457.71896335113, -56946.70163949748, -76218.30865362987, -62319.8598408532, -67711.83821104029, 0.372, -0.902, 0.23, 192.0, 0.0, 0.0, 0.0, 0.0, 0.0, 0.0, 0.0, 0.0, 0.0, 1.6635025097672813E9, 0.0, 2022-09-18 17:01:49.767
60.0, -45789.53782195304, -45126.495674430815, -38446.25216081765, -59408.522773805, -56883.98264455589, -76161.57992620229, -62263.26522389236, -67663.62549825019, 0.372, -0.902, 0.23, 192.0, 0.0, 0.0, 0.0, 0.0, 0.0, 0.0, 0.0, 0.0, 0.0, 1.6635025097713187E9, 0.0, 2022-09-18 17:01:49.771
61.0, -45884.242163210176, -44692.357741875385, -38486.39589385938, -59456.17669298372, -56888.25182774685, -76222.46607809854, -62305.577076146255, -67706.92082726012, 0.372, -0.902, 0.23, 192.0, 0.0, 0.0, 0.0, 0.0, 0.0, 0.0, 0.0, 0.0, 0.0, 1.663502509775283E9, 0.0, 2022-09-18 17:01:49.775
62.0, -44750.18170478126, -43582.16894652473, -38547.50556320019, -59520.750882715096, -56913.755168170355, -76302.23945405954, -62368.497236787945, -67766.51057797797, 0.372, -0.902, 0.23, 192.0, 0.0, 0.0, 0.0, 0.0, 0.0, 0.0, 0.0, 0.0, 0.0, 1.6635025097792482E9, 0.0, 2022-09-18 17:01:49.779
63.0, -42870.444699578846, -42443.526380482486, -38592.72314223327, -59561.989851235136, -56938.587956260206, -76338.38222484378, -62414.45242338806, -67802.98862492903, 0.372, -0.902, 0.23, 192.0, 0.0, 0.0, 0.0, 0.0, 0.0, 0.0, 0.0, 0.0, 0.0, 1.663502509782246E9, 0.0, 2022-09-18 17:01:49.782
64.0, -43884.610400749494, -43804.1888241993, -38497.0353242201, -59450.968736525625, -56923.79110143079, -76204.11529590074, -62313.04255879433, -67697.44368761107, 0.372, -0.902, 0.23, 192.0, 0.0, 0.0, 0.0, 0.0, 0.0, 0.0, 0.0, 0.0, 0.0, 1.663502509786347E9, 0.0, 2022-09-18 17:01:49.786
65.0, -45813.49889200913, -45124.30520347419, -38447.079175362494, -59404.700625503145, -56860.20038845544, -76155.23203077698, -62267.73557278342, -67652.22610857799, 0.37, -0.896, 0.232, 192.0, 11.0, 144.0, 228.0, 0.0, 7.0, 64.0, 0.0, 0.0, 0.0, 1.6635025097913513E9, 0.0, 2022-09-18 17:01:49.791
66.0, -45864.997311234154, -44661.6911484827, -38492.69908579577, -59454.32149819392, -56868.26936820381, -76219.29213038589, -62314.02603555036, -67698.06953645582, 0.37, -0.896, 0.232, 192.0, 0.0, 0.0, 0.0, 0.0, 0.0, 0.0, 0.0, 0.0, 0.0, 1.663502509795302E9, 0.0, 2022-09-18 17:01:49.795
67.0, -44688.55794531798, -43533.06216395643, -38561.453051740296, -59527.16583337377, -56903.98745584339, -76307.64857621773, -62381.66241427213, -67765.72826692203, 0.37, -0.896, 0.232, 192.0, 0.0, 0.0, 0.0, 0.0, 0.0, 0.0, 0.0, 0.0, 0.0, 1.6635025097993276E9, 0.0, 2022-09-18 17:01:49.799
68.0, -42853.47972553727, -42452.13180209778, -38608.36936335199, -59571.69050832874, -56938.789121960304, -76345.73594876956, -62424.95774328205, -67803.61447377378, 0.37, -0.896, 0.232, 192.0, 0.0, 0.0, 0.0, 0.0, 0.0, 0.0, 0.0, 0.0, 0.0, 1.6635025098033314E9, 0.0, 2022-09-18 17:01:49.803
69.0, -43974.03973031518, -43884.342179816034, -38509.30643192607, -59457.65190811776, -56922.53940374129, -76208.04920292487, -62317.468204196484, -67693.19685616456, 0.37, -0.896, 0.232, 192.0, 0.0, 0.0, 0.0, 0.0, 0.0, 0.0, 0.0, 0.0, 0.0, 1.6635025098074267E9, 0.0, 2022-09-18 17:01:49.807
70.0, -45846.60182554744, -45136.21868326887, -38458.59032375697, -59411.22733488409, -56855.21594944191, -76159.9258971126, -62269.18843617302, -67647.04050386435, 0.37, -0.896, 0.232, 192.0, 0.0, 0.0, 0.0, 0.0, 0.0, 0.0, 0.0, 0.0, 0.0, 1.6635025098102975E9, 0.0, 2022-09-18 17:01:49.810
71.0, -45848.658186037326, -44638.870017393834, -38497.10237945347, -59456.19904472817, -56859.48513263287, -76220.27560714193, -62310.42740469306, -67689.1735421626, 0.37, -0.896, 0.232, 192.0, 0.0, 0.0, 0.0, 0.0, 0.0, 0.0, 0.0, 0.0, 0.0, 1.6635025098143218E9, 0.0, 2022-09-18 17:01:49.814
72.0, -44615.44538920467, -43480.44615750863, -38555.82041213756, -59519.52153677005, -56881.70276662145, -76299.57959646935, -62370.799466466844, -67744.82938585633, 0.37, -0.896, 0.232, 192.0, 0.0, 0.0, 0.0, 0.0, 0.0, 0.0, 0.0, 0.0, 0.0, 1.6635025098193934E9, 0.0, 2022-09-18 17:01:49.819
73.0, -42811.5031494502, -42442.9675868711, -38591.27027884368, -59552.80328426401, -56908.07782507871, -76326.82637296038, -62404.5282488499, -67773.43961875912, 0.37, -0.896, 0.232, 192.0, 0.0, 0.0, 0.0, 0.0, 0.0, 0.0, 0.0, 0.0, 0.0, 1.6635025098234184E9, 0.0, 2022-09-18 17:01:49.823
74.0, -44033.22714963283, -43936.287633930166, -38486.440597348286, -59432.930878750194, -56887.11188877963, -76187.19502534808, -62293.060099251285, -67659.11044587022, 0.37, -0.896, 0.232, 192.0, 0.0, 0.0, 0.0, 0.0, 0.0, 0.0, 0.0, 0.0, 0.0, 1.6635025098274033E9, 0.0, 2022-09-18 17:01:49.827
75.0, -45853.329700628485, -45118.672563871456, -38445.827477672996, -59397.011625410516, -56827.142158406044, -76150.58286793028, -62256.17972090003, -67624.88992510915, 0.374, -0.898, 0.234, 192.0, 11.0, 176.0, 227.0, 240.0, 7.0, 80.0, 0.0, 0.0, 0.0, 1.6635025098314087E9, 0.0, 2022-09-18 17:01:49.831
76.0, -45809.87790940737, -44589.96440052562, -38487.15585317086, -59443.52560562201, -56834.92056547649, -76213.50302857197, -62298.580980131745, -67668.52053028591, 0.374, -0.898, 0.234, 192.0, 0.0, 0.0, 0.0, 0.0, 0.0, 0.0, 0.0, 0.0, 0.0, 1.6635025098344123E9, 0.0, 2022-09-18 17:01:49.834
77.0, -44526.39603929473, -43404.606688571774, -38545.82918236604, -59510.02204537655, -56858.41224889902, -76293.36581151078, -62357.3660680492, -67730.68073161611, 0.374, -0.898, 0.234, 192.0, 0.0, 0.0, 0.0, 0.0, 0.0, 0.0, 0.0, 0.0, 0.0, 1.6635025098384552E9, 0.0, 2022-09-18 17:01:49.838
78.0, -42774.98039901023, -42432.14934255473, -38575.69111295833, -59538.81109223499, -56885.726080623404, -76315.9187216662, -62386.13276316319, -67755.60292668377, 0.374, -0.898, 0.234, 192.0, 0.0, 0.0, 0.0, 0.0, 0.0, 0.0, 0.0, 0.0, 0.0, 1.6635025098423808E9, 0.0, 2022-09-18 17:01:49.842
79.0, -44096.48258644135, -43994.89390789198, -38465.36290232693, -59415.541221563966, -56858.14402796555, -76171.01236236244, -62270.350726884695, -67638.83741364925, 0.374, -0.898, 0.234, 192.0, 0.0, 0.0, 0.0, 0.0, 0.0, 0.0, 0.0, 0.0, 0.0, 1.6635025098464024E9, 0.0, 2022-09-18 17:01:49.846
80.0, -45854.0226047066, -45105.865014298564, -38421.32996574998, -59380.292520557945, -56789.390062021026, -76132.25443747693, -62231.32458106573, -67603.76752659888, 0.374, -0.898, 0.234, 192.0, 0.0, 0.0, 0.0, 0.0, 0.0, 0.0, 0.0, 0.0, 0.0, 1.6635025098513603E9, 0.0, 2022-09-18 17:01:49.851
81.0, -45769.309493220986, -44545.551484292926, -38459.61850400192, -59424.28075364599, -56794.82153592367, -76192.22416785052, -62270.86481700717, -67645.14060558565, 0.374, -0.898, 0.234, 192.0, 0.0, 0.0, 0.0, 0.0, 0.0, 0.0, 0.0, 0.0, 0.0, 1.6635025098554587E9, 0.0, 2022-09-18 17:01:49.855
82.0, -44438.64309056319, -43336.478571472, -38524.93030130032, -59497.30390278148, -56822.09066415914, -76276.82552061386, -62335.19313754954, -67713.6263505967, 0.374, -0.898, 0.234, 192.0, 0.0, 0.0, 0.0, 0.0, 0.0, 0.0, 0.0, 0.0, 0.0, 1.6635025098584275E9, 0.0, 2022-09-18 17:01:49.858
83.0, -42742.34685210548, -42428.77422914198, -38555.239266781726, -59527.2999438405, -56852.82431278519, -76295.53393072294, -62363.8704256857, -67739.10733927577, 0.374, -0.898, 0.234, 192.0, 0.0, 0.0, 0.0, 0.0, 0.0, 0.0, 0.0, 0.0, 0.0, 1.6635025098624165E9, 0.0, 2022-09-18 17:01:49.862
84.0, -44163.26959887381, -44055.35537664359, -38454.03056788809, -59415.07183493041, -56833.62416429808, -76158.62949593419, -62256.67145927805, -67633.38358800217, 0.374, -0.898, 0.234, 192.0, 0.0, 0.0, 0.0, 0.0, 0.0, 0.0, 0.0, 0.0, 0.0, 1.6635025098663876E9, 0.0, 2022-09-18 17:01:49.866
85.0, -45860.59401757646, -45098.243069439304, -38424.74978265164, -59392.27305558599, -56777.38717524853, -76137.9764840575, -62231.43633978801, -67609.57898015725, 0.384, -0.9, 0.23, 192.0, 12.0, 0.0, 227.0, 224.0, 7.0, 48.0, 0.0, 0.0, 0.0, 1.663502509870546E9, 0.0, 2022-09-18 17:01:49.870
86.0, -45732.183245680724, -44519.7575711915, -38469.85560296245, -59443.972640511114, -56791.22290506637, -76204.51762730094, -62278.33029965524, -67657.74698945845, 0.384, -0.9, 0.23, 192.0, 0.0, 0.0, 0.0, 0.0, 0.0, 0.0, 0.0, 0.0, 0.0, 1.6635025098744323E9, 0.0, 2022-09-18 17:01:49.874
87.0, -44345.391612695654, -43288.444672637546, -38534.943882816304, -59514.4476907787, -56813.82051871068, -76286.03443932944, -62346.57017547729, -67723.0364350124, 0.384, -0.9, 0.23, 192.0, 0.0, 0.0, 0.0, 0.0, 0.0, 0.0, 0.0, 0.0, 0.0, 1.6635025098794408E9, 0.0, 2022-09-18 17:01:49.879
88.0, -42712.21670057973, -42452.44472652015, -38560.760147662186, -59534.18428113274, -56840.73201903487, -76294.17047431118, -62370.6206525112, -67738.12386251973, 0.384, -0.9, 0.23, 192.0, 0.0, 0.0, 0.0, 0.0, 0.0, 0.0, 0.0, 0.0, 0.0, 1.663502509883424E9, 0.0, 2022-09-18 17:01:49.883
89.0, -44222.61348040265, -44129.80903742422, -38450.38723354188, -59412.21081164013, -56812.36765532108, -76146.6266091617, -62254.45863657697, -67621.73832914095, 0.384, -0.9, 0.23, 192.0, 0.0, 0.0, 0.0, 0.0, 0.0, 0.0, 0.0, 0.0, 0.0, 1.663502509886525E9, 0.0, 2022-09-18 17:01:49.886
90.0, -45851.60861630543, -45098.86891828405, -38419.65358491583, -59392.407166052726, -56756.75651511628, -76126.24181821845, -62227.904764164065, -67602.11349750918, 0.384, -0.9, 0.23, 192.0, 0.0, 0.0, 0.0, 0.0, 0.0, 0.0, 0.0, 0.0, 0.0, 1.6635025098904743E9, 0.0, 2022-09-18 17:01:49.890
91.0, -45687.50210851456, -44499.21631803708, -38461.94308542527, -59441.49159687658, -56775.30846301418, -76194.16876961813, -62271.98240422993, -67648.3145532983, 0.384, -0.9, 0.23, 192.0, 0.0, 0.0, 0.0, 0.0, 0.0, 0.0, 0.0, 0.0, 0.0, 1.663502509894497E9, 0.0, 2022-09-18 17:01:49.894
92.0, -44250.12847782713, -43241.93069242605, -38524.37150768894, -59510.42437677675, -56800.163602848486, -76279.0606950594, -62334.90256487162, -67712.10643197375, 0.384, -0.9, 0.23, 192.0, 0.0, 0.0, 0.0, 0.0, 0.0, 0.0, 0.0, 0.0, 0.0, 1.6635025098984692E9, 0.0, 2022-09-18 17:01:49.898
93.0, -42685.3722554889, -42474.14827038626, -38546.209162021776, -59526.405874062286, -56831.70191427493, -76284.38041023976, -62352.58279473577, -67723.4387664126, 0.384, -0.9, 0.23, 192.0, 0.0, 0.0, 0.0, 0.0, 0.0, 0.0, 0.0, 0.0, 0.0, 1.6635025099025457E9, 0.0, 2022-09-18 17:01:49.902
94.0, -44277.934047929535, -44190.49402362038, -38440.39600377035, -59408.45571857163, -56803.31519881669, -76140.18930675856, -62239.41591255855, -67610.92008482458, 0.384, -0.9, 0.23, 192.0, 0.0, 0.0, 0.0, 0.0, 0.0, 0.0, 0.0, 0.0, 0.0, 1.66350250990651E9, 0.0, 2022-09-18 17:01:49.906
95.0, -45846.467715080704, -45090.10703445757, -38420.860579116415, -59397.79393646645, -56751.19093074691, -76126.53239089638, -62222.16036583905, -67599.58775038573, 0.38, -0.906, 0.228, 192.0, 11.0, 224.0, 227.0, 176.0, 7.0, 32.0, 0.0, 0.0, 0.0, 1.6635025099117272E9, 0.0, 2022-09-18 17:01:49.911
96.0, -45642.84332309286, -44468.37091068875, -38465.385254071385, -59449.00178301356, -56769.07232631116, -76191.15128411667, -62267.690869294514, -67648.53807074286, 0.38, -0.906, 0.228, 192.0, 0.0, 0.0, 0.0, 0.0, 0.0, 0.0, 0.0, 0.0, 0.0, 1.6635025099146652E9, 0.0, 2022-09-18 17:01:49.914
97.0, -44156.631130770584, -43194.70145639199, -38530.42883043633, -59518.96274315867, -56791.692291699925, -76276.49024444702, -62334.56728870479, -67715.0792139863, 0.38, -0.906, 0.228, 192.0, 0.0, 0.0, 0.0, 0.0, 0.0, 0.0, 0.0, 0.0, 0.0, 1.6635025099185236E9, 0.0, 2022-09-18 17:01:49.918
98.0, -42657.231409219676, -42496.857642752846, -38542.16349627537, -59522.67313273825, -56815.92158268948, -76270.9470118221, -62344.40205626513, -67717.42614715411, 0.38, -0.906, 0.228, 192.0, 0.0, 0.0, 0.0, 0.0, 0.0, 0.0, 0.0, 0.0, 0.0, 1.663502509922619E9, 0.0, 2022-09-18 17:01:49.922
99.0, -44334.551016634825, -44254.53177148483, -38429.08602107597, -59398.129212633285, -56778.974149104855, -76124.7666030844, -62227.10010136368, -67600.01243353038, 0.38, -0.906, 0.228, 192.0, 0.0, 0.0, 0.0, 0.0, 0.0, 0.0, 0.0, 0.0, 0.0, 1.663502509926489E9, 0.0, 2022-09-18 17:01:49.926
100.0, -45833.01196491861, -45071.57743830412, -38406.242538242645, -59384.7181659601, -56720.54668909868, -76113.07664073427, -62210.1351273221, -67586.06494499027, 0.38, -0.906, 0.228, 192.0, 0.0, 0.0, 0.0, 0.0, 0.0, 0.0, 0.0, 0.0, 0.0, 1.6635025099304848E9, 0.0, 2022-09-18 17:01:49.930
101.0, -45585.01936018698, -44414.86083446274, -38448.93437015228, -59431.43331187169, -56735.41059916146, -76175.8850426537, -62255.68798252201, -67629.60614318922, 0.38, -0.906, 0.228, 192.0, 0.0, 0.0, 0.0, 0.0, 0.0, 0.0, 0.0, 0.0, 0.0, 1.6635025099345882E9, 0.0, 2022-09-18 17:01:49.934
102.0, -44052.94138824241, -43115.889205442574, -38518.13537098591, -59501.99776911709, -56759.72929712883, -76262.38629369573, -62326.47595721197, -67696.34845213276, 0.38, -0.906, 0.228, 192.0, 0.0, 0.0, 0.0, 0.0, 0.0, 0.0, 0.0, 0.0, 0.0, 1.6635025099395592E9, 0.0, 2022-09-18 17:01:49.939
103.0, -42637.1148392099, -42502.04324746648, -38530.07120252505, -59503.67414995124, -56787.40075676451, -76252.17154647966, -62334.38847474915, -67695.63319631018, 0.38, -0.906, 0.228, 192.0, 0.0, 0.0, 0.0, 0.0, 0.0, 0.0, 0.0, 0.0, 0.0, 1.663502509942548E9, 0.0, 2022-09-18 17:01:49.942
104.0, -44392.106758607246, -44302.52096683037, -38421.79935238354, -59383.82409618189, -56753.82843659264, -76111.64612908913, -62221.44511001648, -67580.78993329882, 0.38, -0.906, 0.228, 192.0, 0.0, 0.0, 0.0, 0.0, 0.0, 0.0, 0.0, 0.0, 0.0, 1.663502509946551E9, 0.0, 2022-09-18 17:01:49.946
105.0, -45817.58926124445, -45052.22082760582, -38410.89170108935, -59381.23129382507, -56706.196869158375, -76111.6684808336, -62214.87369714662, -67577.41481988608, 0.384, -0.906, 0.222, 192.0, 12.0, 0.0, 227.0, 176.0, 6.0, 240.0, 0.0, 0.0, 0.0, 1.663502509950559E9, 0.0, 2022-09-18 17:01:49.950
106.0, -45533.20801653958, -44385.69180794857, -38457.04805338956, -59432.19327118317, -56728.74977931378, -76177.71788569902, -62262.19234015851, -67625.67223616508, 0.384, -0.906, 0.222, 192.0, 0.0, 0.0, 0.0, 0.0, 0.0, 0.0, 0.0, 0.0, 0.0, 1.6635025099546244E9, 0.0, 2022-09-18 17:01:49.954
107.0, -43956.35950045103, -43071.632751421064, -38525.0420600226, -59505.574048229944, -56751.36974470255, -76262.02866578444, -62332.33211425926, -67690.33583287428, 0.384, -0.906, 0.222, 192.0, 0.0, 0.0, 0.0, 0.0, 0.0, 0.0, 0.0, 0.0, 0.0, 1.6635025099585717E9, 0.0, 2022-09-18 17:01:49.958
108.0, -42628.487065850146, -42546.500867188086, -38530.31707171405, -59503.405929017776, -56776.940140359424, -76247.45532839958, -62334.09790207123, -67686.51368457242, 0.384, -0.906, 0.222, 192.0, 0.0, 0.0, 0.0, 0.0, 0.0, 0.0, 0.0, 0.0, 0.0, 1.6635025099626117E9, 0.0, 2022-09-18 17:01:49.962
109.0, -44456.94916927209, -44382.383749769186, -38418.58070118198, -59380.33722404686, -56738.31632594065, -76106.88520752016, -62216.84065065869, -67569.59170932672, 0.384, -0.906, 0.222, 192.0, 0.0, 0.0, 0.0, 0.0, 0.0, 0.0, 0.0, 0.0, 0.0, 1.6635025099676852E9, 0.0, 2022-09-18 17:01:49.967
110.0, -45816.136397854854, -45059.01575792024, -38409.394134210845, -59378.16910483469, -56690.0812614061, -76110.77441105538, -62213.577295968214, -67568.36236338168, 0.384, -0.906, 0.222, 192.0, 0.0, 0.0, 0.0, 0.0, 0.0, 0.0, 0.0, 0.0, 0.0, 1.663502509970621E9, 0.0, 2022-09-18 17:01:49.970
111.0, -45493.91364978715, -44364.94938909404, -38449.716681208214, -59421.956172222635, -56707.672084292426, -76172.3758187742, -62256.38088660013, -67610.98714005794, 0.384, -0.906, 0.222, 192.0, 0.0, 0.0, 0.0, 0.0, 0.0, 0.0, 0.0, 0.0, 0.0, 1.6635025099736462E9, 0.0, 2022-09-18 17:01:49.973
112.0, -43878.79894719111, -43030.751410812314, -38513.93324302832, -59492.76649865705, -56728.36979965804, -76253.44559591361, -62323.19025077704, -67676.723620501, 0.384, -0.906, 0.222, 192.0, 0.0, 0.0, 0.0, 0.0, 0.0, 0.0, 0.0, 0.0, 0.0, 1.663502509978622E9, 0.0, 2022-09-18 17:01:49.978
113.0, -42644.93794976926, -42584.40942578428, -38513.553263372574, -59482.88702760781, -56755.30365172669, -76228.43399386812, -62319.32339898627, -67664.78778896187, 0.384, -0.906, 0.222, 192.0, 0.0, 0.0, 0.0, 0.0, 0.0, 0.0, 0.0, 0.0, 0.0, 1.6635025099826865E9, 0.0, 2022-09-18 17:01:49.982
114.0, -44530.7099259746, -44429.45652359206, -38401.61572714039, -59362.813456393895, -56714.377607629016, -76087.57330031077, -62202.1332028071, -67552.15734865157, 0.384, -0.906, 0.222, 192.0, 0.0, 0.0, 0.0, 0.0, 0.0, 0.0, 0.0, 0.0, 0.0, 1.6635025099866211E9, 0.0, 2022-09-18 17:01:49.986
115.0, -45809.94496464074, -45027.11981858252, -38393.07736075847, -59365.87564538427, -56664.84614191606, -76095.41876261459, -62197.61815042712, -67554.7948544973, 0.388, -0.902, 0.224, 192.0, 12.0, 32.0, 227.0, 208.0, 7.0, 0.0, 0.0, 0.0, 0.0, 1.663502509990768E9, 0.0, 2022-09-18 17:01:49.990
116.0, -45448.986643431985, -44314.16622569159, -38439.90426539234, -59418.80457625444, -56686.46027880434, -76161.24465003547, -62244.37799982763, -67602.11349750918, 0.388, -0.902, 0.224, 192.0, 0.0, 0.0, 0.0, 0.0, 0.0, 0.0, 0.0, 0.0, 0.0, 1.6635025099946349E9, 0.0, 2022-09-18 17:01:49.994
117.0, -43791.11305369295, -42970.200535082884, -38510.75929531566, -59498.42149000424, -56712.500061094775, -76247.36592142176, -62316.417672207084, -67675.42721932259, 0.388, -0.902, 0.224, 192.0, 0.0, 0.0, 0.0, 0.0, 0.0, 0.0, 0.0, 0.0, 0.0, 1.6635025099986727E9, 0.0, 2022-09-18 17:01:49.998
118.0, -42650.63764460536, -42616.97591745567, -38504.29964116808, -59484.943388097694, -56737.98104977382, -76217.90632222967, -62305.73353835745, -67662.01617264941, 0.388, -0.902, 0.224, 192.0, 0.0, 0.0, 0.0, 0.0, 0.0, 0.0, 0.0, 0.0, 0.0, 1.6635025100016644E9, 0.0, 2022-09-18 17:01:50.001
119.0, -44590.210269714626, -44484.03948355192, -38391.80331132452, -59366.54619771793, -56694.05987191914, -76079.43726532903, -62190.19737126796, -67551.01740968435, 0.388, -0.902, 0.224, 192.0, 0.0, 0.0, 0.0, 0.0, 0.0, 0.0, 0.0, 0.0, 0.0, 1.6635025100067415E9, 0.0, 2022-09-18 17:01:50.006
120.0, -45797.02565634557, -45009.55134744065, -38387.75764557811, -59371.82120940938, -56650.0716388311, -76091.08252419025, -62190.9796823239, -67557.20884289847, 0.388, -0.902, 0.224, 192.0, 0.0, 0.0, 0.0, 0.0, 0.0, 0.0, 0.0, 0.0, 0.0, 1.663502510010669E9, 0.0, 2022-09-18 17:01:50.010
121.0, -45402.24914577593, -44277.84464095171, -38436.08211709048, -59422.6267245563, -56675.84320018807, -76161.8257953913, -62239.34885732518, -67606.76266035589, 0.388, -0.902, 0.224, 192.0, 0.0, 0.0, 0.0, 0.0, 0.0, 0.0, 0.0, 0.0, 0.0, 1.6635025100147233E9, 0.0, 2022-09-18 17:01:50.014
122.0, -43705.304706729024, -42914.768208833724, -38508.83704529251, -59497.57212371494, -56699.80427024416, -76252.52917439093, -62313.690759383535, -67677.86355946823, 0.388, -0.902, 0.224, 192.0, 0.0, 0.0, 0.0, 0.0, 0.0, 0.0, 0.0, 0.0, 0.0, 1.6635025100186973E9, 0.0, 2022-09-18 17:01:50.018
123.0, -42661.18766798826, -42643.75330731313, -38499.27049866563, -59476.96381532715, -56721.59722108808, -76217.52634257392, -62299.76562258788, -67656.98703014696, 0.388, -0.902, 0.224, 192.0, 0.0, 0.0, 0.0, 0.0, 0.0, 0.0, 0.0, 0.0, 0.0, 1.6635025100237713E9, 0.0, 2022-09-18 17:01:50.023
124.0, -44646.82723841992, -44525.14434160523, -38390.64102061284, -59358.834845880854, -56670.747002452255, -76080.13016940716, -62186.88931308858, -67541.7861392243, 0.388, -0.902, 0.224, 192.0, 0.0, 0.0, 0.0, 0.0, 0.0, 0.0, 0.0, 0.0, 0.0, 1.663502510026785E9, 0.0, 2022-09-18 17:01:50.026
125.0, -45780.127737537354, -44985.36675994, -38396.49717766013, -59371.75415417602, -56627.67519088688, -76098.27978590486, -62197.573446938215, -67552.4926248184, 0.388, -0.896, 0.228, 192.0, 12.0, 32.0, 228.0, 0.0, 7.0, 32.0, 0.0, 0.0, 0.0, 1.6635025100297236E9, 0.0, 2022-09-18 17:01:50.029
126.0, -45348.98493873894, -44237.81266663226, -38441.67005320431, -59418.58105880989, -56643.99196433926, -76159.54591745687, -62246.81433997326, -67595.18445672804, 0.388, -0.896, 0.228, 192.0, 0.0, 0.0, 0.0, 0.0, 0.0, 0.0, 0.0, 0.0, 0.0, 1.6635025100347323E9, 0.0, 2022-09-18 17:01:50.034
127.0, -43622.37973479983, -42871.45052807934, -38515.9896035182, -59495.58281845842, -56664.06383086012, -76242.73911031951, -62322.34088448774, -67667.02296340739, 0.388, -0.896, 0.228, 192.0, 0.0, 0.0, 0.0, 0.0, 0.0, 0.0, 0.0, 0.0, 0.0, 1.6635025100387557E9, 0.0, 2022-09-18 17:01:50.038
128.0, -42686.6239531784, -42699.05152309556, -38502.86912952294, -59470.973547813126, -56686.23676135979, -76201.72365924403, -62302.581942389246, -67642.45839625102, 0.388, -0.896, 0.228, 192.0, 0.0, 0.0, 0.0, 0.0, 0.0, 0.0, 0.0, 0.0, 0.0, 1.6635025100428169E9, 0.0, 2022-09-18 17:01:50.042
129.0, -44715.93883227573, -44585.40464465674, -38393.6138026254, -59356.3090987574, -56636.012391568715, -76068.3508000792, -62189.97385382341, -67534.32065657624, 0.388, -0.896, 0.228, 192.0, 0.0, 0.0, 0.0, 0.0, 0.0, 0.0, 0.0, 0.0, 0.0, 1.6635025100468051E9, 0.0, 2022-09-18 17:01:50.046
130.0, -45773.89160083432, -44973.54268712315, -38391.73625609115, -59368.84842739683, -56591.91239975839, -76088.04268694433, -62193.05839455824, -67547.17290963804, 0.388, -0.896, 0.228, 192.0, 0.0, 0.0, 0.0, 0.0, 0.0, 0.0, 0.0, 0.0, 0.0, 1.6635025100507476E9, 0.0, 2022-09-18 17:01:50.050
131.0, -45310.36112432017, -44213.11398900914, -38432.03645134407, -59416.636457042274, -56611.961914534804, -76155.18732728808, -62233.55975551126, -67593.53042763835, 0.388, -0.896, 0.228, 192.0, 0.0, 0.0, 0.0, 0.0, 0.0, 0.0, 0.0, 0.0, 0.0, 1.6635025100538216E9, 0.0, 2022-09-18 17:01:50.053
132.0, -43555.212742711636, -42840.180437586365, -38497.08002770902, -59487.51383871005, -56633.75486537872, -76241.17448820765, -62300.123250499164, -67661.99382090496, 0.388, -0.896, 0.228, 192.0, 0.0, 0.0, 0.0, 0.0, 0.0, 0.0, 0.0, 0.0, 0.0, 1.6635025100578518E9, 0.0, 2022-09-18 17:01:50.057
133.0, -42730.05339265506, -42756.629616812425, -38473.342475097474, -59453.67329760472, -56654.87726388899, -76191.86653993923, -62270.194264673504, -67630.07552982277, 0.388, -0.896, 0.228, 192.0, 0.0, 0.0, 0.0, 0.0, 0.0, 0.0, 0.0, 0.0, 0.0, 1.663502510062811E9, 0.0, 2022-09-18 17:01:50.062
134.0, -44786.1233098654, -44629.370526000326, -38367.21639242368, -59343.32273522887, -56603.356492919505, -76063.74634072141, -62159.01668775281, -67528.44214778449, 0.388, -0.896, 0.228, 192.0, 0.0, 0.0, 0.0, 0.0, 0.0, 0.0, 0.0, 0.0, 0.0, 1.663502510066811E9, 0.0, 2022-09-18 17:01:50.066
135.0, -45769.91299032128, -44946.43002109886, -38374.301895416014, -59364.24396803904, -56566.319652357066, -76088.13209392215, -62169.745525091355, -67548.8939939611, 0.388, -0.896, 0.23600000000000002, 192.0, 12.0, 32.0, 228.0, 0.0, 7.0, 96.0, 0.0, 0.0, 0.0, 1.6635025100708735E9, 0.0, 2022-09-18 17:01:50.070
136.0, -45274.03953958029, -44166.68941577547, -38420.726468649686, -59416.27882913099, -56590.77246079117, -76154.67323716561, -62216.393615769586, -67599.05130851881, 0.388, -0.896, 0.23600000000000002, 192.0, 0.0, 0.0, 0.0, 0.0, 0.0, 0.0, 0.0, 0.0, 0.0, 1.6635025100748062E9, 0.0, 2022-09-18 17:01:50.074
137.0, -43491.174994847184, -42788.88318406143, -38488.98869621619, -59490.35251025588, -56613.12420524648, -76238.58168585083, -62285.77343055885, -67670.84511170925, 0.388, -0.896, 0.23600000000000002, 192.0, 0.0, 0.0, 0.0, 0.0, 0.0, 0.0, 0.0, 0.0, 0.0, 1.6635025100778692E9, 0.0, 2022-09-18 17:01:50.077
138.0, -42773.7957565541, -42797.48860567673, -38461.74191972517, -59452.779227826504, -56632.88314734497, -76183.88696716868, -62253.65397377658, -67632.93655311306, 0.388, -0.896, 0.23600000000000002, 192.0, 0.0, 0.0, 0.0, 0.0, 0.0, 0.0, 0.0, 0.0, 0.0, 1.6635025100818624E9, 0.0, 2022-09-18 17:01:50.081
139.0, -44850.74220308569, -44661.735851971614, -38359.68385454224, -59346.36257247479, -56582.7034810428, -76060.05830288629, -62150.590080093156, -67532.57722050873, 0.388, -0.896, 0.23600000000000002, 192.0, 0.0, 0.0, 0.0, 0.0, 0.0, 0.0, 0.0, 0.0, 0.0, 1.6635025100858865E9, 0.0, 2022-09-18 17:01:50.085
140.0, -45754.93732153623, -44909.52729100315, -38370.41269188079, -59367.48497098505, -56549.93582367132, -76087.86387298869, -62168.04679251275, -67551.7997207403, 0.388, -0.896, 0.23600000000000002, 192.0, 0.0, 0.0, 0.0, 0.0, 0.0, 0.0, 0.0, 0.0, 0.0, 1.663502510089919E9, 0.0, 2022-09-18 17:01:50.089
141.0, -45224.84335003416, -44114.833368639156, -38418.04425931505, -59416.9717332091, -56575.99795770621, -76153.44389122057, -62218.338217537195, -67596.97259628447, 0.388, -0.896, 0.23600000000000002, 192.0, 0.0, 0.0, 0.0, 0.0, 0.0, 0.0, 0.0, 0.0, 0.0, 1.663502510094822E9, 0.0, 2022-09-18 17:01:50.094
142.0, -43420.02939224594, -42738.61411078145, -38487.93816422679, -59488.96670209965, -56597.61209459449, -76232.50201135899, -62292.18838121753, -67662.39615230515, 0.388, -0.896, 0.23600000000000002, 192.0, 0.0, 0.0, 0.0, 0.0, 0.0, 0.0, 0.0, 0.0, 0.0, 1.6635025100988255E9, 0.0, 2022-09-18 17:01:50.098
143.0, -42813.02306807316, -42844.67313822188, -38456.04222488907, -59444.59848935586, -56613.839461069045, -76167.86076639424, -62257.38671510062, -67620.17370702907, 0.388, -0.896, 0.23600000000000002, 192.0, 0.0, 0.0, 0.0, 0.0, 0.0, 0.0, 0.0, 0.0, 0.0, 1.6635025101030226E9, 0.0, 2022-09-18 17:01:50.103
144.0, -44908.99084913622, -44697.78921577802, -38353.894752728316, -59336.818377592375, -56555.59081501851, -76040.99226486591, -62154.54633886175, -67518.51797324634, 0.388, -0.896, 0.23600000000000002, 192.0, 0.0, 0.0, 0.0, 0.0, 0.0, 0.0, 0.0, 0.0, 0.0, 1.663502510105893E9, 0.0, 2022-09-18 17:01:50.105
