%OpenBCI Raw EEG Data
%Number of channels = 8
%Sample Rate = 250 Hz
%Board = OpenBCI_GUI$BoardCytonSerial
Sample Index, EXG Channel 0, EXG Channel 1, EXG Channel 2, EXG Channel 3, EXG Channel 4, EXG Channel 5, EXG Channel 6, EXG Channel 7, Accel Channel 0, Accel Channel 1, Accel Channel 2, Other, Other, Other, Other, Other, Other, Other, Analog Channel 0, Analog Channel 1, Analog Channel 2, Timestamp, Other, Timestamp (Formatted)
160.0, -24749.617248727947, -38138.2004187346, -72325.79706022705, -40430.59533007089, -40108.99843084794, -23241.477995095014, -5376.041576390455, -30033.435527495807, 0.0, 0.0, 0.0, 192.0, 0.0, 0.0, 0.0, 0.0, 0.0, 0.0, 0.0, 0.0, 0.0, 1.663500914764954E9, 0.0, 2022-09-18 16:35:14.764
161.0, -24137.984113452927, -37568.23093512427, -72472.84918699852, -39846.16426779798, -40344.65287264024, -23431.5795816874, -4332.99742138355, -30104.491723119227, 0.0, 0.0, 0.0, 192.0, 0.0, 0.0, 0.0, 0.0, 0.0, 0.0, 0.0, 0.0, 0.0, 1.6635009147650013E9, 0.0, 2022-09-18 16:35:14.765
162.0, -24098.175656578023, -36996.04862881287, -72432.88426791242, -39750.92348467392, -40388.238774328085, -23485.134361402317, -6087.7211198474315, -30069.108911646475, 0.0, 0.0, 0.0, 192.0, 0.0, 0.0, 0.0, 0.0, 0.0, 0.0, 0.0, 0.0, 0.0, 1.663500914765024E9, 0.0, 2022-09-18 16:35:14.765
1.0, -25404.255140334983, -38335.83454320843, -77022.56912262073, -46554.28040674692, -39704.610670162525, -23473.220881607638, -3319.3681620798307, -31461.019094111813, 0.0, 0.0, 0.0, 192.0, 0.0, 0.0, 0.0, 0.0, 0.0, 0.0, 0.0, 0.0, 0.0, 1.6635009148509953E9, 0.0, 2022-09-18 16:35:14.850
2.0, -24906.906474459945, -38362.410767365785, -77278.72011407855, -46226.581481287656, -39867.75605294181, -23687.752924889675, -655.3307956851478, -31444.94818984845, 0.0, 0.0, 0.0, 192.0, 0.0, 0.0, 0.0, 0.0, 0.0, 0.0, 0.0, 0.0, 0.0, 1.663500914853963E9, 0.0, 2022-09-18 16:35:14.853
3.0, -24691.59212012197, -37989.85189078473, -77239.22458162601, -45917.27804151512, -39991.20473756847, -23736.21150686878, -503.7412647892553, -31485.315440334733, 0.0, 0.0, 0.0, 192.0, 0.0, 0.0, 0.0, 0.0, 0.0, 0.0, 0.0, 0.0, 0.0, 1.6635009148569255E9, 0.0, 2022-09-18 16:35:14.856
4.0, -24932.298056161173, -37690.025590661244, -77128.62815006115, -45981.87458299096, -39951.77626034931, -23724.7003584743, -3008.924783340071, -31348.567467757162, 0.0, 0.0, 0.0, 192.0, 0.0, 0.0, 0.0, 0.0, 0.0, 0.0, 0.0, 0.0, 0.0, 1.6635009148599014E9, 0.0, 2022-09-18 16:35:14.859
5.0, -25071.8176450512, -37414.69680246077, -77061.57291669524, -45996.73849305374, -39839.682261905946, -23643.563526101534, -4851.96022414687, -31327.467420991354, 0.0, 0.0, 0.0, 192.0, 0.0, 0.0, 0.0, 0.0, 0.0, 0.0, 0.0, 0.0, 0.0, 1.6635009148639464E9, 0.0, 2022-09-18 16:35:14.863
6.0, -25398.421335032148, -38289.47702520812, -77057.32608524873, -46541.9869472965, -39709.349239987045, -23501.45113485469, -3472.276445898586, -31471.52441400581, 0.0, 0.0, 0.0, 192.0, 0.0, 0.0, 0.0, 0.0, 0.0, 0.0, 0.0, 0.0, 0.0, 1.6635009148669648E9, 0.0, 2022-09-18 16:35:14.866
7.0, -24889.06978238461, -38359.3038748865, -77320.87550412124, -46252.73302230037, -39864.04566336223, -23721.325245061547, -759.9146079915295, -31468.730445948895, 0.0, 0.0, 0.0, 192.0, 0.0, 0.0, 0.0, 0.0, 0.0, 0.0, 0.0, 0.0, 0.0, 1.6635009148710244E9, 0.0, 2022-09-18 16:35:14.871
8.0, -24630.415395547796, -37965.063806183796, -77282.89989029168, -45900.29071572909, -40005.48750227541, -23810.57576067159, -424.593737673013, -31491.506873548853, 0.768, -0.506, 0.48, 192.0, 24.0, 0.0, 240.0, 48.0, 15.0, 0.0, 0.0, 0.0, 0.0, 1.6635009148760288E9, 0.0, 2022-09-18 16:35:14.876
9.0, -24921.703329289357, -37711.79618976071, -77140.42987113356, -45989.76474878368, -39951.172763249015, -23775.08119047656, -2861.7832495907846, -31345.840554933617, 0.768, -0.506, 0.48, 192.0, 0.0, 0.0, 0.0, 0.0, 0.0, 0.0, 0.0, 0.0, 0.0, 1.663500914880012E9, 0.0, 2022-09-18 16:35:14.880
10.0, -25061.826415279676, -37403.677392444304, -77083.20940532797, -45995.15151919741, -39857.65306444801, -23717.145468848405, -4841.834883908616, -31312.089420806104, 0.768, -0.506, 0.48, 192.0, 0.0, 0.0, 0.0, 0.0, 0.0, 0.0, 0.0, 0.0, 0.0, 1.6635009148840165E9, 0.0, 2022-09-18 16:35:14.884
11.0, -25412.949968928096, -38240.057318217434, -77064.16571905205, -46532.77802858091, -39738.80883917914, -23597.362470312415, -3606.208098674786, -31448.569172450207, 0.768, -0.506, 0.48, 192.0, 0.0, 0.0, 0.0, 0.0, 0.0, 0.0, 0.0, 0.0, 0.0, 1.6635009148880603E9, 0.0, 2022-09-18 16:35:14.888
12.0, -24956.79556808419, -38360.08618594243, -77291.63942237372, -46271.35202543164, -39863.59862847312, -23790.83917031755, -827.2604140353696, -31414.527465644776, 0.768, -0.506, 0.48, 192.0, 0.0, 0.0, 0.0, 0.0, 0.0, 0.0, 0.0, 0.0, 0.0, 1.663500914891094E9, 0.0, 2022-09-18 16:35:14.891
13.0, -24636.718587484193, -37941.88504718364, -77294.27692821943, -45880.08473874149, -40018.719734992956, -23883.800075507173, -302.73202690267885, -31482.119140877625, 0.768, -0.506, 0.48, 192.0, 0.0, 0.0, 0.0, 0.0, 0.0, 0.0, 0.0, 0.0, 0.0, 1.663500914895E9, 0.0, 2022-09-18 16:35:14.895
14.0, -24927.06774795863, -37730.12462021406, -77133.72434779696, -46000.24771693322, -39975.15618504956, -23856.62035424952, -2682.7904799926855, -31393.3603636456, 0.768, -0.506, 0.48, 192.0, 0.0, 0.0, 0.0, 0.0, 0.0, 0.0, 0.0, 0.0, 0.0, 1.6635009148990612E9, 0.0, 2022-09-18 16:35:14.899
15.0, -25069.649525839035, -37402.60450871045, -77102.54366428181, -46008.02612400366, -39897.50622481182, -23826.44549923486, -4811.414159704943, -31377.468273337876, 0.768, -0.506, 0.48, 192.0, 0.0, 0.0, 0.0, 0.0, 0.0, 0.0, 0.0, 0.0, 0.0, 1.6635009149040496E9, 0.0, 2022-09-18 16:35:14.904
16.0, -25393.481599507526, -38179.394683765735, -77098.60975725767, -46526.854816300256, -39784.31699089015, -23702.370965763446, -3731.9366612358886, -31519.915940751547, 0.768, -0.506, 0.48, 192.0, 0.0, 0.0, 0.0, 0.0, 0.0, 0.0, 0.0, 0.0, 0.0, 1.6635009149080508E9, 0.0, 2022-09-18 16:35:14.908
17.0, -24946.312599934652, -38345.356386346386, -77333.99597811651, -46304.745531647866, -39883.80460546072, -23869.047924166673, -911.146510976137, -31446.870439871604, 0.768, -0.506, 0.48, 192.0, 0.0, 0.0, 0.0, 0.0, 0.0, 0.0, 0.0, 0.0, 0.0, 1.663500914912067E9, 0.0, 2022-09-18 16:35:14.912
18.0, -24572.367915197363, -37913.07364858075, -77375.03378093646, -45877.15666021784, -40034.567121811764, -23960.488910733333, -226.9149097102773, -31485.740123479383, 0.768, -0.512, 0.468, 192.0, 24.0, 0.0, 240.0, 0.0, 14.0, 160.0, 0.0, 0.0, 0.0, 1.6635009149160762E9, 0.0, 2022-09-18 16:35:14.916
19.0, -24898.34575633356, -37746.97783553336, -77223.31013957383, -46023.560586400105, -40010.22607209993, -23922.937980048417, -2548.9705859387623, -31429.436079196465, 0.768, -0.512, 0.468, 192.0, 0.0, 0.0, 0.0, 0.0, 0.0, 0.0, 0.0, 0.0, 0.0, 1.6635009149190588E9, 0.0, 2022-09-18 16:35:14.919
20.0, -25074.09752298564, -37405.44318025627, -77146.68835958104, -46026.30985096811, -39923.501303613346, -23872.512444557244, -4801.534688655697, -31390.432285121955, 0.768, -0.512, 0.468, 192.0, 0.0, 0.0, 0.0, 0.0, 0.0, 0.0, 0.0, 0.0, 0.0, 1.6635009149230816E9, 0.0, 2022-09-18 16:35:14.923
21.0, -25398.197817587596, -38113.83701727832, -77096.35223106769, -46504.95010673405, -39777.49970883128, -23702.348614018993, -3864.2589884113063, -31482.275603088812, 0.768, -0.512, 0.468, 192.0, 0.0, 0.0, 0.0, 0.0, 0.0, 0.0, 0.0, 0.0, 0.0, 1.6635009149270692E9, 0.0, 2022-09-18 16:35:14.927
22.0, -24995.50878948078, -38333.01822340706, -77327.89395188022, -46326.829055169714, -39874.6627419785, -23846.51736575572, -1005.336762110801, -31434.062890298712, 0.768, -0.512, 0.468, 192.0, 0.0, 0.0, 0.0, 0.0, 0.0, 0.0, 0.0, 0.0, 0.0, 1.6635009149321527E9, 0.0, 2022-09-18 16:35:14.932
23.0, -24576.547691410506, -37876.30502895177, -77348.4575567791, -45858.582360575485, -40028.93448220903, -23931.096366774604, -126.66733582822512, -31469.266887815822, 0.768, -0.512, 0.468, 192.0, 0.0, 0.0, 0.0, 0.0, 0.0, 0.0, 0.0, 0.0, 0.0, 1.6635009149361246E9, 0.0, 2022-09-18 16:35:14.936
24.0, -24913.902570474456, -37744.966178532384, -77189.93898510207, -46022.174778243876, -39985.03565609881, -23864.510520042244, -2368.793173884532, -31429.100803029636, 0.768, -0.512, 0.468, 192.0, 0.0, 0.0, 0.0, 0.0, 0.0, 0.0, 0.0, 0.0, 0.0, 1.6635009149400496E9, 0.0, 2022-09-18 16:35:14.940
25.0, -25054.38328437606, -37391.33922950497, -77170.42591219257, -46025.326374212076, -39906.60338480513, -23814.822592118097, -4756.4959235782535, -31369.421645333965, 0.768, -0.512, 0.468, 192.0, 0.0, 0.0, 0.0, 0.0, 0.0, 0.0, 0.0, 0.0, 0.0, 1.6635009149442382E9, 0.0, 2022-09-18 16:35:14.944
26.0, -25355.617744400235, -38038.51163846393, -77103.12480963765, -46483.291266356864, -39785.36752287955, -23662.718971099734, -3984.801946258777, -31502.973318454424, 0.768, -0.512, 0.468, 192.0, 0.0, 0.0, 0.0, 0.0, 0.0, 0.0, 0.0, 0.0, 0.0, 1.663500914947098E9, 0.0, 2022-09-18 16:35:14.947
27.0, -25007.221103575364, -38302.28457478101, -77277.96015476706, -46338.04963088628, -39840.3528142396, -23769.13562645145, -1075.4988879560099, -31419.243683724846, 0.768, -0.512, 0.468, 192.0, 0.0, 0.0, 0.0, 0.0, 0.0, 0.0, 0.0, 0.0, 0.0, 1.663500914951068E9, 0.0, 2022-09-18 16:35:14.951
28.0, -24576.748857110604, -37836.34010986568, -77338.42162351866, -45833.72722074118, -39998.53610974981, -23871.752485245765, -1.9446017676117144, -31431.60419840863, 0.77, -0.514, 0.468, 192.0, 24.0, 16.0, 239.0, 240.0, 14.0, 160.0, 0.0, 0.0, 0.0, 1.6635009149551723E9, 0.0, 2022-09-18 16:35:14.955
29.0, -24919.848134499567, -37725.117829456074, -77183.74755188794, -45992.53636509614, -39966.841336112186, -23798.014080287707, -2143.420534541671, -31382.653878051507, 0.77, -0.514, 0.468, 192.0, 0.0, 0.0, 0.0, 0.0, 0.0, 0.0, 0.0, 0.0, 0.0, 1.663500914959126E9, 0.0, 2022-09-18 16:35:14.959
30.0, -25081.987688778365, -37376.60942990892, -77142.44152813453, -46001.901746022915, -39883.40227406052, -23754.003495455207, -4653.946120017305, -31318.079688320126, 0.77, -0.514, 0.468, 192.0, 0.0, 0.0, 0.0, 0.0, 0.0, 0.0, 0.0, 0.0, 0.0, 1.6635009149641633E9, 0.0, 2022-09-18 16:35:14.964
31.0, -25354.187232755095, -37966.65078004012, -77107.28223410633, -46440.68884142504, -39764.62510402502, -23614.66272052082, -4073.1807438350615, -31492.37859158261, 0.77, -0.514, 0.468, 192.0, 0.0, 0.0, 0.0, 0.0, 0.0, 0.0, 0.0, 0.0, 0.0, 1.6635009149681551E9, 0.0, 2022-09-18 16:35:14.968
32.0, -24998.950958126898, -38278.01058030255, -77314.19233252911, -46348.33143333572, -39832.1497240245, -23723.180439851338, -1164.9952727550594, -31466.919954648016, 0.77, -0.514, 0.468, 192.0, 0.0, 0.0, 0.0, 0.0, 0.0, 0.0, 0.0, 0.0, 0.0, 1.6635009149721892E9, 0.0, 2022-09-18 16:35:14.972
33.0, -24508.508981288553, -37798.96799313641, -77378.8112257494, -45817.745723455635, -39995.228051570426, -23824.456193978334, 81.76268121751323, -31457.93455337698, 0.77, -0.514, 0.468, 192.0, 0.0, 0.0, 0.0, 0.0, 0.0, 0.0, 0.0, 0.0, 0.0, 1.6635009149752457E9, 0.0, 2022-09-18 16:35:14.975
34.0, -24851.362389488506, -37707.97404145885, -77231.06619489983, -45983.05922544709, -39969.36708323564, -23746.627419784956, -1952.5589886378038, -31391.88514851155, 0.77, -0.514, 0.468, 192.0, 0.0, 0.0, 0.0, 0.0, 0.0, 0.0, 0.0, 0.0, 0.0, 1.6635009149792483E9, 0.0, 2022-09-18 16:35:14.979
35.0, -25057.132548944064, -37371.71439787321, -77153.08095849527, -46011.468292649784, -39898.109721912115, -23722.778108451144, -4565.299101507557, -31312.424696972932, 0.77, -0.514, 0.468, 192.0, 0.0, 0.0, 0.0, 0.0, 0.0, 0.0, 0.0, 0.0, 0.0, 1.6635009149831836E9, 0.0, 2022-09-18 16:35:14.983
36.0, -25347.481709418502, -37904.870558365656, -77077.82263491424, -46421.26517549338, -39766.99438893728, -23581.67154570479, -4163.437087945591, -31454.872364386603, 0.77, -0.514, 0.468, 192.0, 0.0, 0.0, 0.0, 0.0, 0.0, 0.0, 0.0, 0.0, 0.0, 1.6635009149871974E9, 0.0, 2022-09-18 16:35:14.987
37.0, -25045.08495868265, -38270.6345046323, -77281.17880596862, -46379.46741336196, -39822.78434309773, -23677.06879104004, -1259.0514134229916, -31467.54580349276, 0.77, -0.514, 0.468, 192.0, 0.0, 0.0, 0.0, 0.0, 0.0, 0.0, 0.0, 0.0, 0.0, 1.6635009149922144E9, 0.0, 2022-09-18 16:35:14.992
38.0, -24484.23498681009, -37772.23530676786, -77418.75379309103, -45814.79529318754, -39994.78101668132, -23802.350318712037, 161.69251938969128, -31474.541899507276, 0.772, -0.504, 0.464, 192.0, 24.0, 32.0, 240.0, 64.0, 14.0, 128.0, 0.0, 0.0, 0.0, 1.663500914996222E9, 0.0, 2022-09-18 16:35:14.996
39.0, -24806.211865688787, -37685.04115164771, -77232.58611352279, -45968.7988124846, -39973.904487360065, -23727.091995131017, -1757.9870531543559, -31412.627567366075, 0.772, -0.504, 0.464, 192.0, 0.0, 0.0, 0.0, 0.0, 0.0, 0.0, 0.0, 0.0, 0.0, 1.6635009150001729E9, 0.0, 2022-09-18 16:35:15.000
40.0, -25065.179176947975, -37366.3723309484, -77113.69718476501, -46008.741379826235, -39880.51889902579, -23690.882169113418, -4455.97671937665, -31287.457798416355, 0.772, -0.504, 0.464, 192.0, 0.0, 0.0, 0.0, 0.0, 0.0, 0.0, 0.0, 0.0, 0.0, 1.6635009150032732E9, 0.0, 2022-09-18 16:35:15.003
41.0, -25350.834471086797, -37841.25749364585, -77064.43393998551, -46388.631628588635, -39740.93225490239, -23544.634705142344, -4252.262920410982, -31409.23010220887, 0.772, -0.504, 0.464, 192.0, 0.0, 0.0, 0.0, 0.0, 0.0, 0.0, 0.0, 0.0, 0.0, 1.6635009150072415E9, 0.0, 2022-09-18 16:35:15.007
42.0, -25069.180139205473, -38247.94748401016, -77265.3314191498, -46385.36827389816, -39791.24603167129, -23639.450805121756, -1363.9481501517475, -31427.200904750935, 0.772, -0.504, 0.464, 192.0, 0.0, 0.0, 0.0, 0.0, 0.0, 0.0, 0.0, 0.0, 0.0, 1.6635009150111868E9, 0.0, 2022-09-18 16:35:15.011
43.0, -24499.81415269544, -37761.99820780733, -77415.95982503412, -45809.430874518264, -39983.42633049802, -23787.486408649256, 218.10832239488633, -31447.339826505166, 0.772, -0.504, 0.464, 192.0, 0.0, 0.0, 0.0, 0.0, 0.0, 0.0, 0.0, 0.0, 0.0, 1.6635009150152116E9, 0.0, 2022-09-18 16:35:15.015
44.0, -24823.19919147482, -37689.17622437194, -77236.54237229137, -45960.68512924733, -39976.832565883706, -23724.163916607373, -1581.3635684685194, -31452.436024240975, 0.772, -0.504, 0.464, 192.0, 0.0, 0.0, 0.0, 0.0, 0.0, 0.0, 0.0, 0.0, 0.0, 1.6635009150202975E9, 0.0, 2022-09-18 16:35:15.020
45.0, -25068.844863038645, -37377.1235200314, -77122.77199301387, -46008.607269359505, -39878.77546295828, -23677.135846273406, -4353.382212326791, -31332.273046049246, 0.772, -0.504, 0.464, 192.0, 0.0, 0.0, 0.0, 0.0, 0.0, 0.0, 0.0, 0.0, 0.0, 1.6635009150242617E9, 0.0, 2022-09-18 16:35:15.024
46.0, -25234.47128945247, -37709.181035659436, -77102.4989607929, -46280.426833680496, -39760.15475513396, -23556.034094814553, -4198.484623251513, -31441.70718690243, 0.772, -0.504, 0.464, 192.0, 0.0, 0.0, 0.0, 0.0, 0.0, 0.0, 0.0, 0.0, 0.0, 1.6635009150272532E9, 0.0, 2022-09-18 16:35:15.027
47.0, -24959.61188788556, -38099.15192117118, -77250.57926780931, -46271.39672892055, -39803.33832542162, -23627.827898004998, -1240.9912039031035, -31438.667349656505, 0.772, -0.504, 0.464, 192.0, 0.0, 0.0, 0.0, 0.0, 0.0, 0.0, 0.0, 0.0, 0.0, 1.6635009150312307E9, 0.0, 2022-09-18 16:35:15.031
48.0, -24508.21840861063, -37724.290814911226, -77345.99886488901, -45787.50381320761, -39962.370987221126, -23757.7585885237, 265.35991017340547, -31408.15721847501, 0.77, -0.506, 0.466, 192.0, 24.0, 16.0, 240.0, 48.0, 14.0, 144.0, 0.0, 0.0, 0.0, 1.6635009150352838E9, 0.0, 2022-09-18 16:35:15.035
49.0, -24800.869798763968, -37627.97714805331, -77201.9195201301, -45886.70085510026, -39964.315588988735, -23706.282521043126, -1331.7169346471949, -31398.344802659132, 0.77, -0.506, 0.466, 192.0, 0.0, 0.0, 0.0, 0.0, 0.0, 0.0, 0.0, 0.0, 0.0, 1.6635009150392828E9, 0.0, 2022-09-18 16:35:15.039
50.0, -25132.21205856944, -37392.9262033613, -77116.13352491063, -46006.0591704916, -39868.00192213082, -23650.090235482483, -4279.643807368732, -31269.956382507848, 0.77, -0.506, 0.466, 192.0, 0.0, 0.0, 0.0, 0.0, 0.0, 0.0, 0.0, 0.0, 0.0, 1.6635009150432577E9, 0.0, 2022-09-18 16:35:15.043
51.0, -25307.852066499243, -37712.332631627636, -77097.80509445729, -46297.36945597762, -39751.079946885104, -23544.254725486604, -4417.241146235603, -31398.724782314872, 0.77, -0.506, 0.466, 192.0, 0.0, 0.0, 0.0, 0.0, 0.0, 0.0, 0.0, 0.0, 0.0, 1.6635009150473104E9, 0.0, 2022-09-18 16:35:15.047
52.0, -25040.413444091493, -38150.02449155146, -77237.57055253632, -46345.760982723354, -39799.44912188639, -23624.229267147693, -1504.5853262645396, -31508.3377371237, 0.77, -0.506, 0.466, 192.0, 0.0, 0.0, 0.0, 0.0, 0.0, 0.0, 0.0, 0.0, 0.0, 1.663500915052307E9, 0.0, 2022-09-18 16:35:15.052
53.0, -24516.24268487009, -37760.411233951, -77386.72374328658, -45834.57658703048, -39965.83550761169, -23759.390265868937, 212.60979325888079, -31478.811082698237, 0.77, -0.506, 0.466, 192.0, 0.0, 0.0, 0.0, 0.0, 0.0, 0.0, 0.0, 0.0, 0.0, 1.6635009150552988E9, 0.0, 2022-09-18 16:35:15.055
54.0, -24786.676441034848, -37697.33461109813, -77253.08266318831, -45953.152591365884, -39969.992932080386, -23697.028898838627, -1358.6284349713844, -31412.02407026578, 0.77, -0.506, 0.466, 192.0, 0.0, 0.0, 0.0, 0.0, 0.0, 0.0, 0.0, 0.0, 0.0, 1.6635009150593653E9, 0.0, 2022-09-18 16:35:15.059
55.0, -25107.982767579888, -37437.719099249734, -77098.2968328353, -46041.57609243108, -39878.59664900263, -23666.11643625694, -4240.774123760953, -31285.982583282304, 0.77, -0.506, 0.466, 192.0, 0.0, 0.0, 0.0, 0.0, 0.0, 0.0, 0.0, 0.0, 0.0, 1.6635009150633264E9, 0.0, 2022-09-18 16:35:15.063
56.0, -25354.857785088752, -37730.03521323624, -77054.62152416963, -46340.17304660953, -39742.92156015892, -23530.262533457582, -4624.777093503129, -31401.60815734961, 0.77, -0.506, 0.466, 192.0, 0.0, 0.0, 0.0, 0.0, 0.0, 0.0, 0.0, 0.0, 0.0, 1.6635009150673203E9, 0.0, 2022-09-18 16:35:15.067
57.0, -25166.07495141923, -38251.9260945232, -77200.04197359586, -46465.49927777044, -39758.41131906644, -23578.877577647876, -1865.3424817731957, -31436.92391358899, 0.77, -0.506, 0.466, 192.0, 0.0, 0.0, 0.0, 0.0, 0.0, 0.0, 0.0, 0.0, 0.0, 1.6635009150712967E9, 0.0, 2022-09-18 16:35:15.071
58.0, -24525.250437885577, -37783.925269117986, -77339.87448690826, -45847.540598814565, -39944.71310910143, -23755.858690244997, 213.3474008259059, -31415.80151507873, 0.774, -0.508, 0.47000000000000003, 192.0, 24.0, 48.0, 240.0, 32.0, 14.0, 176.0, 0.0, 0.0, 0.0, 1.6635009150753257E9, 0.0, 2022-09-18 16:35:15.075
59.0, -24777.75809499718, -37679.65438123398, -77180.50654894192, -45913.76881763564, -39952.357405705145, -23687.6411661674, -1100.2869725569456, -31421.5682651482, 0.774, -0.508, 0.47000000000000003, 192.0, 0.0, 0.0, 0.0, 0.0, 0.0, 0.0, 0.0, 0.0, 0.0, 1.6635009150803268E9, 0.0, 2022-09-18 16:35:15.080
60.0, -25106.39579372356, -37444.782250497614, -77084.32699255073, -46021.63833637695, -39852.243942289824, -23635.96393298673, -4028.834882835732, -31263.85435627155, 0.774, -0.508, 0.47000000000000003, 192.0, 0.0, 0.0, 0.0, 0.0, 0.0, 0.0, 0.0, 0.0, 0.0, 1.663500915083361E9, 0.0, 2022-09-18 16:35:15.083
61.0, -25330.38262491019, -37692.90896569598, -77080.16956808204, -46304.23144152539, -39746.98957764979, -23534.665827115277, -4652.895588027905, -31366.4041598325, 0.774, -0.508, 0.47000000000000003, 192.0, 0.0, 0.0, 0.0, 0.0, 0.0, 0.0, 0.0, 0.0, 0.0, 1.6635009150874221E9, 0.0, 2022-09-18 16:35:15.087
62.0, -25176.17793991303, -38255.54707712497, -77267.8348145288, -46487.694560014555, -39782.52885133372, -23599.083554635472, -2007.7677974424123, -31472.37378029511, 0.774, -0.508, 0.47000000000000003, 192.0, 0.0, 0.0, 0.0, 0.0, 0.0, 0.0, 0.0, 0.0, 0.0, 1.6635009150913153E9, 0.0, 2022-09-18 16:35:15.091
63.0, -24494.27092007052, -37799.012696625316, -77418.1726477352, -45868.730052558196, -39963.60033316616, -23776.7128678218, 209.860528690878, -31472.664352973028, 0.774, -0.508, 0.47000000000000003, 192.0, 0.0, 0.0, 0.0, 0.0, 0.0, 0.0, 0.0, 0.0, 0.0, 1.6635009150954568E9, 0.0, 2022-09-18 16:35:15.095
64.0, -24716.916646589834, -37673.90998290897, -77224.13715411868, -45899.553108162065, -39983.761606664855, -23712.093974601506, -924.5128541604107, -31483.147321122568, 0.774, -0.508, 0.47000000000000003, 192.0, 0.0, 0.0, 0.0, 0.0, 0.0, 0.0, 0.0, 0.0, 0.0, 1.6635009150994768E9, 0.0, 2022-09-18 16:35:15.099
65.0, -25081.87593005609, -37463.445957117794, -77086.65157397409, -46026.53336841266, -39875.15448035651, -23653.755921573153, -3864.1472296890297, -31290.072952517625, 0.774, -0.508, 0.47000000000000003, 192.0, 0.0, 0.0, 0.0, 0.0, 0.0, 0.0, 0.0, 0.0, 0.0, 1.6635009151034138E9, 0.0, 2022-09-18 16:35:15.103
66.0, -25308.924950233097, -37644.69625290588, -77030.05695701325, -46273.900124299544, -39740.61933048002, -23529.882553801843, -4676.588437150531, -31344.097118866102, 0.774, -0.508, 0.47000000000000003, 192.0, 0.0, 0.0, 0.0, 0.0, 0.0, 0.0, 0.0, 0.0, 0.0, 1.6635009151084146E9, 0.0, 2022-09-18 16:35:15.108
67.0, -25200.98837625842, -38232.74829778055, -77173.17517676057, -46489.10271991524, -39739.85937116854, -23548.56861216648, -2115.8831853727324, -31429.257265240823, 0.774, -0.508, 0.47000000000000003, 192.0, 0.0, 0.0, 0.0, 0.0, 0.0, 0.0, 0.0, 0.0, 0.0, 1.6635009151114752E9, 0.0, 2022-09-18 16:35:15.111
68.0, -24538.773243281037, -37824.15840913754, -77426.93453156168, -45899.37429420642, -39958.14650751907, -23768.599184584524, 194.86250816136697, -31463.90246914655, 0.774, -0.506, 0.466, 192.0, 24.0, 48.0, 240.0, 48.0, 14.0, 144.0, 0.0, 0.0, 0.0, 1.6635009151154046E9, 0.0, 2022-09-18 16:35:15.115
69.0, -24680.148026960855, -37663.516421737244, -77287.05731476037, -45885.51621264413, -39978.777167651315, -23698.97350060624, -793.8669078191409, -31473.31255356223, 0.774, -0.506, 0.466, 192.0, 0.0, 0.0, 0.0, 0.0, 0.0, 0.0, 0.0, 0.0, 0.0, 1.663500915119967E9, 0.0, 2022-09-18 16:35:15.119
70.0, -25055.00913322081, -37482.75786432718, -77154.08678699574, -46040.771429630695, -39887.336181084655, -23656.30402044106, -3756.1212487365306, -31292.017554285238, 0.774, -0.506, 0.466, 192.0, 0.0, 0.0, 0.0, 0.0, 0.0, 0.0, 0.0, 0.0, 0.0, 1.6635009151233735E9, 0.0, 2022-09-18 16:35:15.123
71.0, -25289.925967446088, -37622.74683985077, -77054.91209684755, -46272.98370277687, -39762.32287434612, -23543.651228386312, -4778.4453366333655, -31329.993168114805, 0.774, -0.506, 0.466, 192.0, 0.0, 0.0, 0.0, 0.0, 0.0, 0.0, 0.0, 0.0, 0.0, 1.6635009151276035E9, 0.0, 2022-09-18 16:35:15.127
72.0, -25217.059280521786, -38227.78621051148, -77152.14218522813, -46514.78487429439, -39745.33554856009, -23551.764911623588, -2325.050809985496, -31414.97450053388, 0.774, -0.506, 0.466, 192.0, 0.0, 0.0, 0.0, 0.0, 0.0, 0.0, 0.0, 0.0, 0.0, 1.6635009151313715E9, 0.0, 2022-09-18 16:35:15.131
73.0, -24543.891792761304, -37837.457697088445, -77369.40114133373, -45923.35771600696, -39934.78893456327, -23747.141509907426, 132.5681963644262, -31402.345764916634, 0.774, -0.506, 0.466, 192.0, 0.0, 0.0, 0.0, 0.0, 0.0, 0.0, 0.0, 0.0, 0.0, 1.6635009151364987E9, 0.0, 2022-09-18 16:35:15.136
74.0, -24673.330744901985, -37664.76811942674, -77245.19249739558, -45878.76598581862, -39985.46033924346, -23706.193114065303, -662.4833539108461, -31436.879210100084, 0.774, -0.506, 0.466, 192.0, 0.0, 0.0, 0.0, 0.0, 0.0, 0.0, 0.0, 0.0, 0.0, 1.6635009151394696E9, 0.0, 2022-09-18 16:35:15.139
75.0, -25077.78556082077, -37515.48081820975, -77144.18496420205, -46059.81511590661, -39897.50622481182, -23650.87254653842, -3637.2323199787525, -31298.521911921733, 0.774, -0.506, 0.466, 192.0, 0.0, 0.0, 0.0, 0.0, 0.0, 0.0, 0.0, 0.0, 0.0, 1.6635009151434636E9, 0.0, 2022-09-18 16:35:15.143
76.0, -25279.688868485555, -37601.06564772912, -77133.2549611634, -46272.82724056569, -39786.66392405795, -23552.03313255705, -4878.782317493238, -31381.11160768409, 0.774, -0.506, 0.466, 192.0, 0.0, 0.0, 0.0, 0.0, 0.0, 0.0, 0.0, 0.0, 0.0, 1.6635009151474576E9, 0.0, 2022-09-18 16:35:15.147
77.0, -25231.99024581793, -38224.969890710105, -77199.52788347339, -46550.50296193397, -39760.26651385624, -23553.262478502093, -2549.618786527966, -31481.873271688615, 0.774, -0.506, 0.466, 192.0, 0.0, 0.0, 0.0, 0.0, 0.0, 0.0, 0.0, 0.0, 0.0, 1.663500915151435E9, 0.0, 2022-09-18 16:35:15.151
78.0, -24569.30572620699, -37873.01932251684, -77390.70235379963, -45976.06312943258, -39936.80059156425, -23757.155091423403, 29.169026514175716, -31428.340843718153, 0.77, -0.506, 0.462, 192.0, 24.0, 16.0, 240.0, 48.0, 14.0, 112.0, 0.0, 0.0, 0.0, 1.6635009151555445E9, 0.0, 2022-09-18 16:35:15.155
79.0, -24654.667038281805, -37667.62914271702, -77278.60835535626, -45883.14692773187, -39996.055066115274, -23722.822811940052, -577.0773383471177, -31452.905410874537, 0.77, -0.506, 0.462, 192.0, 0.0, 0.0, 0.0, 0.0, 0.0, 0.0, 0.0, 0.0, 0.0, 1.6635009151594815E9, 0.0, 2022-09-18 16:35:15.159
80.0, -25072.510549129314, -37535.530332986156, -77155.5620021298, -46070.767470689716, -39894.30992535471, -23648.615020348432, -3525.5853564244935, -31296.82317934313, 0.77, -0.506, 0.462, 192.0, 0.0, 0.0, 0.0, 0.0, 0.0, 0.0, 0.0, 0.0, 0.0, 1.663500915163548E9, 0.0, 2022-09-18 16:35:15.163
81.0, -25280.00179290793, -37579.45151084084, -77107.84102771772, -46260.77965030428, -39776.98561870881, -23549.93206857825, -4953.101867807134, -31328.920284380947, 0.77, -0.506, 0.462, 192.0, 0.0, 0.0, 0.0, 0.0, 0.0, 0.0, 0.0, 0.0, 0.0, 1.6635009151675427E9, 0.0, 2022-09-18 16:35:15.167
82.0, -25255.213708306994, -38216.61033828382, -77193.20233979254, -46568.02672958693, -39743.79327819267, -23535.17991723775, -2762.161524553481, -31442.33303574718, 0.77, -0.506, 0.462, 192.0, 0.0, 0.0, 0.0, 0.0, 0.0, 0.0, 0.0, 0.0, 0.0, 1.6635009151705127E9, 0.0, 2022-09-18 16:35:15.170
83.0, -24574.916014065268, -37900.42256121905, -77427.71684261762, -46011.53534788315, -39925.04357398076, -23741.7547394937, -82.9473236736445, -31416.203846478922, 0.77, -0.506, 0.462, 192.0, 0.0, 0.0, 0.0, 0.0, 0.0, 0.0, 0.0, 0.0, 0.0, 1.6635009151755288E9, 0.0, 2022-09-18 16:35:15.175
84.0, -24590.115200294877, -37653.2346192878, -77302.5917771568, -45863.41033737783, -40005.68866797551, -23731.674102744353, -477.74618598773316, -31472.016152383825, 0.77, -0.506, 0.462, 192.0, 0.0, 0.0, 0.0, 0.0, 0.0, 0.0, 0.0, 0.0, 0.0, 1.6635009151795647E9, 0.0, 2022-09-18 16:35:15.179
85.0, -25067.30259267123, -37552.40590004992, -77098.47564679095, -46072.73442420178, -39896.05336142223, -23652.884203539397, -3367.156191725277, -31292.86692057454, 0.77, -0.506, 0.462, 192.0, 0.0, 0.0, 0.0, 0.0, 0.0, 0.0, 0.0, 0.0, 0.0, 1.6635009151836188E9, 0.0, 2022-09-18 16:35:15.183
86.0, -25309.930778733586, -37552.316493072096, -77064.3892364966, -46237.93616747096, -39786.8427380136, -23572.842606644943, -4959.427411487986, -31313.922263851437, 0.77, -0.506, 0.462, 192.0, 0.0, 0.0, 0.0, 0.0, 0.0, 0.0, 0.0, 0.0, 0.0, 1.6635009151874976E9, 0.0, 2022-09-18 16:35:15.187
87.0, -25320.48080211649, -38183.797977423426, -77160.83701382125, -46555.35329048077, -39745.782583449196, -23538.42092018377, -2892.0698633277257, -31452.458375985432, 0.77, -0.506, 0.462, 192.0, 0.0, 0.0, 0.0, 0.0, 0.0, 0.0, 0.0, 0.0, 0.0, 1.663500915191498E9, 0.0, 2022-09-18 16:35:15.191
88.0, -24639.691369496748, -37913.252462536395, -77420.00549078053, -46031.473103937285, -39918.89684425555, -23736.144451635417, -125.19212069417486, -31420.540084903252, 0.77, -0.506, 0.462, 192.0, 0.0, 0.0, 0.0, 0.0, 0.0, 0.0, 0.0, 0.0, 0.0, 1.6635009151955793E9, 0.0, 2022-09-18 16:35:15.195
89.0, -24582.537958924528, -37636.627273157515, -77351.67620798066, -45838.19756963224, -40002.04533362929, -23732.434062055836, -347.43551581329297, -31450.69258817346, 0.772, -0.51, 0.464, 192.0, 24.0, 32.0, 240.0, 16.0, 14.0, 128.0, 0.0, 0.0, 0.0, 1.6635009151985252E9, 0.0, 2022-09-18 16:35:15.198
90.0, -25039.72054001338, -37565.369911833994, -77188.217900779, -46072.66736896842, -39914.38179187558, -23664.26124146715, -3224.6638208226946, -31326.618054702052, 0.772, -0.51, 0.464, 192.0, 0.0, 0.0, 0.0, 0.0, 0.0, 0.0, 0.0, 0.0, 0.0, 1.6635009152025144E9, 0.0, 2022-09-18 16:35:15.202
91.0, -25257.650048452622, -37517.09014381053, -77104.84589396071, -46215.38325731555, -39783.98171472332, -23567.321725764483, -4988.283513579788, -31313.363470240056, 0.772, -0.51, 0.464, 192.0, 0.0, 0.0, 0.0, 0.0, 0.0, 0.0, 0.0, 0.0, 0.0, 1.6635009152075799E9, 0.0, 2022-09-18 16:35:15.207
92.0, -25282.415781309104, -38140.368537946764, -77157.93128704205, -46548.02191829943, -39730.00225186375, -23527.89324854532, -3068.3580718467324, -31454.201812052946, 0.772, -0.51, 0.464, 192.0, 0.0, 0.0, 0.0, 0.0, 0.0, 0.0, 0.0, 0.0, 0.0, 1.6635009152115397E9, 0.0, 2022-09-18 16:35:15.211
93.0, -24635.176317116777, -37924.67420395306, -77406.52738887399, -46059.36808101751, -39891.02421891978, -23722.46518402877, -220.34349684041703, -31421.948244803938, 0.772, -0.51, 0.464, 192.0, 0.0, 0.0, 0.0, 0.0, 0.0, 0.0, 0.0, 0.0, 0.0, 1.663500915215582E9, 0.0, 2022-09-18 16:35:15.215
94.0, -24543.645923572294, -37619.86346481603, -77368.12709189978, -45822.39488630234, -40003.3417348077, -23746.85093722951, -242.7175930401794, -31466.36116103663, 0.772, -0.51, 0.464, 192.0, 0.0, 0.0, 0.0, 0.0, 0.0, 0.0, 0.0, 0.0, 0.0, 1.6635009152195792E9, 0.0, 2022-09-18 16:35:15.219
95.0, -25031.428042820462, -37568.05212116863, -77165.84380457924, -46060.373909518, -39913.778294775286, -23670.117398514438, -3042.0053651339254, -31314.72692665183, 0.772, -0.51, 0.464, 192.0, 0.0, 0.0, 0.0, 0.0, 0.0, 0.0, 0.0, 0.0, 0.0, 1.6635009152236392E9, 0.0, 2022-09-18 16:35:15.223
96.0, -25279.532406274368, -37493.24083247672, -77093.37944905514, -46196.63014371755, -39785.81455776865, -23576.687106691257, -4970.312711037721, -31291.525815907222, 0.772, -0.51, 0.464, 192.0, 0.0, 0.0, 0.0, 0.0, 0.0, 0.0, 0.0, 0.0, 0.0, 1.663500915226608E9, 0.0, 2022-09-18 16:35:15.226
97.0, -25311.8753805012, -38108.58435733132, -77152.94684802853, -46535.14731349317, -39699.00038230424, -23495.863198740866, -3212.3480096278204, -31411.241759209846, 0.772, -0.51, 0.464, 192.0, 0.0, 0.0, 0.0, 0.0, 0.0, 0.0, 0.0, 0.0, 0.0, 1.6635009152316015E9, 0.0, 2022-09-18 16:35:15.231
98.0, -24658.82446275049, -37942.265026839385, -77381.9628217176, -46081.74217721727, -39858.4577272484, -23701.16397156286, -291.04206455255326, -31401.83167479416, 0.772, -0.51, 0.464, 192.0, 0.0, 0.0, 0.0, 0.0, 0.0, 0.0, 0.0, 0.0, 0.0, 1.6635009152356403E9, 0.0, 2022-09-18 16:35:15.235
99.0, -24512.75581273506, -37594.53893834817, -77329.5479809699, -45788.71080740819, -39980.744121163385, -23735.339788835026, -100.962829704622, -31464.148338335555, 0.77, -0.51, 0.466, 192.0, 24.0, 16.0, 240.0, 16.0, 14.0, 144.0, 0.0, 0.0, 0.0, 1.663500915239653E9, 0.0, 2022-09-18 16:35:15.239
100.0, -25004.98592912983, -37564.94522868934, -77195.12458981569, -46045.174723288386, -39904.7705417598, -23651.029008749607, -2844.9076825270276, -31356.703502738896, 0.77, -0.51, 0.466, 192.0, 0.0, 0.0, 0.0, 0.0, 0.0, 0.0, 0.0, 0.0, 0.0, 1.6635009152436335E9, 0.0, 2022-09-18 16:35:15.243
101.0, -25244.976609346464, -37465.43526237432, -77149.77290031587, -46181.0509778322, -39804.03122949973, -23591.551016754034, -4955.784077141771, -31328.026214602738, 0.77, -0.51, 0.466, 192.0, 0.0, 0.0, 0.0, 0.0, 0.0, 0.0, 0.0, 0.0, 0.0, 1.6635009152476685E9, 0.0, 2022-09-18 16:35:15.247
102.0, -25330.6284940992, -38071.659275491154, -77178.94192683006, -46539.863531573246, -39729.89049314147, -23526.08275724444, -3370.28543594902, -31451.541954462762, 0.77, -0.51, 0.466, 192.0, 0.0, 0.0, 0.0, 0.0, 0.0, 0.0, 0.0, 0.0, 0.0, 1.6635009152506735E9, 0.0, 2022-09-18 16:35:15.250
103.0, -24707.886541829892, -37951.78686997734, -77398.12313295879, -46119.42721836892, -39871.399387288024, -23706.5954454655, -376.917466749843, -31419.08722151366, 0.77, -0.51, 0.466, 192.0, 0.0, 0.0, 0.0, 0.0, 0.0, 0.0, 0.0, 0.0, 0.0, 1.6635009152546625E9, 0.0, 2022-09-18 16:35:15.254
104.0, -24495.70143171566, -37573.86357472701, -77351.92207716967, -45777.132603780345, -39988.41076951155, -23739.74308249272, 3.889203535223429, -31454.067701586213, 0.77, -0.51, 0.466, 192.0, 0.0, 0.0, 0.0, 0.0, 0.0, 0.0, 0.0, 0.0, 0.0, 1.6635009152586539E9, 0.0, 2022-09-18 16:35:15.258
105.0, -24988.98208009983, -37557.837373952556, -77158.02069401988, -46033.417705704895, -39895.42751257748, -23638.020293476617, -2654.359061045535, -31325.075784334636, 0.77, -0.51, 0.466, 192.0, 0.0, 0.0, 0.0, 0.0, 0.0, 0.0, 0.0, 0.0, 0.0, 1.6635009152636898E9, 0.0, 2022-09-18 16:35:15.263
106.0, -25229.062167294287, -37418.49659901817, -77107.72926899545, -46141.17546572393, -39777.812633253656, -23561.443216972737, -4894.897925245515, -31254.198402666858, 0.77, -0.51, 0.466, 192.0, 0.0, 0.0, 0.0, 0.0, 0.0, 0.0, 0.0, 0.0, 0.0, 1.6635009152676814E9, 0.0, 2022-09-18 16:35:15.267
107.0, -25323.83356378479, -38014.86349283022, -77155.24907770743, -46511.56622309282, -39701.5708329166, -23491.661070783266, -3514.40948419684, -31402.2116544499, 0.77, -0.51, 0.466, 192.0, 0.0, 0.0, 0.0, 0.0, 0.0, 0.0, 0.0, 0.0, 0.0, 1.6635009152716775E9, 0.0, 2022-09-18 16:35:15.271
108.0, -24719.218876268733, -37967.36603586269, -77414.28344419997, -46153.178352496434, -39857.429547003456, -23686.233006266717, -504.009485722719, -31406.950224274427, 0.77, -0.51, 0.466, 192.0, 0.0, 0.0, 0.0, 0.0, 0.0, 0.0, 0.0, 0.0, 0.0, 1.6635009152746804E9, 0.0, 2022-09-18 16:35:15.274
109.0, -24472.723838415604, -37571.00255143673, -77397.85491202533, -45776.55145842451, -40012.77417096784, -23770.722600307778, 70.94443690114461, -31484.42137055652, 0.774, -0.514, 0.468, 192.0, 24.0, 48.0, 239.0, 240.0, 14.0, 160.0, 0.0, 0.0, 0.0, 1.663500915278695E9, 0.0, 2022-09-18 16:35:15.278
110.0, -24982.634184674524, -37570.399054336434, -77219.06330812733, -46040.21263601931, -39927.681079826485, -23667.68105836881, -2493.426500967324, -31400.088238726647, 0.774, -0.514, 0.468, 192.0, 0.0, 0.0, 0.0, 0.0, 0.0, 0.0, 0.0, 0.0, 0.0, 1.6635009152827024E9, 0.0, 2022-09-18 16:35:15.282
111.0, -25222.08842302423, -37401.442217998774, -77121.78851625783, -46133.15118946448, -39800.43259864242, -23583.10205734993, -4862.309081829677, -31288.91066180595, 0.774, -0.514, 0.468, 192.0, 0.0, 0.0, 0.0, 0.0, 0.0, 0.0, 0.0, 0.0, 0.0, 1.663500915286686E9, 0.0, 2022-09-18 16:35:15.286
112.0, -25343.54780239437, -37971.65757079811, -77146.33073166976, -46501.887917743676, -39715.76419064572, -23503.239274411117, -3664.859076125512, -31427.73734661786, 0.774, -0.514, 0.468, 192.0, 0.0, 0.0, 0.0, 0.0, 0.0, 0.0, 0.0, 0.0, 0.0, 1.6635009152917304E9, 0.0, 2022-09-18 16:35:15.291
113.0, -24787.436400346327, -37979.32421914628, -77377.76069376, -46186.54950696821, -39840.66573866198, -23678.07461954053, -609.4426643184024, -31409.006584764313, 0.774, -0.514, 0.468, 192.0, 0.0, 0.0, 0.0, 0.0, 0.0, 0.0, 0.0, 0.0, 0.0, 1.6635009152957308E9, 0.0, 2022-09-18 16:35:15.295
114.0, -24477.887091384782, -37555.2669233402, -77391.81994102239, -45760.569961138965, -39984.454510742966, -23751.298934376115, 151.70128961816903, -31433.101765287134, 0.774, -0.514, 0.468, 192.0, 0.0, 0.0, 0.0, 0.0, 0.0, 0.0, 0.0, 0.0, 0.0, 1.6635009152997415E9, 0.0, 2022-09-18 16:35:15.299
115.0, -24968.03849554521, -37568.29799035764, -77234.5754187793, -46021.59363288804, -39915.99111747636, -23649.710255826743, -2326.9730600086523, -31337.905685651982, 0.774, -0.514, 0.468, 192.0, 0.0, 0.0, 0.0, 0.0, 0.0, 0.0, 0.0, 0.0, 0.0, 1.6635009153027787E9, 0.0, 2022-09-18 16:35:15.302
116.0, -25223.6530451361, -37404.392648266876, -77192.8223601368, -46139.90141628998, -39823.41019194248, -23597.04954589004, -4848.115724100558, -31293.649231630476, 0.774, -0.514, 0.468, 192.0, 0.0, 0.0, 0.0, 0.0, 0.0, 0.0, 0.0, 0.0, 0.0, 1.66350091530676E9, 0.0, 2022-09-18 16:35:15.306
117.0, -25344.97831403951, -37939.962797160486, -77145.79428980283, -46501.329124132295, -39715.875949368, -23499.104201686885, -3835.2464241083176, -31434.55462867673, 0.774, -0.514, 0.468, 192.0, 0.0, 0.0, 0.0, 0.0, 0.0, 0.0, 0.0, 0.0, 0.0, 1.663500915310783E9, 0.0, 2022-09-18 16:35:15.310
118.0, -24825.322607198075, -38009.63318462767, -77372.57508904637, -46234.42694359147, -39832.328537980145, -23666.518767657133, -750.2586543868368, -31417.41084067951, 0.774, -0.514, 0.468, 192.0, 0.0, 0.0, 0.0, 0.0, 0.0, 0.0, 0.0, 0.0, 0.0, 1.6635009153147702E9, 0.0, 2022-09-18 16:35:15.314
119.0, -24453.590745161862, -37562.59829552154, -77453.75662490806, -45770.51648742158, -40003.900528419086, -23765.5593473386, 210.55343276899254, -31457.08518708768, 0.772, -0.508, 0.46, 192.0, 24.0, 32.0, 240.0, 32.0, 14.0, 96.0, 0.0, 0.0, 0.0, 1.663500915319743E9, 0.0, 2022-09-18 16:35:15.319
120.0, -24922.329178134107, -37569.75085374723, -77214.23533132498, -46012.56352812809, -39915.11939944261, -23644.72581681321, -2125.9414703776206, -31354.91536318247, 0.772, -0.508, 0.46, 192.0, 0.0, 0.0, 0.0, 0.0, 0.0, 0.0, 0.0, 0.0, 0.0, 1.6635009153237712E9, 0.0, 2022-09-18 16:35:15.323
121.0, -25209.79496357381, -37385.639534668866, -77118.03342318934, -46116.38738112299, -39796.92337476294, -23582.90089164983, -4727.550414508631, -31243.022530439204, 0.772, -0.508, 0.46, 192.0, 0.0, 0.0, 0.0, 0.0, 0.0, 0.0, 0.0, 0.0, 0.0, 1.663500915327716E9, 0.0, 2022-09-18 16:35:15.327
122.0, -25378.751799911475, -37911.3972677466, -77149.77290031587, -46495.76353976292, -39721.28507152618, -23509.83303902543, -3940.0761056037077, -31398.568320103685, 0.772, -0.508, 0.46, 192.0, 0.0, 0.0, 0.0, 0.0, 0.0, 0.0, 0.0, 0.0, 0.0, 1.663500915330774E9, 0.0, 2022-09-18 16:35:15.330
123.0, -24881.78311369218, -38051.6321124592, -77421.23483672558, -46288.54051691777, -39830.719212379365, -23653.197127961772, -873.9308564580508, -31418.70724185792, 0.772, -0.508, 0.46, 192.0, 0.0, 0.0, 0.0, 0.0, 0.0, 0.0, 0.0, 0.0, 0.0, 1.6635009153347964E9, 0.0, 2022-09-18 16:35:15.334
124.0, -24373.14681686721, -37568.00741767972, -77558.16162325878, -45773.24340024512, -40000.21249058396, -23751.969486709775, 262.05185199402, -31459.253306299845, 0.772, -0.508, 0.46, 192.0, 0.0, 0.0, 0.0, 0.0, 0.0, 0.0, 0.0, 0.0, 0.0, 1.6635009153387408E9, 0.0, 2022-09-18 16:35:15.338
125.0, -24846.065026052598, -37595.723580804304, -77261.79984352588, -46035.25054875023, -39974.39622573808, -23689.809285379564, -1965.9923870554433, -31424.60810239412, 0.772, -0.508, 0.46, 192.0, 0.0, 0.0, 0.0, 0.0, 0.0, 0.0, 0.0, 0.0, 0.0, 1.663500915342742E9, 0.0, 2022-09-18 16:35:15.342
126.0, -25198.70849832398, -37396.14485456287, -77102.02957415934, -46123.1376079485, -39835.36837522607, -23612.963987942217, -4638.7469337876955, -31260.00985622524, 0.772, -0.508, 0.46, 192.0, 0.0, 0.0, 0.0, 0.0, 0.0, 0.0, 0.0, 0.0, 0.0, 1.663500915346903E9, 0.0, 2022-09-18 16:35:15.346
127.0, -25384.093866836294, -37875.03097951782, -77106.41051607257, -46473.00946390742, -39724.07903958309, -23500.087678442917, -4046.381002233148, -31395.662593324494, 0.772, -0.508, 0.46, 192.0, 0.0, 0.0, 0.0, 0.0, 0.0, 0.0, 0.0, 0.0, 0.0, 1.663500915351866E9, 0.0, 2022-09-18 16:35:15.351
128.0, -24935.74022480729, -38073.894449936684, -77332.09607983781, -46312.16631080703, -39810.31206969167, -23627.514973582623, -974.3795960402008, -31404.35742191761, 0.772, -0.508, 0.46, 192.0, 0.0, 0.0, 0.0, 0.0, 0.0, 0.0, 0.0, 0.0, 0.0, 1.663500915355862E9, 0.0, 2022-09-18 16:35:15.355
129.0, -24436.849288564837, -37583.765397520714, -77452.0802440739, -45766.67198737526, -39981.70524617496, -23739.251344114702, 357.47144907372586, -31424.541047160754, 0.778, -0.514, 0.464, 192.0, 24.0, 80.0, 239.0, 240.0, 14.0, 128.0, 0.0, 0.0, 0.0, 1.6635009153588927E9, 0.0, 2022-09-18 16:35:15.358
130.0, -24877.424523523394, -37597.35525814954, -77267.5889453398, -45999.666571577385, -39956.11249877364, -23660.752017587667, -1747.7723059382804, -31392.578052589663, 0.778, -0.514, 0.464, 192.0, 0.0, 0.0, 0.0, 0.0, 0.0, 0.0, 0.0, 0.0, 0.0, 1.6635009153628552E9, 0.0, 2022-09-18 16:35:15.362
131.0, -25208.543265884313, -37400.41403775383, -77165.24030747895, -46105.97146820682, -39844.01850033027, -23609.00772917363, -4544.579034397488, -31252.85729799954, 0.778, -0.514, 0.464, 192.0, 0.0, 0.0, 0.0, 0.0, 0.0, 0.0, 0.0, 0.0, 0.0, 1.6635009153668363E9, 0.0, 2022-09-18 16:35:15.366
132.0, -25389.41358201666, -37845.12434543662, -77156.03138876337, -46449.85305665172, -39728.12470532951, -23500.713527287666, -4187.420509746135, -31389.605270577107, 0.778, -0.514, 0.464, 192.0, 0.0, 0.0, 0.0, 0.0, 0.0, 0.0, 0.0, 0.0, 0.0, 1.6635009153708754E9, 0.0, 2022-09-18 16:35:15.370
133.0, -24959.388370441007, -38094.43570309111, -77360.88512669624, -46332.349936050174, -39798.19742419689, -23623.15638341384, -1117.9672024210934, -31401.317584671688, 0.778, -0.514, 0.464, 192.0, 0.0, 0.0, 0.0, 0.0, 0.0, 0.0, 0.0, 0.0, 0.0, 1.6635009153748946E9, 0.0, 2022-09-18 16:35:15.374
134.0, -24412.374128386276, -37588.83924351207, -77500.00238418608, -45752.25511220159, -39987.807272411264, -23765.42523687187, 420.4586649487812, -31420.56243664771, 0.778, -0.514, 0.464, 192.0, 0.0, 0.0, 0.0, 0.0, 0.0, 0.0, 0.0, 0.0, 0.0, 1.663500915379891E9, 0.0, 2022-09-18 16:35:15.379
135.0, -24794.924234738857, -37547.063833125096, -77307.95619582609, -45920.720210161235, -39970.86465011414, -23690.36807899095, -1464.0392618226126, -31407.59842486363, 0.778, -0.514, 0.464, 192.0, 0.0, 0.0, 0.0, 0.0, 0.0, 0.0, 0.0, 0.0, 0.0, 1.663500915383886E9, 0.0, 2022-09-18 16:35:15.383
136.0, -25205.928111783043, -37396.86011038543, -77171.34233371525, -46095.913183201934, -39851.66279693399, -23628.96783697222, -4459.552998489499, -31296.75612410976, 0.778, -0.514, 0.464, 192.0, 0.0, 0.0, 0.0, 0.0, 0.0, 0.0, 0.0, 0.0, 0.0, 1.6635009153868825E9, 0.0, 2022-09-18 16:35:15.386
137.0, -25405.17156185765, -37810.79206595327, -77131.26565590689, -46436.75493440091, -39698.75451311523, -23487.995384692596, -4357.2267123731035, -31372.550889557708, 0.778, -0.514, 0.464, 192.0, 0.0, 0.0, 0.0, 0.0, 0.0, 0.0, 0.0, 0.0, 0.0, 1.6635009153910403E9, 0.0, 2022-09-18 16:35:15.391
138.0, -25021.57092351567, -38137.529866400946, -77343.94250439912, -46386.21764018746, -39757.42784231041, -23592.422734787793, -1351.677042445784, -31384.509072841298, 0.778, -0.514, 0.464, 192.0, 0.0, 0.0, 0.0, 0.0, 0.0, 0.0, 0.0, 0.0, 0.0, 1.6635009153948703E9, 0.0, 2022-09-18 16:35:15.394
139.0, -24461.100931298846, -37655.35803501106, -77495.48733180611, -45806.30163029452, -39968.11538554614, -23766.31930665008, 325.6649167138239, -31413.45458191092, 0.77, -0.506, 0.46, 192.0, 24.0, 16.0, 240.0, 48.0, 14.0, 96.0, 0.0, 0.0, 0.0, 1.6635009153989096E9, 0.0, 2022-09-18 16:35:15.398
140.0, -24853.843433123046, -37635.777906868214, -77292.22056772954, -45979.23707714523, -39948.602312636656, -23679.728648630222, -1456.3279099855317, -31404.804456806716, 0.77, -0.506, 0.46, 192.0, 0.0, 0.0, 0.0, 0.0, 0.0, 0.0, 0.0, 0.0, 0.0, 1.6635009154029503E9, 0.0, 2022-09-18 16:35:15.402
141.0, -25191.51123660937, -37423.391631053884, -77180.05951405282, -46091.91222094443, -39844.13025905255, -23632.454709107245, -4377.902075994262, -31284.932051292904, 0.77, -0.506, 0.46, 192.0, 0.0, 0.0, 0.0, 0.0, 0.0, 0.0, 0.0, 0.0, 0.0, 1.6635009154069424E9, 0.0, 2022-09-18 16:35:15.406
142.0, -25379.757628411964, -37770.558925933714, -77133.54553384132, -46402.48971015093, -39720.99449884826, -23514.571608849958, -4456.088478098926, -31405.765581818294, 0.77, -0.506, 0.46, 192.0, 0.0, 0.0, 0.0, 0.0, 0.0, 0.0, 0.0, 0.0, 0.0, 1.6635009154119725E9, 0.0, 2022-09-18 16:35:15.411
143.0, -25054.271525653785, -38170.2081167946, -77352.41381554768, -46425.824931362265, -39775.51040357476, -23601.542246525558, -1537.8447220140365, -31437.438003711464, 0.77, -0.506, 0.46, 192.0, 0.0, 0.0, 0.0, 0.0, 0.0, 0.0, 0.0, 0.0, 0.0, 1.663500915414899E9, 0.0, 2022-09-18 16:35:15.414
144.0, -24448.82982359288, -37693.57951802963, -77517.41439311676, -45836.02945042008, -39986.689685188496, -23780.93734752385, 292.2043552642292, -31446.378701493588, 0.77, -0.506, 0.46, 192.0, 0.0, 0.0, 0.0, 0.0, 0.0, 0.0, 0.0, 0.0, 0.0, 1.6635009154189887E9, 0.0, 2022-09-18 16:35:15.418
145.0, -24810.52575236866, -37651.04414833119, -77308.09030629281, -45978.76769051167, -39973.882135615604, -23699.59934945099, -1322.3292019759658, -31427.0667942842, 0.77, -0.506, 0.46, 192.0, 0.0, 0.0, 0.0, 0.0, 0.0, 0.0, 0.0, 0.0, 0.0, 1.6635009154229655E9, 0.0, 2022-09-18 16:35:15.422
146.0, -25166.857262475165, -37426.52087527762, -77151.33752242774, -46079.015264393725, -39828.72990712284, -23612.38284258638, -4272.580656120856, -31231.399623322442, 0.77, -0.506, 0.46, 192.0, 0.0, 0.0, 0.0, 0.0, 0.0, 0.0, 0.0, 0.0, 0.0, 1.6635009154269536E9, 0.0, 2022-09-18 16:35:15.426
147.0, -25380.383477256713, -37733.81265804919, -77119.86626623468, -46377.70162554999, -39712.09850455505, -23504.401565122793, -4580.945322626272, -31349.841517191115, 0.77, -0.506, 0.46, 192.0, 0.0, 0.0, 0.0, 0.0, 0.0, 0.0, 0.0, 0.0, 0.0, 1.663500915431055E9, 0.0, 2022-09-18 16:35:15.431
148.0, -25129.418090512525, -38195.063256628906, -77304.75989636897, -46461.16303934611, -39757.29373184368, -23581.783304427066, -1718.6479829130153, -31424.675157627484, 0.77, -0.506, 0.46, 192.0, 0.0, 0.0, 0.0, 0.0, 0.0, 0.0, 0.0, 0.0, 0.0, 1.6635009154349844E9, 0.0, 2022-09-18 16:35:15.434
149.0, -24495.500266015562, -37718.14408518602, -77511.60293955839, -45850.13340117138, -39957.05127204076, -23767.682763061854, 289.4550906962265, -31420.78595409226, 0.768, -0.506, 0.464, 192.0, 24.0, 0.0, 240.0, 48.0, 14.0, 128.0, 0.0, 0.0, 0.0, 1.6635009154400873E9, 0.0, 2022-09-18 16:35:15.440
150.0, -24789.604519558492, -37647.870200618534, -77317.56744594187, -45953.3984605549, -39955.10667027315, -23694.793724393097, -1166.8728192893052, -31436.186306021966, 0.768, -0.506, 0.464, 192.0, 0.0, 0.0, 0.0, 0.0, 0.0, 0.0, 0.0, 0.0, 0.0, 1.6635009154430451E9, 0.0, 2022-09-18 16:35:15.443
151.0, -25158.40830307106, -37441.563599296045, -77213.38596503568, -46083.41855805142, -39851.64044518953, -23641.663627822832, -4165.851076346765, -31295.616185142542, 0.768, -0.506, 0.464, 192.0, 0.0, 0.0, 0.0, 0.0, 0.0, 0.0, 0.0, 0.0, 0.0, 1.6635009154470804E9, 0.0, 2022-09-18 16:35:15.447
152.0, -25350.610953642245, -37691.5455092842, -77190.05074382434, -46360.82605848624, -39742.51922875872, -23535.8057660825, -4686.311445988589, -31398.30009917022, 0.768, -0.506, 0.464, 192.0, 0.0, 0.0, 0.0, 0.0, 0.0, 0.0, 0.0, 0.0, 0.0, 1.6635009154510772E9, 0.0, 2022-09-18 16:35:15.451
153.0, -25135.49776500437, -38196.35965780731, -77295.5956811423, -46485.83936522477, -39753.181010863904, -23578.117618336397, -1898.5124705448713, -31441.08133805768, 0.768, -0.506, 0.464, 192.0, 0.0, 0.0, 0.0, 0.0, 0.0, 0.0, 0.0, 0.0, 0.0, 1.6635009154550626E9, 0.0, 2022-09-18 16:35:15.455
154.0, -24495.723783460115, -37748.65421636751, -77465.26777330253, -45878.81068930754, -39946.702414357955, -23765.335829894047, 262.05185199402, -31423.55757040472, 0.768, -0.506, 0.464, 192.0, 0.0, 0.0, 0.0, 0.0, 0.0, 0.0, 0.0, 0.0, 0.0, 1.6635009154590964E9, 0.0, 2022-09-18 16:35:15.459
155.0, -24755.987495897713, -37643.891590105486, -77284.71038159257, -45930.599681210486, -39949.87636207061, -23686.121247544437, -998.2065556295581, -31395.81905553568, 0.768, -0.506, 0.464, 192.0, 0.0, 0.0, 0.0, 0.0, 0.0, 0.0, 0.0, 0.0, 0.0, 1.6635009154631176E9, 0.0, 2022-09-18 16:35:15.463
156.0, -25133.68727370349, -37440.98245394021, -77182.49585419844, -46065.29129329816, -39845.78428814224, -23626.464441593223, -4017.5919553747126, -31226.32577733109, 0.768, -0.506, 0.464, 192.0, 0.0, 0.0, 0.0, 0.0, 0.0, 0.0, 0.0, 0.0, 0.0, 1.663500915468057E9, 0.0, 2022-09-18 16:35:15.468
157.0, -25348.39813094117, -37640.85175285956, -77145.77193805837, -46322.7833894233, -39735.94781588886, -23527.535620634037, -4758.887560234972, -31329.210857058868, 0.768, -0.506, 0.464, 192.0, 0.0, 0.0, 0.0, 0.0, 0.0, 0.0, 0.0, 0.0, 0.0, 1.6635009154710362E9, 0.0, 2022-09-18 16:35:15.471
158.0, -25189.23135867493, -38194.25859382851, -77295.21570148655, -46499.0268944534, -39741.40164153596, -23560.772664639077, -2072.833725551811, -31434.08524204317, 0.768, -0.506, 0.464, 192.0, 0.0, 0.0, 0.0, 0.0, 0.0, 0.0, 0.0, 0.0, 0.0, 1.6635009154750433E9, 0.0, 2022-09-18 16:35:15.475
159.0, -24520.869495972336, -37764.680417141964, -77514.5980733154, -45893.27226797012, -39942.70145210045, -23759.99376296923, 228.1666073997745, -31443.13769854757, 0.762, -0.51, 0.464, 192.0, 23.0, 208.0, 240.0, 16.0, 14.0, 128.0, 0.0, 0.0, 0.0, 1.6635009154791229E9, 0.0, 2022-09-18 16:35:15.479
160.0, -24723.97979783771, -37639.24242725878, -77365.46723430959, -45917.90389035987, -39970.43996696949, -23693.87730287043, -865.5936557762213, -31434.107593787623, 0.762, -0.51, 0.464, 192.0, 0.0, 0.0, 0.0, 0.0, 0.0, 0.0, 0.0, 0.0, 0.0, 1.6635009154830508E9, 0.0, 2022-09-18 16:35:15.483
161.0, -25108.96624433592, -37458.81914601554, -77245.2372008845, -46077.00360739275, -39878.14961411353, -23652.079540739007, -3903.553355163736, -31265.70955106134, 0.762, -0.51, 0.464, 192.0, 0.0, 0.0, 0.0, 0.0, 0.0, 0.0, 0.0, 0.0, 0.0, 1.6635009154870927E9, 0.0, 2022-09-18 16:35:15.487
162.0, -25319.072642215808, -37600.21628143982, -77146.66600783658, -46302.95739209144, -39750.52115327372, -23547.249859243617, -4846.215825821856, -31343.15834559898, 0.762, -0.51, 0.464, 192.0, 0.0, 0.0, 0.0, 0.0, 0.0, 0.0, 0.0, 0.0, 0.0, 1.6635009154911556E9, 0.0, 2022-09-18 16:35:15.491
163.0, -25220.18852474553, -38200.9641171651, -77263.36446563774, -46524.26201394344, -39729.354051274546, -23548.52390867757, -2269.417318036237, -31421.210637236913, 0.762, -0.51, 0.464, 192.0, 0.0, 0.0, 0.0, 0.0, 0.0, 0.0, 0.0, 0.0, 0.0, 1.663500915496091E9, 0.0, 2022-09-18 16:35:15.496
164.0, -24532.693568789193, -37803.32658330519, -77506.86436973386, -45920.22847178322, -39920.12619020059, -23742.715864505277, 174.3883102403057, -31402.45752363891, 0.762, -0.51, 0.464, 192.0, 0.0, 0.0, 0.0, 0.0, 0.0, 0.0, 0.0, 0.0, 0.0, 1.6635009154991012E9, 0.0, 2022-09-18 16:35:15.499
165.0, -24673.375448390896, -37648.74191865229, -77384.68973454116, -45903.4870151862, -39986.53322297731, -23706.103707087485, -736.6017385246442, -31470.496233760863, 0.762, -0.51, 0.464, 192.0, 0.0, 0.0, 0.0, 0.0, 0.0, 0.0, 0.0, 0.0, 0.0, 1.6635009155021183E9, 0.0, 2022-09-18 16:35:15.502
166.0, -25092.91769181701, -37478.198108458295, -77177.35495297372, -46073.136755601976, -39882.32939032667, -23652.504223883658, -3746.509998620749, -31302.992260812793, 0.762, -0.51, 0.464, 192.0, 0.0, 0.0, 0.0, 0.0, 0.0, 0.0, 0.0, 0.0, 0.0, 1.663500915507125E9, 0.0, 2022-09-18 16:35:15.507
167.0, -25329.801479554353, -37564.43113856687, -77112.19961788651, -46270.25678995333, -39749.33651081759, -23546.534603421045, -4879.341111104621, -31318.01263308676, 0.762, -0.51, 0.464, 192.0, 0.0, 0.0, 0.0, 0.0, 0.0, 0.0, 0.0, 0.0, 0.0, 1.6635009155111108E9, 0.0, 2022-09-18 16:35:15.511
168.0, -25275.017353894396, -38202.08170438787, -77232.85433445625, -46538.589482139294, -39726.44832449536, -23540.94666730722, -2440.6093288194334, -31411.621738865586, 0.762, -0.51, 0.464, 192.0, 0.0, 0.0, 0.0, 0.0, 0.0, 0.0, 0.0, 0.0, 0.0, 1.6635009155151308E9, 0.0, 2022-09-18 16:35:15.515
169.0, -24601.313424266988, -37856.344921153184, -77478.74587520909, -45968.7988124846, -39917.064001210216, -23751.097768676016, 107.75776001903535, -31401.384639905053, 0.768, -0.51, 0.466, 192.0, 24.0, 0.0, 240.0, 16.0, 14.0, 144.0, 0.0, 0.0, 0.0, 1.6635009155191736E9, 0.0, 2022-09-18 16:35:15.519
170.0, -24688.194654964766, -37659.80603215766, -77377.73834201555, -45894.47926217071, -39978.352484506664, -23716.430213025837, -595.584582756112, -31455.632323698086, 0.768, -0.51, 0.466, 192.0, 0.0, 0.0, 0.0, 0.0, 0.0, 0.0, 0.0, 0.0, 0.0, 1.6635009155221488E9, 0.0, 2022-09-18 16:35:15.522
171.0, -25100.696098887456, -37496.861815078475, -77253.37323586622, -46071.54978174565, -39890.33131484167, -23662.45075016627, -3594.1605084133757, -31308.557845182164, 0.768, -0.51, 0.466, 192.0, 0.0, 0.0, 0.0, 0.0, 0.0, 0.0, 0.0, 0.0, 0.0, 1.6635009155261564E9, 0.0, 2022-09-18 16:35:15.526
172.0, -25305.885112987176, -37530.344728272525, -77232.07202340031, -46255.01290023481, -39776.56093556416, -23569.825121143476, -4953.1689230405, -31333.10006059409, 0.768, -0.51, 0.466, 192.0, 0.0, 0.0, 0.0, 0.0, 0.0, 0.0, 0.0, 0.0, 0.0, 1.6635009155311277E9, 0.0, 2022-09-18 16:35:15.531
173.0, -25271.753999203924, -38188.29067805895, -77312.69476565061, -46558.88486610471, -39741.87102816952, -23548.23333599965, -2659.09763087006, -31427.625587895585, 0.768, -0.51, 0.466, 192.0, 0.0, 0.0, 0.0, 0.0, 0.0, 0.0, 0.0, 0.0, 0.0, 1.6635009155351925E9, 0.0, 2022-09-18 16:35:15.535
174.0, -24602.810991145492, -37876.59560162969, -77481.69630547719, -46000.18066169985, -39910.40318136253, -23742.22412612726, 13.656915862192616, -31391.058133966704, 0.768, -0.51, 0.466, 192.0, 0.0, 0.0, 0.0, 0.0, 0.0, 0.0, 0.0, 0.0, 0.0, 1.6635009155391808E9, 0.0, 2022-09-18 16:35:15.539
175.0, -24647.290962611554, -37646.193819784385, -77348.47990852356, -45869.95939850323, -39968.00362682386, -23707.17659082134, -481.0542441671186, -31419.757773847316, 0.768, -0.51, 0.466, 192.0, 0.0, 0.0, 0.0, 0.0, 0.0, 0.0, 0.0, 0.0, 0.0, 1.663500915543186E9, 0.0, 2022-09-18 16:35:15.543
176.0, -25064.48627286986, -37500.9521843138, -77222.95251166254, -46053.288406525666, -39867.93486689745, -23634.86869750842, -3436.3124890699974, -31255.315989889623, 0.768, -0.51, 0.466, 192.0, 0.0, 0.0, 0.0, 0.0, 0.0, 0.0, 0.0, 0.0, 0.0, 1.663500915547173E9, 0.0, 2022-09-18 16:35:15.547
177.0, -25255.213708306994, -37478.198108458295, -77186.92149960059, -46210.7564462133, -39770.10128141657, -23557.106978548407, -4973.84428666166, -31312.223531272833, 0.768, -0.51, 0.466, 192.0, 0.0, 0.0, 0.0, 0.0, 0.0, 0.0, 0.0, 0.0, 0.0, 1.6635009155503032E9, 0.0, 2022-09-18 16:35:15.550
178.0, -25287.467275556002, -38150.98561656304, -77237.39173858067, -46548.804229355366, -39733.62323446551, -23534.285847459538, -2816.498615324332, -31464.796538924762, 0.768, -0.51, 0.466, 192.0, 0.0, 0.0, 0.0, 0.0, 0.0, 0.0, 0.0, 0.0, 0.0, 1.6635009155542107E9, 0.0, 2022-09-18 16:35:15.554
179.0, -24647.268610867097, -37903.372991487144, -77494.48150330562, -46036.47989469527, -39908.90561448403, -23737.306742347093, -63.858933908812276, -31421.612968637106, 0.76, -0.504, 0.466, 192.0, 23.0, 192.0, 240.0, 64.0, 14.0, 144.0, 0.0, 0.0, 0.0, 1.663500915558145E9, 0.0, 2022-09-18 16:35:15.558
180.0, -24627.241447835142, -37645.34445349508, -77426.30868271693, -45866.53958160157, -39977.65958042855, -23716.989006637217, -375.84458301598823, -31436.052195555236, 0.76, -0.504, 0.466, 192.0, 0.0, 0.0, 0.0, 0.0, 0.0, 0.0, 0.0, 0.0, 0.0, 1.663500915563236E9, 0.0, 2022-09-18 16:35:15.563
181.0, -25053.556269831213, -37519.39237348943, -77261.15164293667, -46069.0240346222, -39898.668515523495, -23660.953183287762, -3272.876533612792, -31311.53062719472, 0.76, -0.504, 0.466, 192.0, 0.0, 0.0, 0.0, 0.0, 0.0, 0.0, 0.0, 0.0, 0.0, 1.66350091556723E9, 0.0, 2022-09-18 16:35:15.567
182.0, -25273.743304460444, -37453.23120990172, -77163.38511268915, -46203.38037054305, -39777.74557802029, -23561.823196628477, -4976.526495996296, -31314.659871418462, 0.76, -0.504, 0.466, 192.0, 0.0, 0.0, 0.0, 0.0, 0.0, 0.0, 0.0, 0.0, 0.0, 1.6635009155711665E9, 0.0, 2022-09-18 16:35:15.571
183.0, -25329.041520242874, -38139.474468168555, -77246.0865671738, -46562.908180106664, -39708.07519055309, -23496.869027241355, -2995.4019779446103, -31421.054175025725, 0.76, -0.504, 0.466, 192.0, 0.0, 0.0, 0.0, 0.0, 0.0, 0.0, 0.0, 0.0, 0.0, 1.6635009155752656E9, 0.0, 2022-09-18 16:35:15.575
184.0, -24663.183052919278, -37947.04830015282, -77497.67780276273, -46079.46229928283, -39873.925134411475, -23702.97446286374, -171.68374916121354, -31385.58195657515, 0.76, -0.504, 0.466, 192.0, 0.0, 0.0, 0.0, 0.0, 0.0, 0.0, 0.0, 0.0, 0.0, 1.66350091557823E9, 0.0, 2022-09-18 16:35:15.578
185.0, -24573.664316375773, -37655.51449722225, -77442.55840093594, -45854.98372971818, -39987.874327644626, -23726.712015475277, -283.2189539931958, -31433.973483320893, 0.76, -0.504, 0.466, 192.0, 0.0, 0.0, 0.0, 0.0, 0.0, 0.0, 0.0, 0.0, 0.0, 1.6635009155822513E9, 0.0, 2022-09-18 16:35:15.582
186.0, -25035.496060311325, -37556.3174553296, -77229.03218615439, -46066.900618898944, -39903.58589930367, -23667.815168835543, -3122.8069213398603, -31301.5393974232, 0.76, -0.504, 0.466, 192.0, 0.0, 0.0, 0.0, 0.0, 0.0, 0.0, 0.0, 0.0, 0.0, 1.6635009155862885E9, 0.0, 2022-09-18 16:35:15.586
187.0, -25276.38081030617, -37453.946465724286, -77181.71354314251, -46186.102472079096, -39800.097322475594, -23591.305147565028, -4994.363188071631, -31295.90675782046, 0.76, -0.504, 0.466, 192.0, 0.0, 0.0, 0.0, 0.0, 0.0, 0.0, 0.0, 0.0, 0.0, 1.6635009155911927E9, 0.0, 2022-09-18 16:35:15.591
188.0, -25359.059913046352, -38132.2995581984, -77231.53558153339, -46559.287197504906, -39720.748629659254, -23511.93410300423, -3168.851514917793, -31422.97642504888, 0.76, -0.504, 0.466, 192.0, 0.0, 0.0, 0.0, 0.0, 0.0, 0.0, 0.0, 0.0, 0.0, 1.6635009155952408E9, 0.0, 2022-09-18 16:35:15.595
189.0, -24726.103213560968, -37994.32223967579, -77470.40867452725, -46112.74404677678, -39867.37607328607, -23695.93366336032, -264.6670060952909, -31381.983325717847, 0.76, -0.504, 0.466, 192.0, 0.0, 0.0, 0.0, 0.0, 0.0, 0.0, 0.0, 0.0, 0.0, 1.6635009155993102E9, 0.0, 2022-09-18 16:35:15.599
190.0, -24585.331926981442, -37671.004256129774, -77435.8752293438, -45842.66791852331, -39986.421464255036, -23721.92874216184, -175.3494352518839, -31422.618797137595, 0.766, -0.508, 0.47200000000000003, 192.0, 23.0, 240.0, 240.0, 32.0, 14.0, 192.0, 0.0, 0.0, 0.0, 1.663500915603278E9, 0.0, 2022-09-18 16:35:15.603
191.0, -25048.080092439664, -37584.458301598825, -77263.07389295983, -46062.05029035214, -39915.36526863161, -23652.191299461283, -2945.401125598088, -31296.174978753923, 0.766, -0.508, 0.47200000000000003, 192.0, 0.0, 0.0, 0.0, 0.0, 0.0, 0.0, 0.0, 0.0, 0.0, 1.6635009156062737E9, 0.0, 2022-09-18 16:35:15.606
192.0, -25267.171891590584, -37434.27693060362, -77216.80578193734, -46158.85569558808, -39808.81450281316, -23580.218682315193, -4982.337949554676, -31285.200272226368, 0.766, -0.508, 0.47200000000000003, 192.0, 0.0, 0.0, 0.0, 0.0, 0.0, 0.0, 0.0, 0.0, 0.0, 1.6635009156103177E9, 0.0, 2022-09-18 16:35:15.610
193.0, -25353.181404254607, -38107.310307897365, -77281.15645422417, -46555.867380603246, -39732.840923409574, -23508.201361680196, -3356.226188686632, -31445.395224737553, 0.766, -0.508, 0.47200000000000003, 192.0, 0.0, 0.0, 0.0, 0.0, 0.0, 0.0, 0.0, 0.0, 0.0, 1.663500915614306E9, 0.0, 2022-09-18 16:35:15.614
194.0, -24736.832050899513, -38038.019900085914, -77488.58064276942, -46168.10931779258, -39885.92802118397, -23713.904465902386, -403.35958044047123, -31421.612968637106, 0.766, -0.508, 0.47200000000000003, 192.0, 0.0, 0.0, 0.0, 0.0, 0.0, 0.0, 0.0, 0.0, 0.0, 1.6635009156192584E9, 0.0, 2022-09-18 16:35:15.619
195.0, -24556.609935356373, -37674.4911282648, -77409.83544705337, -45836.5211887981, -39983.80631015376, -23730.98119866624, -83.68493124066964, -31421.54591340374, 0.766, -0.508, 0.47200000000000003, 192.0, 0.0, 0.0, 0.0, 0.0, 0.0, 0.0, 0.0, 0.0, 0.0, 1.6635009156233807E9, 0.0, 2022-09-18 16:35:15.623
196.0, -25026.57771427366, -37610.09575248906, -77253.68616028859, -46061.06681359611, -39899.67434402399, -23644.189374946283, -2766.5201147222656, -31282.56276638064, 0.766, -0.508, 0.47200000000000003, 192.0, 0.0, 0.0, 0.0, 0.0, 0.0, 0.0, 0.0, 0.0, 0.0, 1.6635009156273324E9, 0.0, 2022-09-18 16:35:15.627
197.0, -25232.169059773572, -37431.862942202446, -77240.94566594907, -46147.165733237955, -39805.57349986715, -23587.594757985444, -4963.629539445584, -31247.761100263728, 0.766, -0.508, 0.47200000000000003, 192.0, 0.0, 0.0, 0.0, 0.0, 0.0, 0.0, 0.0, 0.0, 0.0, 1.6635009156312697E9, 0.0, 2022-09-18 16:35:15.631
198.0, -25362.747950881476, -38083.57275528583, -77250.35575036476, -46547.6866421326, -39737.06540311163, -23526.9544752782, -3515.0800365304995, -31426.84327683965, 0.766, -0.508, 0.47200000000000003, 192.0, 0.0, 0.0, 0.0, 0.0, 0.0, 0.0, 0.0, 0.0, 0.0, 1.6635009156343355E9, 0.0, 2022-09-18 16:35:15.634
199.0, -24824.115612997488, -38082.29870585188, -77481.07045663244, -46215.96440267139, -39878.060207135706, -23714.016224624662, -517.9346225183752, -31437.99679732285, 0.766, -0.508, 0.47200000000000003, 192.0, 0.0, 0.0, 0.0, 0.0, 0.0, 0.0, 0.0, 0.0, 0.0, 1.6635009156383598E9, 0.0, 2022-09-18 16:35:15.638
200.0, -24559.58271736893, -37684.21413710286, -77459.12104357732, -45842.846732478945, -39992.16586258005, -23747.74500700772, -5.140901224720625, -31481.068608888225, 0.77, -0.512, 0.47200000000000003, 192.0, 24.0, 16.0, 240.0, 0.0, 14.0, 192.0, 0.0, 0.0, 0.0, 1.6635009156423209E9, 0.0, 2022-09-18 16:35:15.642
201.0, -25002.638995962025, -37625.294938718675, -77292.53349215192, -46070.767470689716, -39923.38954489107, -23665.177662989816, -2593.8528888050187, -31361.218555118867, 0.77, -0.512, 0.47200000000000003, 192.0, 0.0, 0.0, 0.0, 0.0, 0.0, 0.0, 0.0, 0.0, 0.0, 1.6635009156463697E9, 0.0, 2022-09-18 16:35:15.646
202.0, -25203.31295768177, -37407.27602330161, -77227.86989544272, -46135.498122632285, -39816.07881976114, -23604.6714907493, -4908.510137618797, -31257.70762654634, 0.77, -0.512, 0.47200000000000003, 192.0, 0.0, 0.0, 0.0, 0.0, 0.0, 0.0, 0.0, 0.0, 0.0, 1.663500915651323E9, 0.0, 2022-09-18 16:35:15.651
203.0, -25368.045314317384, -38040.702109420556, -77231.80380246685, -46541.092877518284, -39728.5270367297, -23511.46471637067, -3665.954311603822, -31401.11641897159, 0.77, -0.512, 0.47200000000000003, 192.0, 0.0, 0.0, 0.0, 0.0, 0.0, 0.0, 0.0, 0.0, 0.0, 1.663500915655388E9, 0.0, 2022-09-18 16:35:15.655
204.0, -24852.435273222363, -38104.15871192917, -77496.64962251778, -46255.01290023481, -39862.57044822818, -23692.424439480834, -652.3133101836813, -31407.620776608084, 0.77, -0.512, 0.47200000000000003, 192.0, 0.0, 0.0, 0.0, 0.0, 0.0, 0.0, 0.0, 0.0, 0.0, 1.6635009156594064E9, 0.0, 2022-09-18 16:35:15.659
205.0, -24534.638170556806, -37683.58828825811, -77500.91880570874, -45838.55519754353, -39995.65273471508, -23756.88687048994, 51.498419225027476, -31439.65082641254, 0.77, -0.512, 0.47200000000000003, 192.0, 0.0, 0.0, 0.0, 0.0, 0.0, 0.0, 0.0, 0.0, 0.0, 1.6635009156623957E9, 0.0, 2022-09-18 16:35:15.662
206.0, -24960.349495452585, -37624.49027591828, -77305.40809695817, -46058.58576996157, -39922.09314371266, -23665.557642645555, -2416.3800378298806, -31344.901781666493, 0.77, -0.512, 0.47200000000000003, 192.0, 0.0, 0.0, 0.0, 0.0, 0.0, 0.0, 0.0, 0.0, 0.0, 1.6635009156664076E9, 0.0, 2022-09-18 16:35:15.666
207.0, -25179.418942859047, -37372.720226373705, -77214.59295923627, -46108.31840137463, -39820.83974133012, -23609.544171040558, -4835.598747205585, -31247.202306652347, 0.77, -0.512, 0.47200000000000003, 192.0, 0.0, 0.0, 0.0, 0.0, 0.0, 0.0, 0.0, 0.0, 0.0, 1.6635009156704056E9, 0.0, 2022-09-18 16:35:15.670
208.0, -25373.432084731114, -37982.85579477022, -77208.26741555541, -46513.19790043806, -39721.665051181924, -23505.11682094536, -3791.5711154426476, -31393.628584579063, 0.77, -0.512, 0.47200000000000003, 192.0, 0.0, 0.0, 0.0, 0.0, 0.0, 0.0, 0.0, 0.0, 0.0, 1.6635009156744432E9, 0.0, 2022-09-18 16:35:15.674
209.0, -24888.01925039521, -38113.65820332267, -77458.45049124367, -46279.979798791384, -39842.63269217404, -23674.54304391659, -761.1663056810268, -31393.181549689958, 0.77, -0.512, 0.47200000000000003, 192.0, 0.0, 0.0, 0.0, 0.0, 0.0, 0.0, 0.0, 0.0, 0.0, 1.66350091567944E9, 0.0, 2022-09-18 16:35:15.679
210.0, -24509.783030722505, -37680.88372717902, -77547.41043417579, -45833.615462018905, -40015.769304724854, -23775.014135243197, 109.85882399783421, -31445.75285264884, 0.768, -0.516, 0.462, 192.0, 24.0, 0.0, 239.0, 224.0, 14.0, 112.0, 0.0, 0.0, 0.0, 1.6635009156834188E9, 0.0, 2022-09-18 16:35:15.683
211.0, -24930.39815788247, -37626.52428466371, -77364.9084406982, -46047.65576692293, -39964.3826442221, -23696.78302964962, -2249.546617215469, -31370.248659878813, 0.768, -0.516, 0.462, 192.0, 0.0, 0.0, 0.0, 0.0, 0.0, 0.0, 0.0, 0.0, 0.0, 1.6635009156874406E9, 0.0, 2022-09-18 16:35:15.687
212.0, -25156.59781177018, -37351.57547611898, -77266.27019241694, -46092.44866281136, -39850.18758179994, -23634.801642275055, -4774.153801697946, -31279.165301223435, 0.768, -0.516, 0.462, 192.0, 0.0, 0.0, 0.0, 0.0, 0.0, 0.0, 0.0, 0.0, 0.0, 1.663500915690502E9, 0.0, 2022-09-18 16:35:15.690
213.0, -25367.21829977254, -37914.39240150361, -77195.19164504905, -46482.97834193449, -39732.17037107592, -23514.23633268313, -3922.261765272828, -31431.64890189754, 0.768, -0.516, 0.462, 192.0, 0.0, 0.0, 0.0, 0.0, 0.0, 0.0, 0.0, 0.0, 0.0, 1.6635009156944396E9, 0.0, 2022-09-18 16:35:15.694
214.0, -24940.210573698354, -38111.221863177045, -77409.50017088655, -46303.15855779154, -39824.840703587615, -23652.861851794944, -881.5975048062212, -31421.255340725824, 0.768, -0.516, 0.462, 192.0, 0.0, 0.0, 0.0, 0.0, 0.0, 0.0, 0.0, 0.0, 0.0, 1.6635009156984816E9, 0.0, 2022-09-18 16:35:15.698
215.0, -24523.641112284793, -37659.38134901301, -77497.00725042907, -45810.88373790786, -39982.15228106407, -23749.37668435296, 195.9130401507664, -31422.439983181954, 0.768, -0.516, 0.462, 192.0, 0.0, 0.0, 0.0, 0.0, 0.0, 0.0, 0.0, 0.0, 0.0, 1.663500915702479E9, 0.0, 2022-09-18 16:35:15.702
216.0, -24936.99192249679, -37623.68561311789, -77349.26221957948, -46026.980403301764, -39942.83556256718, -23681.06975329754, -2050.258463651951, -31340.431432775433, 0.768, -0.516, 0.462, 192.0, 0.0, 0.0, 0.0, 0.0, 0.0, 0.0, 0.0, 0.0, 0.0, 1.6635009157074332E9, 0.0, 2022-09-18 16:35:15.707
217.0, -25165.002067685375, -37347.887438283855, -77314.68407090713, -46087.68774124238, -39859.999997615814, -23652.794796561575, -4695.542716448631, -31249.057501442137, 0.768, -0.516, 0.462, 192.0, 0.0, 0.0, 0.0, 0.0, 0.0, 0.0, 0.0, 0.0, 0.0, 1.6635009157114203E9, 0.0, 2022-09-18 16:35:15.711
218.0, -25355.617744400235, -37871.94643878299, -77289.22543397253, -46471.221324351, -39737.735955445285, -23522.23825719813, -4080.288598571849, -31401.854026538615, 0.768, -0.516, 0.462, 192.0, 0.0, 0.0, 0.0, 0.0, 0.0, 0.0, 0.0, 0.0, 0.0, 1.6635009157155378E9, 0.0, 2022-09-18 16:35:15.715
219.0, -24943.764501066747, -38145.44238393812, -77486.77015146853, -46360.043747430296, -39823.521950664755, -23657.24279370818, -1072.7272716435518, -31442.51184970282, 0.768, -0.516, 0.462, 192.0, 0.0, 0.0, 0.0, 0.0, 0.0, 0.0, 0.0, 0.0, 0.0, 1.6635009157184837E9, 0.0, 2022-09-18 16:35:15.718
220.0, -24487.498341500563, -37681.46487253486, -77514.03927970401, -45842.0197179341, -39999.18431033901, -23782.569024869088, 205.47958677763782, -31465.51179474733, 0.764, -0.516, 0.464, 192.0, 23.0, 224.0, 239.0, 224.0, 14.0, 128.0, 0.0, 0.0, 0.0, 1.6635009157224762E9, 0.0, 2022-09-18 16:35:15.722
221.0, -24907.711137260336, -37627.12778176401, -77328.47509723605, -46026.354554457015, -39948.84818182566, -23685.741267888698, -1868.359967274662, -31367.700561010908, 0.764, -0.516, 0.464, 192.0, 0.0, 0.0, 0.0, 0.0, 0.0, 0.0, 0.0, 0.0, 0.0, 1.6635009157264917E9, 0.0, 2022-09-18 16:35:15.726
222.0, -25151.702779734467, -37323.23346414965, -77276.37318091073, -46066.74415668776, -39849.18175329945, -23639.562563844036, -4573.770412656118, -31245.525925818198, 0.764, -0.516, 0.464, 192.0, 0.0, 0.0, 0.0, 0.0, 0.0, 0.0, 0.0, 0.0, 0.0, 1.6635009157304575E9, 0.0, 2022-09-18 16:35:15.730
223.0, -25368.62645967322, -37814.05542064374, -77267.90186976217, -46450.72477468548, -39741.33458630259, -23526.08275724444, -4179.6644544201445, -31428.92198907399, 0.764, -0.516, 0.464, 192.0, 0.0, 0.0, 0.0, 0.0, 0.0, 0.0, 0.0, 0.0, 0.0, 1.6635009157344587E9, 0.0, 2022-09-18 16:35:15.734
224.0, -24997.00635635929, -38147.78931710593, -77453.86838363032, -46388.47516637745, -39800.11967422005, -23636.232153920195, -1197.2935434929782, -31441.371910735597, 0.764, -0.516, 0.464, 192.0, 0.0, 0.0, 0.0, 0.0, 0.0, 0.0, 0.0, 0.0, 0.0, 1.6635009157395165E9, 0.0, 2022-09-18 16:35:15.739
225.0, -24498.98713815059, -37678.53679401121, -77521.70592805218, -45838.35403184343, -39981.07939733021, -23773.494216620235, 251.97121524467653, -31420.49538141434, 0.764, -0.516, 0.464, 192.0, 0.0, 0.0, 0.0, 0.0, 0.0, 0.0, 0.0, 0.0, 0.0, 1.6635009157426164E9, 0.0, 2022-09-18 16:35:15.742
226.0, -24899.55275053415, -37638.370709225026, -77342.19906833161, -46020.207824731806, -39952.491516171875, -23690.815113880053, -1696.922087302457, -31359.49747079581, 0.764, -0.516, 0.464, 192.0, 0.0, 0.0, 0.0, 0.0, 0.0, 0.0, 0.0, 0.0, 0.0, 1.6635009157465637E9, 0.0, 2022-09-18 16:35:15.746
227.0, -25137.15179409406, -37337.31506315649, -77277.2448989445, -46067.481764254786, -39845.13608755304, -23639.495508610667, -4470.192428850225, -31229.387966321465, 0.764, -0.516, 0.464, 192.0, 0.0, 0.0, 0.0, 0.0, 0.0, 0.0, 0.0, 0.0, 0.0, 1.6635009157505295E9, 0.0, 2022-09-18 16:35:15.750
228.0, -25344.15129949466, -37763.80869910821, -77237.05646241385, -46413.41971318957, -39724.883702383486, -23514.66101582778, -4269.093783985828, -31370.74039825683, 0.764, -0.516, 0.464, 192.0, 0.0, 0.0, 0.0, 0.0, 0.0, 0.0, 0.0, 0.0, 0.0, 1.663500915754556E9, 0.0, 2022-09-18 16:35:15.754
229.0, -25051.745778530334, -38161.40152947921, -77418.15029599075, -46409.21758523197, -39780.11486293255, -23610.974682685697, -1327.8500828564268, -31429.07845128518, 0.764, -0.516, 0.464, 192.0, 0.0, 0.0, 0.0, 0.0, 0.0, 0.0, 0.0, 0.0, 0.0, 1.663500915758585E9, 0.0, 2022-09-18 16:35:15.758
230.0, -24489.241777568077, -37681.55427951268, -77588.93997537375, -45835.35889808642, -39962.4827459434, -23757.244498401225, 275.46289866720423, -31419.847180825138, 0.774, -0.516, 0.468, 192.0, 24.0, 48.0, 239.0, 224.0, 14.0, 160.0, 0.0, 0.0, 0.0, 1.663500915762611E9, 0.0, 2022-09-18 16:35:15.762
231.0, -24830.374101444973, -37624.44557242937, -77401.520598116, -45994.32450465256, -39949.16110624804, -23689.87634061293, -1527.473512586774, -31380.083427439145, 0.774, -0.516, 0.468, 192.0, 0.0, 0.0, 0.0, 0.0, 0.0, 0.0, 0.0, 0.0, 0.0, 1.663500915767548E9, 0.0, 2022-09-18 16:35:15.767
232.0, -25117.169334551018, -37331.92829274277, -77293.87459681924, -46055.74709841575, -39854.09913707962, -23660.34968618747, -4342.698078477154, -31243.357806606033, 0.774, -0.516, 0.468, 192.0, 0.0, 0.0, 0.0, 0.0, 0.0, 0.0, 0.0, 0.0, 0.0, 1.663500915770574E9, 0.0, 2022-09-18 16:35:15.770
233.0, -25279.57710976328, -37638.61657841403, -77259.92229699163, -46311.40635149555, -39736.79718217816, -23551.8096151125, -4201.390350030702, -31372.126206413057, 0.774, -0.516, 0.468, 192.0, 0.0, 0.0, 0.0, 0.0, 0.0, 0.0, 0.0, 0.0, 0.0, 1.6635009157745776E9, 0.0, 2022-09-18 16:35:15.774
234.0, -24995.12880982504, -38038.82456288631, -77419.08906925787, -46310.825206139714, -39782.14887167798, -23619.133069411884, -1208.6929331651847, -31408.22427370838, 0.774, -0.516, 0.468, 192.0, 0.0, 0.0, 0.0, 0.0, 0.0, 0.0, 0.0, 0.0, 0.0, 1.6635009157785912E9, 0.0, 2022-09-18 16:35:15.778
235.0, -24548.496252119097, -37687.76806447125, -77548.01393127607, -45851.89918898335, -39962.773318621315, -23771.50491136371, 308.43172173878213, -31423.691680871452, 0.774, -0.516, 0.468, 192.0, 0.0, 0.0, 0.0, 0.0, 0.0, 0.0, 0.0, 0.0, 0.0, 1.663500915782552E9, 0.0, 2022-09-18 16:35:15.782
236.0, -24827.110746754497, -37593.756627292234, -77415.26692095601, -45957.220608856755, -39956.7830511073, -23701.83452389652, -1291.7073120721952, -31408.1125149861, 0.774, -0.516, 0.468, 192.0, 0.0, 0.0, 0.0, 0.0, 0.0, 0.0, 0.0, 0.0, 0.0, 1.6635009157865522E9, 0.0, 2022-09-18 16:35:15.786
237.0, -25118.376328751605, -37339.05849922401, -77333.7501089275, -46074.70137771385, -39873.32163731118, -23661.176700732318, -4248.239606409026, -31260.74746379226, 0.774, -0.516, 0.468, 192.0, 0.0, 0.0, 0.0, 0.0, 0.0, 0.0, 0.0, 0.0, 0.0, 1.663500915790566E9, 0.0, 2022-09-18 16:35:15.790
238.0, -25314.57994158029, -37639.80122087017, -77244.70075901756, -46355.39458458359, -39741.312234558136, -23536.476318416157, -4423.231413749625, -31344.767671199763, 0.774, -0.516, 0.468, 192.0, 0.0, 0.0, 0.0, 0.0, 0.0, 0.0, 0.0, 0.0, 0.0, 1.6635009157956293E9, 0.0, 2022-09-18 16:35:15.795
239.0, -25112.050785070755, -38138.26747396797, -77397.92196725869, -46439.14657105763, -39778.23731639831, -23602.078688392485, -1557.0672222456005, -31420.830657581173, 0.774, -0.516, 0.468, 192.0, 0.0, 0.0, 0.0, 0.0, 0.0, 0.0, 0.0, 0.0, 0.0, 1.6635009157985692E9, 0.0, 2022-09-18 16:35:15.798
240.0, -24577.06178153298, -37740.495829641324, -77544.9517422857, -45904.35873321995, -39957.14067901858, -23754.89756523342, 265.4493171512267, -31443.74119564786, 0.776, -0.51, 0.47000000000000003, 192.0, 24.0, 64.0, 240.0, 16.0, 14.0, 176.0, 0.0, 0.0, 0.0, 1.6635009158025968E9, 0.0, 2022-09-18 16:35:15.802
241.0, -24854.379874989972, -37665.03634036021, -77411.13184823177, -46016.05040026312, -39949.921065559516, -23681.248567253184, -1248.6355005068185, -31402.122247472078, 0.776, -0.51, 0.47000000000000003, 192.0, 0.0, 0.0, 0.0, 0.0, 0.0, 0.0, 0.0, 0.0, 0.0, 1.663500915806584E9, 0.0, 2022-09-18 16:35:15.806
242.0, -25113.39188973807, -37375.17891826379, -77341.64027472022, -46090.34759883256, -39872.874602422075, -23659.276802453616, -4141.353564423748, -31240.51913506021, 0.776, -0.51, 0.47000000000000003, 192.0, 0.0, 0.0, 0.0, 0.0, 0.0, 0.0, 0.0, 0.0, 0.0, 1.6635009158105972E9, 0.0, 2022-09-18 16:35:15.810
243.0, -25337.512831391436, -37646.059709317655, -77278.45189314507, -46382.52960235233, -39762.74755749077, -23557.308144248505, -4572.0046248441495, -31368.035837177737, 0.776, -0.51, 0.47000000000000003, 192.0, 0.0, 0.0, 0.0, 0.0, 0.0, 0.0, 0.0, 0.0, 0.0, 1.6635009158146436E9, 0.0, 2022-09-18 16:35:15.814
244.0, -25186.638556318114, -38205.45681780062, -77377.73834201555, -46530.341688435285, -39747.034281138694, -23579.659888703813, -1833.357135457651, -31407.821942308183, 0.776, -0.51, 0.47000000000000003, 192.0, 0.0, 0.0, 0.0, 0.0, 0.0, 0.0, 0.0, 0.0, 0.0, 1.6635009158186016E9, 0.0, 2022-09-18 16:35:15.818
245.0, -24558.77805456854, -37767.67555089898, -77537.21803870417, -45922.10601831746, -39923.25543442433, -23749.264925630683, 255.88277052435527, -31384.017334463282, 0.776, -0.51, 0.47000000000000003, 192.0, 0.0, 0.0, 0.0, 0.0, 0.0, 0.0, 0.0, 0.0, 0.0, 1.6635009158237708E9, 0.0, 2022-09-18 16:35:15.823
246.0, -24791.839694004026, -37653.4357849879, -77403.28638592796, -45981.896934735414, -39955.03961503978, -23696.91714011635, -1031.10832346777, -31415.376831934078, 0.776, -0.51, 0.47000000000000003, 192.0, 0.0, 0.0, 0.0, 0.0, 0.0, 0.0, 0.0, 0.0, 0.0, 1.6635009158266263E9, 0.0, 2022-09-18 16:35:15.826
247.0, -25080.11014224412, -37368.652208882835, -77332.61016996029, -46069.426366022395, -39881.256506592814, -23674.766561361143, -3932.454160744448, -31296.644365387485, 0.776, -0.51, 0.47000000000000003, 192.0, 0.0, 0.0, 0.0, 0.0, 0.0, 0.0, 0.0, 0.0, 0.0, 1.663500915830675E9, 0.0, 2022-09-18 16:35:15.830
248.0, -25278.973612662987, -37568.25328686873, -77296.6909166206, -46322.291651045285, -39762.65815051296, -23550.781434867557, -4580.498287737166, -31379.748151272317, 0.776, -0.51, 0.47000000000000003, 192.0, 0.0, 0.0, 0.0, 0.0, 0.0, 0.0, 0.0, 0.0, 0.0, 1.6635009158347113E9, 0.0, 2022-09-18 16:35:15.834
249.0, -25204.072916993253, -38201.85818694332, -77404.6721940842, -46545.585578153805, -39759.484202800304, -23572.23910954465, -1978.285846505862, -31442.444794469455, 0.776, -0.51, 0.47000000000000003, 192.0, 0.0, 0.0, 0.0, 0.0, 0.0, 0.0, 0.0, 0.0, 0.0, 1.6635009158387227E9, 0.0, 2022-09-18 16:35:15.838
250.0, -24584.86254034788, -37809.093333374665, -77610.8223331955, -45964.1496496379, -39951.41863243802, -23764.642925815933, 223.8303689754449, -31402.010488749802, 0.774, -0.506, 0.47200000000000003, 192.0, 24.0, 48.0, 240.0, 48.0, 14.0, 192.0, 0.0, 0.0, 0.0, 1.6635009158426812E9, 0.0, 2022-09-18 16:35:15.842
251.0, -24761.955411667277, -37659.202535057375, -77469.55930823795, -45976.97955095524, -39976.00555133886, -23708.763564677665, -885.9560949750061, -31402.435171894453, 0.774, -0.506, 0.47200000000000003, 192.0, 0.0, 0.0, 0.0, 0.0, 0.0, 0.0, 0.0, 0.0, 0.0, 1.6635009158467283E9, 0.0, 2022-09-18 16:35:15.846
252.0, -25042.112176670096, -37366.841717581956, -77342.19906833161, -46056.3729472605, -39873.500451266824, -23660.640258865387, -3778.1824205139187, -31243.536620561677, 0.774, -0.506, 0.47200000000000003, 192.0, 0.0, 0.0, 0.0, 0.0, 0.0, 0.0, 0.0, 0.0, 0.0, 1.663500915851652E9, 0.0, 2022-09-18 16:35:15.851
253.0, -25258.007676363908, -37512.61979491947, -77295.7968468424, -46292.563830919724, -39773.7893192517, -23565.511234463604, -4626.386419103911, -31361.44207256342, 0.774, -0.506, 0.47200000000000003, 192.0, 0.0, 0.0, 0.0, 0.0, 0.0, 0.0, 0.0, 0.0, 0.0, 1.663500915854713E9, 0.0, 2022-09-18 16:35:15.854
254.0, -25247.658818681102, -38191.73284670506, -77362.91913544168, -46565.65744467467, -39745.89434217147, -23562.33728675095, -2139.6207379842685, -31451.899582374048, 0.774, -0.506, 0.47200000000000003, 192.0, 0.0, 0.0, 0.0, 0.0, 0.0, 0.0, 0.0, 0.0, 0.0, 1.6635009158578136E9, 0.0, 2022-09-18 16:35:15.857
255.0, -24622.279360566066, -37838.865856989134, -77600.83110342397, -46002.326429167566, -39947.64118762508, -23777.025792244174, 179.73037716512408, -31455.945248120457, 0.774, -0.506, 0.47200000000000003, 192.0, 0.0, 0.0, 0.0, 0.0, 0.0, 0.0, 0.0, 0.0, 0.0, 1.6635009158627205E9, 0.0, 2022-09-18 16:35:15.862
0.0, -24734.12748982042, -37652.765232654245, -77457.46701448763, -45962.33915833702, -39978.62070544013, -23720.721747961255, -732.2655001003146, -31459.677989444495, 0.774, -0.506, 0.47200000000000003, 192.0, 0.0, 0.0, 0.0, 0.0, 0.0, 0.0, 0.0, 0.0, 0.0, 1.6635009158666983E9, 0.0, 2022-09-18 16:35:15.866
1.0, -25024.47665029486, -37362.03609252407, -77340.2097630751, -46042.00077557573, -39879.244849591836, -23663.858910066952, -3605.7834155301352, -31256.746501534763, 0.774, -0.506, 0.47200000000000003, 192.0, 0.0, 0.0, 0.0, 0.0, 0.0, 0.0, 0.0, 0.0, 0.0, 1.6635009158706968E9, 0.0, 2022-09-18 16:35:15.870
2.0, -25231.833783606744, -37431.639424757894, -77269.5335471074, -46234.60575754711, -39765.02743542522, -23563.030190829064, -4640.244500666202, -31311.083592305615, 0.774, -0.506, 0.47200000000000003, 192.0, 0.0, 0.0, 0.0, 0.0, 0.0, 0.0, 0.0, 0.0, 0.0, 1.6635009158747456E9, 0.0, 2022-09-18 16:35:15.874
3.0, -25281.834635953266, -38158.24993351101, -77344.27778056596, -46563.064642317855, -39730.136362330486, -23547.875708088366, -2304.0401701975075, -31411.68879409895, 0.774, -0.506, 0.47200000000000003, 192.0, 0.0, 0.0, 0.0, 0.0, 0.0, 0.0, 0.0, 0.0, 0.0, 1.6635009158787177E9, 0.0, 2022-09-18 16:35:15.878
4.0, -24649.101453912433, -37852.12044145113, -77566.18589951824, -46015.178682229365, -39895.15929164401, -23725.728538719242, 120.31944040291792, -31371.54506105722, 0.77, -0.504, 0.47000000000000003, 192.0, 24.0, 16.0, 240.0, 64.0, 14.0, 176.0, 0.0, 0.0, 0.0, 1.6635009158827212E9, 0.0, 2022-09-18 16:35:15.882
5.0, -24707.260692985143, -37641.00821507075, -77486.65839274626, -45937.573425480536, -39966.43900471199, -23707.757736177176, -602.5359752817125, -31416.248549967833, 0.77, -0.504, 0.47000000000000003, 192.0, 0.0, 0.0, 0.0, 0.0, 0.0, 0.0, 0.0, 0.0, 0.0, 1.6635009158857157E9, 0.0, 2022-09-18 16:35:15.885
6.0, -24997.095763337107, -37354.57060987599, -77395.06094396842, -46033.551816171625, -39907.16217841652, -23686.747096389186, -3433.183244846254, -31295.616185142542, 0.77, -0.504, 0.47000000000000003, 192.0, 0.0, 0.0, 0.0, 0.0, 0.0, 0.0, 0.0, 0.0, 0.0, 1.66350091589079E9, 0.0, 2022-09-18 16:35:15.890
7.0, -25180.290660892806, -37354.950589531734, -77333.63835020523, -46198.21711757388, -39806.176996967435, -23590.031098131072, -4641.183273933324, -31377.758846015793, 0.77, -0.504, 0.47000000000000003, 192.0, 0.0, 0.0, 0.0, 0.0, 0.0, 0.0, 0.0, 0.0, 0.0, 1.663500915894798E9, 0.0, 2022-09-18 16:35:15.894
8.0, -25290.440057568558, -38128.298595940905, -77358.91817318418, -46577.32505528034, -39739.546446746164, -23536.453966671703, -2443.850331765453, -31461.242611556365, 0.77, -0.504, 0.47000000000000003, 192.0, 0.0, 0.0, 0.0, 0.0, 0.0, 0.0, 0.0, 0.0, 0.0, 1.6635009158987477E9, 0.0, 2022-09-18 16:35:15.898
9.0, -24688.596986364963, -37890.945421569995, -77582.6591351818, -46065.850086909544, -39902.71418126991, -23726.75671896419, 74.78893694745743, -31395.4614276244, 0.77, -0.504, 0.47000000000000003, 192.0, 0.0, 0.0, 0.0, 0.0, 0.0, 0.0, 0.0, 0.0, 0.0, 1.663500915902872E9, 0.0, 2022-09-18 16:35:15.902
10.0, -24689.69222184327, -37647.244351773785, -77513.36872737035, -45936.1429138354, -39991.89764164658, -23724.387434051925, -452.5110664976915, -31428.094974529147, 0.77, -0.504, 0.47000000000000003, 192.0, 0.0, 0.0, 0.0, 0.0, 0.0, 0.0, 0.0, 0.0, 0.0, 1.663500915907795E9, 0.0, 2022-09-18 16:35:15.907
11.0, -24952.8393093156, -37347.2168859502, -77396.11147595782, -46015.62571711847, -39922.294309412755, -23696.98419534972, -3233.0457249934348, -31285.602603626565, 0.77, -0.504, 0.47000000000000003, 192.0, 0.0, 0.0, 0.0, 0.0, 0.0, 0.0, 0.0, 0.0, 0.0, 1.6635009159107769E9, 0.0, 2022-09-18 16:35:15.910
12.0, -25144.460814530947, -37268.02465534504, -77304.2011027576, -46131.54186386369, -39807.585156868125, -23595.037888889063, -4600.05606413556, -31334.44116526141, 0.77, -0.504, 0.47000000000000003, 192.0, 0.0, 0.0, 0.0, 0.0, 0.0, 0.0, 0.0, 0.0, 0.0, 1.6635009159138253E9, 0.0, 2022-09-18 16:35:15.913
13.0, -25345.96179079554, -38091.954659456576, -77328.56450421388, -46566.6409214307, -39710.757399887734, -23503.418088366758, -2591.8859352929517, -31423.80343959373, 0.77, -0.504, 0.47000000000000003, 192.0, 0.0, 0.0, 0.0, 0.0, 0.0, 0.0, 0.0, 0.0, 0.0, 1.6635009159179232E9, 0.0, 2022-09-18 16:35:15.917
14.0, -24771.14197863841, -37934.97835814695, -77545.26466670808, -46108.89954673047, -39864.5597534847, -23695.240759282206, -14.68509610713674, -31358.916325439972, 0.766, -0.508, 0.47200000000000003, 192.0, 23.0, 240.0, 240.0, 32.0, 14.0, 192.0, 0.0, 0.0, 0.0, 1.6635009159228048E9, 0.0, 2022-09-18 16:35:15.922
15.0, -24701.98568129369, -37654.84394488859, -77495.82260797294, -45923.53652996261, -39957.610065652145, -23703.846180897497, -349.6259867699131, -31400.53527361575, 0.766, -0.508, 0.47200000000000003, 192.0, 0.0, 0.0, 0.0, 0.0, 0.0, 0.0, 0.0, 0.0, 0.0, 1.6635009159267983E9, 0.0, 2022-09-18 16:35:15.926
16.0, -24924.251428157262, -37350.10026098493, -77451.8343748849, -45996.49262386473, -39917.823960521695, -23693.542026703602, -3089.99456047947, -31285.08851350409, 0.766, -0.508, 0.47200000000000003, 192.0, 0.0, 0.0, 0.0, 0.0, 0.0, 0.0, 0.0, 0.0, 0.0, 1.663500915930813E9, 0.0, 2022-09-18 16:35:15.930
17.0, -25080.15484573303, -37201.32704989041, -77349.48573702405, -46084.91612492992, -39824.25955823178, -23615.825011232497, -4638.143436687403, -31346.95814215638, 0.766, -0.508, 0.47200000000000003, 192.0, 0.0, 0.0, 0.0, 0.0, 0.0, 0.0, 0.0, 0.0, 0.0, 1.66350091593484E9, 0.0, 2022-09-18 16:35:15.934
18.0, -25361.183328769606, -38065.71371146604, -77312.33713773932, -46572.87705813373, -39717.1723505464, -23505.22857966764, -2795.7561964698075, -31441.975407835893, 0.766, -0.508, 0.47200000000000003, 192.0, 0.0, 0.0, 0.0, 0.0, 0.0, 0.0, 0.0, 0.0, 0.0, 1.6635009159388556E9, 0.0, 2022-09-18 16:35:15.938
19.0, -24837.169031759386, -37996.780931565874, -77526.60096008789, -46170.25508526029, -39856.736642925345, -23684.78014287712, -145.46515291513836, -31362.894935953016, 0.766, -0.508, 0.47200000000000003, 192.0, 0.0, 0.0, 0.0, 0.0, 0.0, 0.0, 0.0, 0.0, 0.0, 1.6635009159418833E9, 0.0, 2022-09-18 16:35:15.941
20.0, -24719.30828324655, -37688.215099360365, -77511.91586398076, -45941.12735284893, -39977.36900775063, -23724.096861374004, -271.8419160654445, -31407.576073119173, 0.766, -0.508, 0.47200000000000003, 192.0, 0.0, 0.0, 0.0, 0.0, 0.0, 0.0, 0.0, 0.0, 0.0, 1.663500915946006E9, 0.0, 2022-09-18 16:35:15.946
21.0, -24970.9442223244, -37392.635630683384, -77446.31349400444, -46020.72191485428, -39940.198056721456, -23716.005529881186, -2921.4624072864544, -31296.040868287193, 0.766, -0.508, 0.47200000000000003, 192.0, 0.0, 0.0, 0.0, 0.0, 0.0, 0.0, 0.0, 0.0, 0.0, 1.6635009159509404E9, 0.0, 2022-09-18 16:35:15.950
22.0, -25074.790427063755, -37158.67992146968, -77360.2592778515, -46055.68004318238, -39828.66285188948, -23617.56844730001, -4592.411767531845, -31327.936807624916, 0.766, -0.508, 0.47200000000000003, 192.0, 0.0, 0.0, 0.0, 0.0, 0.0, 0.0, 0.0, 0.0, 0.0, 1.6635009159548695E9, 0.0, 2022-09-18 16:35:15.954
23.0, -25359.998686313473, -38030.10738254874, -77310.750163883, -46572.11709882225, -39713.28314701118, -23486.22959688063, -2936.5498347937864, -31465.55649823624, 0.766, -0.508, 0.47200000000000003, 192.0, 0.0, 0.0, 0.0, 0.0, 0.0, 0.0, 0.0, 0.0, 0.0, 1.663500915958908E9, 0.0, 2022-09-18 16:35:15.958
24.0, -24848.054331309122, -38033.01310932793, -77538.69325383822, -46217.81959746118, -39845.51606720878, -23671.25733748166, -253.5581891010033, -31375.903651226003, 0.766, -0.508, 0.468, 192.0, 23.0, 240.0, 240.0, 32.0, 14.0, 160.0, 0.0, 0.0, 0.0, 1.6635009159629788E9, 0.0, 2022-09-18 16:35:15.962
25.0, -24659.606773806427, -37698.02751517624, -77530.08783222293, -45937.841646414, -39973.70332165997, -23723.627474740446, -202.90913616527752, -31408.246625452834, 0.766, -0.508, 0.468, 192.0, 0.0, 0.0, 0.0, 0.0, 0.0, 0.0, 0.0, 0.0, 0.0, 1.6635009159670336E9, 0.0, 2022-09-18 16:35:15.967
26.0, -24919.06582344363, -37417.7813431956, -77411.8247523099, -46019.53727239815, -39934.83363805219, -23699.711108173266, -2775.6619782044863, -31292.822217085628, 0.766, -0.508, 0.468, 192.0, 0.0, 0.0, 0.0, 0.0, 0.0, 0.0, 0.0, 0.0, 0.0, 1.6635009159699285E9, 0.0, 2022-09-18 16:35:15.969
27.0, -25033.730272499357, -37125.73345014256, -77362.44974880813, -46020.87837706547, -39838.54232293872, -23624.58689505898, -4584.722767439219, -31286.47432166032, 0.766, -0.508, 0.468, 192.0, 0.0, 0.0, 0.0, 0.0, 0.0, 0.0, 0.0, 0.0, 0.0, 1.6635009159739044E9, 0.0, 2022-09-18 16:35:15.973
28.0, -25356.087131033797, -37982.07348371428, -77301.7424108675, -46545.47381943153, -39706.39880971894, -23480.88752995581, -3098.75644430595, -31411.286462698754, 0.766, -0.508, 0.468, 192.0, 0.0, 0.0, 0.0, 0.0, 0.0, 0.0, 0.0, 0.0, 0.0, 1.6635009159790163E9, 0.0, 2022-09-18 16:35:15.979
29.0, -24907.197047137863, -38063.09855736477, -77510.46300059116, -46251.21310367741, -39831.412116457475, -23659.67913385381, -365.98746371119785, -31385.559604830698, 0.766, -0.508, 0.468, 192.0, 0.0, 0.0, 0.0, 0.0, 0.0, 0.0, 0.0, 0.0, 0.0, 1.6635009159829605E9, 0.0, 2022-09-18 16:35:15.982
30.0, -24670.872053011903, -37687.65630574898, -77511.51353258056, -45917.3898002374, -39968.33890299069, -23724.07450962955, -105.00849545103259, -31427.603236151128, 0.766, -0.508, 0.468, 192.0, 0.0, 0.0, 0.0, 0.0, 0.0, 0.0, 0.0, 0.0, 0.0, 1.6635009159869788E9, 0.0, 2022-09-18 16:35:15.986
31.0, -24926.799527025167, -37422.139933364386, -77401.5653016049, -46003.354609412505, -39927.09993447065, -23695.285462771113, -2596.5350981396555, -31298.410153199453, 0.766, -0.508, 0.468, 192.0, 0.0, 0.0, 0.0, 0.0, 0.0, 0.0, 0.0, 0.0, 0.0, 1.663500915989956E9, 0.0, 2022-09-18 16:35:15.989
32.0, -25010.52916175475, -37071.91044949418, -77351.09506262482, -45975.57139105456, -39841.69391890692, -23636.075691709008, -4533.425513914289, -31266.670676072918, 0.766, -0.508, 0.468, 192.0, 0.0, 0.0, 0.0, 0.0, 0.0, 0.0, 0.0, 0.0, 0.0, 1.663500915993935E9, 0.0, 2022-09-18 16:35:15.993
33.0, -25349.471014675026, -37904.244709520906, -77322.03779483293, -46508.41462712463, -39720.547463959156, -23495.84084699641, -3216.7960067744266, -31414.415706922497, 0.766, -0.508, 0.468, 192.0, 0.0, 0.0, 0.0, 0.0, 0.0, 0.0, 0.0, 0.0, 0.0, 1.6635009159980292E9, 0.0, 2022-09-18 16:35:15.998
34.0, -24918.30586413215, -38067.01011264445, -77592.1139230864, -46279.80098483575, -39837.4023839715, -23661.19905247677, -462.56935150257965, -31375.97070645937, 0.766, -0.508, 0.468, 192.0, 0.0, 0.0, 0.0, 0.0, 0.0, 0.0, 0.0, 0.0, 0.0, 1.663500916002046E9, 0.0, 2022-09-18 16:35:16.002
35.0, -24599.614691688384, -37677.62037248855, -77580.13338805836, -45912.60652692396, -39982.80048165327, -23738.133756891937, -17.479064164050122, -31431.671253641995, 0.766, -0.51, 0.47600000000000003, 192.0, 23.0, 240.0, 240.0, 16.0, 14.0, 224.0, 0.0, 0.0, 0.0, 1.6635009160060809E9, 0.0, 2022-09-18 16:35:16.006
36.0, -24862.650020438436, -37417.96015715125, -77380.01821995, -45995.79971978661, -39934.07367874071, -23698.481762228224, -2403.4830812791683, -31324.4946389788, 0.766, -0.51, 0.47600000000000003, 192.0, 0.0, 0.0, 0.0, 0.0, 0.0, 0.0, 0.0, 0.0, 0.0, 1.663500916011E9, 0.0, 2022-09-18 16:35:16.011
37.0, -24965.825672844134, -37012.92419587662, -77350.02217889097, -45938.46749525875, -39847.93005560995, -23642.803566790055, -4462.369318290868, -31282.56276638064, 0.766, -0.51, 0.47600000000000003, 192.0, 0.0, 0.0, 0.0, 0.0, 0.0, 0.0, 0.0, 0.0, 0.0, 1.6635009160150616E9, 0.0, 2022-09-18 16:35:16.015
38.0, -25325.711110319033, -37832.58501679719, -77358.80641446191, -46486.1746413916, -39728.3258710296, -23491.348146360895, -3365.5915696134057, -31449.21737303941, 0.766, -0.51, 0.47600000000000003, 192.0, 0.0, 0.0, 0.0, 0.0, 0.0, 0.0, 0.0, 0.0, 0.0, 1.6635009160180297E9, 0.0, 2022-09-18 16:35:16.018
39.0, -24990.591405700616, -38105.23159566303, -77526.44449787671, -46345.89509319009, -39844.24201777483, -23664.238889722692, -598.7361787243103, -31436.901561844537, 0.766, -0.51, 0.47600000000000003, 192.0, 0.0, 0.0, 0.0, 0.0, 0.0, 0.0, 0.0, 0.0, 0.0, 1.6635009160220852E9, 0.0, 2022-09-18 16:35:16.022
40.0, -24666.848739009947, -37701.201462888894, -77529.9984252451, -45934.53358823462, -39964.67321690002, -23720.855858427985, 56.23698904955257, -31407.196093463433, 0.766, -0.51, 0.47600000000000003, 192.0, 0.0, 0.0, 0.0, 0.0, 0.0, 0.0, 0.0, 0.0, 0.0, 1.663500916026015E9, 0.0, 2022-09-18 16:35:16.026
41.0, -24919.669320543926, -37462.73070129522, -77401.34178416035, -46018.531443897664, -39923.277786168794, -23683.036706809606, -2242.282300267494, -31282.451007658365, 0.766, -0.51, 0.47600000000000003, 192.0, 0.0, 0.0, 0.0, 0.0, 0.0, 0.0, 0.0, 0.0, 0.0, 1.6635009160300653E9, 0.0, 2022-09-18 16:35:16.030
42.0, -24989.496170222304, -37023.720088448536, -77375.32435361437, -45945.754163951184, -39861.22934356086, -23652.72774132821, -4420.392742203801, -31251.247972398756, 0.766, -0.51, 0.47600000000000003, 192.0, 0.0, 0.0, 0.0, 0.0, 0.0, 0.0, 0.0, 0.0, 0.0, 1.6635009160350246E9, 0.0, 2022-09-18 16:35:16.035
43.0, -25363.083227048308, -37811.306156075734, -77319.04266107592, -46486.28640011387, -39718.2228825358, -23477.668878754244, -3499.255001456142, -31426.306834972722, 0.766, -0.51, 0.47600000000000003, 192.0, 0.0, 0.0, 0.0, 0.0, 0.0, 0.0, 0.0, 0.0, 0.0, 1.6635009160390177E9, 0.0, 2022-09-18 16:35:16.039
44.0, -25051.186984918953, -38159.76985213398, -77511.02179420255, -46397.70643683749, -39789.83787177061, -23616.741432755167, -730.1644361215158, -31390.655802566507, 0.766, -0.51, 0.47600000000000003, 192.0, 0.0, 0.0, 0.0, 0.0, 0.0, 0.0, 0.0, 0.0, 0.0, 1.6635009160431175E9, 0.0, 2022-09-18 16:35:16.043
45.0, -24661.998410463144, -37750.04002452374, -77557.24520173612, -45956.32653907854, -39962.05806279875, -23738.759605736686, 89.85401271033439, -31401.719916071885, 0.76, -0.506, 0.47400000000000003, 192.0, 23.0, 192.0, 240.0, 48.0, 14.0, 208.0, 0.0, 0.0, 0.0, 1.6635009160462399E9, 0.0, 2022-09-18 16:35:16.046
46.0, -24917.300035631662, -37529.025975349665, -77436.9257613332, -46043.85597036553, -39943.46141141193, -23705.902541387386, -2114.98911559452, -31319.62195868754, 0.76, -0.506, 0.47400000000000003, 192.0, 0.0, 0.0, 0.0, 0.0, 0.0, 0.0, 0.0, 0.0, 0.0, 1.663500916050116E9, 0.0, 2022-09-18 16:35:16.050
47.0, -24964.685733876915, -37039.76864096745, -77417.56915063491, -45945.66475697336, -39879.311904825205, -23678.588709663, -4383.735881297098, -31288.061295516647, 0.76, -0.506, 0.47400000000000003, 192.0, 0.0, 0.0, 0.0, 0.0, 0.0, 0.0, 0.0, 0.0, 0.0, 1.6635009160541415E9, 0.0, 2022-09-18 16:35:16.054
48.0, -25327.454546386547, -37760.8135653512, -77315.37697498525, -46454.09988809823, -39702.95664107283, -23465.12955011482, -3619.9767732592554, -31414.84039006715, 0.76, -0.506, 0.47400000000000003, 192.0, 0.0, 0.0, 0.0, 0.0, 0.0, 0.0, 0.0, 0.0, 0.0, 1.6635009160581572E9, 0.0, 2022-09-18 16:35:16.058
49.0, -25077.092656742654, -38200.60648925382, -77499.39888708579, -46437.291376267836, -39772.71643551784, -23590.701650464733, -851.8026294472968, -31362.35849408609, 0.76, -0.506, 0.47400000000000003, 192.0, 0.0, 0.0, 0.0, 0.0, 0.0, 0.0, 0.0, 0.0, 0.0, 1.6635009160620513E9, 0.0, 2022-09-18 16:35:16.062
50.0, -24653.30358187003, -37783.58999295116, -77554.27241972357, -45966.67539676135, -39944.5789986347, -23717.45839327078, 160.03849029999856, -31368.840499978127, 0.76, -0.506, 0.47400000000000003, 192.0, 0.0, 0.0, 0.0, 0.0, 0.0, 0.0, 0.0, 0.0, 0.0, 1.6635009160671043E9, 0.0, 2022-09-18 16:35:16.067
51.0, -24893.20485510884, -37559.46905129779, -77414.1269819888, -46041.598444175535, -39931.48087638389, -23683.79666612109, -1907.9225549605555, -31299.751257866774, 0.76, -0.506, 0.47400000000000003, 192.0, 0.0, 0.0, 0.0, 0.0, 0.0, 0.0, 0.0, 0.0, 0.0, 1.6635009160711315E9, 0.0, 2022-09-18 16:35:16.071
52.0, -24929.0347014707, -37031.073812374336, -77387.46135085361, -45920.56374795005, -39872.7628436998, -23664.507110656155, -4252.732307044543, -31234.75238499074, 0.76, -0.506, 0.47400000000000003, 192.0, 0.0, 0.0, 0.0, 0.0, 0.0, 0.0, 0.0, 0.0, 0.0, 1.6635009160741541E9, 0.0, 2022-09-18 16:35:16.074
53.0, -25313.082374701786, -37712.84672175011, -77312.2477307615, -46429.468265708485, -39733.824400165606, -23486.20724513617, -3697.1349951189754, -31409.386564420056, 0.76, -0.506, 0.47400000000000003, 192.0, 0.0, 0.0, 0.0, 0.0, 0.0, 0.0, 0.0, 0.0, 0.0, 1.663500916078068E9, 0.0, 2022-09-18 16:35:16.078
54.0, -25142.203288340963, -38240.28083566199, -77504.58449179943, -46489.88503097118, -39773.92342971843, -23581.135103837863, -960.4768109889998, -31392.39923863402, 0.76, -0.506, 0.47400000000000003, 192.0, 0.0, 0.0, 0.0, 0.0, 0.0, 0.0, 0.0, 0.0, 0.0, 1.663500916082129E9, 0.0, 2022-09-18 16:35:16.082
55.0, -24659.763236017614, -37829.34401385117, -77641.15365042134, -46004.606307102, -39965.74610063387, -23732.769338222664, 187.48643249111564, -31416.852047068125, 0.766, -0.506, 0.47600000000000003, 192.0, 23.0, 240.0, 240.0, 48.0, 14.0, 224.0, 0.0, 0.0, 0.0, 1.6635009160862637E9, 0.0, 2022-09-18 16:35:16.086
56.0, -24867.567404218604, -37615.95190953635, -77509.72539302414, -46079.484651027284, -39974.50798446035, -23714.97734963624, -1783.1327656665762, -31374.62960179205, 0.766, -0.506, 0.47600000000000003, 192.0, 0.0, 0.0, 0.0, 0.0, 0.0, 0.0, 0.0, 0.0, 0.0, 1.6635009160901823E9, 0.0, 2022-09-18 16:35:16.090
57.0, -24894.00951790923, -37056.934780709125, -77430.91314207473, -45943.47428601674, -39906.51397782731, -23696.961843605262, -4203.290248309404, -31293.872749075028, 0.766, -0.506, 0.47600000000000003, 192.0, 0.0, 0.0, 0.0, 0.0, 0.0, 0.0, 0.0, 0.0, 0.0, 1.6635009160956357E9, 0.0, 2022-09-18 16:35:16.095
58.0, -25298.35257510574, -37677.66507597746, -77299.82016084435, -46420.46051269299, -39743.279188070206, -23500.668823798755, -3832.363049073583, -31414.907445300516, 0.766, -0.506, 0.47600000000000003, 192.0, 0.0, 0.0, 0.0, 0.0, 0.0, 0.0, 0.0, 0.0, 0.0, 1.663500916099228E9, 0.0, 2022-09-18 16:35:16.099
59.0, -25201.547169869802, -38284.62669666132, -77445.79940388196, -46540.44467692908, -39756.600827765564, -23567.142911808838, -1113.7650744634957, -31364.34779934261, 0.766, -0.506, 0.47600000000000003, 192.0, 0.0, 0.0, 0.0, 0.0, 0.0, 0.0, 0.0, 0.0, 0.0, 1.6635009161022336E9, 0.0, 2022-09-18 16:35:16.102
60.0, -24694.296681201064, -37861.17289795553, -77555.83704183543, -46014.262260706695, -39931.95026301745, -23717.301931059592, 232.2569766350957, -31354.28951433772, 0.766, -0.506, 0.47600000000000003, 192.0, 0.0, 0.0, 0.0, 0.0, 0.0, 0.0, 0.0, 0.0, 0.0, 1.6635009161061893E9, 0.0, 2022-09-18 16:35:16.106
61.0, -24900.491523801273, -37646.26087501775, -77443.69833990316, -46070.63336022298, -39945.56247539073, -23695.151352304383, -1602.8659466345248, -31340.230267075334, 0.766, -0.506, 0.47600000000000003, 192.0, 0.0, 0.0, 0.0, 0.0, 0.0, 0.0, 0.0, 0.0, 0.0, 1.6635009161101775E9, 0.0, 2022-09-18 16:35:16.110
62.0, -24922.686806045393, -37065.22727790204, -77436.25520899954, -45925.59289045249, -39896.94743120044, -23695.464276726758, -4099.511098803413, -31265.70955106134, 0.766, -0.506, 0.47600000000000003, 192.0, 0.0, 0.0, 0.0, 0.0, 0.0, 0.0, 0.0, 0.0, 0.0, 1.6635009161142187E9, 0.0, 2022-09-18 16:35:16.114
63.0, -25289.85891221272, -37612.286223445684, -77370.1611006452, -46376.047596460296, -39754.29859808667, -23514.549257105504, -3935.382239268093, -31417.41084067951, 0.766, -0.506, 0.47600000000000003, 192.0, 0.0, 0.0, 0.0, 0.0, 0.0, 0.0, 0.0, 0.0, 0.0, 1.6635009161182563E9, 0.0, 2022-09-18 16:35:16.118
64.0, -25174.903890479076, -38254.027158502, -77561.17910876026, -46528.64295585668, -39754.38800506449, -23556.61524017039, -1213.364447756344, -31374.182566902946, 0.766, -0.506, 0.47600000000000003, 192.0, 0.0, 0.0, 0.0, 0.0, 0.0, 0.0, 0.0, 0.0, 0.0, 1.663500916122166E9, 0.0, 2022-09-18 16:35:16.122
65.0, -24622.771098944082, -37847.35951988215, -77646.85334525745, -46006.506205380705, -39952.1785917495, -23733.730463234242, 270.2549422091177, -31382.095084440123, 0.772, -0.502, 0.468, 192.0, 24.0, 32.0, 240.0, 80.0, 14.0, 160.0, 0.0, 0.0, 0.0, 1.663500916127181E9, 0.0, 2022-09-18 16:35:16.127
66.0, -24820.025243762168, -37608.508778632735, -77462.02677035652, -46023.9629178003, -39966.21548726744, -23720.878210172443, -1345.2844435315662, -31364.59366853162, 0.772, -0.502, 0.468, 192.0, 0.0, 0.0, 0.0, 0.0, 0.0, 0.0, 0.0, 0.0, 0.0, 1.6635009161302433E9, 0.0, 2022-09-18 16:35:16.130
67.0, -24933.393291639484, -37070.90462099369, -77413.81405756641, -45935.42765801283, -39907.832730750175, -23708.540047233113, -3988.0429492047965, -31286.09434200458, 0.772, -0.502, 0.468, 192.0, 0.0, 0.0, 0.0, 0.0, 0.0, 0.0, 0.0, 0.0, 0.0, 1.663500916134246E9, 0.0, 2022-09-18 16:35:16.134
68.0, -25307.360328121227, -37561.27954259867, -77333.12426008275, -46369.811459757264, -39757.316083588135, -23523.691120587722, -4044.2352347654387, -31444.1211753036, 0.772, -0.502, 0.468, 192.0, 0.0, 0.0, 0.0, 0.0, 0.0, 0.0, 0.0, 0.0, 0.0, 1.663500916138216E9, 0.0, 2022-09-18 16:35:16.138
69.0, -25305.52748507589, -38302.19516780319, -77428.74502286257, -46614.31719235387, -39724.01198434973, -23529.16729797927, -1412.2279181752108, -31396.511959613796, 0.772, -0.502, 0.468, 192.0, 0.0, 0.0, 0.0, 0.0, 0.0, 0.0, 0.0, 0.0, 0.0, 1.663500916142202E9, 0.0, 2022-09-18 16:35:16.142
70.0, -24733.50164097567, -37902.344811242205, -77597.67950745577, -46065.29129329816, -39911.185492418466, -23705.83548615402, 250.2724826660732, -31357.57522077265, 0.772, -0.502, 0.468, 192.0, 0.0, 0.0, 0.0, 0.0, 0.0, 0.0, 0.0, 0.0, 0.0, 1.663500916146302E9, 0.0, 2022-09-18 16:35:16.146
71.0, -24852.032941822166, -37681.04018939021, -77514.01692795956, -46080.49047952777, -39931.21265545043, -23676.845273595485, -1305.2077657232005, -31348.075729379147, 0.772, -0.502, 0.468, 192.0, 0.0, 0.0, 0.0, 0.0, 0.0, 0.0, 0.0, 0.0, 0.0, 1.6635009161502357E9, 0.0, 2022-09-18 16:35:16.150
72.0, -24846.28854349715, -37086.59554560132, -77484.2444043451, -45937.95340513628, -39897.14859690054, -23706.684852443323, -3907.621372654602, -31254.488975344775, 0.772, -0.502, 0.468, 192.0, 0.0, 0.0, 0.0, 0.0, 0.0, 0.0, 0.0, 0.0, 0.0, 1.6635009161552317E9, 0.0, 2022-09-18 16:35:16.155
73.0, -25215.31584445427, -37487.2505649627, -77359.94635342913, -46322.62692721211, -39769.02839768272, -23544.969981309176, -4113.033904198874, -31405.07267774018, 0.772, -0.502, 0.468, 192.0, 0.0, 0.0, 0.0, 0.0, 0.0, 0.0, 0.0, 0.0, 0.0, 1.6635009161582553E9, 0.0, 2022-09-18 16:35:16.158
74.0, -25329.935590021087, -38312.856949908375, -77470.2298605716, -46650.90699802721, -39746.475487527314, -23553.48599594665, -1575.797984099148, -31423.669329126995, 0.772, -0.502, 0.468, 192.0, 0.0, 0.0, 0.0, 0.0, 0.0, 0.0, 0.0, 0.0, 0.0, 1.663500916162263E9, 0.0, 2022-09-18 16:35:16.162
75.0, -24751.651257473382, -37935.58185524724, -77631.36358634992, -46100.048255926165, -39918.248643666346, -23719.537105505122, 231.42996209024932, -31382.787988518237, 0.77, -0.5, 0.468, 192.0, 24.0, 16.0, 240.0, 96.0, 14.0, 160.0, 0.0, 0.0, 0.0, 1.6635009161663187E9, 0.0, 2022-09-18 16:35:16.166
76.0, -24874.384686277474, -37711.17034091596, -77508.07136393445, -46099.40005533696, -39961.14164127608, -23706.237817554214, -1157.6639005737186, -31382.31860188468, 0.77, -0.5, 0.468, 192.0, 0.0, 0.0, 0.0, 0.0, 0.0, 0.0, 0.0, 0.0, 0.0, 1.6635009161702678E9, 0.0, 2022-09-18 16:35:16.170
77.0, -24905.56536979263, -37117.44095294964, -77470.09575010488, -45959.85811470248, -39914.62766106459, -23716.519620003655, -3778.5847519141143, -31272.258612186746, 0.77, -0.5, 0.468, 192.0, 0.0, 0.0, 0.0, 0.0, 0.0, 0.0, 0.0, 0.0, 0.0, 1.663500916174266E9, 0.0, 2022-09-18 16:35:16.174
78.0, -25193.947576755, -37418.07191587352, -77394.34568814584, -46280.51624065832, -39772.3364558621, -23537.146870749817, -4169.53911418189, -31410.325337687176, 0.77, -0.5, 0.468, 192.0, 0.0, 0.0, 0.0, 0.0, 0.0, 0.0, 0.0, 0.0, 0.0, 1.663500916178278E9, 0.0, 2022-09-18 16:35:16.178
79.0, -25301.593578051758, -38293.76856014354, -77486.74779972408, -46655.73497482955, -39725.95658611734, -23520.003082752595, -1725.8005411387137, -31406.145561474033, 0.77, -0.5, 0.468, 192.0, 0.0, 0.0, 0.0, 0.0, 0.0, 0.0, 0.0, 0.0, 0.0, 1.6635009161833472E9, 0.0, 2022-09-18 16:35:16.183
80.0, -24716.536666934095, -37956.592495035235, -77616.25380709814, -46116.610898567546, -39919.25447216684, -23727.203753853293, 210.0840461354311, -31379.16700591648, 0.77, -0.5, 0.468, 192.0, 0.0, 0.0, 0.0, 0.0, 0.0, 0.0, 0.0, 0.0, 0.0, 1.6635009161863148E9, 0.0, 2022-09-18 16:35:16.186
81.0, -24836.900810825922, -37722.56973058817, -77518.66609080626, -46084.044406896166, -39967.06485355674, -23714.306797302583, -1023.4193233751445, -31396.623718336075, 0.77, -0.5, 0.468, 192.0, 0.0, 0.0, 0.0, 0.0, 0.0, 0.0, 0.0, 0.0, 0.0, 1.6635009161903367E9, 0.0, 2022-09-18 16:35:16.190
82.0, -24878.45270376834, -37135.21058979161, -77465.24542155808, -45947.13997210741, -39920.70733555643, -23723.985102651728, -3676.6160937090035, -31247.04584444116, 0.77, -0.5, 0.468, 192.0, 0.0, 0.0, 0.0, 0.0, 0.0, 0.0, 0.0, 0.0, 0.0, 1.6635009161942878E9, 0.0, 2022-09-18 16:35:16.194
83.0, -25183.6434225611, -37357.92337154429, -77336.29820779541, -46229.15193190002, -39770.25774362776, -23543.85239408641, -4245.311527885381, -31350.847345691604, 0.77, -0.5, 0.468, 192.0, 0.0, 0.0, 0.0, 0.0, 0.0, 0.0, 0.0, 0.0, 0.0, 1.6635009161983752E9, 0.0, 2022-09-18 16:35:16.198
84.0, -25388.18423607162, -38288.180624029716, -77422.77710709299, -46665.27916971197, -39713.75253364474, -23508.40252738029, -1882.2180488369524, -31395.126151457567, 0.77, -0.5, 0.468, 192.0, 0.0, 0.0, 0.0, 0.0, 0.0, 0.0, 0.0, 0.0, 0.0, 1.6635009162023573E9, 0.0, 2022-09-18 16:35:16.202
85.0, -24788.889263735924, -37990.23187044047, -77635.18573465178, -46139.812009312154, -39902.42360859199, -23709.523523989144, 176.46702247464927, -31374.964877958882, 0.768, -0.502, 0.466, 192.0, 24.0, 0.0, 240.0, 80.0, 14.0, 144.0, 0.0, 0.0, 0.0, 1.6635009162063255E9, 0.0, 2022-09-18 16:35:16.206
86.0, -24826.507249654205, -37740.89816104152, -77542.62716086235, -46076.35540680354, -39967.78010937931, -23702.572131463545, -897.5566503473104, -31413.45458191092, 0.768, -0.502, 0.466, 192.0, 0.0, 0.0, 0.0, 0.0, 0.0, 0.0, 0.0, 0.0, 0.0, 1.663500916210364E9, 0.0, 2022-09-18 16:35:16.210
87.0, -24875.614032222515, -37170.72751173109, -77515.08981169341, -45956.77357396765, -39936.66648109752, -23722.509887517677, -3562.6669004758483, -31255.695969545362, 0.768, -0.502, 0.466, 192.0, 0.0, 0.0, 0.0, 0.0, 0.0, 0.0, 0.0, 0.0, 0.0, 1.6635009162133377E9, 0.0, 2022-09-18 16:35:16.213
88.0, -25129.485145745894, -37303.74274298462, -77413.7246505886, -46188.09177733562, -39788.273249658734, -23551.764911623588, -4315.697171175143, -31332.563618727163, 0.768, -0.502, 0.466, 192.0, 0.0, 0.0, 0.0, 0.0, 0.0, 0.0, 0.0, 0.0, 0.0, 1.6635009162183561E9, 0.0, 2022-09-18 16:35:16.218
89.0, -25373.052105075374, -38268.77930984251, -77435.04821479895, -46664.65332086722, -39713.95369934484, -23497.628986552834, -2048.649138051169, -31392.510997356298, 0.768, -0.502, 0.466, 192.0, 0.0, 0.0, 0.0, 0.0, 0.0, 0.0, 0.0, 0.0, 0.0, 1.663500916222376E9, 0.0, 2022-09-18 16:35:16.222
90.0, -24792.733763782235, -38011.756600350935, -77637.3762056084, -46153.08894551861, -39890.57718403068, -23699.062907584062, 138.53611213399319, -31352.836650948127, 0.768, -0.502, 0.466, 192.0, 0.0, 0.0, 0.0, 0.0, 0.0, 0.0, 0.0, 0.0, 0.0, 1.6635009162264285E9, 0.0, 2022-09-18 16:35:16.226
91.0, -24803.77552554316, -37753.929228058965, -77593.03034460907, -46064.57603747559, -39983.51573747584, -23718.75479444919, -783.8533263031634, -31405.67617484047, 0.768, -0.502, 0.466, 192.0, 0.0, 0.0, 0.0, 0.0, 0.0, 0.0, 0.0, 0.0, 0.0, 1.66350091623045E9, 0.0, 2022-09-18 16:35:16.230
92.0, -24866.963907118312, -37199.51655858953, -77503.35514585438, -45960.59572226951, -39939.795725321266, -23731.718806233264, -3449.7458874876365, -31288.664792616943, 0.768, -0.502, 0.466, 192.0, 0.0, 0.0, 0.0, 0.0, 0.0, 0.0, 0.0, 0.0, 0.0, 1.6635009162344143E9, 0.0, 2022-09-18 16:35:16.234
93.0, -25109.39092748057, -37247.639864401805, -77415.31162444492, -46147.74687859379, -39807.4957498903, -23576.441237502248, -4364.535732809989, -31381.06690419518, 0.768, -0.502, 0.466, 192.0, 0.0, 0.0, 0.0, 0.0, 0.0, 0.0, 0.0, 0.0, 0.0, 1.6635009162383685E9, 0.0, 2022-09-18 16:35:16.238
94.0, -25412.23471310553, -38246.44991713166, -77445.48647945959, -46666.06148076791, -39720.77098140371, -23493.382155106327, -2209.760512085022, -31427.31266347321, 0.768, -0.502, 0.466, 192.0, 0.0, 0.0, 0.0, 0.0, 0.0, 0.0, 0.0, 0.0, 0.0, 1.6635009162414272E9, 0.0, 2022-09-18 16:35:16.241
95.0, -24836.34201721454, -38037.48345821899, -77639.03023469809, -46177.34058825262, -39882.68701823795, -23688.73640164571, 87.75294873153553, -31347.33812181212, 0.766, -0.508, 0.47200000000000003, 192.0, 23.0, 240.0, 240.0, 32.0, 14.0, 192.0, 0.0, 0.0, 0.0, 1.6635009162454035E9, 0.0, 2022-09-18 16:35:16.245
96.0, -24808.067060478577, -37754.46566992589, -77552.52898365606, -46039.20680751882, -39948.08822251418, -23683.081410298517, -642.165618200972, -31356.055302149693, 0.766, -0.508, 0.47200000000000003, 192.0, 0.0, 0.0, 0.0, 0.0, 0.0, 0.0, 0.0, 0.0, 0.0, 1.663500916250425E9, 0.0, 2022-09-18 16:35:16.250
97.0, -24884.666488726914, -37225.60104436887, -77542.6495126068, -45954.09136463301, -39925.6247193366, -23715.4467362698, -3313.1767288657106, -31244.721263017807, 0.766, -0.508, 0.47200000000000003, 192.0, 0.0, 0.0, 0.0, 0.0, 0.0, 0.0, 0.0, 0.0, 0.0, 1.663500916254428E9, 0.0, 2022-09-18 16:35:16.254
98.0, -25071.661182840013, -37189.190052651174, -77468.6875902042, -46096.963715191334, -39807.00401151228, -23575.86009214641, -4418.626954391832, -31343.180697343436, 0.766, -0.508, 0.47200000000000003, 192.0, 0.0, 0.0, 0.0, 0.0, 0.0, 0.0, 0.0, 0.0, 0.0, 1.6635009162584615E9, 0.0, 2022-09-18 16:35:16.258
99.0, -25380.96462261255, -38189.251803070525, -77452.63903768528, -46636.244253664525, -39689.90322231093, -23454.512471498547, -2375.3869384988475, -31426.195076250446, 0.766, -0.508, 0.47200000000000003, 192.0, 0.0, 0.0, 0.0, 0.0, 0.0, 0.0, 0.0, 0.0, 0.0, 1.6635009162625053E9, 0.0, 2022-09-18 16:35:16.262
100.0, -24818.751194328215, -38055.05192936086, -77706.51015120867, -46199.468815263375, -39872.5616779997, -23665.892918812388, -8.024276259455236, -31364.63837202053, 0.766, -0.508, 0.47200000000000003, 192.0, 0.0, 0.0, 0.0, 0.0, 0.0, 0.0, 0.0, 0.0, 0.0, 1.663500916266426E9, 0.0, 2022-09-18 16:35:16.266
101.0, -24751.695960962294, -37771.45299571192, -77632.74939450614, -46042.89484535395, -39982.219336297436, -23710.037614111618, -568.650730687467, -31391.34870664462, 0.766, -0.508, 0.47200000000000003, 192.0, 0.0, 0.0, 0.0, 0.0, 0.0, 0.0, 0.0, 0.0, 0.0, 1.6635009162694275E9, 0.0, 2022-09-18 16:35:16.269
102.0, -24872.35067753204, -37262.682588420226, -77539.9002480388, -45963.0991176485, -39940.01924276582, -23727.13669861993, -3183.6930732361166, -31231.891361700462, 0.766, -0.508, 0.47200000000000003, 192.0, 0.0, 0.0, 0.0, 0.0, 0.0, 0.0, 0.0, 0.0, 0.0, 1.6635009162735057E9, 0.0, 2022-09-18 16:35:16.273
103.0, -25055.836147765654, -37151.30384579943, -77476.17542459672, -46058.675176939396, -39824.37131695406, -23597.541284268056, -4438.028268579039, -31305.741525380796, 0.766, -0.508, 0.47200000000000003, 192.0, 0.0, 0.0, 0.0, 0.0, 0.0, 0.0, 0.0, 0.0, 0.0, 1.6635009162784603E9, 0.0, 2022-09-18 16:35:16.278
104.0, -25409.37368981525, -38170.0069510945, -77441.55257243545, -46631.88566349574, -39693.18892874586, -23460.323925056928, -2525.5683094940555, -31390.052305466215, 0.766, -0.508, 0.47200000000000003, 192.0, 0.0, 0.0, 0.0, 0.0, 0.0, 0.0, 0.0, 0.0, 0.0, 1.6635009162824216E9, 0.0, 2022-09-18 16:35:16.282
105.0, -24888.801561451146, -38090.52414781143, -77677.49758690568, -46233.10819066861, -39860.98347437185, -23678.588709663, -54.225332048574934, -31364.951296442905, 0.776, -0.51, 0.47000000000000003, 192.0, 24.0, 64.0, 240.0, 16.0, 14.0, 176.0, 0.0, 0.0, 0.0, 1.663500916286441E9, 0.0, 2022-09-18 16:35:16.286
106.0, -24773.95829843978, -37779.99136209385, -77691.57918591252, -46040.95024358633, -39988.29901078928, -23723.381605551436, -439.45764773579214, -31444.478803214886, 0.776, -0.51, 0.47000000000000003, 192.0, 0.0, 0.0, 0.0, 0.0, 0.0, 0.0, 0.0, 0.0, 0.0, 1.6635009162904959E9, 0.0, 2022-09-18 16:35:16.290
107.0, -24844.522755685182, -37288.051818377, -77613.03515589656, -45973.358568353484, -39937.404088664545, -23710.663462956367, -3049.7614204599167, -31273.599716854063, 0.776, -0.51, 0.47000000000000003, 192.0, 0.0, 0.0, 0.0, 0.0, 0.0, 0.0, 0.0, 0.0, 0.0, 1.6635009162945151E9, 0.0, 2022-09-18 16:35:16.294
108.0, -24971.190091513407, -37082.57223159936, -77486.77015146853, -46012.40706591691, -39816.07881976114, -23586.611281229412, -4448.9135681287735, -31287.77072283873, 0.776, -0.51, 0.47000000000000003, 192.0, 0.0, 0.0, 0.0, 0.0, 0.0, 0.0, 0.0, 0.0, 0.0, 1.6635009162974997E9, 0.0, 2022-09-18 16:35:16.297
109.0, -25381.992802857498, -38107.48912185301, -77425.41461293872, -46616.060628421386, -39698.463940437316, -23463.02848613602, -2670.809944964641, -31406.570244618684, 0.776, -0.51, 0.47000000000000003, 192.0, 0.0, 0.0, 0.0, 0.0, 0.0, 0.0, 0.0, 0.0, 0.0, 1.663500916301488E9, 0.0, 2022-09-18 16:35:16.301
110.0, -24918.618788554526, -38101.1412264277, -77649.80377552555, -46257.80686829172, -39847.5053724653, -23663.21070947775, -118.39719037976151, -31352.657836992486, 0.776, -0.51, 0.47000000000000003, 192.0, 0.0, 0.0, 0.0, 0.0, 0.0, 0.0, 0.0, 0.0, 0.0, 1.6635009163064957E9, 0.0, 2022-09-18 16:35:16.306
111.0, -24762.46950178975, -37753.34808270312, -77609.07889712798, -45998.124301209966, -39942.030899766796, -23683.819017865542, -289.2315732516734, -31362.224383619356, 0.776, -0.51, 0.47000000000000003, 192.0, 0.0, 0.0, 0.0, 0.0, 0.0, 0.0, 0.0, 0.0, 0.0, 1.6635009163105786E9, 0.0, 2022-09-18 16:35:16.310
112.0, -24889.94150041837, -37307.542539542024, -77567.86228035239, -45964.507277549186, -39915.5217308428, -23695.620738937945, -2867.214723493424, -31244.14011766197, 0.776, -0.51, 0.47000000000000003, 192.0, 0.0, 0.0, 0.0, 0.0, 0.0, 0.0, 0.0, 0.0, 0.0, 1.6635009163145788E9, 0.0, 2022-09-18 16:35:16.314
113.0, -24971.27949849123, -37042.40614681318, -77549.93618129924, -45984.065053947576, -39830.853322846095, -23609.678281507287, -4450.992280363117, -31319.39844124299, 0.776, -0.51, 0.47000000000000003, 192.0, 0.0, 0.0, 0.0, 0.0, 0.0, 0.0, 0.0, 0.0, 0.0, 1.6635009163186176E9, 0.0, 2022-09-18 16:35:16.318
114.0, -25378.193006300095, -38062.87503992022, -77462.16088082324, -46610.673858007656, -39705.95177482984, -23466.69417222669, -2834.670583566497, -31441.28250375778, 0.776, -0.51, 0.47000000000000003, 192.0, 0.0, 0.0, 0.0, 0.0, 0.0, 0.0, 0.0, 0.0, 0.0, 1.6635009163215044E9, 0.0, 2022-09-18 16:35:16.321
115.0, -24940.545849865182, -38125.012889505975, -77647.09921444645, -46289.88162158509, -39821.10796226358, -23647.855061036953, -214.62145025985842, -31329.657891947973, 0.772, -0.506, 0.47200000000000003, 192.0, 24.0, 32.0, 240.0, 48.0, 14.0, 192.0, 0.0, 0.0, 0.0, 1.6635009163255415E9, 0.0, 2022-09-18 16:35:16.325
116.0, -24743.224649813732, -37764.836879353155, -77624.94863569125, -45995.28562966414, -39944.869571312614, -23701.231026796228, -205.21136584417414, -31371.567412801676, 0.772, -0.506, 0.47200000000000003, 192.0, 0.0, 0.0, 0.0, 0.0, 0.0, 0.0, 0.0, 0.0, 0.0, 1.663500916329569E9, 0.0, 2022-09-18 16:35:16.329
117.0, -24890.030907396187, -37347.127478972376, -77557.51342266958, -45975.01259744318, -39916.66166981002, -23694.03376508162, -2722.8224543121405, -31262.62501032651, 0.772, -0.506, 0.47200000000000003, 192.0, 0.0, 0.0, 0.0, 0.0, 0.0, 0.0, 0.0, 0.0, 0.0, 1.663500916334564E9, 0.0, 2022-09-18 16:35:16.334
118.0, -24967.591460656102, -37011.828960398314, -77535.42989914774, -45952.48203903223, -39837.916474093974, -23621.85998223543, -4434.809617377475, -31291.2352432293, 0.772, -0.506, 0.47200000000000003, 192.0, 0.0, 0.0, 0.0, 0.0, 0.0, 0.0, 0.0, 0.0, 0.0, 1.6635009163385537E9, 0.0, 2022-09-18 16:35:16.338
119.0, -25392.83339891832, -38009.789646838864, -77479.90816592076, -46580.85663090427, -39699.60387940453, -23460.435683779204, -2973.0055300003924, -31423.40110819353, 0.772, -0.506, 0.47200000000000003, 192.0, 0.0, 0.0, 0.0, 0.0, 0.0, 0.0, 0.0, 0.0, 0.0, 1.663500916342657E9, 0.0, 2022-09-18 16:35:16.342
120.0, -24971.95005082489, -38154.561895675884, -77704.25262501868, -46328.61719472614, -39832.060317046686, -23656.281668696603, -323.7650184351228, -31355.16123237148, 0.772, -0.506, 0.47200000000000003, 192.0, 0.0, 0.0, 0.0, 0.0, 0.0, 0.0, 0.0, 0.0, 0.0, 1.6635009163466237E9, 0.0, 2022-09-18 16:35:16.346
121.0, -24710.099364530965, -37771.72121664539, -77675.57533688252, -45993.60924882999, -39954.63728363959, -23709.03178561113, -125.54974860545977, -31376.373037859565, 0.772, -0.506, 0.47200000000000003, 192.0, 0.0, 0.0, 0.0, 0.0, 0.0, 0.0, 0.0, 0.0, 0.0, 1.6635009163495765E9, 0.0, 2022-09-18 16:35:16.349
122.0, -24866.271003040198, -37375.00010430814, -77567.92933558575, -45982.83570800254, -39921.422591379, -23694.54785520409, -2573.6692635618765, -31258.221716668813, 0.772, -0.506, 0.47200000000000003, 192.0, 0.0, 0.0, 0.0, 0.0, 0.0, 0.0, 0.0, 0.0, 0.0, 1.6635009163535657E9, 0.0, 2022-09-18 16:35:16.353
123.0, -24926.50895434725, -36969.13712848868, -77519.06842220646, -45921.346059005984, -39847.66183467649, -23634.48871785268, -4409.418035676245, -31289.067124017136, 0.772, -0.506, 0.47200000000000003, 192.0, 0.0, 0.0, 0.0, 0.0, 0.0, 0.0, 0.0, 0.0, 0.0, 1.6635009163575823E9, 0.0, 2022-09-18 16:35:16.357
124.0, -25395.716773953056, -37945.43897455204, -77446.20173528216, -46558.75075563798, -39705.10240854054, -23463.341410558394, -3114.8049968248606, -31436.36511997761, 0.772, -0.506, 0.47200000000000003, 192.0, 0.0, 0.0, 0.0, 0.0, 0.0, 0.0, 0.0, 0.0, 0.0, 1.6635009163616004E9, 0.0, 2022-09-18 16:35:16.361
125.0, -25035.8089847337, -38178.67942794316, -77681.09621776298, -46373.32068363675, -39816.07881976114, -23632.298246896058, -440.91051112538713, -31357.82108996166, 0.77, -0.502, 0.47200000000000003, 192.0, 24.0, 16.0, 240.0, 80.0, 14.0, 192.0, 0.0, 0.0, 0.0, 1.6635009163665938E9, 0.0, 2022-09-18 16:35:16.366
126.0, -24715.687300644793, -37782.69592317294, -77723.43042176132, -46005.07569373557, -39967.08720530119, -23718.531277004633, -72.30789331291835, -31383.0562094517, 0.77, -0.502, 0.47200000000000003, 192.0, 0.0, 0.0, 0.0, 0.0, 0.0, 0.0, 0.0, 0.0, 0.0, 1.6635009163706186E9, 0.0, 2022-09-18 16:35:16.370
127.0, -24878.564462490616, -37421.156456608354, -77616.1196966314, -46015.603365374016, -39947.37296669161, -23714.664425213865, -2458.937759272785, -31287.994240283282, 0.77, -0.502, 0.47200000000000003, 192.0, 0.0, 0.0, 0.0, 0.0, 0.0, 0.0, 0.0, 0.0, 0.0, 1.6635009163746448E9, 0.0, 2022-09-18 16:35:16.374
128.0, -24914.282550130196, -36954.76495680391, -77552.66309412278, -45911.39953272337, -39862.458689505904, -23648.547965115067, -4403.561878628955, -31268.056484229146, 0.77, -0.502, 0.47200000000000003, 192.0, 0.0, 0.0, 0.0, 0.0, 0.0, 0.0, 0.0, 0.0, 0.0, 1.6635009163776877E9, 0.0, 2022-09-18 16:35:16.377
129.0, -25357.003552556464, -37877.75789234137, -77464.5301657355, -46522.16094996464, -39692.69719036784, -23443.94009637119, -3263.198228263644, -31385.693715297428, 0.77, -0.502, 0.47200000000000003, 192.0, 0.0, 0.0, 0.0, 0.0, 0.0, 0.0, 0.0, 0.0, 0.0, 1.6635009163816266E9, 0.0, 2022-09-18 16:35:16.381
130.0, -25024.94603692842, -38187.88834665875, -77672.08846474749, -46397.08058799274, -39794.17411019494, -23605.274987849592, -560.0453090721737, -31335.804621673182, 0.77, -0.502, 0.47200000000000003, 192.0, 0.0, 0.0, 0.0, 0.0, 0.0, 0.0, 0.0, 0.0, 0.0, 1.6635009163856223E9, 0.0, 2022-09-18 16:35:16.385
131.0, -24681.44442813926, -37782.025370839285, -77698.12824703792, -45993.095158707525, -39955.55370516225, -23708.584750722024, -1.363456411773731, -31380.128130928057, 0.77, -0.502, 0.47200000000000003, 192.0, 0.0, 0.0, 0.0, 0.0, 0.0, 0.0, 0.0, 0.0, 0.0, 1.6635009163896525E9, 0.0, 2022-09-18 16:35:16.389
132.0, -24875.904604900436, -37456.06988144754, -77605.86024592642, -46022.9123858109, -39961.38751046509, -23721.325245061547, -2313.5396615910126, -31317.319729008643, 0.77, -0.502, 0.47200000000000003, 192.0, 0.0, 0.0, 0.0, 0.0, 0.0, 0.0, 0.0, 0.0, 0.0, 1.663500916394663E9, 0.0, 2022-09-18 16:35:16.394
133.0, -24903.06197441363, -36942.002110719935, -77576.06537056749, -45896.535622660595, -39890.420721819486, -23681.717953886742, -4378.349110883369, -31283.680353603406, 0.77, -0.502, 0.47200000000000003, 192.0, 0.0, 0.0, 0.0, 0.0, 0.0, 0.0, 0.0, 0.0, 0.0, 1.6635009163987367E9, 0.0, 2022-09-18 16:35:16.398
134.0, -25367.330058494816, -37825.946548693966, -77491.55342478197, -46510.53804284788, -39734.67376645491, -23484.77673349103, -3412.3067155249973, -31458.448643499454, 0.77, -0.502, 0.47200000000000003, 192.0, 0.0, 0.0, 0.0, 0.0, 0.0, 0.0, 0.0, 0.0, 0.0, 1.6635009164027402E9, 0.0, 2022-09-18 16:35:16.402
135.0, -25100.271415742805, -38211.08945740336, -77668.53453737909, -46444.62274844918, -39805.46174114487, -23616.987301944173, -677.9060575850079, -31396.288442169243, 0.774, -0.508, 0.47600000000000003, 192.0, 24.0, 48.0, 240.0, 32.0, 14.0, 224.0, 0.0, 0.0, 0.0, 1.6635009164057047E9, 0.0, 2022-09-18 16:35:16.405
136.0, -24703.863227827936, -37792.642449455554, -77744.88809643843, -46007.93671702585, -39974.038597826795, -23729.707149232287, 53.04068959244366, -31389.471160110377, 0.774, -0.508, 0.47600000000000003, 192.0, 0.0, 0.0, 0.0, 0.0, 0.0, 0.0, 0.0, 0.0, 0.0, 1.663500916409703E9, 0.0, 2022-09-18 16:35:16.409
137.0, -24854.290468012154, -37472.58782060001, -77630.06718517152, -46025.795760845635, -39944.42253642351, -23696.06777382705, -2162.7771452399666, -31286.116693749034, 0.774, -0.508, 0.47600000000000003, 192.0, 0.0, 0.0, 0.0, 0.0, 0.0, 0.0, 0.0, 0.0, 0.0, 1.6635009164137733E9, 0.0, 2022-09-18 16:35:16.413
138.0, -24864.63932569496, -36938.40347986263, -77583.82142589347, -45895.641552882385, -39899.83080623517, -23686.188302777806, -4347.570758768411, -31271.699818575362, 0.774, -0.508, 0.47600000000000003, 192.0, 0.0, 0.0, 0.0, 0.0, 0.0, 0.0, 0.0, 0.0, 0.0, 1.6635009164178877E9, 0.0, 2022-09-18 16:35:16.417
139.0, -25338.183383725096, -37767.09440554314, -77475.14724435179, -46485.07940591328, -39737.35597578955, -23481.088695655908, -3547.311252035052, -31417.433192423963, 0.774, -0.508, 0.47600000000000003, 192.0, 0.0, 0.0, 0.0, 0.0, 0.0, 0.0, 0.0, 0.0, 0.0, 1.6635009164217913E9, 0.0, 2022-09-18 16:35:16.421
140.0, -25120.991482852874, -38228.61322505632, -77655.77169129511, -46475.91519068661, -39794.06235147266, -23596.267234834104, -814.2293470179256, -31351.093214880613, 0.774, -0.508, 0.47600000000000003, 192.0, 0.0, 0.0, 0.0, 0.0, 0.0, 0.0, 0.0, 0.0, 0.0, 1.663500916426793E9, 0.0, 2022-09-18 16:35:16.426
141.0, -24698.69997485876, -37801.51609200431, -77705.37021224144, -46004.02516174617, -39969.88117335811, -23726.220277097258, 108.69653328615824, -31382.430360606955, 0.774, -0.508, 0.47600000000000003, 192.0, 0.0, 0.0, 0.0, 0.0, 0.0, 0.0, 0.0, 0.0, 0.0, 1.6635009164308715E9, 0.0, 2022-09-18 16:35:16.430
