%OpenBCI Raw EEG Data
%Number of channels = 8
%Sample Rate = 250 Hz
%Board = OpenBCI_GUI$BoardCytonSerial
Sample Index, EXG Channel 0, EXG Channel 1, EXG Channel 2, EXG Channel 3, EXG Channel 4, EXG Channel 5, EXG Channel 6, EXG Channel 7, Accel Channel 0, Accel Channel 1, Accel Channel 2, Other, Other, Other, Other, Other, Other, Other, Analog Channel 0, Analog Channel 1, Analog Channel 2, Timestamp, Other, Timestamp (Formatted)
53.0, -22685.701869213804, -35129.320338883444, -83677.24224057702, -54487.65212150242, -39944.93662654598, -21291.40005009175, 1609.1691385709214, -31304.53453118021, 0.0, 0.0, 0.0, 192.0, 0.0, 0.0, 0.0, 0.0, 0.0, 0.0, 0.0, 0.0, 0.0, 1.663501082302837E9, 0.0, 2022-09-18 16:38:02.302
54.0, -22408.20496180117, -35400.26818517067, -83918.75283941661, -54252.534121577046, -40117.96148037451, -21532.530669275602, 3078.5504673183523, -31194.899224626926, 0.0, 0.0, 0.0, 192.0, 0.0, 0.0, 0.0, 0.0, 0.0, 0.0, 0.0, 0.0, 0.0, 1.6635010823028612E9, 0.0, 2022-09-18 16:38:02.302
55.0, -21957.504386604356, -34778.01797127938, -83989.96549725122, -53980.289874111404, -40289.62287779128, -21694.469057854305, 2270.8031261924657, -31210.79131493465, 0.0, 0.0, 0.0, 192.0, 0.0, 0.0, 0.0, 0.0, 0.0, 0.0, 0.0, 0.0, 0.0, 1.6635010823028755E9, 0.0, 2022-09-18 16:38:02.302
0.0, 0.0, 0.0, 0.0, 0.0, 0.0, 0.0, 0.0, 0.0, 0.76, -0.47400000000000003, 0.53, 192.0, 23.0, 192.0, 241.0, 48.0, 16.0, 144.0, 0.0, 0.0, 0.0, 1.6635010824093018E9, 0.0, 2022-09-18 16:38:02.409
1.0, -21842.594068359624, -34824.66606195761, -83200.81480751214, -54593.57703847612, -39832.97673856935, -21378.929481378735, 2110.138787047719, -31113.672985276342, 0.76, -0.47400000000000003, 0.53, 192.0, 0.0, 0.0, 0.0, 0.0, 0.0, 0.0, 0.0, 0.0, 0.0, 1.6635010824263647E9, 0.0, 2022-09-18 16:38:02.426
2.0, -22008.10873605117, -35416.58495862305, -83314.38402108956, -54494.469403561285, -39901.57424230269, -21504.30041602855, 3194.7571867414936, -30991.163073916803, 0.76, -0.47400000000000003, 0.53, 192.0, 0.0, 0.0, 0.0, 0.0, 0.0, 0.0, 0.0, 0.0, 0.0, 1.6635010824293597E9, 0.0, 2022-09-18 16:38:02.429
3.0, -21859.447283678925, -35273.958477253735, -83329.82907650818, -54494.69292100584, -40057.76823255637, -21604.123306765952, 2620.9208513403955, -31070.154138821857, 0.76, -0.47400000000000003, 0.53, 192.0, 0.0, 0.0, 0.0, 0.0, 0.0, 0.0, 0.0, 0.0, 0.0, 1.66350108243236E9, 0.0, 2022-09-18 16:38:02.432
4.0, -20926.66428407005, -33889.960812325575, -83515.79559037634, -54030.134264246735, -40198.69598134708, -21848.003190517808, 1489.1626225903779, -31044.740205376176, 0.76, -0.47400000000000003, 0.53, 192.0, 0.0, 0.0, 0.0, 0.0, 0.0, 0.0, 0.0, 0.0, 0.0, 1.6635010824373617E9, 0.0, 2022-09-18 16:38:02.437
5.0, -20559.82745406955, -33143.36784402941, -83458.7539385264, -53857.399983096126, -40123.12473334369, -21725.046244269164, 1396.157013911845, -31187.65725942341, 0.76, -0.47400000000000003, 0.53, 192.0, 0.0, 0.0, 0.0, 0.0, 0.0, 0.0, 0.0, 0.0, 0.0, 1.66350108244129E9, 0.0, 2022-09-18 16:38:02.441
6.0, -21759.31146851915, -34745.026796463346, -83235.52706665124, -54549.208825732334, -39846.4548404759, -21409.37255732686, 2184.279523405972, -31142.77495655715, 0.76, -0.47400000000000003, 0.53, 192.0, 0.0, 0.0, 0.0, 0.0, 0.0, 0.0, 0.0, 0.0, 0.0, 1.663501082445326E9, 0.0, 2022-09-18 16:38:02.445
7.0, -21845.14216722753, -35221.00719463911, -83344.11184121513, -54400.77089080464, -39917.2204634214, -21531.07780588601, 3382.0201017880563, -30988.27969888207, 0.76, -0.47400000000000003, 0.53, 192.0, 0.0, 0.0, 0.0, 0.0, 0.0, 0.0, 0.0, 0.0, 0.0, 1.663501082449448E9, 0.0, 2022-09-18 16:38:02.449
8.0, -21753.74588414978, -35111.4389433192, -83326.90099798453, -54430.43165569683, -40058.37172965667, -21601.821077087054, 2774.2761700482574, -31057.90538286035, 0.752, -0.464, 0.534, 192.0, 23.0, 128.0, 241.0, 128.0, 16.0, 176.0, 0.0, 0.0, 0.0, 1.6635010824533813E9, 0.0, 2022-09-18 16:38:02.453
9.0, -21056.93025075558, -33975.813862778414, -83471.22621193246, -54110.06410241892, -40168.2305536545, -21792.816733457654, 1402.8178337595266, -31018.05222249654, 0.752, -0.464, 0.534, 192.0, 0.0, 0.0, 0.0, 0.0, 0.0, 0.0, 0.0, 0.0, 0.0, 1.6635010824574027E9, 0.0, 2022-09-18 16:38:02.457
10.0, -20802.522695365275, -33398.96004187585, -83429.83078120122, -54008.16249944717, -40090.580593416766, -21690.669261296902, 1143.336432377867, -31134.370700641957, 0.752, -0.464, 0.534, 192.0, 0.0, 0.0, 0.0, 0.0, 0.0, 0.0, 0.0, 0.0, 0.0, 1.6635010824604151E9, 0.0, 2022-09-18 16:38:02.460
11.0, -21715.189124964374, -34744.28918889632, -83269.0546833342, -54536.69184883736, -39861.58697147214, -21451.997334003132, 2183.6313228167683, -31121.741965024707, 0.752, -0.464, 0.534, 192.0, 0.0, 0.0, 0.0, 0.0, 0.0, 0.0, 0.0, 0.0, 0.0, 1.6635010824654207E9, 0.0, 2022-09-18 16:38:02.465
12.0, -21574.954280251775, -34948.65118845119, -83398.09130407468, -54257.22798791266, -39958.32532147471, -21582.240948944207, 3639.311032213096, -31019.549789375043, 0.752, -0.464, 0.534, 192.0, 0.0, 0.0, 0.0, 0.0, 0.0, 0.0, 0.0, 0.0, 0.0, 1.6635010824694238E9, 0.0, 2022-09-18 16:38:02.469
13.0, -21538.74445423418, -34821.782686922874, -83363.87078331361, -54312.995590328646, -40088.83715734925, -21614.449812704304, 3031.365934773199, -31088.4378657863, 0.752, -0.464, 0.534, 192.0, 0.0, 0.0, 0.0, 0.0, 0.0, 0.0, 0.0, 0.0, 0.0, 1.6635010824734275E9, 0.0, 2022-09-18 16:38:02.473
14.0, -21313.103593957854, -34161.89213536884, -83392.90569936106, -54275.64582534383, -40128.667965968605, -21703.365052147514, 1214.0797035789137, -31026.344719689456, 0.752, -0.464, 0.534, 192.0, 0.0, 0.0, 0.0, 0.0, 0.0, 0.0, 0.0, 0.0, 0.0, 1.6635010824784443E9, 0.0, 2022-09-18 16:38:02.478
15.0, -21380.762324424068, -34036.78942165249, -83333.58416957667, -54363.08584965299, -40009.6449267441, -21588.745306580702, 564.0909748185843, -31101.424229314835, 0.752, -0.464, 0.534, 192.0, 0.0, 0.0, 0.0, 0.0, 0.0, 0.0, 0.0, 0.0, 0.0, 1.6635010824813948E9, 0.0, 2022-09-18 16:38:02.481
16.0, -21819.907047737488, -34993.68995352864, -83303.67753549547, -54601.780128691214, -39858.23420980385, -21481.076953539487, 2000.5928874722586, -31096.417438556844, 0.752, -0.464, 0.534, 192.0, 0.0, 0.0, 0.0, 0.0, 0.0, 0.0, 0.0, 0.0, 0.0, 1.6635010824854507E9, 0.0, 2022-09-18 16:38:02.485
17.0, -21265.270860823497, -34731.21341838997, -83493.04151452082, -54081.69973870513, -40020.88785420512, -21671.379705831972, 3886.208401466418, -31039.129917517894, 0.752, -0.464, 0.534, 192.0, 0.0, 0.0, 0.0, 0.0, 0.0, 0.0, 0.0, 0.0, 0.0, 1.6635010824894829E9, 0.0, 2022-09-18 16:38:02.489
18.0, -21225.708273137603, -34507.78538081472, -83406.62967045662, -54130.247727662056, -40129.53968400237, -21664.47301679528, 3351.3311566509196, -31109.850836974485, 0.746, -0.462, 0.538, 192.0, 23.0, 80.0, 241.0, 144.0, 16.0, 208.0, 0.0, 0.0, 0.0, 1.66350108249346E9, 0.0, 2022-09-18 16:38:02.493
19.0, -21261.806340432926, -34064.818509199446, -83364.20605948044, -54246.49915057411, -40121.470704253996, -21674.57600528908, 1307.7558645911056, -31033.65374012634, 0.746, -0.462, 0.538, 192.0, 0.0, 0.0, 0.0, 0.0, 0.0, 0.0, 0.0, 0.0, 0.0, 1.6635010824964652E9, 0.0, 2022-09-18 16:38:02.496
20.0, -21499.293625270562, -34129.45975416419, -83296.27910808077, -54428.64351614041, -39978.0395600843, -21551.440245084792, 469.0513573946187, -31078.893670903883, 0.746, -0.462, 0.538, 192.0, 0.0, 0.0, 0.0, 0.0, 0.0, 0.0, 0.0, 0.0, 0.0, 1.6635010825004225E9, 0.0, 2022-09-18 16:38:02.500
21.0, -21812.30745462268, -34980.144796388726, -83318.63085253607, -54589.71018668535, -39854.99320685783, -21489.861189110423, 2027.102056396253, -31068.164833565337, 0.746, -0.462, 0.538, 192.0, 0.0, 0.0, 0.0, 0.0, 0.0, 0.0, 0.0, 0.0, 0.0, 1.663501082504527E9, 0.0, 2022-09-18 16:38:02.504
22.0, -21194.9522727671, -34647.90846680504, -83505.49143618243, -54035.386924193735, -40026.76636299686, -21671.33500234306, 4012.607516361179, -31021.09205974246, 0.746, -0.462, 0.538, 192.0, 0.0, 0.0, 0.0, 0.0, 0.0, 0.0, 0.0, 0.0, 0.0, 1.663501082509472E9, 0.0, 2022-09-18 16:38:02.509
23.0, -21180.37893538224, -34444.351130050556, -83425.24867358789, -54105.638457016765, -40142.54839927535, -21666.462322051804, 3474.891599999857, -31125.072374948548, 0.746, -0.462, 0.538, 192.0, 0.0, 0.0, 0.0, 0.0, 0.0, 0.0, 0.0, 0.0, 0.0, 1.6635010825134852E9, 0.0, 2022-09-18 16:38:02.513
24.0, -21288.762544246023, -34073.87096570384, -83353.54427737526, -54264.805229283, -40114.78753266186, -21672.184368632363, 1359.0754698604906, -31047.936504833284, 0.746, -0.462, 0.538, 192.0, 0.0, 0.0, 0.0, 0.0, 0.0, 0.0, 0.0, 0.0, 0.0, 1.6635010825175278E9, 0.0, 2022-09-18 16:38:02.517
25.0, -21500.791192149067, -34116.89807378031, -83290.69117196693, -54418.71934160225, -39966.86368785664, -21562.482006845716, 539.9287390623974, -31067.76250216514, 0.746, -0.462, 0.538, 192.0, 0.0, 0.0, 0.0, 0.0, 0.0, 0.0, 0.0, 0.0, 0.0, 1.6635010825215075E9, 0.0, 2022-09-18 16:38:02.521
26.0, -21673.86074946651, -34821.35800377822, -83351.59967560765, -54481.617150499485, -39876.40617804601, -21526.048663383564, 2313.472606357647, -31060.520536961623, 0.746, -0.462, 0.538, 192.0, 0.0, 0.0, 0.0, 0.0, 0.0, 0.0, 0.0, 0.0, 0.0, 1.663501082524508E9, 0.0, 2022-09-18 16:38:02.524
27.0, -21135.518984260438, -34543.749337643305, -83504.61971814868, -54003.848612767295, -40046.525305095354, -21681.99678444824, 4181.519649209935, -31031.28445521408, 0.746, -0.462, 0.538, 192.0, 0.0, 0.0, 0.0, 0.0, 0.0, 0.0, 0.0, 0.0, 0.0, 1.6635010825285048E9, 0.0, 2022-09-18 16:38:02.528
28.0, -21146.247821598987, -34360.35327438751, -83422.76762995335, -54079.88924740425, -40144.18007662059, -21670.6644500094, 3608.5997353315042, -31093.19878735528, 0.75, -0.468, 0.538, 192.0, 23.0, 112.0, 241.0, 96.0, 16.0, 208.0, 0.0, 0.0, 0.0, 1.6635010825325792E9, 0.0, 2022-09-18 16:38:02.532
29.0, -21349.536937420005, -34081.98464894112, -83344.38006214859, -54305.016017558104, -40119.90608214213, -21657.745141714233, 1367.390318797865, -31031.485620914176, 0.75, -0.468, 0.538, 192.0, 0.0, 0.0, 0.0, 0.0, 0.0, 0.0, 0.0, 0.0, 0.0, 1.663501082536528E9, 0.0, 2022-09-18 16:38:02.536
30.0, -21577.189454697305, -34160.34986500143, -83281.07992185115, -54471.71532770578, -39956.11249877364, -21538.67739900081, 466.2797410821606, -31038.973455306706, 0.75, -0.468, 0.538, 192.0, 0.0, 0.0, 0.0, 0.0, 0.0, 0.0, 0.0, 0.0, 0.0, 1.663501082542524E9, 0.0, 2022-09-18 16:38:02.542
31.0, -21698.00063347824, -34828.33174804828, -83340.13323070208, -54506.09231067805, -39873.09811986663, -21508.323730030505, 2269.3279110584153, -31034.32429246, 0.75, -0.468, 0.538, 192.0, 0.0, 0.0, 0.0, 0.0, 0.0, 0.0, 0.0, 0.0, 0.0, 1.663501082545565E9, 0.0, 2022-09-18 16:38:02.545
32.0, -21159.301240360885, -34557.518012227774, -83498.89767156812, -54030.84952006931, -40049.453383619, -21674.263080866705, 4137.53141612189, -31006.295204913047, 0.75, -0.468, 0.538, 192.0, 0.0, 0.0, 0.0, 0.0, 0.0, 0.0, 0.0, 0.0, 0.0, 1.6635010825496485E9, 0.0, 2022-09-18 16:38:02.549
33.0, -21236.81709013189, -34445.133441106496, -83401.77934190982, -54156.175751230214, -40135.440544538564, -21647.530394498157, 3456.652576524327, -31081.642935471886, 0.75, -0.468, 0.538, 192.0, 0.0, 0.0, 0.0, 0.0, 0.0, 0.0, 0.0, 0.0, 0.0, 1.663501082552578E9, 0.0, 2022-09-18 16:38:02.552
34.0, -21446.43174963376, -34190.41296129381, -83333.60652132113, -54363.21996011972, -40101.80116913333, -21636.175708314862, 1209.9222791102266, -31000.640213565854, 0.75, -0.468, 0.538, 192.0, 0.0, 0.0, 0.0, 0.0, 0.0, 0.0, 0.0, 0.0, 0.0, 1.6635010825565712E9, 0.0, 2022-09-18 16:38:02.556
35.0, -21660.62851674897, -34268.509956420654, -83269.63582869004, -54522.81141553062, -39954.950208061964, -21519.96898889172, 295.2888959990616, -31018.23103645218, 0.75, -0.468, 0.538, 192.0, 0.0, 0.0, 0.0, 0.0, 0.0, 0.0, 0.0, 0.0, 0.0, 1.6635010825606E9, 0.0, 2022-09-18 16:38:02.560
36.0, -21787.78759095521, -34965.14677585921, -83326.99040496236, -54596.16984083293, -39866.929038396964, -21494.979738590686, 2015.836777190778, -31030.5244959026, 0.75, -0.468, 0.538, 192.0, 0.0, 0.0, 0.0, 0.0, 0.0, 0.0, 0.0, 0.0, 0.0, 1.6635010825645776E9, 0.0, 2022-09-18 16:38:02.564
37.0, -21121.83971665379, -34585.18947186345, -83528.22316029349, -54025.105121744295, -40050.77213654186, -21689.551674074137, 4102.640343027156, -30998.89677749834, 0.75, -0.468, 0.538, 192.0, 0.0, 0.0, 0.0, 0.0, 0.0, 0.0, 0.0, 0.0, 0.0, 1.663501082568602E9, 0.0, 2022-09-18 16:38:02.568
38.0, -21170.0971329328, -34426.939121119874, -83409.5353972358, -54118.73657926758, -40145.0741463988, -21659.689743481846, 3532.670859416826, -31083.721647706232, 0.752, -0.468, 0.542, 192.0, 23.0, 128.0, 241.0, 96.0, 16.0, 240.0, 0.0, 0.0, 0.0, 1.6635010825736136E9, 0.0, 2022-09-18 16:38:02.573
39.0, -21445.9623630002, -34224.78994426608, -83310.49481755434, -54366.21509387674, -40097.33082024227, -21628.911391366888, 1212.3362675113997, -31004.819989778996, 0.752, -0.468, 0.542, 192.0, 0.0, 0.0, 0.0, 0.0, 0.0, 0.0, 0.0, 0.0, 0.0, 1.663501082577585E9, 0.0, 2022-09-18 16:38:02.577
40.0, -21679.202816391327, -34316.901483166395, -83269.97110485687, -54540.60340411704, -39965.656693656056, -21534.698788487767, 255.27927342406196, -31037.319426217015, 0.752, -0.468, 0.542, 192.0, 0.0, 0.0, 0.0, 0.0, 0.0, 0.0, 0.0, 0.0, 0.0, 1.663501082580637E9, 0.0, 2022-09-18 16:38:02.580
41.0, -21756.316334762138, -34961.14581360171, -83349.40920465103, -54586.893866883984, -39889.727817741375, -21522.472384270714, 2047.8668269952332, -31043.15323151985, 0.752, -0.468, 0.542, 192.0, 0.0, 0.0, 0.0, 0.0, 0.0, 0.0, 0.0, 0.0, 0.0, 1.6635010825846212E9, 0.0, 2022-09-18 16:38:02.584
42.0, -21061.177082202088, -34542.40823297599, -83533.38641326266, -53990.504621327476, -40061.16569771358, -21697.978281733787, 4204.944277399097, -31003.367126389403, 0.752, -0.468, 0.542, 192.0, 0.0, 0.0, 0.0, 0.0, 0.0, 0.0, 0.0, 0.0, 0.0, 1.6635010825886471E9, 0.0, 2022-09-18 16:38:02.588
43.0, -21133.820251681835, -34393.61267013701, -83408.41781001304, -54088.36055855281, -40140.89437018566, -21637.740330426735, 3625.4529506508056, -31087.67790647482, 0.752, -0.468, 0.542, 192.0, 0.0, 0.0, 0.0, 0.0, 0.0, 0.0, 0.0, 0.0, 0.0, 1.6635010825926511E9, 0.0, 2022-09-18 16:38:02.592
44.0, -21462.748523086135, -34237.10575546095, -83311.29948035473, -54359.822494962515, -40090.3123724833, -21598.17774274084, 1230.776456687028, -30981.574175545476, 0.752, -0.468, 0.542, 192.0, 0.0, 0.0, 0.0, 0.0, 0.0, 0.0, 0.0, 0.0, 0.0, 1.663501082597652E9, 0.0, 2022-09-18 16:38:02.597
45.0, -21695.58664507707, -34331.20659961779, -83274.24028804783, -54532.646183090954, -39968.31655124624, -21517.39853827936, 241.06356395048667, -31003.724754300685, 0.752, -0.468, 0.542, 192.0, 0.0, 0.0, 0.0, 0.0, 0.0, 0.0, 0.0, 0.0, 0.0, 1.6635010826016812E9, 0.0, 2022-09-18 16:38:02.601
46.0, -21725.135651246983, -34933.02731907694, -83352.91842853051, -54563.692756139375, -39906.08929468266, -21529.31201807404, 2085.50716465797, -31045.500164687655, 0.752, -0.468, 0.542, 192.0, 0.0, 0.0, 0.0, 0.0, 0.0, 0.0, 0.0, 0.0, 0.0, 1.6635010826056824E9, 0.0, 2022-09-18 16:38:02.605
47.0, -21023.87202070618, -34511.00403201628, -83536.22508480848, -53978.09940315478, -40080.76817760088, -21718.497183143758, 4272.670063098677, -31026.456478411732, 0.752, -0.468, 0.542, 192.0, 0.0, 0.0, 0.0, 0.0, 0.0, 0.0, 0.0, 0.0, 0.0, 1.6635010826086714E9, 0.0, 2022-09-18 16:38:02.608
48.0, -21102.259588510944, -34364.04131222264, -83406.04852510078, -54081.878552660775, -40163.64844604117, -21666.127045884972, 3702.4100068104276, -31109.806133485574, 0.746, -0.466, 0.538, 192.0, 23.0, 80.0, 241.0, 112.0, 16.0, 208.0, 0.0, 0.0, 0.0, 1.6635010826126826E9, 0.0, 2022-09-18 16:38:02.612
49.0, -21457.47351139468, -34227.38274662289, -83287.13724459855, -54365.56689328753, -40094.134520785155, -21611.65584464739, 1284.0630154684802, -30993.442951851244, 0.746, -0.466, 0.538, 192.0, 0.0, 0.0, 0.0, 0.0, 0.0, 0.0, 0.0, 0.0, 0.0, 1.663501082616682E9, 0.0, 2022-09-18 16:38:02.616
50.0, -21685.01426994971, -34313.906349409386, -83256.35889248358, -54531.97563075729, -39949.76460334833, -21514.537514989082, 281.9672563036986, -30993.867634995895, 0.746, -0.466, 0.538, 192.0, 0.0, 0.0, 0.0, 0.0, 0.0, 0.0, 0.0, 0.0, 0.0, 1.6635010826206794E9, 0.0, 2022-09-18 16:38:02.620
51.0, -21684.85780773852, -34891.90010927917, -83353.70073958645, -54549.007660032235, -39882.50820428231, -21515.16336383383, 2148.4720287885702, -31024.355414432936, 0.746, -0.466, 0.538, 192.0, 0.0, 0.0, 0.0, 0.0, 0.0, 0.0, 0.0, 0.0, 0.0, 1.6635010826247017E9, 0.0, 2022-09-18 16:38:02.624
52.0, -20979.906139362593, -34463.73009249331, -83548.25032332544, -53961.38029830221, -40065.72545358246, -21710.91994177341, 4353.67278500471, -31012.799562549542, 0.746, -0.466, 0.538, 192.0, 0.0, 0.0, 0.0, 0.0, 0.0, 0.0, 0.0, 0.0, 0.0, 1.6635010826297045E9, 0.0, 2022-09-18 16:38:02.629
53.0, -21067.569681116307, -34320.56716925707, -83423.54994100929, -54063.10308731831, -40150.30445460135, -21657.745141714233, 3784.1279845390304, -31087.610851241454, 0.746, -0.466, 0.538, 192.0, 0.0, 0.0, 0.0, 0.0, 0.0, 0.0, 0.0, 0.0, 0.0, 1.6635010826338117E9, 0.0, 2022-09-18 16:38:02.633
54.0, -21454.903060782322, -34215.40221159485, -83318.7202595139, -54364.583416531495, -40097.44257896455, -21608.03486204563, 1323.424437454276, -30992.392419861844, 0.746, -0.466, 0.538, 192.0, 0.0, 0.0, 0.0, 0.0, 0.0, 0.0, 0.0, 0.0, 0.0, 1.6635010826367276E9, 0.0, 2022-09-18 16:38:02.636
55.0, -21696.927749744387, -34311.13473309693, -83275.91666888198, -54538.83761630507, -39967.08720530119, -21521.086576114485, 274.6358841223579, -31014.542998617057, 0.746, -0.466, 0.538, 192.0, 0.0, 0.0, 0.0, 0.0, 0.0, 0.0, 0.0, 0.0, 0.0, 1.6635010826407187E9, 0.0, 2022-09-18 16:38:02.640
56.0, -21693.91026424292, -34886.06630397634, -83357.74640533286, -54556.85312233605, -39900.59076554665, -21520.572485992016, 2132.7140489475787, -31047.891801344373, 0.746, -0.466, 0.538, 192.0, 0.0, 0.0, 0.0, 0.0, 0.0, 0.0, 0.0, 0.0, 0.0, 1.6635010826447191E9, 0.0, 2022-09-18 16:38:02.644
57.0, -20979.079124817745, -34456.15285112296, -83536.87328539768, -53962.25201633597, -40072.22981121896, -21708.707119072333, 4360.28890136348, -31022.790792321062, 0.746, -0.466, 0.538, 192.0, 0.0, 0.0, 0.0, 0.0, 0.0, 0.0, 0.0, 0.0, 0.0, 1.6635010826488051E9, 0.0, 2022-09-18 16:38:02.648
58.0, -21061.802931046837, -34309.41364877387, -83409.35658328017, -54058.29746226042, -40151.98083543549, -21665.14356912894, 3811.553574985692, -31095.09868563398, 0.75, -0.464, 0.536, 192.0, 23.0, 112.0, 241.0, 128.0, 16.0, 192.0, 0.0, 0.0, 0.0, 1.66350108265376E9, 0.0, 2022-09-18 16:38:02.653
59.0, -21458.54639512854, -34211.401249337345, -83305.82330296318, -54365.365727587436, -40089.239488749445, -21612.728728381244, 1340.9929085961471, -30991.677164039276, 0.75, -0.464, 0.536, 192.0, 0.0, 0.0, 0.0, 0.0, 0.0, 0.0, 0.0, 0.0, 0.0, 1.6635010826577275E9, 0.0, 2022-09-18 16:38:02.657
60.0, -21696.413659621914, -34301.61288995897, -83261.34333149712, -54536.51303488172, -39945.47306841291, -21520.930113903298, 269.3161689419948, -31002.450704866733, 0.75, -0.464, 0.536, 192.0, 0.0, 0.0, 0.0, 0.0, 0.0, 0.0, 0.0, 0.0, 0.0, 1.6635010826608639E9, 0.0, 2022-09-18 16:38:02.660
61.0, -21679.783961747165, -34864.96625721052, -83342.94955050344, -54545.163159985925, -39870.97470414337, -21512.749375432657, 2133.0716768588636, -31034.346644204456, 0.75, -0.464, 0.536, 192.0, 0.0, 0.0, 0.0, 0.0, 0.0, 0.0, 0.0, 0.0, 0.0, 1.6635010826647496E9, 0.0, 2022-09-18 16:38:02.664
62.0, -20960.169549008555, -34436.14803983546, -83541.14246858866, -53952.484304009, -40057.723529067465, -21708.707119072333, 4376.337453882391, -31027.931693545783, 0.75, -0.464, 0.536, 192.0, 0.0, 0.0, 0.0, 0.0, 0.0, 0.0, 0.0, 0.0, 0.0, 1.6635010826687725E9, 0.0, 2022-09-18 16:38:02.668
63.0, -21045.530861083374, -34290.28055552013, -83414.1398565936, -54048.61915691128, -40144.44829755405, -21663.109560383506, 3841.013174177787, -31100.373697325434, 0.75, -0.464, 0.536, 192.0, 0.0, 0.0, 0.0, 0.0, 0.0, 0.0, 0.0, 0.0, 0.0, 1.663501082672794E9, 0.0, 2022-09-18 16:38:02.672
64.0, -21462.972040530687, -34209.456647569736, -83284.29857305271, -54358.90607343985, -40069.100566995214, -21597.66365261837, 1356.259150059122, -30980.2107191337, 0.75, -0.464, 0.536, 192.0, 0.0, 0.0, 0.0, 0.0, 0.0, 0.0, 0.0, 0.0, 0.0, 1.663501082676818E9, 0.0, 2022-09-18 16:38:02.676
65.0, -21709.78000280619, -34303.490436493215, -83253.34140698212, -54528.667572577906, -39932.86668454012, -21508.904875386343, 258.07324148097535, -30985.105751169416, 0.75, -0.464, 0.536, 192.0, 0.0, 0.0, 0.0, 0.0, 0.0, 0.0, 0.0, 0.0, 0.0, 1.6635010826808405E9, 0.0, 2022-09-18 16:38:02.680
66.0, -21689.797543263143, -34866.44147234457, -83346.79405054975, -54545.6772501084, -39877.501413524325, -21510.469497498216, 2123.1027988317965, -31024.824801066497, 0.75, -0.464, 0.536, 192.0, 0.0, 0.0, 0.0, 0.0, 0.0, 0.0, 0.0, 0.0, 0.0, 1.663501082685753E9, 0.0, 2022-09-18 16:38:02.685
67.0, -20963.63406939913, -34437.24327531377, -83532.15706731762, -53953.668946465135, -40055.57776159975, -21705.24259868176, 4391.938971512195, -31011.011422993117, 0.75, -0.464, 0.536, 192.0, 0.0, 0.0, 0.0, 0.0, 0.0, 0.0, 0.0, 0.0, 0.0, 1.6635010826888225E9, 0.0, 2022-09-18 16:38:02.688
68.0, -21041.038160447857, -34289.297078764095, -83405.62384195613, -54042.49477893052, -40142.07901264179, -21654.526490512668, 3873.3114449157056, -31096.663307745854, 0.75, -0.464, 0.534, 192.0, 23.0, 112.0, 241.0, 128.0, 16.0, 176.0, 0.0, 0.0, 0.0, 1.6635010826928258E9, 0.0, 2022-09-18 16:38:02.692
69.0, -21463.374371930884, -34216.519798817615, -83291.8087591897, -54361.99061417468, -40084.702084625016, -21602.446925931803, 1371.614798499918, -31003.925920000784, 0.75, -0.464, 0.534, 192.0, 0.0, 0.0, 0.0, 0.0, 0.0, 0.0, 0.0, 0.0, 0.0, 1.663501082697831E9, 0.0, 2022-09-18 16:38:02.697
70.0, -21711.501087129247, -34306.84319816151, -83253.52022093776, -54535.50720638123, -39947.50707715834, -21519.231381324695, 251.54653210002567, -31008.75389680313, 0.75, -0.464, 0.534, 192.0, 0.0, 0.0, 0.0, 0.0, 0.0, 0.0, 0.0, 0.0, 0.0, 1.6635010827018428E9, 0.0, 2022-09-18 16:38:02.701
71.0, -21678.6663745244, -34860.026521685904, -83349.81153605123, -54548.35945944303, -39884.31869558319, -21528.35089306246, 2123.415723254171, -31041.14157451887, 0.75, -0.464, 0.534, 192.0, 0.0, 0.0, 0.0, 0.0, 0.0, 0.0, 0.0, 0.0, 0.0, 1.663501082704857E9, 0.0, 2022-09-18 16:38:02.704
72.0, -20946.780854079825, -34425.08392633008, -83543.80232617883, -53952.484304009, -40061.433918647046, -21722.274627956704, 4418.403436947279, -31022.276702198593, 0.75, -0.464, 0.534, 192.0, 0.0, 0.0, 0.0, 0.0, 0.0, 0.0, 0.0, 0.0, 0.0, 1.6635010827107844E9, 0.0, 2022-09-18 16:38:02.710
73.0, -21030.912820209604, -34275.237831501705, -83420.6442142301, -54042.91946207517, -40154.84185872577, -21679.381630346972, 3919.445445471459, -31109.470857318745, 0.75, -0.464, 0.534, 192.0, 0.0, 0.0, 0.0, 0.0, 0.0, 0.0, 0.0, 0.0, 0.0, 1.663501082713816E9, 0.0, 2022-09-18 16:38:02.713
74.0, -21458.881671295367, -34203.444028311256, -83278.1071398386, -54356.76030597214, -40074.73320659795, -21601.46344917577, 1419.2463659341772, -30989.062009938007, 0.75, -0.464, 0.534, 192.0, 0.0, 0.0, 0.0, 0.0, 0.0, 0.0, 0.0, 0.0, 0.0, 1.6635010827169304E9, 0.0, 2022-09-18 16:38:02.716
75.0, -21702.33687190257, -34287.039552574104, -83249.42985170244, -54524.75601729823, -39943.3273009452, -21512.21293356573, 284.49300342714827, -30996.303975141524, 0.75, -0.464, 0.534, 192.0, 0.0, 0.0, 0.0, 0.0, 0.0, 0.0, 0.0, 0.0, 0.0, 1.663501082720817E9, 0.0, 2022-09-18 16:38:02.720
76.0, -21670.351525587026, -34836.17721035209, -83353.5219256308, -54538.01060176022, -39882.530556026766, -21523.947599404764, 2156.2280841145616, -31030.971530791707, 0.75, -0.464, 0.534, 192.0, 0.0, 0.0, 0.0, 0.0, 0.0, 0.0, 0.0, 0.0, 0.0, 1.6635010827249005E9, 0.0, 2022-09-18 16:38:02.724
77.0, -20940.924697032537, -34405.973184820796, -83553.86061118373, -53945.35409752776, -40067.53594488334, -21726.409700680935, 4462.525780502055, -31006.228149679682, 0.75, -0.464, 0.534, 192.0, 0.0, 0.0, 0.0, 0.0, 0.0, 0.0, 0.0, 0.0, 0.0, 1.6635010827289093E9, 0.0, 2022-09-18 16:38:02.728
78.0, -21011.846782189226, -34247.49931663267, -83422.11942936415, -54028.100255501304, -40157.21114363804, -21676.498255312235, 3984.354911369671, -31090.091894875994, 0.76, -0.468, 0.536, 192.0, 23.0, 192.0, 241.0, 96.0, 16.0, 192.0, 0.0, 0.0, 0.0, 1.6635010827329967E9, 0.0, 2022-09-18 16:38:02.732
79.0, -21447.39287464534, -34187.59664149245, -83291.02644813377, -54352.02173614762, -40086.087892781245, -21599.652957874892, 1482.8370789095259, -30991.788922761552, 0.76, -0.468, 0.536, 192.0, 0.0, 0.0, 0.0, 0.0, 0.0, 0.0, 0.0, 0.0, 0.0, 1.6635010827369137E9, 0.0, 2022-09-18 16:38:02.736
80.0, -21695.698403799346, -34270.9910000552, -83265.41134898798, -54524.48779636477, -39957.0289202963, -21522.517087759625, 324.5696812355139, -31003.32242290049, 0.76, -0.468, 0.536, 192.0, 0.0, 0.0, 0.0, 0.0, 0.0, 0.0, 0.0, 0.0, 0.0, 1.6635010827419603E9, 0.0, 2022-09-18 16:38:02.741
81.0, -21663.690705739344, -34815.926529875585, -83354.23718145337, -54540.29047969467, -39886.4644630509, -21520.77365169211, 2169.7508895100227, -31038.504068673145, 0.76, -0.468, 0.536, 192.0, 0.0, 0.0, 0.0, 0.0, 0.0, 0.0, 0.0, 0.0, 0.0, 1.663501082744953E9, 0.0, 2022-09-18 16:38:02.744
82.0, -20940.455310398975, -34396.317231216104, -83545.45635526853, -53949.332708040805, -40063.5573343703, -21712.21634295182, 4472.517010273577, -31011.793734049053, 0.76, -0.468, 0.536, 192.0, 0.0, 0.0, 0.0, 0.0, 0.0, 0.0, 0.0, 0.0, 0.0, 1.663501082747954E9, 0.0, 2022-09-18 16:38:02.747
83.0, -21005.476535019465, -34240.8832002739, -83420.01836538535, -54026.8038543229, -40158.306379116344, -21670.731505242766, 4010.551155871291, -31092.707048977263, 0.76, -0.468, 0.536, 192.0, 0.0, 0.0, 0.0, 0.0, 0.0, 0.0, 0.0, 0.0, 0.0, 1.663501082752905E9, 0.0, 2022-09-18 16:38:02.752
84.0, -21436.57463032897, -34186.68021996978, -83295.94383191393, -54350.323003569014, -40090.40177946112, -21602.67044337636, 1516.6552682704055, -30994.42642860728, 0.76, -0.468, 0.536, 192.0, 0.0, 0.0, 0.0, 0.0, 0.0, 0.0, 0.0, 0.0, 0.0, 1.6635010827570033E9, 0.0, 2022-09-18 16:38:02.757
85.0, -21669.032772664163, -34255.72475859222, -83253.02848255975, -54507.45576708982, -39947.14944924706, -21509.620131208914, 358.14200140738507, -30988.927899471273, 0.76, -0.468, 0.536, 192.0, 0.0, 0.0, 0.0, 0.0, 0.0, 0.0, 0.0, 0.0, 0.0, 1.663501082760917E9, 0.0, 2022-09-18 16:38:02.760
86.0, -21640.131967083453, -34790.89257608564, -83343.26247492582, -54521.7161800523, -39882.731721726865, -21515.319826045015, 2201.043331747452, -31026.679995856288, 0.76, -0.468, 0.536, 192.0, 0.0, 0.0, 0.0, 0.0, 0.0, 0.0, 0.0, 0.0, 0.0, 1.6635010827649057E9, 0.0, 2022-09-18 16:38:02.764
87.0, -20918.39413862159, -34366.79057679064, -83534.28048304087, -53930.84781537626, -40063.64674134812, -21709.422374894904, 4521.757903308619, -31005.021155479095, 0.76, -0.468, 0.536, 192.0, 0.0, 0.0, 0.0, 0.0, 0.0, 0.0, 0.0, 0.0, 0.0, 1.6635010827689953E9, 0.0, 2022-09-18 16:38:02.768
88.0, -20970.76427588037, -34197.25259509714, -83408.30605129077, -53997.21014466407, -40154.46187907003, -21669.502159297725, 4103.847337227742, -31086.71678146324, 0.76, -0.468, 0.536, 192.0, 0.0, 0.0, 0.0, 0.0, 0.0, 0.0, 0.0, 0.0, 0.0, 1.663501082773012E9, 0.0, 2022-09-18 16:38:02.773
89.0, -21402.75644096809, -34140.36740545838, -83288.67951496596, -54327.90420388034, -40093.32985798477, -21610.60531265799, 1640.5286360417172, -30992.101847183927, 0.758, -0.464, 0.536, 192.0, 23.0, 176.0, 241.0, 128.0, 16.0, 192.0, 0.0, 0.0, 0.0, 1.6635010827760065E9, 0.0, 2022-09-18 16:38:02.776
90.0, -21639.103786838506, -34204.78513297858, -83263.35498849809, -54496.302246606625, -39965.56728667823, -21533.9835326652, 474.61694176399016, -30996.348678630435, 0.758, -0.464, 0.536, 192.0, 0.0, 0.0, 0.0, 0.0, 0.0, 0.0, 0.0, 0.0, 0.0, 1.663501082781001E9, 0.0, 2022-09-18 16:38:02.781
91.0, -21622.51879245267, -34746.61377031967, -83356.09237624316, -54520.866813763, -39904.74819001534, -21537.783329222602, 2297.5581643054684, -31054.686731658785, 0.758, -0.464, 0.536, 192.0, 0.0, 0.0, 0.0, 0.0, 0.0, 0.0, 0.0, 0.0, 0.0, 1.6635010827850142E9, 0.0, 2022-09-18 16:38:02.785
92.0, -20917.298903143277, -34341.42134683387, -83534.77222141888, -53935.85460613425, -40077.16954674358, -21721.894648300964, 4604.593468259986, -31031.19504823626, 0.758, -0.464, 0.536, 192.0, 0.0, 0.0, 0.0, 0.0, 0.0, 0.0, 0.0, 0.0, 0.0, 1.6635010827890377E9, 0.0, 2022-09-18 16:38:02.789
93.0, -20972.977098581447, -34180.019400122095, -83405.13210357811, -53997.433662108626, -40164.4307570971, -21671.156188387416, 4174.814125873342, -31084.61571748444, 0.758, -0.464, 0.536, 192.0, 0.0, 0.0, 0.0, 0.0, 0.0, 0.0, 0.0, 0.0, 0.0, 1.6635010827930453E9, 0.0, 2022-09-18 16:38:02.793
94.0, -21420.436670832238, -34142.759042115096, -83282.66689570749, -54329.491177736665, -40097.50963419791, -21603.83273408803, 1672.625741079538, -30975.874480709375, 0.758, -0.464, 0.536, 192.0, 0.0, 0.0, 0.0, 0.0, 0.0, 0.0, 0.0, 0.0, 0.0, 1.6635010827970202E9, 0.0, 2022-09-18 16:38:02.797
95.0, -21691.786848519667, -34236.14463044937, -83262.34915999761, -54510.22738340228, -39964.53910643329, -21518.761994691133, 423.63261266143473, -30989.173768660283, 0.758, -0.464, 0.536, 192.0, 0.0, 0.0, 0.0, 0.0, 0.0, 0.0, 0.0, 0.0, 0.0, 1.6635010828009615E9, 0.0, 2022-09-18 16:38:02.800
96.0, -21707.947159760854, -34812.216140296005, -83344.8718005266, -54547.28657570918, -39895.807492233216, -21517.73381444619, 2168.0745086758743, -31040.962760563227, 0.758, -0.464, 0.536, 192.0, 0.0, 0.0, 0.0, 0.0, 0.0, 0.0, 0.0, 0.0, 0.0, 1.663501082804042E9, 0.0, 2022-09-18 16:38:02.804
97.0, -21006.638825731137, -34424.569836207615, -83513.40395371962, -53959.748620956976, -40058.86346803468, -21706.82957253809, 4454.389745520323, -31009.08917296996, 0.758, -0.464, 0.536, 192.0, 0.0, 0.0, 0.0, 0.0, 0.0, 0.0, 0.0, 0.0, 0.0, 1.6635010828080316E9, 0.0, 2022-09-18 16:38:02.808
98.0, -21054.158634443123, -34267.191203497794, -83399.70062967547, -54021.461787398075, -40153.768974991915, -21680.34275535855, 4041.3742114751594, -31095.72453447873, 0.758, -0.464, 0.536, 192.0, 0.0, 0.0, 0.0, 0.0, 0.0, 0.0, 0.0, 0.0, 0.0, 1.663501082813059E9, 0.0, 2022-09-18 16:38:02.813
99.0, -21497.840761880965, -34239.519743862125, -83279.42589276146, -54363.398774075366, -40100.12478829918, -21619.85893486249, 1549.3335186640643, -31007.345736902447, 0.756, -0.46, 0.532, 192.0, 23.0, 160.0, 241.0, 160.0, 16.0, 160.0, 0.0, 0.0, 0.0, 1.6635010828170955E9, 0.0, 2022-09-18 16:38:02.817
100.0, -21748.560279436148, -34316.85677967749, -83242.45610743239, -54529.136959211464, -39958.99587380837, -21529.289666329583, 309.95164036174305, -31003.747106045143, 0.756, -0.46, 0.532, 192.0, 0.0, 0.0, 0.0, 0.0, 0.0, 0.0, 0.0, 0.0, 0.0, 1.6635010828210592E9, 0.0, 2022-09-18 16:38:02.821
101.0, -21742.994695066776, -34874.62221081522, -83331.34899513113, -54553.478008923295, -39891.3147915977, -21527.613285495438, 2070.9561790175653, -31045.38840596538, 0.756, -0.46, 0.532, 192.0, 0.0, 0.0, 0.0, 0.0, 0.0, 0.0, 0.0, 0.0, 0.0, 1.6635010828250723E9, 0.0, 2022-09-18 16:38:02.825
102.0, -21026.598933529727, -34480.15862466796, -83525.5633027033, -53964.75541171496, -40064.96549427098, -21713.132764474485, 4387.334512154403, -31022.56727487651, 0.756, -0.46, 0.532, 192.0, 0.0, 0.0, 0.0, 0.0, 0.0, 0.0, 0.0, 0.0, 0.0, 1.663501082829064E9, 0.0, 2022-09-18 16:38:02.829
103.0, -21049.285954151866, -34302.93164288183, -83414.89981590508, -54013.839842538815, -40157.2781988714, -21672.452589565826, 4015.490891395914, -31111.81779048655, 0.756, -0.46, 0.532, 192.0, 0.0, 0.0, 0.0, 0.0, 0.0, 0.0, 0.0, 0.0, 0.0, 1.6635010828321064E9, 0.0, 2022-09-18 16:38:02.832
104.0, -21487.134276286874, -34269.18050875432, -83296.61438424759, -54352.31230882553, -40095.14034928565, -21606.023205044654, 1540.1022482040225, -31000.12612344338, 0.756, -0.46, 0.532, 192.0, 0.0, 0.0, 0.0, 0.0, 0.0, 0.0, 0.0, 0.0, 0.0, 1.6635010828360746E9, 0.0, 2022-09-18 16:38:02.836
105.0, -21744.358151478547, -34348.640960292934, -83266.14895655501, -54528.309944666624, -39971.62460942562, -21538.92326818982, 283.598933648936, -30991.252480894625, 0.756, -0.46, 0.532, 192.0, 0.0, 0.0, 0.0, 0.0, 0.0, 0.0, 0.0, 0.0, 0.0, 1.6635010828410864E9, 0.0, 2022-09-18 16:38:02.841
106.0, -21743.128805533506, -34903.90299605167, -83332.64539630954, -54560.20588400435, -39901.0154486913, -21538.208012367253, 2038.2779286239063, -31033.2737604706, 0.756, -0.46, 0.532, 192.0, 0.0, 0.0, 0.0, 0.0, 0.0, 0.0, 0.0, 0.0, 0.0, 1.663501082845019E9, 0.0, 2022-09-18 16:38:02.845
107.0, -21024.609628273207, -34504.41026740197, -83515.6614799096, -53970.32099608434, -40064.38434891515, -21717.87133429901, 4375.19751491517, -31000.70726879922, 0.756, -0.46, 0.532, 192.0, 0.0, 0.0, 0.0, 0.0, 0.0, 0.0, 0.0, 0.0, 0.0, 1.6635010828490968E9, 0.0, 2022-09-18 16:38:02.849
108.0, -21043.74272152695, -34325.23868384823, -83401.19819655397, -54019.02544725245, -40158.038158182884, -21676.520607056693, 4020.4306269205367, -31084.526310506622, 0.756, -0.46, 0.532, 192.0, 0.0, 0.0, 0.0, 0.0, 0.0, 0.0, 0.0, 0.0, 0.0, 1.6635010828531077E9, 0.0, 2022-09-18 16:38:02.853
109.0, -21489.078878054486, -34298.48364573522, -83282.01869511828, -54365.38807933189, -40098.403703976124, -21611.387623713927, 1541.577463338073, -31000.819027521495, 0.752, -0.464, 0.538, 192.0, 23.0, 128.0, 241.0, 128.0, 16.0, 208.0, 0.0, 0.0, 0.0, 1.66350108285715E9, 0.0, 2022-09-18 16:38:02.857
110.0, -21746.705084646357, -34366.187079690346, -83248.4463749464, -54537.45180814884, -39966.95309483446, -21527.568582006526, 269.02559626407583, -31001.04254496605, 0.752, -0.464, 0.538, 192.0, 0.0, 0.0, 0.0, 0.0, 0.0, 0.0, 0.0, 0.0, 0.0, 1.66350108286012E9, 0.0, 2022-09-18 16:38:02.860
111.0, -21733.20463099535, -34906.49579840848, -83329.40439336353, -54561.05525029365, -39891.09127415315, -21529.937866918786, 2028.420809319116, -31052.51861244662, 0.752, -0.464, 0.538, 192.0, 0.0, 0.0, 0.0, 0.0, 0.0, 0.0, 0.0, 0.0, 0.0, 1.6635010828641284E9, 0.0, 2022-09-18 16:38:02.864
112.0, -20999.218046571976, -34490.95451723987, -83530.3689277612, -53956.0829348663, -40065.92661928256, -21721.805241323145, 4413.217832233648, -31018.27573994109, 0.752, -0.464, 0.538, 192.0, 0.0, 0.0, 0.0, 0.0, 0.0, 0.0, 0.0, 0.0, 0.0, 1.6635010828692217E9, 0.0, 2022-09-18 16:38:02.869
113.0, -20990.0538313453, -34275.6401629019, -83431.21658935746, -53976.71359499855, -40160.13922216168, -21683.42729609338, 4126.8919857611645, -31078.826615670518, 0.752, -0.464, 0.538, 192.0, 0.0, 0.0, 0.0, 0.0, 0.0, 0.0, 0.0, 0.0, 0.0, 1.663501082873184E9, 0.0, 2022-09-18 16:38:02.873
114.0, -21462.10032249693, -34265.26895347464, -83273.12270082507, -54344.55625349954, -40093.95570682952, -21599.60825438598, 1623.2730893222201, -30995.65577455232, 0.752, -0.464, 0.538, 192.0, 0.0, 0.0, 0.0, 0.0, 0.0, 0.0, 0.0, 0.0, 0.0, 1.6635010828771784E9, 0.0, 2022-09-18 16:38:02.877
115.0, -21766.46402674485, -34381.028638008676, -83223.61358685656, -54555.55672115764, -39950.748080104364, -21517.55500049055, 232.05581093499794, -30983.22820463517, 0.752, -0.464, 0.538, 192.0, 0.0, 0.0, 0.0, 0.0, 0.0, 0.0, 0.0, 0.0, 0.0, 1.6635010828811128E9, 0.0, 2022-09-18 16:38:02.881
116.0, -21755.757541150757, -34923.72899338353, -83312.72999199986, -54575.51682895623, -39879.06603563619, -21512.41409926583, 1973.681387148069, -31022.94725453225, 0.752, -0.464, 0.538, 192.0, 0.0, 0.0, 0.0, 0.0, 0.0, 0.0, 0.0, 0.0, 0.0, 1.663501082884168E9, 0.0, 2022-09-18 16:38:02.884
117.0, -21037.618343546194, -34531.88056133754, -83520.13182880066, -53985.319016613845, -40061.143345969125, -21709.400023150447, 4332.528034749989, -31004.46236186771, 0.752, -0.464, 0.538, 192.0, 0.0, 0.0, 0.0, 0.0, 0.0, 0.0, 0.0, 0.0, 0.0, 1.663501082888159E9, 0.0, 2022-09-18 16:38:02.888
118.0, -21045.933192483568, -34344.03650093514, -83423.66169973156, -54022.378208920745, -40169.2810856439, -21686.48948508376, 4022.8893188106204, -31096.39508681239, 0.752, -0.464, 0.538, 192.0, 0.0, 0.0, 0.0, 0.0, 0.0, 0.0, 0.0, 0.0, 0.0, 1.663501082892204E9, 0.0, 2022-09-18 16:38:02.892
119.0, -21490.554093188537, -34319.51663726767, -83273.23445954734, -54365.74570724317, -40093.41926496259, -21613.868667348466, 1554.8096960556145, -30990.604280305422, 0.746, -0.462, 0.534, 192.0, 23.0, 80.0, 241.0, 144.0, 16.0, 176.0, 0.0, 0.0, 0.0, 1.6635010828971636E9, 0.0, 2022-09-18 16:38:02.897
120.0, -21746.436863712894, -34380.00045776373, -83236.37643294054, -54536.93771802637, -39960.04640579777, -21534.139994876386, 247.2326454201514, -30984.99399244714, 0.746, -0.462, 0.534, 192.0, 0.0, 0.0, 0.0, 0.0, 0.0, 0.0, 0.0, 0.0, 0.0, 1.663501082901128E9, 0.0, 2022-09-18 16:38:02.901
121.0, -21743.59819216707, -34923.8407521058, -83328.33150962967, -54569.12423004201, -39895.22634687738, -21525.892201172377, 1979.2693232618958, -31041.923885574804, 0.746, -0.462, 0.534, 192.0, 0.0, 0.0, 0.0, 0.0, 0.0, 0.0, 0.0, 0.0, 0.0, 1.6635010829052353E9, 0.0, 2022-09-18 16:38:02.905
122.0, -21030.711654509505, -34538.89900909651, -83536.7168231865, -53986.83893523681, -40076.029607776356, -21714.607979608536, 4350.320023336413, -31021.695556842755, 0.746, -0.462, 0.534, 192.0, 0.0, 0.0, 0.0, 0.0, 0.0, 0.0, 0.0, 0.0, 0.0, 1.6635010829083064E9, 0.0, 2022-09-18 16:38:02.908
123.0, -21037.30541912382, -34347.05398643661, -83418.47609501793, -54021.394732164714, -40175.11489094674, -21683.986089704766, 4059.9932146064302, -31099.25611010267, 0.746, -0.462, 0.534, 192.0, 0.0, 0.0, 0.0, 0.0, 0.0, 0.0, 0.0, 0.0, 0.0, 1.663501082912295E9, 0.0, 2022-09-18 16:38:02.912
124.0, -21494.599758934946, -34329.39610831691, -83265.52310771027, -54373.56881780253, -40100.52711969938, -21606.98433005623, 1585.2080685148321, -30999.52262634309, 0.746, -0.462, 0.534, 192.0, 0.0, 0.0, 0.0, 0.0, 0.0, 0.0, 0.0, 0.0, 0.0, 1.6635010829161894E9, 0.0, 2022-09-18 16:38:02.916
125.0, -21752.337724249093, -34388.114141001, -83220.95372926637, -54542.23508146228, -39956.47012668492, -21520.304265058552, 255.32397691297257, -30981.70828601221, 0.746, -0.462, 0.534, 192.0, 0.0, 0.0, 0.0, 0.0, 0.0, 0.0, 0.0, 0.0, 0.0, 1.6635010829202027E9, 0.0, 2022-09-18 16:38:02.920
126.0, -21744.805186367656, -34931.01566207596, -83314.09344841164, -54574.42159347792, -39884.25164034982, -21511.251808554152, 1982.778547141379, -31032.24558022566, 0.746, -0.462, 0.534, 192.0, 0.0, 0.0, 0.0, 0.0, 0.0, 0.0, 0.0, 0.0, 0.0, 1.663501082924222E9, 0.0, 2022-09-18 16:38:02.924
127.0, -21032.20922138801, -34554.29936102621, -83527.59731144874, -53994.974970218536, -40060.78571805784, -21704.125011458997, 4371.353014868858, -31012.95602476073, 0.746, -0.462, 0.534, 192.0, 0.0, 0.0, 0.0, 0.0, 0.0, 0.0, 0.0, 0.0, 0.0, 1.6635010829292517E9, 0.0, 2022-09-18 16:38:02.929
128.0, -21026.64363701864, -34358.60983832, -83420.59951074119, -54018.44430189661, -40157.30055061586, -21670.552691287125, 4107.9377064630635, -31084.213386084248, 0.746, -0.462, 0.534, 192.0, 0.0, 0.0, 0.0, 0.0, 0.0, 0.0, 0.0, 0.0, 0.0, 1.663501082933231E9, 0.0, 2022-09-18 16:38:02.933
129.0, -21493.236302523175, -34355.838222007544, -83298.67074473748, -54377.32391087102, -40100.46006446601, -21601.485800920225, 1624.8377114340917, -30994.89581524084, 0.758, -0.466, 0.538, 192.0, 23.0, 176.0, 241.0, 112.0, 16.0, 208.0, 0.0, 0.0, 0.0, 1.6635010829372685E9, 0.0, 2022-09-18 16:38:02.937
130.0, -21755.31050626165, -34415.18210353638, -83241.40557544299, -54548.96295654333, -39958.4817836859, -21520.17015459182, 280.6485033808355, -30980.143663900337, 0.758, -0.466, 0.538, 192.0, 0.0, 0.0, 0.0, 0.0, 0.0, 0.0, 0.0, 0.0, 0.0, 1.6635010829402757E9, 0.0, 2022-09-18 16:38:02.940
131.0, -21750.34841899257, -34950.81930766336, -83307.94671868643, -54581.26122728124, -39885.2127653614, -21519.8795819139, 2009.6676957211132, -31031.731490103186, 0.758, -0.466, 0.538, 192.0, 0.0, 0.0, 0.0, 0.0, 0.0, 0.0, 0.0, 0.0, 0.0, 1.663501082944275E9, 0.0, 2022-09-18 16:38:02.944
132.0, -21036.3666458567, -34568.582125733155, -83513.24749150843, -53998.21597316456, -40053.96843599897, -21716.954912776342, 4414.2236607341365, -31004.03767872306, 0.758, -0.466, 0.538, 192.0, 0.0, 0.0, 0.0, 0.0, 0.0, 0.0, 0.0, 0.0, 0.0, 1.6635010829482453E9, 0.0, 2022-09-18 16:38:02.948
133.0, -21029.59406728674, -34368.53401285816, -83421.60533924167, -54024.3004589439, -40163.983722207995, -21691.518627586203, 4161.358375711247, -31096.39508681239, 0.758, -0.466, 0.538, 192.0, 0.0, 0.0, 0.0, 0.0, 0.0, 0.0, 0.0, 0.0, 0.0, 1.663501082952345E9, 0.0, 2022-09-18 16:38:02.952
134.0, -21497.63959618087, -34361.51556509919, -83278.33065728315, -54382.9341987293, -40100.25889876591, -21613.37692897045, 1676.6714068259487, -31010.407925892825, 0.758, -0.466, 0.538, 192.0, 0.0, 0.0, 0.0, 0.0, 0.0, 0.0, 0.0, 0.0, 0.0, 1.6635010829582973E9, 0.0, 2022-09-18 16:38:02.958
135.0, -21761.814863898144, -34412.65635641293, -83244.73598536683, -54556.65195663595, -39972.831603626204, -21539.6832275013, 306.24125078216207, -31003.814161278508, 0.758, -0.466, 0.538, 192.0, 0.0, 0.0, 0.0, 0.0, 0.0, 0.0, 0.0, 0.0, 0.0, 1.663501082962252E9, 0.0, 2022-09-18 16:38:02.962
136.0, -21754.59525043908, -34949.031168106936, -83327.86212299611, -54596.415710021945, -39896.27687886678, -21530.228439596707, 2022.8105214608338, -31058.687693916287, 0.758, -0.466, 0.538, 192.0, 0.0, 0.0, 0.0, 0.0, 0.0, 0.0, 0.0, 0.0, 0.0, 1.6635010829664428E9, 0.0, 2022-09-18 16:38:02.966
137.0, -21025.8613259627, -34565.855212909606, -83533.14054407366, -54010.487080870524, -40058.63995059013, -21719.748880833256, 4441.425733736245, -31018.119277729904, 0.758, -0.466, 0.538, 192.0, 0.0, 0.0, 0.0, 0.0, 0.0, 0.0, 0.0, 0.0, 0.0, 1.6635010829693334E9, 0.0, 2022-09-18 16:38:02.969
138.0, -21009.768069954884, -34355.905277240905, -83427.75206896687, -54020.59006936432, -40155.49005931498, -21684.924862971886, 4205.659533221667, -31086.15798785186, 0.758, -0.466, 0.538, 192.0, 0.0, 0.0, 0.0, 0.0, 0.0, 0.0, 0.0, 0.0, 0.0, 1.663501082972327E9, 0.0, 2022-09-18 16:38:02.972
139.0, -21496.16438104682, -34364.35423664501, -83292.97104990137, -54389.416204621346, -40100.23654702146, -21614.047481304107, 1701.2583257267866, -31006.719888057698, 0.76, -0.458, 0.54, 192.0, 23.0, 192.0, 241.0, 176.0, 16.0, 224.0, 0.0, 0.0, 0.0, 1.6635010829762726E9, 0.0, 2022-09-18 16:38:02.976
140.0, -21757.433921984903, -34409.30359474463, -83236.04115677372, -54556.24962523575, -39954.257303983846, -21521.533611003593, 309.5493089615475, -30989.196120404737, 0.76, -0.458, 0.54, 192.0, 0.0, 0.0, 0.0, 0.0, 0.0, 0.0, 0.0, 0.0, 0.0, 1.663501082980347E9, 0.0, 2022-09-18 16:38:02.980
141.0, -21755.891651617487, -34948.87470589575, -83325.78341076177, -54601.82483218013, -39883.53638452726, -21515.54334348957, 2017.2449370914624, -31046.841269354973, 0.76, -0.458, 0.54, 192.0, 0.0, 0.0, 0.0, 0.0, 0.0, 0.0, 0.0, 0.0, 0.0, 1.6635010829853556E9, 0.0, 2022-09-18 16:38:02.985
142.0, -21036.388997601152, -34574.2594688248, -83522.47876196846, -54021.059455997885, -40050.28039816384, -21700.90636025743, 4449.517065229066, -31015.32530967299, 0.76, -0.458, 0.54, 192.0, 0.0, 0.0, 0.0, 0.0, 0.0, 0.0, 0.0, 0.0, 0.0, 1.663501082989308E9, 0.0, 2022-09-18 16:38:02.989
143.0, -21015.959503169, -34362.834318022055, -83414.09515310469, -54026.75915083398, -40151.533800546385, -21675.045391922642, 4229.039457921917, -31100.194883369793, 0.76, -0.458, 0.54, 192.0, 0.0, 0.0, 0.0, 0.0, 0.0, 0.0, 0.0, 0.0, 0.0, 1.663501082992365E9, 0.0, 2022-09-18 16:38:02.992
144.0, -21501.528799716092, -34368.57871634707, -83280.43172126195, -54393.730091301215, -40091.98875331745, -21614.002777815196, 1717.9550788349009, -31026.30001620055, 0.76, -0.458, 0.54, 192.0, 0.0, 0.0, 0.0, 0.0, 0.0, 0.0, 0.0, 0.0, 0.0, 1.6635010829965055E9, 0.0, 2022-09-18 16:38:02.996
145.0, -21760.183186552906, -34407.649565654945, -83239.30451146419, -54558.68596538138, -39952.42446093851, -21530.45195704126, 304.31900075900563, -30989.41963784929, 0.76, -0.458, 0.54, 192.0, 0.0, 0.0, 0.0, 0.0, 0.0, 0.0, 0.0, 0.0, 0.0, 1.6635010830003924E9, 0.0, 2022-09-18 16:38:03.000
146.0, -21750.63899167049, -34944.09143258231, -83327.5715503182, -54604.797614192685, -39880.563602514696, -21520.706596458745, 2011.4111317886272, -31040.985112307684, 0.76, -0.458, 0.54, 192.0, 0.0, 0.0, 0.0, 0.0, 0.0, 0.0, 0.0, 0.0, 0.0, 1.6635010830043712E9, 0.0, 2022-09-18 16:38:03.004
147.0, -21030.041102175845, -34570.37026528958, -83521.58469219026, -54024.479272899545, -40045.608883572684, -21703.58856959207, 4460.871751412363, -31018.879237041383, 0.76, -0.458, 0.54, 192.0, 0.0, 0.0, 0.0, 0.0, 0.0, 0.0, 0.0, 0.0, 0.0, 1.663501083008423E9, 0.0, 2022-09-18 16:38:03.008
148.0, -21009.902180421614, -34355.927628985366, -83417.15734209506, -54027.11677874527, -40146.83993421077, -21666.238804607252, 4256.308586157392, -31096.708011234765, 0.76, -0.458, 0.54, 192.0, 0.0, 0.0, 0.0, 0.0, 0.0, 0.0, 0.0, 0.0, 0.0, 1.6635010830134287E9, 0.0, 2022-09-18 16:38:03.013
149.0, -21500.791192149067, -34366.00826573471, -83278.04008460524, -54396.121727957936, -40092.72636088447, -21596.680175862333, 1736.0823435881548, -31005.93757700176, 0.754, -0.464, 0.54, 192.0, 23.0, 144.0, 241.0, 128.0, 16.0, 224.0, 0.0, 0.0, 0.0, 1.663501083017395E9, 0.0, 2022-09-18 16:38:03.017
150.0, -21763.35713426556, -34404.229748753285, -83240.31033996468, -54565.83852360708, -39961.47691744291, -21528.84263144048, 296.339427988461, -30993.308841384514, 0.754, -0.464, 0.54, 192.0, 0.0, 0.0, 0.0, 0.0, 0.0, 0.0, 0.0, 0.0, 0.0, 1.663501083020403E9, 0.0, 2022-09-18 16:38:03.020
151.0, -21742.570011922126, -34932.043842320905, -83319.86019848111, -54603.34475080309, -39877.210840846405, -21515.588046978482, 2009.2653643209178, -31046.126013532405, 0.754, -0.464, 0.54, 192.0, 0.0, 0.0, 0.0, 0.0, 0.0, 0.0, 0.0, 0.0, 0.0, 1.663501083024424E9, 0.0, 2022-09-18 16:38:03.024
152.0, -21015.378357813162, -34560.64725645152, -83524.42336373609, -54018.466653641066, -40046.16767718407, -21703.745031803257, 4480.250713855114, -31008.597434591942, 0.754, -0.464, 0.54, 192.0, 0.0, 0.0, 0.0, 0.0, 0.0, 0.0, 0.0, 0.0, 0.0, 1.6635010830283968E9, 0.0, 2022-09-18 16:38:03.028
153.0, -20996.468782003973, -34346.6069515475, -83423.3934787981, -54020.99240076452, -40162.9778937075, -21681.99678444824, 4290.104423773816, -31088.236700086203, 0.754, -0.464, 0.54, 192.0, 0.0, 0.0, 0.0, 0.0, 0.0, 0.0, 0.0, 0.0, 0.0, 1.663501083032383E9, 0.0, 2022-09-18 16:38:03.032
154.0, -21489.280043754585, -34353.89362023993, -83264.47257572087, -54383.47064059623, -40091.765235872896, -21597.306024707083, 1771.465155060906, -30996.90747224182, 0.754, -0.464, 0.54, 192.0, 0.0, 0.0, 0.0, 0.0, 0.0, 0.0, 0.0, 0.0, 0.0, 1.6635010830364797E9, 0.0, 2022-09-18 16:38:03.036
155.0, -21747.822671869122, -34381.09569324204, -83228.26274970327, -54548.49356990976, -39962.39333896558, -21521.980645892698, 317.3500677764497, -30985.686896525254, 0.754, -0.464, 0.54, 192.0, 0.0, 0.0, 0.0, 0.0, 0.0, 0.0, 0.0, 0.0, 0.0, 1.6635010830404563E9, 0.0, 2022-09-18 16:38:03.040
156.0, -21733.53990716218, -34913.581301400816, -83322.3188903712, -54599.58965773459, -39892.32062009819, -21511.900009143355, 2025.1127511397306, -31045.09783328746, 0.754, -0.464, 0.54, 192.0, 0.0, 0.0, 0.0, 0.0, 0.0, 0.0, 0.0, 0.0, 0.0, 1.6635010830465136E9, 0.0, 2022-09-18 16:38:03.046
157.0, -21007.175267598068, -34547.72794815635, -83530.90536962812, -54020.72417983105, -40058.17056395657, -21698.939406745365, 4511.967839237194, -31008.440972380755, 0.754, -0.464, 0.54, 192.0, 0.0, 0.0, 0.0, 0.0, 0.0, 0.0, 0.0, 0.0, 0.0, 1.6635010830495577E9, 0.0, 2022-09-18 16:38:03.049
158.0, -20975.704011404992, -34321.26007333518, -83423.88521717611, -54008.76599654747, -40161.01094019544, -21678.554615802124, 4345.559101767433, -31088.616679741943, 0.754, -0.464, 0.54, 192.0, 0.0, 0.0, 0.0, 0.0, 0.0, 0.0, 0.0, 0.0, 0.0, 1.6635010830534782E9, 0.0, 2022-09-18 16:38:03.053
159.0, -21477.43361919327, -34330.73721298423, -83275.22376480386, -54374.507591069654, -40092.16756727309, -21602.268111976162, 1813.464082892428, -31004.797638034543, 0.756, -0.47000000000000003, 0.538, 192.0, 23.0, 160.0, 241.0, 80.0, 16.0, 208.0, 0.0, 0.0, 0.0, 1.6635010830564709E9, 0.0, 2022-09-18 16:38:03.056
160.0, -21738.993732809275, -34351.32316962757, -83237.09168876312, -54536.200110459344, -39957.34184471868, -21524.26052382714, 337.13136161939644, -30992.32536462848, 0.756, -0.47000000000000003, 0.538, 192.0, 0.0, 0.0, 0.0, 0.0, 0.0, 0.0, 0.0, 0.0, 0.0, 1.663501083060488E9, 0.0, 2022-09-18 16:38:03.060
161.0, -21719.21243896633, -34881.14892019617, -83307.23146286387, -54582.490573226285, -39875.534460012255, -21513.531686488594, 2045.5869490607918, -31046.05895829904, 0.756, -0.47000000000000003, 0.538, 192.0, 0.0, 0.0, 0.0, 0.0, 0.0, 0.0, 0.0, 0.0, 0.0, 1.66350108306456E9, 0.0, 2022-09-18 16:38:03.064
162.0, -20997.027575615357, -34521.174075743445, -83506.31845072728, -54002.14988018869, -40035.79646775681, -21699.25233116774, 4550.099915277948, -31007.412792135812, 0.756, -0.47000000000000003, 0.538, 192.0, 0.0, 0.0, 0.0, 0.0, 0.0, 0.0, 0.0, 0.0, 0.0, 1.6635010830685265E9, 0.0, 2022-09-18 16:38:03.068
163.0, -20967.031534556336, -34294.952070111285, -83417.1349903506, -53988.87294398224, -40147.488134799976, -21675.537130300658, 4396.945762270184, -31087.946127408282, 0.756, -0.47000000000000003, 0.538, 192.0, 0.0, 0.0, 0.0, 0.0, 0.0, 0.0, 0.0, 0.0, 0.0, 1.6635010830735188E9, 0.0, 2022-09-18 16:38:03.073
164.0, -21482.283947740074, -34313.41461103137, -83278.66593344999, -54359.93425368479, -40090.69235213904, -21602.67044337636, 1852.3114147557517, -30999.053239709527, 0.756, -0.47000000000000003, 0.538, 192.0, 0.0, 0.0, 0.0, 0.0, 0.0, 0.0, 0.0, 0.0, 0.0, 1.6635010830765512E9, 0.0, 2022-09-18 16:38:03.076
165.0, -21742.368846222027, -34328.45733504979, -83236.68935736292, -54518.89986025094, -39962.88507734359, -21525.10989011644, 351.77175423762253, -30978.80255923302, 0.756, -0.47000000000000003, 0.538, 192.0, 0.0, 0.0, 0.0, 0.0, 0.0, 0.0, 0.0, 0.0, 0.0, 1.6635010830805192E9, 0.0, 2022-09-18 16:38:03.080
166.0, -21723.48162215729, -34864.04983568786, -83307.52203554178, -54572.2311225213, -39883.93871592745, -21508.837820152978, 2052.4712863530262, -31036.447708183256, 0.756, -0.47000000000000003, 0.538, 192.0, 0.0, 0.0, 0.0, 0.0, 0.0, 0.0, 0.0, 0.0, 0.0, 1.663501083084622E9, 0.0, 2022-09-18 16:38:03.084
167.0, -21000.492096005928, -34518.26834896426, -83521.3611747457, -54004.005074978486, -40051.979130742446, -21706.42724113789, 4569.3671189984225, -31015.526475373088, 0.756, -0.47000000000000003, 0.538, 192.0, 0.0, 0.0, 0.0, 0.0, 0.0, 0.0, 0.0, 0.0, 0.0, 1.663501083088624E9, 0.0, 2022-09-18 16:38:03.088
168.0, -20959.990735052914, -34287.37482874094, -83420.53245550781, -53983.41911833514, -40155.11007965924, -21680.72273501429, 4432.574442931944, -31088.90725241986, 0.756, -0.47000000000000003, 0.538, 192.0, 0.0, 0.0, 0.0, 0.0, 0.0, 0.0, 0.0, 0.0, 0.0, 1.6635010830925376E9, 0.0, 2022-09-18 16:38:03.092
169.0, -21464.514310898103, -34297.79074165711, -83262.99736058681, -54345.11504711092, -40083.07040727978, -21597.618949129457, 1886.107252372176, -30983.854053479918, 0.752, -0.464, 0.534, 192.0, 23.0, 128.0, 241.0, 128.0, 16.0, 176.0, 0.0, 0.0, 0.0, 1.6635010830965564E9, 0.0, 2022-09-18 16:38:03.096
170.0, -21732.042340283675, -34309.83833191852, -83224.41824965696, -54508.75216826823, -39960.49344068688, -21526.875677928412, 355.90682696185434, -30972.208794618702, 0.752, -0.464, 0.534, 192.0, 0.0, 0.0, 0.0, 0.0, 0.0, 0.0, 0.0, 0.0, 0.0, 1.6635010831015203E9, 0.0, 2022-09-18 16:38:03.101
171.0, -21727.43788092588, -34854.1256611497, -83311.59005303265, -54577.886113868495, -39887.827919462674, -21522.91941915982, 2045.542245571881, -31051.691597901776, 0.752, -0.464, 0.534, 192.0, 0.0, 0.0, 0.0, 0.0, 0.0, 0.0, 0.0, 0.0, 0.0, 1.663501083104592E9, 0.0, 2022-09-18 16:38:03.104
172.0, -20997.318148293274, -34506.19840695839, -83520.98119508996, -54008.36366514727, -40042.43493586003, -21712.43986039637, 4594.66929372183, -31016.979338762685, 0.752, -0.464, 0.534, 192.0, 0.0, 0.0, 0.0, 0.0, 0.0, 0.0, 0.0, 0.0, 0.0, 1.6635010831085477E9, 0.0, 2022-09-18 16:38:03.108
173.0, -20938.8906882871, -34262.363226695445, -83428.13204862262, -53976.46772580955, -40145.54353303237, -21684.72369727179, 4494.1758506507695, -31090.941261165295, 0.752, -0.464, 0.534, 192.0, 0.0, 0.0, 0.0, 0.0, 0.0, 0.0, 0.0, 0.0, 0.0, 1.6635010831125557E9, 0.0, 2022-09-18 16:38:03.112
174.0, -21446.699970567224, -34266.297133719585, -83267.42300598897, -54339.46005576373, -40085.37263695868, -21611.052347547098, 1954.8612183167004, -31002.249539166634, 0.752, -0.464, 0.534, 192.0, 0.0, 0.0, 0.0, 0.0, 0.0, 0.0, 0.0, 0.0, 0.0, 1.6635010831175938E9, 0.0, 2022-09-18 16:38:03.117
175.0, -21711.478735384793, -34265.60422964147, -83227.41338341396, -54498.09038616304, -39961.14164127608, -21539.951448434764, 410.7803595996332, -30978.713152255197, 0.752, -0.464, 0.534, 192.0, 0.0, 0.0, 0.0, 0.0, 0.0, 0.0, 0.0, 0.0, 0.0, 1.6635010831215403E9, 0.0, 2022-09-18 16:38:03.121
176.0, -21705.086136470574, -34815.47949498647, -83311.38888733255, -54570.77825913171, -39881.390617059544, -21522.360625548437, 2088.7928710929004, -31047.221249010712, 0.752, -0.464, 0.534, 192.0, 0.0, 0.0, 0.0, 0.0, 0.0, 0.0, 0.0, 0.0, 0.0, 1.6635010831245832E9, 0.0, 2022-09-18 16:38:03.124
177.0, -20983.14714230861, -34487.35588638257, -83517.9637095885, -54009.32479015885, -40042.83726726023, -21706.941331260365, 4636.042372708604, -31005.110562456917, 0.752, -0.464, 0.534, 192.0, 0.0, 0.0, 0.0, 0.0, 0.0, 0.0, 0.0, 0.0, 0.0, 1.6635010831295967E9, 0.0, 2022-09-18 16:38:03.129
178.0, -20928.206554437467, -34245.308845676045, -83419.70544096296, -53975.99833917598, -40158.55224830535, -21697.553598589137, 4548.132961765881, -31086.269746574137, 0.752, -0.464, 0.534, 192.0, 0.0, 0.0, 0.0, 0.0, 0.0, 0.0, 0.0, 0.0, 0.0, 1.6635010831326425E9, 0.0, 2022-09-18 16:38:03.132
179.0, -21438.00514197411, -34247.54402012158, -83257.92351459546, -54337.604860973945, -40093.307506240315, -21614.069833048565, 2002.1798613285855, -30994.04644895154, 0.746, -0.466, 0.536, 192.0, 23.0, 80.0, 241.0, 112.0, 16.0, 192.0, 0.0, 0.0, 0.0, 1.6635010831366081E9, 0.0, 2022-09-18 16:38:03.136
180.0, -21693.262063653718, -34234.758822293144, -83207.40857212646, -54484.54522902313, -39948.06587076973, -21524.30522731605, 436.7083831677894, -30955.444986277224, 0.746, -0.466, 0.536, 192.0, 0.0, 0.0, 0.0, 0.0, 0.0, 0.0, 0.0, 0.0, 0.0, 1.663501083140571E9, 0.0, 2022-09-18 16:38:03.140
181.0, -21707.768345805212, -34802.02374482438, -83297.62021274808, -54566.88905559648, -39866.2584860633, -21506.06620384052, 2088.8375745818107, -31029.161039490828, 0.746, -0.466, 0.536, 192.0, 0.0, 0.0, 0.0, 0.0, 0.0, 0.0, 0.0, 0.0, 0.0, 1.6635010831445787E9, 0.0, 2022-09-18 16:38:03.144
182.0, -20995.39589827012, -34486.81944451564, -83514.23096826446, -54009.28008666993, -40032.73427876643, -21700.124049201495, 4639.797465777096, -31001.646042066342, 0.746, -0.466, 0.536, 192.0, 0.0, 0.0, 0.0, 0.0, 0.0, 0.0, 0.0, 0.0, 0.0, 1.6635010831485767E9, 0.0, 2022-09-18 16:38:03.148
183.0, -20940.075330743235, -34245.35354916496, -83414.85511241616, -53973.360833330255, -40155.82533548181, -21689.283453140673, 4556.80543861454, -31075.272688302124, 0.746, -0.466, 0.536, 192.0, 0.0, 0.0, 0.0, 0.0, 0.0, 0.0, 0.0, 0.0, 0.0, 1.6635010831525912E9, 0.0, 2022-09-18 16:38:03.152
184.0, -21453.517252626094, -34252.506107390655, -83253.92255233796, -54338.2754133076, -40090.424131205575, -21608.37013821246, 1999.9223351385995, -30982.93763195725, 0.746, -0.466, 0.536, 192.0, 0.0, 0.0, 0.0, 0.0, 0.0, 0.0, 0.0, 0.0, 0.0, 1.66350108315668E9, 0.0, 2022-09-18 16:38:03.156
185.0, -21715.09971798655, -34237.7316043057, -83221.37841241102, -54495.5646390396, -39968.11538554614, -21539.772634479123, 409.4616066767701, -30971.381780073858, 0.746, -0.466, 0.536, 192.0, 0.0, 0.0, 0.0, 0.0, 0.0, 0.0, 0.0, 0.0, 0.0, 1.6635010831596596E9, 0.0, 2022-09-18 16:38:03.159
186.0, -21721.40290992295, -34798.73803838945, -83286.80196843171, -54581.19417204788, -39879.870698436585, -21503.652215439346, 2064.250655680973, -31041.253333241148, 0.746, -0.466, 0.536, 192.0, 0.0, 0.0, 0.0, 0.0, 0.0, 0.0, 0.0, 0.0, 0.0, 1.6635010831636627E9, 0.0, 2022-09-18 16:38:03.163
187.0, -21009.276331576864, -34490.73099979532, -83495.05317152181, -54025.90978454468, -40039.64096780312, -21692.949139231343, 4631.572023817543, -31015.884103284374, 0.746, -0.466, 0.536, 192.0, 0.0, 0.0, 0.0, 0.0, 0.0, 0.0, 0.0, 0.0, 0.0, 1.663501083168579E9, 0.0, 2022-09-18 16:38:03.168
188.0, -20940.544717376797, -34240.6820345738, -83407.61314721264, -53975.79717347588, -40150.46091681253, -21675.984165189766, 4564.7850113850845, -31076.569089480534, 0.746, -0.466, 0.536, 192.0, 0.0, 0.0, 0.0, 0.0, 0.0, 0.0, 0.0, 0.0, 0.0, 1.6635010831726844E9, 0.0, 2022-09-18 16:38:03.172
189.0, -21458.814616062, -34253.69074984679, -83269.79229090123, -54339.08007610799, -40089.30654398281, -21598.021280529654, 1991.451023990038, -30973.23697486365, 0.746, -0.466, 0.536, 192.0, 0.0, 0.0, 0.0, 0.0, 0.0, 0.0, 0.0, 0.0, 0.0, 1.663501083176669E9, 0.0, 2022-09-18 16:38:03.176
190.0, -21731.26002922774, -34244.86181078694, -83245.98768305632, -54499.94558095284, -39973.18923153749, -21538.006846667155, 362.3888328538934, -30960.675294479766, 0.754, -0.464, 0.536, 192.0, 23.0, 144.0, 241.0, 128.0, 16.0, 192.0, 0.0, 0.0, 0.0, 1.663501083180674E9, 0.0, 2022-09-18 16:38:03.180
191.0, -21746.034532312697, -34822.29677704535, -83306.38209657457, -54594.784032676704, -39892.722951498385, -21516.236247567685, 1996.3684077702055, -31044.695501887265, 0.754, -0.464, 0.536, 192.0, 0.0, 0.0, 0.0, 0.0, 0.0, 0.0, 0.0, 0.0, 0.0, 1.6635010831847098E9, 0.0, 2022-09-18 16:38:03.184
192.0, -21032.902125466124, -34523.766878100265, -83497.33304945625, -54039.67845912915, -40046.1006219507, -21706.270778926704, 4577.704319680252, -31003.076553711482, 0.754, -0.464, 0.536, 192.0, 0.0, 0.0, 0.0, 0.0, 0.0, 0.0, 0.0, 0.0, 0.0, 1.6635010831877038E9, 0.0, 2022-09-18 16:38:03.187
193.0, -20969.043191557314, -34280.17756702633, -83408.73073443542, -53990.68343528312, -40159.06633842782, -21690.781020019178, 4518.919231762795, -31078.223118570226, 0.754, -0.464, 0.536, 192.0, 0.0, 0.0, 0.0, 0.0, 0.0, 0.0, 0.0, 0.0, 0.0, 1.663501083191694E9, 0.0, 2022-09-18 16:38:03.191
194.0, -21500.232398537686, -34297.611927701466, -83243.81956384415, -54355.285090838086, -40086.78079685936, -21596.791934584613, 1928.8214360262677, -30982.356486601413, 0.754, -0.464, 0.536, 192.0, 0.0, 0.0, 0.0, 0.0, 0.0, 0.0, 0.0, 0.0, 0.0, 1.6635010831957135E9, 0.0, 2022-09-18 16:38:03.195
195.0, -21777.058753616664, -34287.77716014113, -83202.35707787957, -54512.2166886588, -39960.42638545351, -21523.768785449123, 263.48236363915964, -30963.111634625395, 0.754, -0.464, 0.536, 192.0, 0.0, 0.0, 0.0, 0.0, 0.0, 0.0, 0.0, 0.0, 0.0, 1.6635010832017357E9, 0.0, 2022-09-18 16:38:03.201
196.0, -21773.527177992724, -34855.42206232811, -83281.07992185115, -54601.62366648003, -39877.68022747996, -21506.557942218536, 1911.4988340734046, -31039.84517334046, 0.754, -0.464, 0.536, 192.0, 0.0, 0.0, 0.0, 0.0, 0.0, 0.0, 0.0, 0.0, 0.0, 1.6635010832057128E9, 0.0, 2022-09-18 16:38:03.205
197.0, -21042.40161685963, -34554.54523021522, -83506.94429957203, -54049.46852320058, -40041.51851433737, -21705.667281826412, 4533.581976125476, -31006.18344619077, 0.754, -0.464, 0.536, 192.0, 0.0, 0.0, 0.0, 0.0, 0.0, 0.0, 0.0, 0.0, 0.0, 1.66350108321067E9, 0.0, 2022-09-18 16:38:03.210
198.0, -20964.729304877437, -34297.947203868294, -83418.1408188511, -53991.53280157242, -40151.80202147985, -21682.33206061507, 4504.904687989318, -31065.884955630896, 0.754, -0.464, 0.536, 192.0, 0.0, 0.0, 0.0, 0.0, 0.0, 0.0, 0.0, 0.0, 0.0, 1.663501083213802E9, 0.0, 2022-09-18 16:38:03.213
199.0, -21515.565695234025, -34331.92185544036, -83249.27338949125, -54366.684480510296, -40084.72443636948, -21590.019356014654, 1888.8341651957232, -30969.95126842872, 0.754, -0.464, 0.536, 192.0, 0.0, 0.0, 0.0, 0.0, 0.0, 0.0, 0.0, 0.0, 0.0, 1.663501083216763E9, 0.0, 2022-09-18 16:38:03.216
200.0, -21790.469800289848, -34317.50498026669, -83195.00335395377, -54518.78810152866, -39958.682949386, -21517.711462701736, 202.61856348735853, -30944.89496289432, 0.754, -0.47000000000000003, 0.534, 192.0, 23.0, 144.0, 241.0, 80.0, 16.0, 176.0, 0.0, 0.0, 0.0, 1.6635010832197473E9, 0.0, 2022-09-18 16:38:03.219
201.0, -21780.053887373673, -34874.353989881754, -83279.82822416165, -54604.507041514764, -39882.865832193595, -21511.34121553197, 1876.518354000849, -31030.166867991316, 0.754, -0.47000000000000003, 0.534, 192.0, 0.0, 0.0, 0.0, 0.0, 0.0, 0.0, 0.0, 0.0, 0.0, 1.66350108322468E9, 0.0, 2022-09-18 16:38:03.224
202.0, -21037.752454012927, -34563.821204164175, -83494.49437791042, -54045.22169175407, -40038.97041546946, -21709.198857450352, 4545.51780766461, -30999.27675715408, 0.754, -0.47000000000000003, 0.534, 192.0, 0.0, 0.0, 0.0, 0.0, 0.0, 0.0, 0.0, 0.0, 0.0, 1.6635010832287934E9, 0.0, 2022-09-18 16:38:03.228
203.0, -20954.29104021681, -34300.58470971402, -83406.83083615672, -53978.3899758327, -40151.243227868465, -21685.66247053891, 4543.170874496803, -31065.4826242307, 0.754, -0.47000000000000003, 0.534, 192.0, 0.0, 0.0, 0.0, 0.0, 0.0, 0.0, 0.0, 0.0, 0.0, 1.6635010832327719E9, 0.0, 2022-09-18 16:38:03.232
204.0, -21511.452974254247, -34336.9062944539, -83246.07709003414, -54353.34048907048, -40084.88089858066, -21587.113629235464, 1921.1994911670079, -30974.868652208886, 0.754, -0.47000000000000003, 0.534, 192.0, 0.0, 0.0, 0.0, 0.0, 0.0, 0.0, 0.0, 0.0, 0.0, 1.6635010832367725E9, 0.0, 2022-09-18 16:38:03.236
205.0, -21790.760372967765, -34319.337823312024, -83216.48338037531, -54513.24486890374, -39970.261153013846, -21529.69199772978, 208.67588623474674, -30967.06789339398, 0.754, -0.47000000000000003, 0.534, 192.0, 0.0, 0.0, 0.0, 0.0, 0.0, 0.0, 0.0, 0.0, 0.0, 1.6635010832397647E9, 0.0, 2022-09-18 16:38:03.239
206.0, -21766.329916278115, -34867.089672933784, -83301.08473313866, -54604.06000662566, -39899.026143434785, -21516.146840589863, 1881.748662203391, -31055.893725859372, 0.754, -0.47000000000000003, 0.534, 192.0, 0.0, 0.0, 0.0, 0.0, 0.0, 0.0, 0.0, 0.0, 0.0, 1.6635010832438598E9, 0.0, 2022-09-18 16:38:03.243
207.0, -21006.996453642423, -34547.21385803388, -83505.96082281599, -54039.38788645124, -40052.11324120918, -21695.251368910238, 4581.4594127487435, -31015.213550950713, 0.754, -0.47000000000000003, 0.534, 192.0, 0.0, 0.0, 0.0, 0.0, 0.0, 0.0, 0.0, 0.0, 0.0, 1.6635010832477677E9, 0.0, 2022-09-18 16:38:03.247
208.0, -20915.175487420023, -34273.628505900924, -83410.96590888094, -53962.117905869236, -40154.43952732558, -21676.095923912042, 4599.497270524177, -31072.635182456397, 0.754, -0.47000000000000003, 0.534, 192.0, 0.0, 0.0, 0.0, 0.0, 0.0, 0.0, 0.0, 0.0, 0.0, 1.6635010832517953E9, 0.0, 2022-09-18 16:38:03.251
209.0, -21481.00989830612, -34313.481666264735, -83251.17328776995, -54339.10242785245, -40084.94795381403, -21591.494571148705, 1969.0098725569098, -30974.46632080869, 0.754, -0.47000000000000003, 0.534, 192.0, 0.0, 0.0, 0.0, 0.0, 0.0, 0.0, 0.0, 0.0, 0.0, 1.6635010832568097E9, 0.0, 2022-09-18 16:38:03.256
210.0, -21766.732247678312, -34292.091046821006, -83218.98677575431, -54494.603514028015, -39967.176612279014, -21527.300361073063, 230.62529928985828, -30944.93966638323, 0.756, -0.466, 0.534, 192.0, 23.0, 160.0, 241.0, 112.0, 16.0, 176.0, 0.0, 0.0, 0.0, 1.663501083260751E9, 0.0, 2022-09-18 16:38:03.260
211.0, -21725.15800299144, -34817.33468977627, -83293.61925049058, -54562.9775003168, -39883.87166069409, -21509.396613764362, 1936.197511696519, -31014.922978272796, 0.756, -0.466, 0.534, 192.0, 0.0, 0.0, 0.0, 0.0, 0.0, 0.0, 0.0, 0.0, 0.0, 1.6635010832648256E9, 0.0, 2022-09-18 16:38:03.264
212.0, -20947.652572113584, -34474.123653665025, -83502.29513672533, -53981.608627034264, -40046.59236032872, -21697.91122650042, 4718.02857137067, -30988.994954704638, 0.756, -0.466, 0.534, 192.0, 0.0, 0.0, 0.0, 0.0, 0.0, 0.0, 0.0, 0.0, 0.0, 1.6635010832677732E9, 0.0, 2022-09-18 16:38:03.267
213.0, -20872.93069039949, -34206.81914172401, -83402.67341168803, -53918.10732103674, -40156.96527444902, -21674.888929711455, 4740.112094892514, -31059.447653227766, 0.756, -0.466, 0.534, 192.0, 0.0, 0.0, 0.0, 0.0, 0.0, 0.0, 0.0, 0.0, 0.0, 1.6635010832728684E9, 0.0, 2022-09-18 16:38:03.272
214.0, -21448.599868845926, -34242.11254621894, -83227.36867992506, -54302.62438090138, -40094.492148696445, -21578.17293145334, 2116.2408132840173, -30978.914317955296, 0.756, -0.466, 0.534, 192.0, 0.0, 0.0, 0.0, 0.0, 0.0, 0.0, 0.0, 0.0, 0.0, 1.6635010832768168E9, 0.0, 2022-09-18 16:38:03.276
215.0, -21774.756523937765, -34252.2825899461, -83198.35611562207, -54488.27797034717, -39969.65765591355, -21513.531686488594, 277.1616312458076, -30942.36921577087, 0.756, -0.466, 0.534, 192.0, 0.0, 0.0, 0.0, 0.0, 0.0, 0.0, 0.0, 0.0, 0.0, 1.6635010832798464E9, 0.0, 2022-09-18 16:38:03.279
216.0, -21706.42724113789, -34755.241543679425, -83287.22665157636, -54537.049476748645, -39889.95133518593, -21496.656119424835, 2008.550108498348, -31018.5216091301, 0.756, -0.466, 0.534, 192.0, 0.0, 0.0, 0.0, 0.0, 0.0, 0.0, 0.0, 0.0, 0.0, 1.6635010832848935E9, 0.0, 2022-09-18 16:38:03.284
217.0, -20990.009127856392, -34478.8398717451, -83501.26695648038, -54010.3976738927, -40054.54958135481, -21695.318424143607, 4684.836230854539, -31013.179542205282, 0.756, -0.466, 0.534, 192.0, 0.0, 0.0, 0.0, 0.0, 0.0, 0.0, 0.0, 0.0, 0.0, 1.6635010832888386E9, 0.0, 2022-09-18 16:38:03.288
218.0, -20942.489319144406, -34256.12708999242, -83423.7958101983, -53975.327786842325, -40168.40936761014, -21670.686801753858, 4634.500102341188, -31085.10745586246, 0.756, -0.466, 0.534, 192.0, 0.0, 0.0, 0.0, 0.0, 0.0, 0.0, 0.0, 0.0, 0.0, 1.6635010832929132E9, 0.0, 2022-09-18 16:38:03.292
219.0, -21493.124543800895, -34295.376753255936, -83272.02746534675, -54345.204454088744, -40108.46198898101, -21577.524730864137, 2022.385838316183, -30990.671335538787, 0.756, -0.466, 0.534, 192.0, 0.0, 0.0, 0.0, 0.0, 0.0, 0.0, 0.0, 0.0, 0.0, 1.6635010832959573E9, 0.0, 2022-09-18 16:38:03.295
220.0, -21758.797378396677, -34253.578991124516, -83215.43284838591, -54489.84259245904, -39984.14158632059, -21523.366454048926, 270.3219974424836, -30948.94062864073, 0.754, -0.458, 0.538, 192.0, 23.0, 144.0, 241.0, 176.0, 16.0, 208.0, 0.0, 0.0, 0.0, 1.6635010832998736E9, 0.0, 2022-09-18 16:38:03.299
221.0, -21747.800320124665, -34806.67290767108, -83266.12660481056, -54581.440041236885, -39885.2127653614, -21504.568636962016, 1902.2228601244522, -31018.90158878584, 0.754, -0.458, 0.538, 192.0, 0.0, 0.0, 0.0, 0.0, 0.0, 0.0, 0.0, 0.0, 0.0, 1.6635010833039353E9, 0.0, 2022-09-18 16:38:03.303
222.0, -21015.35600606871, -34525.577369401144, -83486.67126735106, -54037.30917421689, -40042.68080504904, -21710.517610373212, 4612.10365439697, -30997.399210619835, 0.754, -0.458, 0.538, 192.0, 0.0, 0.0, 0.0, 0.0, 0.0, 0.0, 0.0, 0.0, 0.0, 1.663501083307957E9, 0.0, 2022-09-18 16:38:03.307
223.0, -20905.631292537608, -34242.42547064131, -83410.94355713649, -53946.024649861414, -40159.781594250395, -21703.476810869794, 4696.816765882583, -31068.969496365728, 0.754, -0.458, 0.538, 192.0, 0.0, 0.0, 0.0, 0.0, 0.0, 0.0, 0.0, 0.0, 0.0, 1.6635010833128848E9, 0.0, 2022-09-18 16:38:03.312
224.0, -21455.752427071624, -34269.359322709955, -83260.89629660801, -54319.09761656495, -40109.110189570216, -21622.98817908623, 2111.770464392956, -30994.337021629457, 0.754, -0.458, 0.538, 192.0, 0.0, 0.0, 0.0, 0.0, 0.0, 0.0, 0.0, 0.0, 0.0, 1.6635010833169124E9, 0.0, 2022-09-18 16:38:03.316
225.0, -21737.00442755275, -34222.174790164805, -83220.95372926637, -54473.32465330657, -39995.228051570426, -21579.871664031944, 337.7348587196897, -30962.776358458563, 0.754, -0.458, 0.538, 192.0, 0.0, 0.0, 0.0, 0.0, 0.0, 0.0, 0.0, 0.0, 0.0, 1.663501083320953E9, 0.0, 2022-09-18 16:38:03.320
226.0, -21762.73128542081, -34802.89546285814, -83277.16836657148, -54588.145564573475, -39902.311849869715, -21561.36441962295, 1891.1587466190754, -31028.95987379073, 0.754, -0.458, 0.538, 192.0, 0.0, 0.0, 0.0, 0.0, 0.0, 0.0, 0.0, 0.0, 0.0, 1.6635010833239136E9, 0.0, 2022-09-18 16:38:03.323
227.0, -21057.64550657815, -34558.166212816985, -83504.53031117086, -54064.824171641376, -40061.83625004724, -21765.435846499902, 4551.910406578828, -31010.85496078193, 0.754, -0.458, 0.538, 192.0, 0.0, 0.0, 0.0, 0.0, 0.0, 0.0, 0.0, 0.0, 0.0, 1.66350108332789E9, 0.0, 2022-09-18 16:38:03.327
228.0, -20937.393121408597, -34272.376808211426, -83433.04943240278, -53972.98085367452, -40188.369475408734, -21771.873148903032, 4653.119105472459, -31092.01414489915, 0.754, -0.458, 0.538, 192.0, 0.0, 0.0, 0.0, 0.0, 0.0, 0.0, 0.0, 0.0, 0.0, 1.6635010833318973E9, 0.0, 2022-09-18 16:38:03.331
229.0, -21465.318973698497, -34284.08912230601, -83286.5560992427, -54338.11895109641, -40140.58144576329, -21700.079345712584, 2106.7189701460566, -31004.685879312263, 0.754, -0.458, 0.538, 192.0, 0.0, 0.0, 0.0, 0.0, 0.0, 0.0, 0.0, 0.0, 0.0, 1.6635010833359458E9, 0.0, 2022-09-18 16:38:03.335
230.0, -21731.505898416748, -34220.76663026412, -83256.89533435051, -54485.48400229025, -40028.88977872012, -21627.65969367739, 334.8961871738657, -30977.57321328798, 0.758, -0.452, 0.54, 192.0, 23.0, 176.0, 241.0, 224.0, 16.0, 224.0, 0.0, 0.0, 0.0, 1.6635010833399222E9, 0.0, 2022-09-18 16:38:03.339
231.0, -21782.8925589195, -34817.33468977627, -83314.47342806739, -54619.1921376219, -39938.320510187215, -21589.371155425448, 1849.8750746101232, -31066.95783936475, 0.758, -0.452, 0.54, 192.0, 0.0, 0.0, 0.0, 0.0, 0.0, 0.0, 0.0, 0.0, 0.0, 1.6635010833449457E9, 0.0, 2022-09-18 16:38:03.344
232.0, -21091.374288961208, -34587.49170154234, -83528.80430564932, -54101.70454999263, -40093.97805857397, -21794.58252126962, 4512.236060170658, -31036.58181864999, 0.758, -0.452, 0.54, 192.0, 0.0, 0.0, 0.0, 0.0, 0.0, 0.0, 0.0, 0.0, 0.0, 1.6635010833489587E9, 0.0, 2022-09-18 16:38:03.348
233.0, -20938.510708631362, -34280.915174593356, -83463.67132230656, -53989.67760678263, -40219.10312403478, -21797.667062004457, 4664.987881778226, -31099.524331036133, 0.758, -0.452, 0.54, 192.0, 0.0, 0.0, 0.0, 0.0, 0.0, 0.0, 0.0, 0.0, 0.0, 1.6635010833529363E9, 0.0, 2022-09-18 16:38:03.352
234.0, -21425.577572056958, -34257.691712104286, -83301.62117500558, -54334.78854117257, -40159.289855872375, -21710.24938943975, 2179.5856570703577, -31016.219379451202, 0.758, -0.452, 0.54, 192.0, 0.0, 0.0, 0.0, 0.0, 0.0, 0.0, 0.0, 0.0, 0.0, 1.6635010833559358E9, 0.0, 2022-09-18 16:38:03.355
235.0, -21674.95598494482, -34167.59183020495, -83236.46583991837, -54468.42962127085, -40030.454400831986, -21626.966789599275, 417.9999730586974, -30975.181576631257, 0.758, -0.452, 0.54, 192.0, 0.0, 0.0, 0.0, 0.0, 0.0, 0.0, 0.0, 0.0, 0.0, 1.6635010833599336E9, 0.0, 2022-09-18 16:38:03.359
236.0, -21766.64284070049, -34789.0597330403, -83279.73881718384, -54614.00653290827, -39924.46242862492, -21573.23319592872, 1870.3716242756398, -31044.20376350925, 0.758, -0.452, 0.54, 192.0, 0.0, 0.0, 0.0, 0.0, 0.0, 0.0, 0.0, 0.0, 0.0, 1.6635010833639655E9, 0.0, 2022-09-18 16:38:03.363
237.0, -21110.105050814756, -34593.59372777864, -83488.95114528551, -54105.66080876122, -40067.73711058344, -21764.184148810407, 4488.945542448228, -31000.394344376844, 0.758, -0.452, 0.54, 192.0, 0.0, 0.0, 0.0, 0.0, 0.0, 0.0, 0.0, 0.0, 0.0, 1.663501083368017E9, 0.0, 2022-09-18 16:38:03.368
238.0, -20954.29104021681, -34284.82672987303, -83431.50716203537, -53983.240304379506, -40195.45497840107, -21766.173454066928, 4656.963605518771, -31076.792606925086, 0.758, -0.452, 0.54, 192.0, 0.0, 0.0, 0.0, 0.0, 0.0, 0.0, 0.0, 0.0, 0.0, 1.6635010833729594E9, 0.0, 2022-09-18 16:38:03.372
239.0, -21414.8040312295, -34242.69369157478, -83297.0614191367, -54316.14718629685, -40147.33167258879, -21682.510874570715, 2213.5156051535137, -31004.84234152345, 0.758, -0.452, 0.54, 192.0, 0.0, 0.0, 0.0, 0.0, 0.0, 0.0, 0.0, 0.0, 0.0, 1.6635010833770075E9, 0.0, 2022-09-18 16:38:03.377
240.0, -21649.206775332306, -34132.0078530321, -83275.71550318188, -54446.74842914921, -40036.467020090466, -21621.33414999654, 463.7092904698003, -30972.901698696816, 0.754, -0.456, 0.536, 192.0, 23.0, 144.0, 241.0, 192.0, 16.0, 192.0, 0.0, 0.0, 0.0, 1.6635010833800251E9, 0.0, 2022-09-18 16:38:03.380
241.0, -21773.527177992724, -34772.586497376746, -83304.70571574042, -54612.061931140655, -39925.49060886987, -21569.343992393493, 1868.494077741394, -31047.66828389982, 0.754, -0.456, 0.536, 192.0, 0.0, 0.0, 0.0, 0.0, 0.0, 0.0, 0.0, 0.0, 0.0, 1.6635010833840077E9, 0.0, 2022-09-18 16:38:03.384
242.0, -21134.46845227104, -34596.5665097912, -83492.9074040541, -54112.835718731374, -40053.40964238759, -21744.91694508993, 4470.147725361315, -31003.90356825633, 0.754, -0.456, 0.536, 192.0, 0.0, 0.0, 0.0, 0.0, 0.0, 0.0, 0.0, 0.0, 0.0, 1.663501083388024E9, 0.0, 2022-09-18 16:38:03.388
243.0, -20944.1433482341, -34270.09693027698, -83435.99986267088, -53972.466763552045, -40176.85832701425, -21752.20361378236, 4688.010178567192, -31066.37669400891, 0.754, -0.456, 0.536, 192.0, 0.0, 0.0, 0.0, 0.0, 0.0, 0.0, 0.0, 0.0, 0.0, 1.6635010833920217E9, 0.0, 2022-09-18 16:38:03.392
244.0, -21346.966486807643, -34182.455740267724, -83299.09542788213, -54280.45145040172, -40138.05569863984, -21691.406868863927, 2334.3938391678143, -30997.019230964095, 0.754, -0.456, 0.536, 192.0, 0.0, 0.0, 0.0, 0.0, 0.0, 0.0, 0.0, 0.0, 0.0, 1.6635010833960836E9, 0.0, 2022-09-18 16:38:03.396
245.0, -21546.634620026904, -34026.03823256949, -83266.99832284432, -54399.42978613732, -40037.226979401945, -21634.454623991805, 650.4134119049802, -30982.200024390226, 0.754, -0.456, 0.536, 192.0, 0.0, 0.0, 0.0, 0.0, 0.0, 0.0, 0.0, 0.0, 0.0, 1.6635010834011445E9, 0.0, 2022-09-18 16:38:03.401
246.0, -21709.422374894904, -34688.610993458155, -83291.33937255615, -54593.84525940958, -39930.98913800587, -21572.562643595058, 2027.1914633740741, -31054.262048514134, 0.754, -0.456, 0.536, 192.0, 0.0, 0.0, 0.0, 0.0, 0.0, 0.0, 0.0, 0.0, 0.0, 1.6635010834040215E9, 0.0, 2022-09-18 16:38:03.404
247.0, -21107.244027524477, -34547.884410367544, -83496.97542154496, -54116.21083214413, -40061.99271225843, -21741.050093299164, 4603.095901381481, -30996.66160305281, 0.754, -0.456, 0.536, 192.0, 0.0, 0.0, 0.0, 0.0, 0.0, 0.0, 0.0, 0.0, 0.0, 1.6635010834070148E9, 0.0, 2022-09-18 16:38:03.407
248.0, -20911.532153073807, -34221.884217486884, -83469.43807237603, -53976.75829848746, -40204.28391746091, -21762.97715460982, 4842.304270542178, -31079.161891837346, 0.754, -0.456, 0.536, 192.0, 0.0, 0.0, 0.0, 0.0, 0.0, 0.0, 0.0, 0.0, 0.0, 1.66350108341209E9, 0.0, 2022-09-18 16:38:03.412
249.0, -21302.397108363763, -34123.46948665017, -83336.13226844458, -54279.35621492341, -40165.12366117521, -21705.756688804235, 2515.4206175113463, -31011.90549277133, 0.754, -0.456, 0.536, 192.0, 0.0, 0.0, 0.0, 0.0, 0.0, 0.0, 0.0, 0.0, 0.0, 1.6635010834160936E9, 0.0, 2022-09-18 16:38:03.416
250.0, -21504.63569219538, -33956.36784510229, -83259.77870938525, -54381.83896325099, -40034.14243866711, -21623.166993041872, 801.1312247671158, -30960.340018312934, 0.758, -0.464, 0.536, 192.0, 23.0, 176.0, 241.0, 128.0, 16.0, 192.0, 0.0, 0.0, 0.0, 1.663501083420046E9, 0.0, 2022-09-18 16:38:03.420
251.0, -21720.7770610782, -34659.039635543784, -83262.99736058681, -54591.40891926395, -39903.988230703864, -21536.64339025538, 2072.252580195973, -31031.75384184764, 0.758, -0.464, 0.536, 192.0, 0.0, 0.0, 0.0, 0.0, 0.0, 0.0, 0.0, 0.0, 0.0, 1.66350108342406E9, 0.0, 2022-09-18 16:38:03.424
252.0, -21163.928051463135, -34570.526727500765, -83469.61688633167, -54139.52370161101, -40032.91309272207, -21713.848020297053, 4562.23691251718, -30994.493483840644, 0.758, -0.464, 0.536, 192.0, 0.0, 0.0, 0.0, 0.0, 0.0, 0.0, 0.0, 0.0, 0.0, 1.6635010834291627E9, 0.0, 2022-09-18 16:38:03.429
253.0, -20971.792456125317, -34255.97062778123, -83430.65779574607, -53992.672740539645, -40165.52599257541, -21735.14923276296, 4776.590141843574, -31054.105586302947, 0.758, -0.464, 0.536, 192.0, 0.0, 0.0, 0.0, 0.0, 0.0, 0.0, 0.0, 0.0, 0.0, 1.663501083432067E9, 0.0, 2022-09-18 16:38:03.432
254.0, -21352.196795010186, -34153.77845213156, -83305.08569539615, -54283.17836322527, -40133.65240498214, -21685.23778739426, 2445.571416088512, -30976.92501269877, 0.758, -0.464, 0.536, 192.0, 0.0, 0.0, 0.0, 0.0, 0.0, 0.0, 0.0, 0.0, 0.0, 1.663501083436072E9, 0.0, 2022-09-18 16:38:03.436
255.0, -21552.088445674, -33985.313354171914, -83270.37343625707, -54390.176163932825, -40033.56129331128, -21624.262228520183, 704.3705230200915, -30953.589791487433, 0.758, -0.464, 0.536, 192.0, 0.0, 0.0, 0.0, 0.0, 0.0, 0.0, 0.0, 0.0, 0.0, 1.6635010834410856E9, 0.0, 2022-09-18 16:38:03.441
0.0, -21787.295852577194, -34711.70034548049, -83283.44920676341, -54619.52741378873, -39910.13496042907, -21537.380997822405, 1924.395790624117, -31035.553638405043, 0.758, -0.464, 0.536, 192.0, 0.0, 0.0, 0.0, 0.0, 0.0, 0.0, 0.0, 0.0, 0.0, 1.663501083444102E9, 0.0, 2022-09-18 16:38:03.444
1.0, -21232.793776129936, -34642.544048135765, -83481.21744170398, -54171.17377175973, -40031.72845026594, -21715.166773219917, 4403.494823395589, -30985.642193036343, 0.758, -0.464, 0.536, 192.0, 0.0, 0.0, 0.0, 0.0, 0.0, 0.0, 0.0, 0.0, 0.0, 1.6635010834480908E9, 0.0, 2022-09-18 16:38:03.448
2.0, -21011.980892655956, -34315.67213722136, -83447.30984536528, -54010.911764015174, -40173.32675139031, -21749.38729398099, 4653.029698494637, -31062.66630442933, 0.758, -0.464, 0.536, 192.0, 0.0, 0.0, 0.0, 0.0, 0.0, 0.0, 0.0, 0.0, 0.0, 1.663501083452203E9, 0.0, 2022-09-18 16:38:03.452
3.0, -21354.11904503334, -34178.343019287946, -83309.89132045404, -54282.68662484725, -40141.877846941694, -21700.30286315714, 2382.1818688132607, -31001.62369032189, 0.758, -0.464, 0.536, 192.0, 0.0, 0.0, 0.0, 0.0, 0.0, 0.0, 0.0, 0.0, 0.0, 1.6635010834571235E9, 0.0, 2022-09-18 16:38:03.457
4.0, -21529.26731458513, -33972.28228715447, -83268.13826181153, -54377.68153878231, -40036.75759276839, -21636.7568536707, 668.4065661915024, -30974.28750685305, 0.756, -0.462, 0.536, 192.0, 23.0, 160.0, 241.0, 144.0, 16.0, 192.0, 0.0, 0.0, 0.0, 1.6635010834602127E9, 0.0, 2022-09-18 16:38:03.460
5.0, -21793.375527069038, -34717.623557761144, -83266.08190132164, -54624.511852802265, -39902.82593999219, -21532.418910553326, 1856.1559148020644, -31039.219324495712, 0.756, -0.462, 0.536, 192.0, 0.0, 0.0, 0.0, 0.0, 0.0, 0.0, 0.0, 0.0, 0.0, 1.6635010834641192E9, 0.0, 2022-09-18 16:38:03.464
6.0, -21261.851043921833, -34679.20090904247, -83468.43224387553, -54195.24660053809, -40019.79261872681, -21703.074479469597, 4327.029505613984, -30981.75298950112, 0.756, -0.462, 0.536, 192.0, 0.0, 0.0, 0.0, 0.0, 0.0, 0.0, 0.0, 0.0, 0.0, 1.6635010834682837E9, 0.0, 2022-09-18 16:38:03.468
7.0, -21019.178154370566, -34335.90046595341, -83450.8414209892, -54021.84176705382, -40162.26263788493, -21739.284305487196, 4624.5982795474865, -31059.00061833866, 0.756, -0.462, 0.536, 192.0, 0.0, 0.0, 0.0, 0.0, 0.0, 0.0, 0.0, 0.0, 0.0, 1.6635010834722302E9, 0.0, 2022-09-18 16:38:03.472
8.0, -21324.614742352336, -34163.07677782497, -83340.84848652464, -54273.567113109486, -40145.76705047692, -21703.63327308098, 2403.594840001445, -31001.511931599613, 0.756, -0.462, 0.536, 192.0, 0.0, 0.0, 0.0, 0.0, 0.0, 0.0, 0.0, 0.0, 0.0, 1.6635010834761677E9, 0.0, 2022-09-18 16:38:03.476
9.0, -21469.722267356192, -33917.788734172434, -83292.36755280108, -54350.85944543594, -40046.54765683981, -21642.747121184722, 714.9428981474517, -30977.99789643263, 0.756, -0.462, 0.536, 192.0, 0.0, 0.0, 0.0, 0.0, 0.0, 0.0, 0.0, 0.0, 0.0, 1.6635010834802196E9, 0.0, 2022-09-18 16:38:03.480
10.0, -21769.25799480176, -34690.712057436955, -83275.93902062644, -54625.495329558296, -39910.067905195705, -21537.805680967056, 1860.4027462485728, -31064.14151956338, 0.756, -0.462, 0.536, 192.0, 0.0, 0.0, 0.0, 0.0, 0.0, 0.0, 0.0, 0.0, 0.0, 1.663501083484238E9, 0.0, 2022-09-18 16:38:03.484
11.0, -21260.0182008765, -34678.53035670881, -83457.39048211461, -54203.89672564229, -40011.947156423, -21694.804334021133, 4328.370610281302, -30994.582890818467, 0.756, -0.462, 0.536, 192.0, 0.0, 0.0, 0.0, 0.0, 0.0, 0.0, 0.0, 0.0, 0.0, 1.6635010834881654E9, 0.0, 2022-09-18 16:38:03.488
12.0, -20998.97217738297, -34320.65657623489, -83431.59656901319, -54011.26939192646, -40158.596951794265, -21734.25516298475, 4664.473791655754, -31056.385464237388, 0.756, -0.462, 0.536, 192.0, 0.0, 0.0, 0.0, 0.0, 0.0, 0.0, 0.0, 0.0, 0.0, 1.6635010834911735E9, 0.0, 2022-09-18 16:38:03.491
13.0, -21281.811151720423, -34120.29553893751, -83332.19836142044, -54249.06960118647, -40152.49492555796, -21709.31061617263, 2478.2943699710813, -31000.014364721104, 0.756, -0.462, 0.536, 192.0, 0.0, 0.0, 0.0, 0.0, 0.0, 0.0, 0.0, 0.0, 0.0, 1.6635010834952855E9, 0.0, 2022-09-18 16:38:03.495
14.0, -21420.615484787882, -33849.45945137256, -83298.24606159283, -54317.17536654179, -40058.148212212116, -21650.547879999624, 785.9990937708728, -30974.42161731978, 0.754, -0.468, 0.54, 192.0, 23.0, 144.0, 241.0, 96.0, 16.0, 224.0, 0.0, 0.0, 0.0, 1.663501083500256E9, 0.0, 2022-09-18 16:38:03.500
15.0, -21763.692410432388, -34655.08337677519, -83281.68341895145, -54617.158128876465, -39918.4721611109, -21536.062244899542, 1878.3064935572736, -31065.14734806387, 0.754, -0.468, 0.54, 192.0, 0.0, 0.0, 0.0, 0.0, 0.0, 0.0, 0.0, 0.0, 0.0, 1.6635010835042531E9, 0.0, 2022-09-18 16:38:03.504
16.0, -21287.756715745534, -34685.77232191233, -83468.96868574247, -54219.9005746723, -40028.152171153095, -21701.509857357723, 4312.23265078457, -31006.965757246708, 0.754, -0.468, 0.54, 192.0, 0.0, 0.0, 0.0, 0.0, 0.0, 0.0, 0.0, 0.0, 0.0, 1.6635010835082407E9, 0.0, 2022-09-18 16:38:03.508
17.0, -21013.232590345455, -34327.56326527158, -83446.66164477608, -54018.22078445206, -40173.70673104605, -21747.263878257738, 4661.992748021215, -31062.48749047369, 0.754, -0.468, 0.54, 192.0, 0.0, 0.0, 0.0, 0.0, 0.0, 0.0, 0.0, 0.0, 0.0, 1.6635010835122905E9, 0.0, 2022-09-18 16:38:03.512
18.0, -21271.708163226624, -34105.27516666355, -83339.28386441278, -54237.133769647335, -40170.73394903349, -21713.557447619136, 2506.2787540291256, -30995.499312341133, 0.754, -0.468, 0.54, 192.0, 0.0, 0.0, 0.0, 0.0, 0.0, 0.0, 0.0, 0.0, 0.0, 1.6635010835162528E9, 0.0, 2022-09-18 16:38:03.516
19.0, -21395.939158909223, -33810.29919508686, -83291.47348302287, -54293.16959299679, -40075.761386842896, -21651.15137709992, 818.252661019881, -30962.910468925296, 0.754, -0.468, 0.54, 192.0, 0.0, 0.0, 0.0, 0.0, 0.0, 0.0, 0.0, 0.0, 0.0, 1.663501083519244E9, 0.0, 2022-09-18 16:38:03.519
20.0, -21763.692410432388, -34637.73842307788, -83254.01195931577, -54607.68098922742, -39914.42649536449, -21521.421852281317, 1868.6281882081257, -31037.56529540602, 0.754, -0.468, 0.54, 192.0, 0.0, 0.0, 0.0, 0.0, 0.0, 0.0, 0.0, 0.0, 0.0, 1.6635010835232484E9, 0.0, 2022-09-18 16:38:03.523
21.0, -21317.953922504657, -34709.308708823766, -83447.48865932091, -54229.46712129917, -40014.718772735454, -21681.32623211458, 4276.067528255883, -30977.014419676594, 0.754, -0.468, 0.54, 192.0, 0.0, 0.0, 0.0, 0.0, 0.0, 0.0, 0.0, 0.0, 0.0, 1.6635010835283673E9, 0.0, 2022-09-18 16:38:03.528
22.0, -21038.82533774678, -34349.08799518204, -83437.09509814919, -54020.61242110877, -40167.80587050985, -21740.200727009862, 4648.246425181202, -31055.223173525716, 0.754, -0.468, 0.54, 192.0, 0.0, 0.0, 0.0, 0.0, 0.0, 0.0, 0.0, 0.0, 0.0, 1.6635010835322828E9, 0.0, 2022-09-18 16:38:03.532
23.0, -21274.949166172646, -34108.583224842936, -83339.48503011288, -54229.042438154516, -40161.0779954288, -21722.945180290364, 2516.0241146116396, -31009.335042158968, 0.754, -0.468, 0.54, 192.0, 0.0, 0.0, 0.0, 0.0, 0.0, 0.0, 0.0, 0.0, 0.0, 1.6635010835363317E9, 0.0, 2022-09-18 16:38:03.536
24.0, -21383.399830269795, -33795.25647106844, -83300.41418080499, -54286.03938651555, -40068.474718150464, -21666.037638907153, 822.2983267662916, -31004.10473395643, 0.754, -0.466, 0.542, 192.0, 23.0, 144.0, 241.0, 112.0, 16.0, 240.0, 0.0, 0.0, 0.0, 1.6635010835403333E9, 0.0, 2022-09-18 16:38:03.540
25.0, -21775.091800104597, -34640.018301012315, -83244.33365396663, -54616.86755619855, -39897.50622481182, -21520.796003436568, 1835.7264203699137, -31063.560374207544, 0.754, -0.466, 0.542, 192.0, 0.0, 0.0, 0.0, 0.0, 0.0, 0.0, 0.0, 0.0, 0.0, 1.663501083544298E9, 0.0, 2022-09-18 16:38:03.544
26.0, -21354.65548690027, -34740.84702025021, -83443.35358659668, -54250.94714772072, -39992.769359680344, -21677.43702857936, 4225.463178809068, -30984.301088369026, 0.754, -0.466, 0.542, 192.0, 0.0, 0.0, 0.0, 0.0, 0.0, 0.0, 0.0, 0.0, 0.0, 1.663501083547344E9, 0.0, 2022-09-18 16:38:03.547
27.0, -21055.477387365983, -34369.51748961419, -83447.91334246556, -54031.27420321396, -40154.77480349241, -21734.433976940392, 4619.904413211872, -31045.723682132208, 0.754, -0.466, 0.542, 192.0, 0.0, 0.0, 0.0, 0.0, 0.0, 0.0, 0.0, 0.0, 0.0, 1.6635010835513456E9, 0.0, 2022-09-18 16:38:03.551
28.0, -21264.577956745383, -34098.65905030478, -83347.5763616057, -54219.11826361636, -40152.092594157766, -21711.992825507263, 2521.4108850253683, -30983.786998246553, 0.754, -0.466, 0.542, 192.0, 0.0, 0.0, 0.0, 0.0, 0.0, 0.0, 0.0, 0.0, 0.0, 1.663501083556291E9, 0.0, 2022-09-18 16:38:03.556
29.0, -21337.44464366968, -33730.39170865914, -83317.78148624676, -54243.81694123947, -40063.42322390356, -21662.126083627474, 851.8473329362075, -30965.03388464855, 0.754, -0.466, 0.542, 192.0, 0.0, 0.0, 0.0, 0.0, 0.0, 0.0, 0.0, 0.0, 0.0, 1.663501083560372E9, 0.0, 2022-09-18 16:38:03.560
30.0, -21751.845985871078, -34582.10493112862, -83256.42594771695, -54590.49249774129, -39902.60242254763, -21528.84263144048, 1839.9509000719668, -31056.810147382042, 0.754, -0.466, 0.542, 192.0, 0.0, 0.0, 0.0, 0.0, 0.0, 0.0, 0.0, 0.0, 0.0, 1.6635010835643337E9, 0.0, 2022-09-18 16:38:03.564
31.0, -21355.12487353383, -34709.04048789031, -83425.91922592155, -54243.414609839274, -39994.803368425775, -21678.465208824302, 4220.322277584348, -30988.570271559987, 0.754, -0.466, 0.542, 192.0, 0.0, 0.0, 0.0, 0.0, 0.0, 0.0, 0.0, 0.0, 0.0, 1.6635010835683722E9, 0.0, 2022-09-18 16:38:03.568
32.0, -21056.12558795519, -34340.61668403348, -83429.0931736342, -54020.23244145304, -40153.59016103628, -21738.05495954215, 4627.951041215782, -31050.23873451218, 0.754, -0.466, 0.542, 192.0, 0.0, 0.0, 0.0, 0.0, 0.0, 0.0, 0.0, 0.0, 0.0, 1.663501083571328E9, 0.0, 2022-09-18 16:38:03.571
33.0, -21263.773293944992, -34074.60857327087, -83336.6687103115, -54211.20574607918, -40158.95457970555, -21718.54188663267, 2532.2514810861926, -31009.80442879253, 0.754, -0.466, 0.542, 192.0, 0.0, 0.0, 0.0, 0.0, 0.0, 0.0, 0.0, 0.0, 0.0, 1.6635010835754085E9, 0.0, 2022-09-18 16:38:03.575
34.0, -21357.672972401735, -33729.05060399182, -83306.3597448301, -54253.62935705535, -40073.48150890845, -21666.462322051804, 823.862948878163, -31005.535245601568, 0.754, -0.466, 0.542, 192.0, 0.0, 0.0, 0.0, 0.0, 0.0, 0.0, 0.0, 0.0, 0.0, 1.6635010835793884E9, 0.0, 2022-09-18 16:38:03.579
35.0, -21812.75448951179, -34627.1213444616, -83245.4959446783, -54625.405922580474, -39899.33906785716, -21508.7260614307, 1748.9345966499563, -31064.610906196944, 0.754, -0.456, 0.54, 192.0, 23.0, 144.0, 241.0, 192.0, 16.0, 224.0, 0.0, 0.0, 0.0, 1.6635010835843372E9, 0.0, 2022-09-18 16:38:03.584
36.0, -21435.70291229521, -34798.73803838945, -83426.70153697747, -54295.20360174222, -39985.572097965734, -21659.086246381554, 4097.700607502533, -30972.633477763353, 0.754, -0.456, 0.54, 192.0, 0.0, 0.0, 0.0, 0.0, 0.0, 0.0, 0.0, 0.0, 0.0, 1.6635010835883677E9, 0.0, 2022-09-18 16:38:03.588
37.0, -21121.79501316488, -34436.460964257836, -83431.75303122438, -54065.94175886414, -40151.466745313024, -21729.58364839359, 4519.1203974628925, -31049.90345834535, 0.754, -0.456, 0.54, 192.0, 0.0, 0.0, 0.0, 0.0, 0.0, 0.0, 0.0, 0.0, 0.0, 1.663501083592417E9, 0.0, 2022-09-18 16:38:03.592
38.0, -21310.51079160104, -34160.10399581242, -83331.63956780906, -54241.760580749586, -40149.45508831205, -21713.87037204151, 2447.918349256319, -31002.67422231129, 0.754, -0.456, 0.54, 192.0, 0.0, 0.0, 0.0, 0.0, 0.0, 0.0, 0.0, 0.0, 0.0, 1.663501083596466E9, 0.0, 2022-09-18 16:38:03.596
39.0, -21377.9460046227, -33785.98049711949, -83299.47540753787, -54266.436906628245, -40067.87122105017, -21665.188272617852, 756.5171428343228, -30994.158207673816, 0.754, -0.456, 0.54, 192.0, 0.0, 0.0, 0.0, 0.0, 0.0, 0.0, 0.0, 0.0, 0.0, 1.663501083599458E9, 0.0, 2022-09-18 16:38:03.599
40.0, -21837.073187479164, -34687.359295768656, -83228.24039795881, -54642.125027433045, -39896.299230611236, -21510.938884131778, 1670.435270122918, -31068.18718530979, 0.754, -0.456, 0.54, 192.0, 0.0, 0.0, 0.0, 0.0, 0.0, 0.0, 0.0, 0.0, 0.0, 1.6635010836034486E9, 0.0, 2022-09-18 16:38:03.603
41.0, -21465.7660085876, -34868.58723981229, -83417.02323162834, -54313.66614266231, -39984.40980725406, -21664.182444117363, 4032.5676241597685, -30983.18350114626, 0.754, -0.456, 0.54, 192.0, 0.0, 0.0, 0.0, 0.0, 0.0, 0.0, 0.0, 0.0, 0.0, 1.663501083607432E9, 0.0, 2022-09-18 16:38:03.607
42.0, -21144.750254720482, -34499.850511533085, -83433.943502181, -54074.815401412896, -40154.59598953676, -21737.272648486218, 4486.240981369136, -31048.785871122585, 0.754, -0.456, 0.54, 192.0, 0.0, 0.0, 0.0, 0.0, 0.0, 0.0, 0.0, 0.0, 0.0, 1.6635010836114843E9, 0.0, 2022-09-18 16:38:03.611
43.0, -21322.424271395717, -34211.28949061507, -83336.57930333368, -54244.97923195115, -40154.14895464766, -21719.078328499596, 2440.3858113748806, -30997.80154202003, 0.754, -0.456, 0.54, 192.0, 0.0, 0.0, 0.0, 0.0, 0.0, 0.0, 0.0, 0.0, 0.0, 1.6635010836164465E9, 0.0, 2022-09-18 16:38:03.616
44.0, -21377.588376711414, -33817.92113994612, -83299.40835230451, -54260.916025747785, -40069.83817456224, -21664.696534239833, 754.2819683887922, -30978.534338299556, 0.754, -0.456, 0.54, 192.0, 0.0, 0.0, 0.0, 0.0, 0.0, 0.0, 0.0, 0.0, 0.0, 1.663501083620411E9, 0.0, 2022-09-18 16:38:03.620
45.0, -21848.249059706817, -34721.66922350755, -83229.80502007068, -54645.902472245994, -39903.630602792575, -21515.476288256203, 1645.3789645885188, -31068.924792876816, 0.75, -0.464, 0.536, 192.0, 23.0, 112.0, 241.0, 128.0, 16.0, 192.0, 0.0, 0.0, 0.0, 1.6635010836244314E9, 0.0, 2022-09-18 16:38:03.624
46.0, -21489.861189110423, -34918.02929854742, -83415.36920253864, -54333.04510510506, -39993.79753992528, -21669.278641853172, 3998.190641187506, -31002.09307695545, 0.75, -0.464, 0.536, 192.0, 0.0, 0.0, 0.0, 0.0, 0.0, 0.0, 0.0, 0.0, 0.0, 1.6635010836275823E9, 0.0, 2022-09-18 16:38:03.627
47.0, -21142.60448725277, -34532.707575882385, -83433.60822601417, -54081.18564858266, -40156.51823955992, -21729.606000138047, 4474.9757021636615, -31052.76448163563, 0.75, -0.464, 0.536, 192.0, 0.0, 0.0, 0.0, 0.0, 0.0, 0.0, 0.0, 0.0, 0.0, 1.6635010836314473E9, 0.0, 2022-09-18 16:38:03.631
48.0, -21308.052099710956, -34239.653854328855, -83349.23039069539, -54254.29990938901, -40174.22082116852, -21719.77123257771, 2440.0952386969616, -31013.023079994095, 0.75, -0.464, 0.536, 192.0, 0.0, 0.0, 0.0, 0.0, 0.0, 0.0, 0.0, 0.0, 0.0, 1.6635010836354582E9, 0.0, 2022-09-18 16:38:03.635
49.0, -21354.588431666903, -33832.561532564345, -83289.2159568329, -54266.280444417054, -40083.718607868985, -21667.356391830017, 749.8116194977307, -30984.815178491495, 0.75, -0.464, 0.536, 192.0, 0.0, 0.0, 0.0, 0.0, 0.0, 0.0, 0.0, 0.0, 0.0, 1.6635010836395404E9, 0.0, 2022-09-18 16:38:03.639
50.0, -21832.245210676814, -34736.86840973716, -83220.77491531074, -54652.63034732704, -39911.07373369619, -21521.131279603396, 1621.8649294215359, -31060.81110963954, 0.75, -0.464, 0.536, 192.0, 0.0, 0.0, 0.0, 0.0, 0.0, 0.0, 0.0, 0.0, 0.0, 1.6635010836444874E9, 0.0, 2022-09-18 16:38:03.644
51.0, -21483.334479729474, -34944.87374363825, -83414.11750484914, -54343.77394244361, -40001.665353973556, -21677.48173206827, 3980.64452179009, -30991.341887872448, 0.75, -0.464, 0.536, 192.0, 0.0, 0.0, 0.0, 0.0, 0.0, 0.0, 0.0, 0.0, 0.0, 1.6635010836484983E9, 0.0, 2022-09-18 16:38:03.648
52.0, -21136.502461016473, -34557.49566048332, -83430.3448713237, -54086.99710214104, -40166.3306553758, -21751.06367481514, 4484.296379601524, -31061.459310228744, 0.75, -0.464, 0.536, 192.0, 0.0, 0.0, 0.0, 0.0, 0.0, 0.0, 0.0, 0.0, 0.0, 1.663501083651464E9, 0.0, 2022-09-18 16:38:03.651
53.0, -21306.39807062126, -34263.145537751385, -83339.28386441278, -54255.797476267515, -40169.54930657736, -21733.271686228716, 2459.787125562087, -31013.783039305574, 0.75, -0.464, 0.536, 192.0, 0.0, 0.0, 0.0, 0.0, 0.0, 0.0, 0.0, 0.0, 0.0, 1.6635010836555338E9, 0.0, 2022-09-18 16:38:03.655
54.0, -21356.153053778777, -33849.615913583744, -83316.70860251291, -54267.822714784474, -40086.669038137086, -21680.9686042033, 752.7620497658313, -30983.295259868537, 0.75, -0.464, 0.536, 192.0, 0.0, 0.0, 0.0, 0.0, 0.0, 0.0, 0.0, 0.0, 0.0, 1.6635010836595635E9, 0.0, 2022-09-18 16:38:03.659
55.0, -21830.859402520586, -34742.232828406435, -83265.29959026571, -54653.658527571984, -39911.386658118565, -21512.54820973256, 1614.1312258399996, -31066.82372889802, 0.744, -0.47000000000000003, 0.536, 192.0, 23.0, 64.0, 241.0, 80.0, 16.0, 192.0, 0.0, 0.0, 0.0, 1.66350108366355E9, 0.0, 2022-09-18 16:38:03.663
56.0, -21485.212026263718, -34951.80278441939, -83417.42556302853, -54343.885701165884, -39987.449644499975, -21659.37681905947, 3979.6610450340568, -30996.505140841622, 0.744, -0.47000000000000003, 0.536, 192.0, 0.0, 0.0, 0.0, 0.0, 0.0, 0.0, 0.0, 0.0, 0.0, 1.6635010836675775E9, 0.0, 2022-09-18 16:38:03.667
57.0, -21140.861051185257, -34564.33529428665, -83416.2856240613, -54086.66182597421, -40152.49492555796, -21730.835346083088, 4499.562621064499, -31066.33199052, 0.744, -0.47000000000000003, 0.536, 192.0, 0.0, 0.0, 0.0, 0.0, 0.0, 0.0, 0.0, 0.0, 0.0, 1.6635010836725855E9, 0.0, 2022-09-18 16:38:03.672
58.0, -21311.36015789034, -34272.60032565598, -83321.76009675981, -54257.92089199077, -40151.64555926866, -21695.653700310435, 2484.038768296095, -31012.978376505183, 0.744, -0.47000000000000003, 0.536, 192.0, 0.0, 0.0, 0.0, 0.0, 0.0, 0.0, 0.0, 0.0, 0.0, 1.6635010836765778E9, 0.0, 2022-09-18 16:38:03.676
59.0, -21360.46694045865, -33857.34961716528, -83290.17708184446, -54267.7109560622, -40068.273552450366, -21659.399170803925, 761.9262649925072, -30978.154358643817, 0.744, -0.47000000000000003, 0.536, 192.0, 0.0, 0.0, 0.0, 0.0, 0.0, 0.0, 0.0, 0.0, 0.0, 1.6635010836795807E9, 0.0, 2022-09-18 16:38:03.679
60.0, -21841.722350325865, -34750.950008744, -83223.90415953448, -54653.949100249905, -39903.3176783702, -21526.07101512802, 1602.5306704676952, -31066.37669400891, 0.744, -0.47000000000000003, 0.536, 192.0, 0.0, 0.0, 0.0, 0.0, 0.0, 0.0, 0.0, 0.0, 0.0, 1.6635010836835735E9, 0.0, 2022-09-18 16:38:03.683
61.0, -21500.277102026594, -34971.71818872907, -83408.6860309465, -54350.50181752465, -39989.08132184522, -21678.28639486866, 3967.613454772646, -30992.057143695016, 0.744, -0.47000000000000003, 0.536, 192.0, 0.0, 0.0, 0.0, 0.0, 0.0, 0.0, 0.0, 0.0, 0.0, 1.6635010836875992E9, 0.0, 2022-09-18 16:38:03.687
62.0, -21146.627801254726, -34582.976649162374, -83437.31861559374, -54087.399433541235, -40167.06826294283, -21762.396009253982, 4500.2778768870685, -31063.24744978517, 0.744, -0.47000000000000003, 0.536, 192.0, 0.0, 0.0, 0.0, 0.0, 0.0, 0.0, 0.0, 0.0, 0.0, 1.663501083693642E9, 0.0, 2022-09-18 16:38:03.693
63.0, -21328.191021465187, -34299.17654981334, -83342.18959119197, -54260.96072923669, -40181.4851381165, -21750.16960503693, 2476.6850443702992, -31019.929769030783, 0.744, -0.47000000000000003, 0.536, 192.0, 0.0, 0.0, 0.0, 0.0, 0.0, 0.0, 0.0, 0.0, 0.0, 1.663501083696643E9, 0.0, 2022-09-18 16:38:03.696
64.0, -21369.877024874335, -33874.314591206865, -83304.41514306249, -54266.54866535052, -40100.05773306581, -21713.110412730028, 745.4977328178564, -30991.61010880591, 0.744, -0.47000000000000003, 0.536, 192.0, 0.0, 0.0, 0.0, 0.0, 0.0, 0.0, 0.0, 0.0, 0.0, 1.6635010836996312E9, 0.0, 2022-09-18 16:38:03.699
65.0, -21832.781652543745, -34752.76050004488, -83241.2491132318, -54650.663393814975, -39921.93668150147, -21560.02331495563, 1587.0632633046228, -31078.20076682577, 0.748, -0.47200000000000003, 0.54, 192.0, 23.0, 96.0, 241.0, 64.0, 16.0, 224.0, 0.0, 0.0, 0.0, 1.663501083704605E9, 0.0, 2022-09-18 16:38:03.704
66.0, -21474.058505780522, -34961.257572323986, -83450.50614482239, -54343.259852321135, -40012.05891514527, -21723.593380879567, 3999.5317458548247, -31020.53326613108, 0.748, -0.47200000000000003, 0.54, 192.0, 0.0, 0.0, 0.0, 0.0, 0.0, 0.0, 0.0, 0.0, 0.0, 1.6635010837076235E9, 0.0, 2022-09-18 16:38:03.707
67.0, -21096.269320996922, -34544.665759165975, -83480.01044750339, -54069.02629959897, -40198.89714704718, -21818.61064655908, 4597.284447823101, -31109.269691618647, 0.748, -0.47200000000000003, 0.54, 192.0, 0.0, 0.0, 0.0, 0.0, 0.0, 0.0, 0.0, 0.0, 0.0, 1.663501083711619E9, 0.0, 2022-09-18 16:38:03.711
68.0, -21267.461331780116, -34241.84432528548, -83355.26536169832, -54241.80528423849, -40205.714429106054, -21782.713744963854, 2618.1492350279373, -31062.643952684877, 0.748, -0.47200000000000003, 0.54, 192.0, 0.0, 0.0, 0.0, 0.0, 0.0, 0.0, 0.0, 0.0, 0.0, 1.6635010837156503E9, 0.0, 2022-09-18 16:38:03.715
69.0, -21356.890661345802, -33850.93466650661, -83293.41808479048, -54284.944151037234, -40099.722456898984, -21730.07538677161, 787.2060879714594, -30995.02992570757, 0.748, -0.47200000000000003, 0.54, 192.0, 0.0, 0.0, 0.0, 0.0, 0.0, 0.0, 0.0, 0.0, 0.0, 1.663501083719627E9, 0.0, 2022-09-18 16:38:03.719
70.0, -21741.8324043551, -34639.77243182331, -83255.12954653855, -54593.822907665126, -39936.46531539742, -21598.535370652124, 1779.0647481757103, -31072.322258034023, 0.748, -0.47200000000000003, 0.54, 192.0, 0.0, 0.0, 0.0, 0.0, 0.0, 0.0, 0.0, 0.0, 0.0, 1.663501083723652E9, 0.0, 2022-09-18 16:38:03.723
71.0, -21452.846700292434, -34899.96908902754, -83421.82885668622, -54340.75645694214, -40025.6487757741, -21731.68471237239, 4109.725846019488, -31028.781059835084, 0.748, -0.47200000000000003, 0.54, 192.0, 0.0, 0.0, 0.0, 0.0, 0.0, 0.0, 0.0, 0.0, 0.0, 1.663501083727628E9, 0.0, 2022-09-18 16:38:03.727
72.0, -21183.038792972424, -34595.56068129071, -83432.15536262457, -54146.92212902572, -40183.273277672924, -21794.671928247444, 4497.372150107879, -31087.141464607892, 0.748, -0.47200000000000003, 0.54, 192.0, 0.0, 0.0, 0.0, 0.0, 0.0, 0.0, 0.0, 0.0, 0.0, 1.663501083732751E9, 0.0, 2022-09-18 16:38:03.732
73.0, -21350.810986853958, -34317.057945377586, -83352.15846921904, -54315.856613618926, -40193.51037663345, -21781.68556471891, 2484.39639620738, -31046.327179232503, 0.748, -0.47200000000000003, 0.54, 192.0, 0.0, 0.0, 0.0, 0.0, 0.0, 0.0, 0.0, 0.0, 0.0, 1.6635010837356732E9, 0.0, 2022-09-18 16:38:03.735
74.0, -21379.354164523385, -33882.38357095523, -83325.64930029503, -54315.99072408566, -40116.68743094056, -21738.904325831452, 739.4404100704683, -31024.444821410758, 0.748, -0.47200000000000003, 0.54, 192.0, 0.0, 0.0, 0.0, 0.0, 0.0, 0.0, 0.0, 0.0, 0.0, 1.663501083739647E9, 0.0, 2022-09-18 16:38:03.739
75.0, -21838.928382268954, -34756.94027625803, -83249.18398251344, -54694.67397864747, -39933.44782989596, -21578.35174540898, 1561.3587571810197, -31103.212368871256, 0.756, -0.464, 0.534, 192.0, 23.0, 160.0, 241.0, 128.0, 16.0, 176.0, 0.0, 0.0, 0.0, 1.6635010837436712E9, 0.0, 2022-09-18 16:38:03.743
76.0, -21512.883485899387, -35007.12335194628, -83425.02515614333, -54402.87195478344, -40003.900528419086, -21725.49327915827, 3943.7641434388333, -31025.137725488872, 0.756, -0.464, 0.534, 192.0, 0.0, 0.0, 0.0, 0.0, 0.0, 0.0, 0.0, 0.0, 0.0, 1.6635010837476497E9, 0.0, 2022-09-18 16:38:03.747
77.0, -21153.28862110241, -34622.31571940371, -83460.87735424965, -54128.772512528005, -40184.122643962226, -21806.898332464498, 4524.306002176524, -31093.779932711117, 0.756, -0.464, 0.534, 192.0, 0.0, 0.0, 0.0, 0.0, 0.0, 0.0, 0.0, 0.0, 0.0, 1.663501083751664E9, 0.0, 2022-09-18 16:38:03.751
78.0, -21338.45047217017, -34352.12783242796, -83358.17108847751, -54306.44652920324, -40194.739722578495, -21778.377506539528, 2512.581945965522, -31053.05505431355, 0.756, -0.464, 0.534, 192.0, 0.0, 0.0, 0.0, 0.0, 0.0, 0.0, 0.0, 0.0, 0.0, 1.6635010837556496E9, 0.0, 2022-09-18 16:38:03.755
79.0, -21380.203530812687, -33917.229940561054, -83321.0224891928, -54309.59812517144, -40115.92747162908, -21734.76925310722, 736.0205931688063, -31020.846190553453, 0.756, -0.464, 0.534, 192.0, 0.0, 0.0, 0.0, 0.0, 0.0, 0.0, 0.0, 0.0, 0.0, 1.6635010837606788E9, 0.0, 2022-09-18 16:38:03.760
80.0, -21843.488138137836, -34782.75654110391, -83241.76320335428, -54688.326083222164, -39932.82198105121, -21561.856158000966, 1535.0284022126677, -31101.11130489246, 0.756, -0.464, 0.534, 192.0, 0.0, 0.0, 0.0, 0.0, 0.0, 0.0, 0.0, 0.0, 0.0, 1.6635010837637017E9, 0.0, 2022-09-18 16:38:03.763
81.0, -21527.657988984345, -35044.36135820882, -83427.1932753555, -54404.1907077063, -40011.500121533885, -21706.091964971063, 3909.1189395331076, -31017.761649818618, 0.756, -0.464, 0.534, 192.0, 0.0, 0.0, 0.0, 0.0, 0.0, 0.0, 0.0, 0.0, 0.0, 1.6635010837667203E9, 0.0, 2022-09-18 16:38:03.766
82.0, -21175.014516712967, -34663.21941175692, -83452.56250531226, -54125.509157837536, -40182.155690450156, -21789.866303189552, 4485.078690657459, -31071.42818825581, 0.756, -0.464, 0.534, 192.0, 0.0, 0.0, 0.0, 0.0, 0.0, 0.0, 0.0, 0.0, 0.0, 1.6635010837717376E9, 0.0, 2022-09-18 16:38:03.771
83.0, -21369.854673129877, -34402.21809175231, -83352.04671049675, -54302.24440124565, -40180.702827060566, -21763.5359482212, 2455.8308667934975, -31028.624597623897, 0.756, -0.464, 0.534, 192.0, 0.0, 0.0, 0.0, 0.0, 0.0, 0.0, 0.0, 0.0, 0.0, 1.663501083775738E9, 0.0, 2022-09-18 16:38:03.775
84.0, -21411.89830445031, -33971.969362732096, -83324.08467818316, -54309.352255982434, -40110.25012853743, -21722.85577331254, 652.4027171615026, -31005.401135134834, 0.756, -0.464, 0.534, 192.0, 0.0, 0.0, 0.0, 0.0, 0.0, 0.0, 0.0, 0.0, 0.0, 1.6635010837817419E9, 0.0, 2022-09-18 16:38:03.781
85.0, -21863.67176338098, -34830.119887604706, -83254.59310467161, -54691.38827221254, -39944.3778329346, -21556.447035842782, 1454.3833082179199, -31100.351345580977, 0.756, -0.46, 0.534, 192.0, 23.0, 160.0, 241.0, 160.0, 16.0, 176.0, 0.0, 0.0, 0.0, 1.6635010837857337E9, 0.0, 2022-09-18 16:38:03.785
86.0, -21530.630770996904, -35082.60519297185, -83443.80062148579, -54408.30342868608, -40018.51856929286, -21696.681880555378, 3863.946063988932, -31028.89281855736, 0.756, -0.46, 0.534, 192.0, 0.0, 0.0, 0.0, 0.0, 0.0, 0.0, 0.0, 0.0, 0.0, 1.6635010837897353E9, 0.0, 2022-09-18 16:38:03.789
87.0, -21153.489786802507, -34685.392342256586, -83474.93660151203, -54124.34686712586, -40186.223707941026, -21781.484399018813, 4482.150612133814, -31084.30279306207, 0.756, -0.46, 0.534, 192.0, 0.0, 0.0, 0.0, 0.0, 0.0, 0.0, 0.0, 0.0, 0.0, 1.6635010837928095E9, 0.0, 2022-09-18 16:38:03.792
88.0, -21345.290105973498, -34420.45711522784, -83371.20215549495, -54304.43487220226, -40192.929231277616, -21764.653535443966, 2469.8901140558855, -31044.024949553605, 0.756, -0.46, 0.534, 192.0, 0.0, 0.0, 0.0, 0.0, 0.0, 0.0, 0.0, 0.0, 0.0, 1.663501083796795E9, 0.0, 2022-09-18 16:38:03.796
89.0, -21378.258929045074, -33972.66226681021, -83332.80185852073, -54305.932439080774, -40115.14516057315, -21728.600171637558, 668.8536010806085, -31016.107620728926, 0.756, -0.46, 0.534, 192.0, 0.0, 0.0, 0.0, 0.0, 0.0, 0.0, 0.0, 0.0, 0.0, 1.6635010837997324E9, 0.0, 2022-09-18 16:38:03.799
90.0, -21834.65919907799, -34819.547512477344, -83253.47551744885, -54686.00150179881, -39943.57317013421, -21570.97566973873, 1469.448383980797, -31113.06948817605, 0.756, -0.46, 0.534, 192.0, 0.0, 0.0, 0.0, 0.0, 0.0, 0.0, 0.0, 0.0, 0.0, 1.6635010838037767E9, 0.0, 2022-09-18 16:38:03.803
91.0, -21521.086576114485, -35082.31462029393, -83433.60822601417, -54408.75046357518, -40017.512740792365, -21710.875238284498, 3879.5028781298256, -31038.36995820641, 0.756, -0.46, 0.534, 192.0, 0.0, 0.0, 0.0, 0.0, 0.0, 0.0, 0.0, 0.0, 0.0, 1.6635010838078167E9, 0.0, 2022-09-18 16:38:03.807
92.0, -21146.918373932647, -34684.34181026719, -83458.82099375976, -54118.4236548452, -40183.13916720619, -21781.26088157426, 4514.135958449359, -31082.20172908327, 0.756, -0.46, 0.534, 192.0, 0.0, 0.0, 0.0, 0.0, 0.0, 0.0, 0.0, 0.0, 0.0, 1.6635010838117816E9, 0.0, 2022-09-18 16:38:03.811
93.0, -21340.350370448872, -34423.89928387395, -83360.65213211205, -54302.06558729, -40190.93992602109, -21766.06169534465, 2511.7325796762207, -31047.84709785546, 0.756, -0.46, 0.534, 192.0, 0.0, 0.0, 0.0, 0.0, 0.0, 0.0, 0.0, 0.0, 0.0, 1.6635010838168056E9, 0.0, 2022-09-18 16:38:03.816
94.0, -21378.773019167547, -33975.29977265594, -83330.65609105302, -54304.814851858006, -40118.676736197085, -21737.563221164135, 702.3141625302032, -31016.37584166239, 0.756, -0.46, 0.534, 192.0, 0.0, 0.0, 0.0, 0.0, 0.0, 0.0, 0.0, 0.0, 0.0, 1.663501083819768E9, 0.0, 2022-09-18 16:38:03.819
95.0, -21833.206335688395, -34814.98775660846, -83254.906029094, -54680.34651045162, -39943.23789396738, -21573.814341284557, 1480.8477736530035, -31102.944147937793, 0.76, -0.47200000000000003, 0.53, 192.0, 23.0, 192.0, 241.0, 64.0, 16.0, 144.0, 0.0, 0.0, 0.0, 1.663501083822812E9, 0.0, 2022-09-18 16:38:03.822
96.0, -21523.92524766031, -35083.65572496125, -83438.19033362751, -54405.978847262726, -40015.18815936901, -21711.456383640336, 3882.5427153757473, -31033.00553953714, 0.76, -0.47200000000000003, 0.53, 192.0, 0.0, 0.0, 0.0, 0.0, 0.0, 0.0, 0.0, 0.0, 0.0, 1.6635010838277872E9, 0.0, 2022-09-18 16:38:03.827
97.0, -21142.76094946396, -34677.993914841885, -83466.59940083021, -54109.30414310744, -40183.80971953985, -21786.133561865518, 4534.140769736859, -31085.509787262654, 0.76, -0.47200000000000003, 0.53, 192.0, 0.0, 0.0, 0.0, 0.0, 0.0, 0.0, 0.0, 0.0, 0.0, 1.6635010838317957E9, 0.0, 2022-09-18 16:38:03.831
98.0, -21342.004399538568, -34420.47946697229, -83368.07291127121, -54298.668122132796, -40198.584222624806, -21764.899404632975, 2535.425428798846, -31057.748920649163, 0.76, -0.47200000000000003, 0.53, 192.0, 0.0, 0.0, 0.0, 0.0, 0.0, 0.0, 0.0, 0.0, 0.0, 1.6635010838358035E9, 0.0, 2022-09-18 16:38:03.835
99.0, -21377.856597644877, -33965.62146730679, -83334.50059109933, -54301.55149716753, -40119.97313737549, -21726.029721025196, 708.3938370220467, -31022.634330109875, 0.76, -0.47200000000000003, 0.53, 192.0, 0.0, 0.0, 0.0, 0.0, 0.0, 0.0, 0.0, 0.0, 0.0, 1.6635010838399E9, 0.0, 2022-09-18 16:38:03.839
100.0, -21828.08778620813, -34794.60296566522, -83261.00805533028, -54673.32806269266, -39939.57220787671, -21553.206032896764, 1463.8827996114255, -31090.20365359827, 0.76, -0.47200000000000003, 0.53, 192.0, 0.0, 0.0, 0.0, 0.0, 0.0, 0.0, 0.0, 0.0, 0.0, 1.663501083844026E9, 0.0, 2022-09-18 16:38:03.844
101.0, -21526.853326183955, -35078.157195825246, -83446.70634826498, -54407.67757984133, -40015.45638030248, -21696.547770088648, 3858.1569621750073, -31018.745126574653, 0.76, -0.47200000000000003, 0.53, 192.0, 0.0, 0.0, 0.0, 0.0, 0.0, 0.0, 0.0, 0.0, 0.0, 1.6635010838479037E9, 0.0, 2022-09-18 16:38:03.847
102.0, -21137.28477207241, -34672.5847926837, -83457.99397921491, -54105.61610527231, -40182.356856150254, -21778.332803050616, 4533.067886003004, -31067.56133646504, 0.76, -0.47200000000000003, 0.53, 192.0, 0.0, 0.0, 0.0, 0.0, 0.0, 0.0, 0.0, 0.0, 0.0, 1.6635010838519292E9, 0.0, 2022-09-18 16:38:03.851
103.0, -21327.45341389816, -34412.56694943511, -83342.05548072523, -54284.92179929278, -40184.10029221777, -21757.769198151735, 2554.7373360082315, -31025.160077233326, 0.76, -0.47200000000000003, 0.53, 192.0, 0.0, 0.0, 0.0, 0.0, 0.0, 0.0, 0.0, 0.0, 0.0, 1.6635010838558948E9, 0.0, 2022-09-18 16:38:03.855
104.0, -21360.958678836665, -33957.843060236344, -83322.7212217714, -54285.994683026634, -40118.184997819066, -21731.572953650113, 724.5541482632337, -31000.6178618214, 0.76, -0.47200000000000003, 0.53, 192.0, 0.0, 0.0, 0.0, 0.0, 0.0, 0.0, 0.0, 0.0, 0.0, 1.6635010838599625E9, 0.0, 2022-09-18 16:38:03.859
105.0, -21813.156820911983, -34786.7127998725, -83253.54257268221, -54662.755687565295, -39944.75781259034, -21560.7385707782, 1469.6942531698053, -31097.82559845753, 0.758, -0.47200000000000003, 0.534, 192.0, 23.0, 176.0, 241.0, 64.0, 16.0, 176.0, 0.0, 0.0, 0.0, 1.663501083863015E9, 0.0, 2022-09-18 16:38:03.863
106.0, -21523.25469532665, -35081.37584702681, -83443.04066217432, -54402.961361761256, -40019.21147337097, -21695.988976477263, 3869.556351847214, -31031.61973138091, 0.758, -0.47200000000000003, 0.534, 192.0, 0.0, 0.0, 0.0, 0.0, 0.0, 0.0, 0.0, 0.0, 0.0, 1.6635010838669455E9, 0.0, 2022-09-18 16:38:03.866
107.0, -21140.034036640413, -34685.191176556495, -83478.22230794697, -54106.10784365032, -40202.227556971025, -21796.84004745961, 4560.784049127585, -31083.81105468405, 0.758, -0.47200000000000003, 0.534, 192.0, 0.0, 0.0, 0.0, 0.0, 0.0, 0.0, 0.0, 0.0, 0.0, 1.663501083871881E9, 0.0, 2022-09-18 16:38:03.871
108.0, -21339.411597181752, -34442.16065909394, -83371.26921072832, -54303.049064046034, -40218.87960659023, -21784.144256608994, 2583.951066011318, -31055.223173525716, 0.758, -0.47200000000000003, 0.534, 192.0, 0.0, 0.0, 0.0, 0.0, 0.0, 0.0, 0.0, 0.0, 0.0, 1.6635010838758993E9, 0.0, 2022-09-18 16:38:03.875
109.0, -21369.7429144076, -33987.43676989517, -83339.30621615723, -54308.18996527076, -40141.58727426377, -21743.419378211427, 739.9097967040296, -31021.874370798396, 0.758, -0.47200000000000003, 0.534, 192.0, 0.0, 0.0, 0.0, 0.0, 0.0, 0.0, 0.0, 0.0, 0.0, 1.6635010838798904E9, 0.0, 2022-09-18 16:38:03.879
110.0, -21818.923570981453, -34809.064544327804, -83266.73010191084, -54677.73135635035, -39963.93560933299, -21573.300251162083, 1475.5504102170958, -31115.371717854945, 0.758, -0.47200000000000003, 0.534, 192.0, 0.0, 0.0, 0.0, 0.0, 0.0, 0.0, 0.0, 0.0, 0.0, 1.6635010838838947E9, 0.0, 2022-09-18 16:38:03.883
111.0, -21528.03796864009, -35106.29804209447, -83446.3934238426, -54420.97686779224, -40034.27654913384, -21711.411680151425, 3882.4980118868366, -31058.15125204936, 0.758, -0.47200000000000003, 0.534, 192.0, 0.0, 0.0, 0.0, 0.0, 0.0, 0.0, 0.0, 0.0, 0.0, 1.6635010838879087E9, 0.0, 2022-09-18 16:38:03.887
112.0, -21127.450004512073, -34697.283470306815, -83477.19412770202, -54110.75700649703, -40202.27226045993, -21791.967367168352, 4599.6537327353635, -31088.191996597292, 0.758, -0.47200000000000003, 0.534, 192.0, 0.0, 0.0, 0.0, 0.0, 0.0, 0.0, 0.0, 0.0, 0.0, 1.6635010838909085E9, 0.0, 2022-09-18 16:38:03.890
113.0, -21311.203695679153, -34442.49593526077, -83367.00002753736, -54292.566095896495, -40208.82132158534, -21764.184148810407, 2641.685621939376, -31038.347606461957, 0.758, -0.47200000000000003, 0.534, 192.0, 0.0, 0.0, 0.0, 0.0, 0.0, 0.0, 0.0, 0.0, 0.0, 1.6635010838949397E9, 0.0, 2022-09-18 16:38:03.894
114.0, -21341.266791971542, -33980.95476400313, -83349.36450116211, -54296.41059594281, -40135.597006749755, -21726.990846036773, 782.5792768692108, -31011.257292182127, 0.758, -0.47200000000000003, 0.534, 192.0, 0.0, 0.0, 0.0, 0.0, 0.0, 0.0, 0.0, 0.0, 0.0, 1.663501083899963E9, 0.0, 2022-09-18 16:38:03.899
115.0, -21799.008166671774, -34802.69429715804, -83274.48615723684, -54672.67986210345, -39957.78887960778, -21564.15838767986, 1482.7923754206151, -31100.932490936815, 0.752, -0.468, 0.536, 192.0, 23.0, 128.0, 241.0, 96.0, 16.0, 192.0, 0.0, 0.0, 0.0, 1.6635010839039526E9, 0.0, 2022-09-18 16:38:03.903
116.0, -21522.830012182, -35112.22125437513, -83447.62276978765, -54423.234393982224, -40026.6993077635, -21706.114316715517, 3876.2618751838063, -31029.026929024094, 0.752, -0.468, 0.536, 192.0, 0.0, 0.0, 0.0, 0.0, 0.0, 0.0, 0.0, 0.0, 0.0, 1.6635010839079707E9, 0.0, 2022-09-18 16:38:03.907
117.0, -21122.33145503181, -34697.0376011178, -83465.21359267397, -54109.79588148545, -40192.90687953316, -21791.095649134597, 4606.493366538688, -31072.232851056204, 0.752, -0.468, 0.536, 192.0, 0.0, 0.0, 0.0, 0.0, 0.0, 0.0, 0.0, 0.0, 0.0, 1.6635010839120145E9, 0.0, 2022-09-18 16:38:03.912
118.0, -21314.332939902895, -34442.69710096087, -83357.56759137721, -54301.14916576733, -40197.44428365759, -21763.15596856546, 2651.4980377552556, -31040.89570532986, 0.752, -0.468, 0.536, 192.0, 0.0, 0.0, 0.0, 0.0, 0.0, 0.0, 0.0, 0.0, 0.0, 1.6635010839160256E9, 0.0, 2022-09-18 16:38:03.916
119.0, -21343.636076883802, -33969.98005747558, -83339.86500976862, -54305.79832861404, -40125.538721744866, -21716.7760988207, 785.5967623706773, -31008.306861914025, 0.752, -0.468, 0.536, 192.0, 0.0, 0.0, 0.0, 0.0, 0.0, 0.0, 0.0, 0.0, 0.0, 1.6635010839189622E9, 0.0, 2022-09-18 16:38:03.918
120.0, -21801.869189962053, -34782.19774749252, -83266.14895655501, -54681.687615118935, -39952.782088849795, -21560.470349844738, 1468.4872589692186, -31106.00633692817, 0.752, -0.468, 0.536, 192.0, 0.0, 0.0, 0.0, 0.0, 0.0, 0.0, 0.0, 0.0, 0.0, 1.6635010839229794E9, 0.0, 2022-09-18 16:38:03.922
121.0, -21531.480137286206, -35098.832559446404, -83427.9979381559, -54431.906870830884, -40015.00934541337, -21706.114316715517, 3858.6934040419346, -31040.113394273925, 0.752, -0.468, 0.536, 192.0, 0.0, 0.0, 0.0, 0.0, 0.0, 0.0, 0.0, 0.0, 0.0, 1.6635010839280229E9, 0.0, 2022-09-18 16:38:03.928
122.0, -21122.42086200963, -34680.67612417652, -83455.71410128046, -54109.92999195219, -40183.899126517674, -21790.35804156757, 4607.879174694917, -31090.02483964263, 0.752, -0.468, 0.536, 192.0, 0.0, 0.0, 0.0, 0.0, 0.0, 0.0, 0.0, 0.0, 0.0, 1.6635010839320426E9, 0.0, 2022-09-18 16:38:03.932
123.0, -21318.579771349403, -34430.04601359916, -83345.00591099334, -54301.529145423076, -40196.483158646006, -21775.06944836014, 2664.730270472797, -31048.785871122585, 0.752, -0.468, 0.536, 192.0, 0.0, 0.0, 0.0, 0.0, 0.0, 0.0, 0.0, 0.0, 0.0, 1.6635010839360092E9, 0.0, 2022-09-18 16:38:03.936
124.0, -21350.252193242573, -33959.89942072623, -83322.65416653802, -54305.17247976929, -40129.6737944691, -21750.415474225938, 783.8533263031634, -31001.4672281107, 0.752, -0.468, 0.536, 192.0, 0.0, 0.0, 0.0, 0.0, 0.0, 0.0, 0.0, 0.0, 0.0, 1.6635010839400012E9, 0.0, 2022-09-18 16:38:03.940
125.0, -21814.877905235044, -34773.14529098813, -83259.30932275168, -54680.72649010736, -39952.26799872732, -21586.21955945725, 1437.3289271985207, -31091.20948209876, 0.75, -0.466, 0.536, 192.0, 23.0, 112.0, 241.0, 112.0, 16.0, 192.0, 0.0, 0.0, 0.0, 1.6635010839430375E9, 0.0, 2022-09-18 16:38:03.943
126.0, -21550.724989262224, -35099.748980969074, -83432.37888006913, -54434.36556272097, -40007.96854590995, -21723.548677390656, 3815.8004064322004, -31018.789830063564, 0.75, -0.466, 0.536, 192.0, 0.0, 0.0, 0.0, 0.0, 0.0, 0.0, 0.0, 0.0, 0.0, 1.6635010839470215E9, 0.0, 2022-09-18 16:38:03.947
127.0, -21138.737635462003, -34687.64986844658, -83467.58287758623, -54111.4722623196, -40179.361722393245, -21817.6495215475, 4578.508982480644, -31067.82955739851, 0.75, -0.466, 0.536, 192.0, 0.0, 0.0, 0.0, 0.0, 0.0, 0.0, 0.0, 0.0, 0.0, 1.663501083951056E9, 0.0, 2022-09-18 16:38:03.951
128.0, -21327.386358664797, -34441.624217227014, -83355.91356228752, -54308.167613526304, -40193.64448710019, -21783.473704275337, 2652.973252889306, -31052.58566767999, 0.75, -0.466, 0.536, 192.0, 0.0, 0.0, 0.0, 0.0, 0.0, 0.0, 0.0, 0.0, 0.0, 1.6635010839550812E9, 0.0, 2022-09-18 16:38:03.955
129.0, -21355.214280511653, -33965.91203998471, -83325.22461715038, -54314.113177551415, -40129.38322179118, -21759.40087549697, 774.4432418874791, -31030.3233302025, 0.75, -0.466, 0.536, 192.0, 0.0, 0.0, 0.0, 0.0, 0.0, 0.0, 0.0, 0.0, 0.0, 1.663501083960096E9, 0.0, 2022-09-18 16:38:03.960
130.0, -21815.391995357513, -34767.87027929667, -83238.92453180844, -54682.112298263586, -39952.24564698287, -21591.807495571076, 1424.0519909920683, -31104.754639238676, 0.75, -0.466, 0.536, 192.0, 0.0, 0.0, 0.0, 0.0, 0.0, 0.0, 0.0, 0.0, 0.0, 1.6635010839640741E9, 0.0, 2022-09-18 16:38:03.964
131.0, -21556.60349805397, -35098.87726293531, -83406.07087684523, -54438.43358021183, -40007.1415313651, -21712.462212140825, 3808.2455168063066, -31019.505085886132, 0.75, -0.466, 0.536, 192.0, 0.0, 0.0, 0.0, 0.0, 0.0, 0.0, 0.0, 0.0, 0.0, 1.6635010839681573E9, 0.0, 2022-09-18 16:38:03.968
132.0, -21137.41888253914, -34682.62072594413, -83455.46823209146, -54114.55680305443, -40184.41321664015, -21813.827373245644, 4590.735386697696, -31069.505938232654, 0.75, -0.466, 0.536, 192.0, 0.0, 0.0, 0.0, 0.0, 0.0, 0.0, 0.0, 0.0, 0.0, 1.6635010839710474E9, 0.0, 2022-09-18 16:38:03.971
133.0, -21324.100652229867, -34440.86425791553, -83352.35963491914, -54312.72736939519, -40200.90880404816, -21791.07329739014, 2673.581561277099, -31043.600266408954, 0.75, -0.466, 0.536, 192.0, 0.0, 0.0, 0.0, 0.0, 0.0, 0.0, 0.0, 0.0, 0.0, 1.6635010839751537E9, 0.0, 2022-09-18 16:38:03.975
134.0, -21344.820719339936, -33960.1676416597, -83331.14782943104, -54315.09665430745, -40134.88175092718, -21760.764331908744, 787.0272740158169, -31009.200931692238, 0.75, -0.466, 0.536, 192.0, 0.0, 0.0, 0.0, 0.0, 0.0, 0.0, 0.0, 0.0, 0.0, 1.663501083979159E9, 0.0, 2022-09-18 16:38:03.979
135.0, -21809.312320865673, -34758.25902918089, -83259.48813670732, -54689.71189137839, -39961.54397267628, -21590.488742648216, 1411.80323503056, -31100.038421158606, 0.75, -0.466, 0.536, 192.0, 0.0, 0.0, 0.0, 0.0, 0.0, 0.0, 0.0, 0.0, 0.0, 1.66350108398307E9, 0.0, 2022-09-18 16:38:03.983
136.0, -21560.44799810028, -35099.2348908466, -83417.60437698416, -54451.95638560729, -40011.96950816745, -21716.574933120603, 3791.2134875313627, -31030.636254624875, 0.75, -0.466, 0.53, 192.0, 23.0, 112.0, 241.0, 112.0, 16.0, 144.0, 0.0, 0.0, 0.0, 1.6635010839880908E9, 0.0, 2022-09-18 16:38:03.988
137.0, -21136.122481360733, -34677.47982471941, -83445.07467091974, -54116.411997844225, -40180.47930961601, -21807.390070842514, 4598.379683301411, -31072.76929292313, 0.75, -0.466, 0.53, 192.0, 0.0, 0.0, 0.0, 0.0, 0.0, 0.0, 0.0, 0.0, 0.0, 1.663501083992159E9, 0.0, 2022-09-18 16:38:03.992
138.0, -21323.49715512957, -34432.14707757796, -83343.15071620354, -54309.39695947134, -40200.48412090351, -21787.78759095521, 2699.576640078621, -31043.890839086875, 0.75, -0.466, 0.53, 192.0, 0.0, 0.0, 0.0, 0.0, 0.0, 0.0, 0.0, 0.0, 0.0, 1.6635010839951997E9, 0.0, 2022-09-18 16:38:03.995
139.0, -21348.0393705415, -33949.729376999065, -83319.52492231429, -54307.76528212611, -40133.74181195996, -21760.138483063994, 805.5345184248113, -30996.818065263997, 0.75, -0.466, 0.53, 192.0, 0.0, 0.0, 0.0, 0.0, 0.0, 0.0, 0.0, 0.0, 0.0, 1.6635010839991171E9, 0.0, 2022-09-18 16:38:03.999
140.0, -21804.104364407583, -34738.2989213823, -83233.91774105046, -54672.21047546989, -39948.512905658834, -21581.88332103292, 1414.5524995985627, -31082.738170950197, 0.75, -0.466, 0.53, 192.0, 0.0, 0.0, 0.0, 0.0, 0.0, 0.0, 0.0, 0.0, 0.0, 1.6635010840031772E9, 0.0, 2022-09-18 16:38:04.003
141.0, -21563.73370453521, -35088.908384908245, -83400.0359058423, -54438.79120812312, -40004.526377263835, -21702.470982369305, 3783.5021356942816, -31019.10275448594, 0.75, -0.466, 0.53, 192.0, 0.0, 0.0, 0.0, 0.0, 0.0, 0.0, 0.0, 0.0, 0.0, 1.6635010840091166E9, 0.0, 2022-09-18 16:38:04.009
142.0, -21139.31878081784, -34671.28839150529, -83458.06103444827, -54108.07479716239, -40192.772769066425, -21807.814753987164, 4601.419520547333, -31068.38835100989, 0.75, -0.466, 0.53, 192.0, 0.0, 0.0, 0.0, 0.0, 0.0, 0.0, 0.0, 0.0, 0.0, 1.6635010840132177E9, 0.0, 2022-09-18 16:38:04.013
143.0, -21327.542820875984, -34436.326853791106, -83368.00585603784, -54314.403750229336, -40220.77950486893, -21787.139390366006, 2713.255907685269, -31060.788757895087, 0.75, -0.466, 0.53, 192.0, 0.0, 0.0, 0.0, 0.0, 0.0, 0.0, 0.0, 0.0, 0.0, 1.663501084017145E9, 0.0, 2022-09-18 16:38:04.017
144.0, -21345.491271673593, -33952.121013655786, -83353.34311167516, -54322.003343344135, -40159.69218727257, -21767.782779667712, 812.7764836283308, -31030.211571480224, 0.75, -0.466, 0.53, 192.0, 0.0, 0.0, 0.0, 0.0, 0.0, 0.0, 0.0, 0.0, 0.0, 1.663501084021145E9, 0.0, 2022-09-18 16:38:04.021
