 EXG Channel 0, EXG Channel 1, EXG Channel 2, EXG Channel 3
31144.74191006922,1844.5330076853047,4450.83581815193,-1305.006600023103
31143.110232723982,1849.003356576366,4449.02532685105,-1309.0522657695135
31114.611758543462,1831.79251334578,4434.831969121929,-1303.1290534888572
31106.363964839456,1827.3892196880845,4435.815445877963,-1300.3127336874884
31116.17638065533,1837.6039669041595,4446.298414027502,-1304.1125302448906
31136.36000589848,1856.334728757707,4457.004899621595,-1312.2038617377118
31131.576732585043,1857.295853769285,4446.87955938334,-1315.9142513172926
31106.43102007282,1843.0577925512544,4430.607489419876,-1310.4604256701978
31096.328031579025,1839.1909407604865,4427.724114385142,-1301.0279895100582
31102.5418165376,1846.0976297971763,4435.904852855784,-1303.6654953557843
31123.597159814497,1866.8176969072456,4449.539416973522,-1310.5945361369295
31123.843029003507,1872.5397434878048,4446.857207638885,-1316.093065272935
31096.037458901104,1856.9605776024555,4429.35579173038,-1314.5284431610637
31084.414551784343,1853.1384293005976,4426.11478878436,-1320.518710675086
31091.1871303543,1862.101478827176,4433.379105732334,-1320.317544974988
31105.98398518372,1875.6242842226368,4446.343117516412,-1320.9880973086474
31106.654537517374,1881.525144758838,4445.337289015924,-1323.5361961765525
31081.75469419416,1866.8400486517007,4428.796998118996,-1330.1523125353233
31068.164833565337,1857.340557258196,4421.622088148843,-1336.5225597050858
31068.880089387905,1860.0227665928328,4427.053562051483,-1343.5186557195968
31090.29306057609,1879.8711156691447,4439.749352902098,-1347.5419697215525
31094.78576121161,1889.9517524184887,4442.3421552589125,-1341.5517022075298
31064.65560968585,1872.048005109788,4424.371352716846,-1334.5332544485634
31046.66245539933,1860.17922880402,4415.542413657,-1337.617795183396
31052.675074657807,1866.7059381849688,4421.823253848941,-1333.482722459164
31073.305734790058,1884.6320372381256,4435.010783077572,-1340.5235219625858
31076.345572035974,1890.4211390520504,4435.055486566483,-1342.535178963563
31047.3777112219,1872.8973713990893,4415.050675278982,-1341.417591740798
31033.318463959517,1862.9508451164777,4408.926297298229,-1341.194074296245
31036.20183899425,1864.18019106152,4413.9330880562175,-1340.165894051301
31055.31258050353,1880.943999403,4431.635669664821,-1335.6955451602394
31063.783891652096,1893.6621419980695,4438.45295172369,-1339.517693462097
31038.034682039583,1878.328845301729,4422.516157927055,-1334.8461788709378
31023.61780686591,1867.3764905186283,4415.743579357098,-1336.7907806385494
31028.93752204627,1867.84587715219,4417.956402058173,-1335.0249928265805
31046.841269354973,1880.6310749806255,4428.148797529793,-1333.6391846703511
31058.084196815995,1891.583429763726,4431.881538853829,-1329.481760201664
31040.04633904056,1884.2520575823853,4415.743579357098,-1327.6936206452394
31023.86367605492,1874.7302144444243,4406.936992041707,-1329.3476497349322
31025.24948421115,1874.4172900220503,4411.317933954947,-1319.8481583414268
31043.80143210905,1888.2530198398852,4424.840739350408,-1327.3359927339543
31055.22317352572,1902.75930199138,4429.534605686022,-1328.7888561235495
31033.11729825941,1890.9352291745224,4413.9330880562175,-1322.798588609527
31015.682937584275,1877.300665056785,4403.092491995393,-1330.353478235421
31019.147457974846,1878.462955768461,4408.1216344978375,-1329.5264636905747
31044.44963269825,1900.211203123475,4428.417018463257,-1323.1338647763569
31057.033664826595,1914.9186509750664,4436.128370300337,-1322.418608953787
31035.039548282573,1902.4016740800944,4417.755236358075,-1328.7218008901837
31012.88896952736,1889.8623454406677,4401.930201283718,-1329.4370567127537
31008.15039970284,1887.6942262285029,4402.444291406189,-1327.6712689007843
31024.690690599764,1901.6640665130697,4415.810634590463,-1324.4749694436753
31039.71106287373,1919.6348690551365,4427.232376007125,-1324.6537833993175
31015.14649571735,1907.654334027092,4410.625029876832,-1325.5031496886195
30992.057143695016,1891.0246361523436,4397.683369837209,-1319.1776060077675
30987.65385003732,1886.129604116631,4398.331570426413,-1318.328239718466
31003.635347322863,1897.9536769334889,4412.122596755337,-1323.0444577985356
31021.449687653745,1911.7670550068683,4427.120617284849,-1322.575071164974
31008.32921365848,1904.1451101476089,4419.476320681134,-1322.7538851206166
30986.625669792375,1890.9128774300668,4407.339323441902,-1319.0434955410358
30981.28360286756,1887.8059849507792,4408.054579264472,-1324.0279345545691
30995.02992570757,1900.3453135902064,4421.286811982013,-1325.033763055058
31014.967681761707,1917.2208806539636,4434.831969121929,-1317.5906321514408
31009.267986925603,1916.7291422759463,4428.417018463257,-1319.4011234523207
30978.914317955296,1896.8584414551783,4411.764968844052,-1318.4623501851977
30974.667486508788,1895.2491158543965,4415.3412479569015,-1315.6013268949184
30991.94538497274,1910.9847439509329,4430.451027208689,-1318.6635158852955
31006.74223980215,1925.6698400580692,4440.017573835561,-1316.2718792285775
30993.062972195505,1923.3229068902624,4429.020515563549,-1310.5051291591085
30965.726788726664,1906.9614299489772,4413.173128744737,-1310.0580942700024
30960.69764622422,1908.973086949955,4414.558936900966,-1314.3496292054213
30966.53145152705,1917.6232120541588,4423.92431782774,-1304.7607308340944
30984.6140127914,1936.398677396617,4433.2449952656025,-1310.326315203466
30970.822986462477,1934.1858546955411,4420.146873014793,-1312.1815099932564
30941.16222157028,1918.4055231100945,4404.791224573997,-1309.2981349585218
30932.646206932808,1917.131473676142,4403.986561773606,-1307.8229198244717
30942.860954148884,1924.99928772441,4412.524928155533,-1307.9793820356588
30965.39151255984,1941.7630960658903,4426.83004460693,-1310.192204736734
30959.714169468185,1940.8690262876785,4418.023457291539,-1314.1708152497788
30933.495573222117,1926.0721714582648,4404.254782707069,-1310.5051291591085
30929.919294109262,1926.8544825142008,4407.227564719626,-1309.6334111253514
30936.200134301205,1933.0459157283208,4415.877689823829,-1315.7577891061055
30954.46150952119,1949.7873723253456,4430.540434186511,-1311.198033237223
30948.24772456261,1951.9778432819655,4423.723152127642,-1311.9579925487033
30920.41980271576,1934.2082064399967,4409.216869976148,-1309.745169847628
30910.428572944234,1928.7096773039912,4405.215907718648,-1307.9793820356588
30920.91154109377,1937.2480436859184,4411.20617523267,-1311.6674198707844
30943.17387857126,1956.7611165954013,4422.8514340938855,-1314.2155187386893
30935.864858134373,1955.4647154169936,4415.497710168089,-1310.683943114751
30911.523808422546,1940.2655291873848,4402.354884428369,-1312.3156204599882
30903.7454013521,1935.325793662762,4404.031265262516,-1305.0736552564688
30914.83186660193,1946.747535079424,4416.771759602041,-1303.8219575669716
30936.6024657014,1967.0429190448428,4429.378143474834,-1306.2135942236894
30935.775451156554,1970.5744946687807,4428.551128929988,-1302.9725912776698
30906.02527928654,1949.6979653475244,4413.039018278006,-1293.741320817628
30895.631718114822,1942.232482699452,4414.11190201186,-1294.1660039622789
30909.288633977016,1953.5424653938371,4426.181844017726,-1291.0144079940806
30934.568456955967,1976.005968571421,4440.978698847139,-1286.0523207250026
30939.28467503604,1987.7629861549124,4441.045754080505,-1288.354550403899
30905.93587230872,1967.758174867413,4421.577384659932,-1289.4497858822092
30889.686154089708,1960.2703404748847,4419.364561958857,-1291.1038149719018
30890.759037823565,1962.840791087245,4426.695934140198,-1282.9230765012594
30910.80855259997,1984.4772797199823,4443.817370392963,-1287.840460281427
30908.439267687718,1989.2158495445076,4441.939823858717,-1289.382730648843
30885.193453454194,1973.7931458703451,4422.918489327251,-1289.226268437656
30869.748398035576,1962.438459687049,4417.77758810253,-1293.1378237173349
30878.15265395077,1969.5686661682923,4430.719248142153,-1284.0183119795695
30899.58797688341,1986.7348059099684,4446.745448916608,-1292.7578440615946
30901.420819928742,1990.780471656379,4445.896082627307,-1289.002750993103
30868.764921279544,1967.132326022664,4424.393704461301,-1288.77923354855
30852.62696178281,1954.458886916505,4416.011800290561,-1293.6295620953515
30858.796043252474,1960.426802686072,4421.107998026371,-1300.9162307877816
30878.219709184137,1978.0176255723984,4434.228472021637,-1305.2748209565666
30888.389752911306,1988.9923320999544,4437.40241973429,-1300.8715272988711
30864.316924132934,1972.943779581044,4418.023457291539,-1304.0901785004353
30848.804813480958,1962.237293986952,4411.362637443857,-1298.323428430966
30850.838822226386,1964.092488776742,4421.823253848941,-1289.6509515823068
30868.720217790637,1978.218791272496,4440.822236635952,-1289.6285998378517
30878.77850279552,1988.008855343921,4445.78432390503,-1284.8676782688713
30858.21489789664,1975.804802871323,4428.908756841273,-1286.8793352698488
30839.01474940953,1963.4666399319933,4416.2800212240245,-1290.7238353161615
30840.46761279912,1965.5230004218815,4422.024419549039,-1286.164079447279
30862.171156665227,1982.2644570189068,4432.976774332139,-1284.3759398908544
30870.530709091512,1992.7921286573564,4434.317878999457,-1290.6344283383405
30847.083729157894,1979.783413384368,4415.877689823829,-1288.0192742370696
30827.10126961485,1965.7912213553452,4406.221736219137,-1281.6937305562176
30828.91176091573,1967.6240644006807,4412.591983388899,-1282.3419311454215
30847.463708813637,1983.449099475038,4427.947631829695,-1282.386634634332
30861.746473520576,1997.709512437524,4436.620108678354,-1288.7345300596394
30837.71834823112,1985.7513291539344,4421.331515470924,-1291.8637742833823
30814.09255434186,1973.8602011037117,4412.994314789095,-1294.1436522178235
30810.78449616248,1973.971959825988,4419.364561958857,-1294.1213004733684
30824.597874235857,1987.383006499172,4434.742562144108,-1302.682018599751
30840.802888965954,2005.8231956748004,4443.996184348605,-1306.9512017907143
30821.870961412307,1997.933029882077,4430.182806275226,-1307.4429401687314
30800.23447277957,1982.5773814412807,4416.592945646399,-1308.4934721581308
30801.128542557784,1980.543372695848,4418.001105547083,-1306.2582977126
30815.523065987,1993.1497565686411,4428.975812074639,-1303.441977911231
30836.35489181935,2013.3110300673284,4438.162379045771,-1312.5391379045411
30820.5745602339,2004.616201474214,4423.946669572195,-1313.2543937271112
30793.75246688753,1985.3489977537392,4405.506480396567,-1308.515823902586
30791.271423252994,1984.0749483197867,4408.568669386944,-1308.1134925023905
30809.19752230615,1998.3800647711832,4422.762027116064,-1314.0814082719576
30834.85732494084,2022.452893549549,4438.296489512502,-1320.295193230533
30819.81460092242,2017.1108266247304,4425.935974828717,-1326.7324956336613
30794.75829538802,2002.6939514510573,4414.313067711958,-1309.8345768254492
30789.505635441023,1998.2012508155408,4416.615297390855,-1307.130015746357
30803.631937936774,2008.9524398985436,4427.344134729402,-1310.326315203466
30827.011862637028,2029.2478238639624,4440.643422680309,-1312.5614896489967
30811.83502815188,2021.6929342380688,4423.387875960812,-1318.350591462921
30788.85743485182,2008.036018375876,4405.01474201855,-1317.970611807181
30787.493978440045,2009.6676957211128,4404.388893173801,-1322.910347331804
30799.47451346809,2019.904794681644,4413.083721766916,-1320.45165544172
30825.84957192535,2042.9494432150652,4431.412152220268,-1317.5682804069854
30814.360775275323,2037.8755972237109,4420.660963137265,-1321.7927601090385
30785.57172841689,2018.4966347809595,4404.455948407167,-1314.8190158389828
30782.50953942651,2020.2177191040184,4407.24991646408,-1318.3058879740106
30794.62418492129,2031.7512192429567,4419.185748003215,-1320.5857659084518
30822.51916200151,2057.7239463000237,4438.564710445966,-1318.484701929653
30817.981757877085,2060.0708794678308,4434.787265633019,-1318.842329840938
30793.75246688753,2046.995108961476,4420.772721859542,-1315.3331059614547
30790.399705219235,2047.4644955950373,4422.605564904877,-1307.0629605129911
30804.05662108143,2061.769612046434,4437.111847056371,-1301.9667627771812
30828.665891726723,2085.9094960581656,4449.137085573326,-1304.4254546672648
30822.921493401707,2089.061092026364,4444.152646559793,-1302.7490738331169
30794.937109343664,2071.6937865845903,4424.036076550016,-1304.8277860674605
30786.599908661832,2065.7035190705683,4421.353867215379,-1307.4652919131863
30795.495902955045,2072.8784290407216,4432.395628976301,-1299.3739604203654
30821.66979571221,2092.8161850948554,4448.622995450854,-1299.4410156537317
30822.608568979333,2098.001789808487,4443.5715012039545,-1307.5323471465526
30794.065391309905,2079.8521733107773,4423.633745149821,-1303.8219575669716
30784.38708596076,2071.358510417761,4420.146873014793,-1305.096007000924
30795.92058609969,2080.455670411071,4431.412152220268,-1309.901632058815
30820.21693232261,2101.2427927545064,4448.466533239667,-1309.1863762362452
30822.742679446063,2107.3001155018947,4443.683259926232,-1311.4439024262313
30798.11105705632,2091.8550600832773,4426.897099840296,-1310.2816117145553
30784.99058306105,2081.8191268228443,4421.175053259737,-1303.441977911231
30795.47355121059,2091.273914727439,4433.826140621441,-1297.4964138861196
30820.90983640073,2114.5644324498694,4452.422792008257,-1301.87735579936
30818.09351659936,2117.291345273417,4446.477227983145,-1304.06782675598
30788.991545318557,2100.281667742928,4426.539471929011,-1305.096007000924
30774.23939397805,2091.4527286830817,4421.085646281916,-1298.1222627308682
30780.00614404752,2101.198089265596,4428.841701607907,-1300.2233267096672
30795.965289588607,2118.341877262816,4440.576367446944,-1298.2340214531448
30801.217949535603,2125.159159321685,4437.40241973429,-1297.8987452863153
30778.441521935645,2113.111569060274,4421.040942793005,-1297.87639354186
30766.125710740773,2104.1485195336963,4415.542413657,-1301.9220592882705
30768.539699141944,2106.0037143234867,4420.571556159443,-1307.7335128466502
30790.89144359725,2125.8520633998,4439.145855801804,-1296.1106057298907
30795.04886806594,2134.122208848263,4442.096286069905,-1296.2670679410778
30773.05475152192,2123.0804470873413,4425.555995172977,-1299.7986435650164
30763.890536295243,2118.028952840442,4418.291678225002,-1304.3360476894436
30773.18886198865,2127.1037610892968,4426.897099840296,-1302.1902802217342
30792.277251753483,2142.370002552271,4440.241091280114,-1304.4925099006307
30796.412324477715,2151.489514290037,4442.632727936832,-1307.711161102195
30770.171376487186,2137.0726391163635,4423.92431782774,-1305.7218558456727
30756.246239691525,2129.249528557006,4418.403436947279,-1308.7169896026835
30758.548469370424,2134.6810024596457,4420.929184070728,-1316.875376328871
30778.37446670228,2155.5798835253577,4432.060352809472,-1312.650896626818
30793.305431998426,2173.908313978709,4438.989393590617,-1308.44876866922
30768.47264390858,2160.877246961265,4421.979716060128,-1305.7665593345832
30750.546544855424,2150.774258467467,4413.374294444835,-1307.264126213089
30752.89347802323,2153.5905782688355,4418.001105547083,-1301.9667627771812
30771.959516043607,2171.516677321992,4431.92624234274,-1304.8948413008263
30779.84968183633,2183.1619361832068,4435.301355755491,-1307.5099954020973
30753.72049256808,2167.6274737867684,4418.537547414011,-1302.927887788759
30739.03539646094,2159.7596597385004,4414.000143289583,-1303.866661055882
30742.768137784977,2161.480744061559,4421.420922448745,-1296.3788266633544
30759.7107600821,2177.305779135916,4436.329536000435,-1297.7199313306728
30772.272440465986,2191.5885438428577,4443.482094226133,-1307.0406087685358
30747.864335520782,2180.055043703919,4427.120617284849,-1304.6713238562731
30722.785678241933,2165.19113364114,4416.168262501748,-1299.1727947202678
30723.88091372024,2167.471011575581,4422.314992226958,-1301.6985418437175
30744.19864943012,2185.7547385400226,4438.430599979234,-1293.87543128436
30763.912888039697,2202.384436414771,4448.645347195309,-1289.9415242602258
30747.08202446485,2192.124985709785,4433.423809221245,-1293.294285928522
30725.669053276662,2178.155145425218,4420.906832326274,-1287.4828323701422
30729.02181494496,2179.093918692341,4423.700800383187,-1290.1873934492344
30748.22196343207,2194.2931049219496,4438.45295172369,-1295.0153702515806
30768.31618169739,2212.6438871197565,4448.980623362139,-1292.5119748725865
30752.44644313413,2203.703189337634,4435.144893544304,-1293.517803373075
30734.18506791414,2195.991837500553,4425.8465678508965,-1297.5858208639409
30728.46302133358,2193.7790147994774,4428.417018463257,-1300.2680301985777
30737.984864471546,2202.898526537243,4443.057411081482,-1295.4400533962314
30760.40366416021,2225.384381459282,4457.4519345107,-1286.5664108474746
30752.22292568957,2223.573890158402,4447.080725083438,-1288.6227713373628
30736.66611154868,2215.080227265385,4432.976774332139,-1288.7345300596394
30733.961550469587,2216.7119046106227,4431.725076642642,-1289.069806226469
30743.528097096456,2228.044239049463,4444.890254126818,-1285.0241404800583
30761.38714091625,2248.1384573147843,4457.004899621595,-1286.7899282920275
30746.99261748703,2243.690460168178,4446.678393683243,-1293.1825272062454
30723.99267244252,2226.703134382145,4430.138102786315,-1285.7617480470835
30721.757497996987,2225.6302506482903,4429.467550452656,-1291.1261667163571
30732.57574231336,2235.1967972751618,4440.598719191399,-1293.0707684839688
30757.743806570037,2259.8731231538204,4459.038908367027,-1293.1154719728795
30744.623332574767,2253.9275591287087,4446.521931472055,-1296.3341231744437
30717.73418399503,2235.085038552885,4428.573480674444,-1299.9551057762037
30712.03448915893,2230.4358757061814,4427.947631829695,-1289.1592132042902
30727.770117255463,2242.997556090064,4437.313012756469,-1299.5304226315527
30746.590286086837,2258.8449429088764,4449.718230929164,-1292.422567894765
30737.403719115704,2255.9392161296864,4440.397553491301,-1290.321503915966
30714.4484775601,2241.388230489282,4422.449102693689,-1293.4283963952537
30714.60493977129,2242.550521200957,4421.264460237559,-1295.484756885142
30729.737070767533,2259.5601987314462,4432.30622199848,-1294.3224661734662
30747.730225054056,2277.9780361626194,4442.900948870296,-1295.261239440589
30740.778832528453,2278.179201862717,4433.289698754514,-1295.8647365408822
30708.480561790537,2256.1403818297845,4413.955439800673,-1296.4682336411756
30699.182236097127,2248.7196026706224,4412.279058966525,-1302.0785214994576
30707.31827107886,2252.9440823726754,4420.213928248159,-1301.229155210156
30732.32987312435,2275.385233805804,4436.083666811427,-1299.6645330982844
30734.96737897008,2284.996483921586,4433.602623176887,-1299.5751261204632
30699.092829119305,2260.946006887675,4416.324724712936,-1299.329256931455
30689.45922725907,2254.9110358847424,4415.877689823829,-1306.7276843461616
30699.24929133049,2263.7399749445885,4424.393704461301,-1300.133919731846
30725.400832343203,2285.756443233066,4442.275100025547,-1292.6237335948626
30722.428050330647,2286.1364228888065,4437.357716245379,-1293.87543128436
30699.293994819403,2272.077175626418,4419.856300336874,-1294.367169662377
30695.203625584083,2271.7418994595887,4423.142006771804,-1290.0756347269578
30709.88872169122,2284.795318221488,4435.010783077572,-1289.293323671022
30732.46398359108,2304.3754463643368,4449.986451862628,-1290.835594038438
30737.873105749262,2311.751522034588,4449.852341395896,-1292.422567894765
30707.07240188985,2292.1937456361948,4430.898062097795,-1291.3943876498208
30692.141436593705,2284.3259315879263,4426.338306228913,-1297.004675508103
30699.78573319742,2292.93135320322,4433.155588287782,-1298.614001108885
30723.344471853317,2314.612545324868,4447.661870439276,-1298.7034080867063
30729.379442856247,2324.8496442853984,4446.052544838493,-1303.7772540780609
30702.780866954432,2310.07514120044,4429.847530108396,-1300.8938790433265
30690.59916622629,2302.162623663261,4423.946669572195,-1295.8647365408822
30701.50681752048,2314.701952302689,4432.663849909764,-1295.5965156074185
30717.287149105927,2328.358868164881,4443.549149459499,-1293.517803373075
30722.808029986387,2335.6455368573115,4445.605509949388,-1296.132957474346
30697.528207007435,2321.921565761753,4429.758123130575,-1300.8491755544158
30679.199776554084,2310.2316034116275,4420.415093948257,-1302.033818010547
30683.536014978414,2316.177167436739,4427.232376007125,-1302.7714255775722
30704.233730344025,2336.025516513052,4443.549149459499,-1302.2349837106449
30708.86054144628,2342.2616532160823,4445.136123315826,-1291.2379254386335
30685.7935411684,2328.112998975873,4430.808655119974,-1282.3419311454215
30673.477729973525,2318.948783749197,4425.533643428522,-1281.2019921782007
30680.92086087714,2325.766065808066,4432.64149816531,-1273.5576955744857
30709.03935540192,2348.117810263373,4449.02532685105,-1268.7967740055053
30721.44457357461,2364.0993075489173,4451.215797807669,-1271.456631595687
30699.87514017524,2355.5162376780795,4435.614280177865,-1272.842439751916
30685.994706868496,2348.631900385845,4430.920413842251,-1269.1767536612456
30688.296936547395,2350.867074831376,4437.335364500924,-1269.064994938969
30706.491256534013,2366.446240716725,4452.512198986077,-1272.5965705629076
30715.633120016235,2380.751357168121,4455.350870531902,-1277.3127886429777
30688.229881314022,2369.5754849404675,4436.575405189444,-1282.1184137008684
30665.676971158624,2355.627996400356,4425.1983672616925,-1290.96970450517
30663.86647985774,2356.3209004784703,4430.182806275226,-1287.102852714402
30682.8431109003,2374.7163861651884,4444.152646559793,-1292.3778644058543
30699.31634656386,2390.47436600618,4449.02532685105,-1290.6120765938851
30681.70317193308,2382.2042205577163,4432.30622199848,-1296.356474918899
30661.92187809013,2367.1838482837497,4419.744541614597,-1290.410910893787
30665.475805458525,2366.3121302499926,4423.052599793983,-1289.583896348941
30688.900433647686,2382.2042205577163,4437.06714356746,-1295.7529778186058
30712.280358347936,2403.460729534713,4450.008803607083,-1294.1883557067342
30698.77990469693,2399.593877743945,4436.977736589639,-1301.5644313769856
30674.438854985103,2381.4889647351465,4421.242108493103,-1295.775329563061
30676.45051198608,2383.2100490582047,4425.779512617531,-1295.3729981628655
30694.466018017058,2398.006903887618,4436.217777278159,-1307.621754124374
30712.19095137012,2414.9048226958303,4446.790152405519,-1306.0571320125025
30700.053954130886,2410.456825549224,4434.653155166287,-1306.0794837569576
30682.6419452002,2401.605534744923,4424.594870161399,-1306.101835501413
30678.797445153887,2399.7056364662217,4427.5453004295,-1306.7500360906167
30697.103523862785,2416.1341686408723,4440.822236635952,-1311.7344751041503
30720.729317752044,2440.7657910306207,4454.926187387251,-1309.901632058815
30711.6992129921,2439.491741596668,4442.431562236734,-1313.2990972160217
30686.620555713245,2423.398485588847,4427.388838218312,-1307.1523674908124
30688.67691620313,2425.4101425898248,4430.406323719779,-1306.8170913239828
30709.68755599112,2442.1292474423944,4439.503483713089,-1309.3428384474323
30729.31238762288,2461.7987825630644,4449.494713484611,-1319.2446612411334
30719.03058517344,2458.53542787259,4440.464608724667,-1321.6586496423067
30692.163788338163,2440.206997419238,4424.483111439123,-1313.8802425718598
30689.816855170357,2438.5753200740005,4426.9641550736615,-1315.869547828382
30710.38046006924,2453.618044092422,4442.610376192377,-1320.0493240415244
30738.09662319382,2474.986311791696,4457.898969399806,-1317.7694461070832
30726.719585266062,2470.3818524339026,4445.896082627307,-1314.7966640945274
30701.417410542657,2454.3780034039028,4426.226547506636,-1316.2495274841224
30702.17736985414,2459.8318290509974,4426.15949227327,-1321.3010217310216
30718.36003283978,2475.545105403078,4437.2906610120135,-1320.4740071861754
30743.61750407428,2498.880326614419,4451.238149552125,-1322.1056845314129
30734.74386152552,2496.153413790872,4438.140027301315,-1323.9832310656586
30712.481524048035,2481.401262450369,4421.555032915478,-1323.9832310656586
30712.16859962566,2483.658788640355,4423.231413749625,-1322.9550508207144
30727.74776551101,2498.0980155584834,4434.809617377475,-1322.910347331804
30750.747710555523,2519.3545245354803,4445.605509949388,-1329.414704968298
30747.864335520782,2524.383667037924,4438.072972067949,-1339.6071004399182
30723.836210231333,2509.8773848864303,4421.39857070429,-1329.7946846240384
30718.40473632869,2508.133948818916,4420.079817781427,-1330.6440509133402
30733.04512894692,2520.516815247156,4431.881538853829,-1331.1134375469014
30755.307466424405,2540.633385256933,4445.1584750602815,-1334.712068404206
30751.39591114473,2542.846207958008,4440.30814651348,-1336.2766905160777
30729.670015534168,2530.239824085215,4425.153663772781,-1336.2096352827116
30725.22201838756,2526.998821139195,4423.834910849919,-1329.0570770570132
30741.739957540038,2541.013364912673,4438.385896490324,-1320.5857659084518
30772.13832999925,2568.1707344258707,4456.468457754667,-1318.0823705294574
30770.014914275995,2574.228057173259,4451.2605012965805,-1319.512882174597
30746.47852736456,2564.706214035298,4437.9388616012175,-1320.0269722970693
30741.695254051123,2566.069670447072,4438.2294342791365,-1322.9774025651698
30756.693274580637,2580.8665252764854,4447.036021594528,-1329.0123735681027
30783.47066443809,2605.140519754949,4463.598664235909,-1324.7655421215943
30787.22575750658,2612.695409380842,4459.93297814524,-1323.9832310656586
30768.830271819865,2606.123996510982,4443.325632014947,-1324.6314316548624
30767.64562936373,2611.04138029115,4444.107943070882,-1320.2057862527115
30782.39778070424,2628.1851682883703,4454.5015042426,-1318.7305711186614
30806.38120250478,2653.062659867127,4467.018481137572,-1323.2679752430888
30814.13725783077,2668.1500873744594,4466.616149737376,-1318.551757163019
30792.74663838704,2658.158857602937,4447.281890783535,-1316.0036582951138
30784.5658999164,2656.035441879683,4439.97287034665,-1315.5566234060077
30789.259766252017,2664.1714768614147,4448.35477451739,-1310.9745157926698
30809.57750196189,2682.052872425661,4460.514123501078,-1313.097931515924
30819.993414878063,2694.972180720828,4461.542303746021,-1313.813187338494
30801.44146698016,2686.255000383258,4445.4490477382005,-1310.7509983481168
30789.84091160785,2685.1150614160374,4438.072972067949,-1319.5352339190524
30798.75925764552,2696.939134232895,4446.209007049681,-1316.093065272935
30821.53568524548,2720.475521144333,4460.558826989988,-1305.1854139787454
30828.95646440464,2732.2325387278247,4458.524818244555,-1313.477911171664
30813.444353752657,2724.4317799129226,4442.118637814359,-1316.3612862063987
30809.46574323961,2726.0411055137047,4439.145855801804,-1312.2038617377118
30821.446278267656,2738.379268453034,4447.63951869482,-1300.1115679873906
30849.654179770256,2763.256760031791,4463.308091557991,-1302.9949430221252
30867.62498231232,2781.384024785045,4469.857152683396,-1305.6548006123069
30848.782461736497,2771.21398105788,4452.489847241623,-1307.711161102195
30838.85828719834,2767.950626367405,4443.437390737223,-1306.5935738794296
30845.921438446218,2778.83592591714,4445.896082627307,-1308.0911407579351
30870.06132245795,2801.858222706106,4459.083611855938,-1302.9502395332147
30890.490816890106,2825.863996251106,4466.660853226287,-1301.3409139324324
30871.782406781007,2817.9738304583825,4448.645347195309,-1296.8482132969157
30861.925287476217,2814.285792623257,4437.111847056371,-1294.881259784849
30873.235270170604,2826.065161951204,4439.615242435365,-1298.1893179642343
30895.229386714625,2846.7852290612736,4452.668661197265,-1305.4983384011196
30903.96891879665,2858.654005367041,4457.764858933075,-1310.192204736734
30882.80181679748,2849.3333279291783,4438.363544745868,-1319.7811031080607
30867.40146486777,2841.7784383032845,4429.467550452656,-1312.9861727936477
30874.35285739337,2849.8697697961056,4435.658983666776,-1305.833614567949
30900.92908155073,2875.440165452977,4451.439315252223,-1299.7986435650164
30919.056346303983,2895.310866273745,4458.010728122083,-1299.5751261204632
30909.40039269929,2894.57325870672,4444.599681448899,-1302.5702598774744
30893.8435785584,2884.805546379751,4431.97094583165,-1297.87639354186
30896.16815998175,2888.76180514834,4434.45198946619,-1292.713140572684
30923.526695195043,2915.941526405993,4450.746411174108,-1285.4711753691645
30946.59369547292,2939.0755819172364,4458.815390922474,-1286.8793352698488
30933.74144241112,2935.700468504485,4443.482094226133,-1291.3049806719996
30918.09522129241,2927.0279916558256,4431.97094583165,-1287.5722393479634
30918.631663159333,2930.96189867996,4435.2343005221255,-1284.4206433797651
30939.7540616696,2951.056116945281,4451.774591419053,-1286.58876259193
30972.812291719,2982.125041738157,4470.125373616859,-1285.6276375803516
30955.78026244405,2974.190172456524,4450.5005419851,-1294.2107074511896
30932.53444821053,2961.0026432278923,4434.742562144108,-1295.4400533962314
30933.674387177754,2966.948207253004,4437.581233689933,-1290.1203382158683
30957.344884555925,2991.4233674315656,4455.440277509722,-1278.4974310991088
30983.11644591289,3018.5583852003083,4469.655986983298,-1280.4643846111758
30970.53241378456,3015.2950305098334,4457.40723102179,-1281.9172480007708
30950.751119941608,3007.807196117305,4442.364507003368,-1288.2874951705332
30955.020303132573,3012.7469316419283,4444.465570982167,-1284.5994573354076
30973.41578881929,3028.7731324163838,4452.668661197265,-1278.3856723768322
30999.299108898536,3054.052955395336,4464.671547969764,-1285.87350676936
30992.012440206105,3051.527208271886,4451.931053630239,-1290.3438556604217
30966.12912012686,3034.7857516748613,4432.30622199848,-1291.68496032774
30964.56449801499,3035.366897030699,4432.909719098773,-1290.1203382158683
30979.58487028896,3048.7332402149727,4445.650213438298,-1290.2320969381449
31004.73058280117,3072.6496067821517,4460.983510134639,-1284.8229747799603
31000.774324032587,3074.571856805308,4454.88148389834,-1281.5149166005751
30983.831701735464,3065.251179367445,4444.934957615728,-1276.2399049091227
30991.431294850267,3072.2919788708664,4451.238149552125,-1269.8249542504495
31012.01725149361,3088.653455812151,4461.922283401762,-1277.9162857432707
31032.33498720348,3104.6126013532403,4469.07484162746,-1275.9269804867483
31033.340815703967,3109.5746886223187,4462.749297946608,-1266.8521722378937
31015.593530606453,3101.2598396849444,4447.907739628285,-1263.521762314053
31012.821914294,3104.187918208589,4446.723097172153,-1264.4158320922652
31029.272798213104,3119.6106218827517,4456.177885076748,-1261.1301256573352
31058.821804383017,3145.181017539622,4469.924207916762,-1265.3099018704777
31052.27274325761,3144.510465205964,4463.553960746999,-1264.3040733699886
31029.80924008003,3130.697087132584,4447.416001250267,-1264.259369881078
31029.630426124382,3134.2510145009774,4445.6278616938425,-1270.4731548396535
31046.036606554582,3150.3219187643435,4455.172056576259,-1268.4614978386758
31074.82565341302,3174.752375453994,4472.382899806846,-1272.127183929346
31077.82078717003,3180.206201101089,4467.621978237865,-1273.960026974681
31058.039493327084,3171.2207998300555,4448.801809406496,-1271.2778176400443
31053.367978735925,3171.131392852234,4442.900948870296,-1265.712233270673
31070.757635922157,3189.169250627667,4454.1438763313145,-1266.58395130443
31100.798380470085,3215.96899222958,4468.31488231598,-1270.942541473215
31104.978156683228,3224.1497307002223,4462.771649691063,-1269.1544019167902
31081.665287216343,3209.330524126354,4441.202216291692,-1264.2370181366227
31076.05499935806,3205.038989190935,4435.502521455589,-1269.333215872433
31091.70122047677,3216.7960067744266,4445.02436459355,-1268.0591664384804
31118.746831267697,3238.968937274092,4460.491771756622,-1267.768593760561
31129.363909883967,3253.1175915143003,4460.782344434541,-1273.5353438300306
31101.67009850384,3236.174969217178,4435.8825011113295,-1272.4401083517205
31094.3387263225,3234.811512805404,4430.048695808494,-1280.4420328667204
31101.848912459485,3245.2050739771216,4435.502521455589,-1291.4614428831867
31131.35321514049,3273.6364929242723,4453.585082719932,-1289.3380271599326
31143.64667459091,3291.204964066144,4454.099172842404,-1287.259314925589
31121.16081966887,3278.062138326424,4437.268309267558,-1283.9289050017485
31111.95190095328,3271.490725456563,4430.451027208689,-1285.2476579246113
31122.88190399193,3282.152507561744,4435.949556344695,-1297.0717307414689
31144.4513373913,3305.912411917736,4449.964100118173,-1300.8268238099604
31153.615552617972,3321.268060358532,4451.931053630239,-1292.646085339318
31130.88382850693,3307.9240689187136,4430.0710475529495,-1297.1834894637454
31120.736136524218,3304.2136793391323,4425.39953296179,-1292.9813615061476
31129.565075584065,3314.808406210948,4430.451027208689,-1296.579992363452
31149.88281129394,3331.058124429956,4441.358678502879,-1299.8656987983825
31163.204450989306,3342.502217591073,4442.3421552589125,-1305.028951767558
31144.987779258227,3331.214586641144,4420.236279992614,-1311.6003646374184
31133.051947719094,3325.336077849397,4409.909774054262,-1306.2135942236894
31138.97515999975,3331.996897697079,4412.703742111175,-1305.4312831677537
31156.074244508058,3347.2407874155983,4424.505463183577,-1299.7315883316503
31174.626192405965,3366.7538603250814,4435.390762733312,-1293.450748139709
31157.929439297848,3360.7635928110594,4418.336381713913,-1297.7199313306728
31145.568924614065,3355.3097671639644,4410.312105454458,-1300.5138993875862
31156.811852075083,3366.6421016028053,4419.521024170044,-1294.97066676267
31186.02558207817,3391.7878141150254,4437.9388616012175,-1307.286477957544
31199.88366364046,3406.1376340553325,4443.996184348605,-1305.028951767558
31184.013925077197,3398.448633962707,4430.026344064038,-1298.6587045977956
31170.334657470547,3389.0385495470227,4419.252803236581,-1297.9434487752258
31184.68447741085,3402.896631109313,4429.959288830672,-1297.0940824859242
31205.56100673211,3421.1133028403883,4442.766838403563,-1305.028951767558
31222.05659414013,3437.0500966370223,4449.427658251245,-1303.196108722223
31209.13728584496,3434.032611135556,4436.061315066972,-1298.166966219779
31190.87591062497,3424.0190296195783,4419.610431147866,-1302.1902802217342
31195.16744556039,3427.5059017546064,4419.006934047572,-1303.7549023336055
31217.65330048243,3445.476704296673,4431.948594087195,-1300.2009749652118
31240.161507148925,3466.6885097847594,4440.643422680309,-1302.3690941773766
31230.729070988786,3465.6156260509047,4424.550166672489,-1299.8880505428376
31212.0653643686,3456.987852691156,4410.759140343564,-1291.5284981165528
31212.735916702262,3461.5923120489497,4410.513271154556,-1299.932754031748
31236.4734693138,3482.714710559215,4426.383009717823,-1294.2107074511896
31260.680408558896,3504.284143958586,4436.575405189444,-1298.2116697086894
31244.855373484537,3495.2540391986417,4419.029285792028,-1303.2855157000442
31227.75628897623,3482.804117537036,4404.2994861959805,-1294.7695010625723
31232.56191403412,3488.481460628684,4406.713474597153,-1295.104777229402
31254.198402666854,3508.2404027271755,4417.956402058173,-1293.584858606441
31278.695914589876,3532.089714060988,4429.512253941566,-1289.6285998378517
31270.179899952404,3533.3414117504853,4419.811596847963,-1291.9308295167482
31250.622123554007,3522.6125744119377,4406.579364130422,-1294.456576640198
31249.817460753617,3523.059609301044,4407.629896119821,-1298.010504008592
31268.928202262905,3538.862292630946,4421.756198615575,-1296.7811580635498
31291.57051939613,3562.152810353376,4436.128370300337,-1296.5352888745415
31280.439350657387,3561.504609764172,4426.338306228913,-1297.7199313306728
31255.919486989915,3549.8146474140462,4412.144948499793,-1299.7092365871952
31248.498707830757,3548.4288392578173,4409.194518231692,-1297.87639354186
31265.217812683324,3564.052708632077,4418.626954391832,-1303.5313848890526
31294.90092931997,3591.210078145275,4434.742562144108,-1304.805434323005
31290.56469089564,3591.500650823194,4423.387875960812,-1297.6528760973067
31271.05161798616,3578.603694272482,4406.266439708047,-1304.224288967167
31268.280001673706,3576.413223315862,4403.517175140045,-1294.6577423402955
31284.507368148254,3590.763043256169,4417.129387513326,-1288.935695759737
31314.145781295992,3616.266383679674,4435.92720460024,-1293.6519138398069
31313.452877217875,3622.346058171518,4432.485035954122,-1301.0056377656028
31290.22941472881,3610.14200569892,4417.218794491148,-1305.2748209565666
31282.920394291927,3606.5210230971607,4415.274192723536,-1308.6052308804074
31297.67254563243,3622.390761660428,4426.740637629108,-1311.7344751041503
31319.845476132094,3646.083610783054,4442.990355848116,-1310.393370436832
31316.04567957469,3650.7774771186687,4434.384934232823,-1313.813187338494
31291.05642927366,3638.81929383508,4414.022495034039,-1306.9959052796253
31284.99910652627,3640.4509711803166,4410.937954299207,-1304.872489556371
31302.366411968043,3656.633634165959,4422.2032335046815,-1302.0114662660917
31328.339139025116,3680.5723524775926,4435.837797622418,-1304.805434323005
31329.948464625893,3687.344931047551,4428.573480674444,-1307.4429401687314
31308.62490041553,3673.263332040707,4410.937954299207,-1308.9628587916925
31304.6909933914,3672.34691051804,4406.154680985771,-1314.908422816804
31320.44897323239,3685.959122891322,4412.659038622265,-1305.0513035120134
31341.28079906473,3702.767634721713,4421.622088148843,-1313.3438007049324
31344.36533979957,3709.11553014702,4416.011800290561,-1314.6849053722508
31322.01359534426,3694.877468928989,4396.655189592265,-1309.901632058815
31313.274063262237,3688.328407803585,4392.453061634667,-1305.2971727010215
31320.96306335486,3693.245791583752,4401.773739072531,-1309.1863762362452
31341.928999653937,3710.411931325428,4411.630858377321,-1313.9249460607705
31344.00771188828,3715.888108716978,4407.898117053284,-1307.1076640019016
31320.62778718803,3701.761806221224,4391.626047089821,-1306.034780268047
31309.5413219382,3693.536364261671,4387.423919132223,-1304.0231232670694
31318.213798786852,3699.616038753514,4396.655189592265,-1307.6664576132844
31341.97370314285,3722.012486697732,4413.754274100576,-1307.1523674908124
31347.606342745585,3732.78602752519,4414.581288645421,-1306.1688907347789
31327.981511113827,3721.856024486545,4397.9068872817625,-1307.1747192352675
31314.97279584084,3712.311829604129,4388.474451121623,-1309.678114614262
31323.399403500487,3717.564489551126,4393.749462813075,-1316.8083210955049
31346.46640377837,3736.5634723381368,4409.574497887433,-1307.711161102195
31353.887182937528,3746.286481176196,4411.653210121776,-1305.3642279343878
31332.138935582512,3734.3282978926063,4396.67754133672,-1306.034780268047
31322.080650577624,3728.628603056503,4390.150831955771,-1308.6722861137732
31332.608322216078,3738.4857223612935,4396.386968658801,-1308.3817134358542
31354.53538352673,3758.177609226419,4410.222698476637,-1303.7549023336055
31367.275877866257,3774.1591065119633,4417.06233227996,-1305.2077657232005
31346.57816250064,3763.8773040625215,4400.589096616399,-1309.4098936807984
31332.0942320936,3757.015318514743,4394.844698291386,-1304.1125302448906
31342.5995519876,3771.36513845505,4402.511346639556,-1310.326315203466
31360.05626440719,3789.6712171639465,4418.626954391832,-1305.9230215457706
31370.047494178714,3806.233859805329,4428.0817422964265,-1303.4643296556867
31348.79098520172,3798.522507968248,4413.195480489192,-1301.4750243991643
31334.21764781685,3790.3194177531504,4404.210079218159,-1301.095044743424
31336.765746684763,3793.269848021251,4408.63572462031,-1311.1756814927676
31354.87065969356,3810.435987762927,4422.650268393787,-1310.7286466036614
31372.97557270236,3829.591432761125,4432.708553398676,-1304.1572337338011
31353.41779630397,3821.656563479491,4414.44717817869,-1309.2087279807006
31332.004825115782,3810.145415085008,4401.125538483327,-1314.930774561259
31331.22251405985,3812.8946796530095,4408.725131598131,-1309.1863762362452
31352.948409670404,3831.960717673388,4426.695934140198,-1301.452672654709
31366.6053255326,3848.165732403485,4435.010783077572,-1308.2028994802115
31343.471270021357,3835.984031675343,4417.73288461362,-1310.5051291591085
31325.455763990376,3823.154130357997,4402.868974550841,-1312.6285448823626
31332.51891523825,3832.452456051404,4410.960306043662,-1309.4993006586196
31349.05920613518,3849.864464982089,4426.248899251092,-1308.1134925023905
31366.44886332141,3869.1540204470175,4437.82710287894,-1308.0240855245693
31350.847345691604,3862.068517454686,4423.611393405366,-1307.8676233133822
31327.95915936937,3845.327060857661,4408.725131598131,-1311.3768471928654
31330.44020300391,3847.204607391907,4414.44717817869,-1312.0250477820694
31352.993113159315,3866.9635494903982,4429.087570796915,-1315.9813065506587
31372.70735176889,3887.05776775572,4439.97287034665,-1319.1776060077675
31360.033912662737,3884.286151443261,4426.561823673466,-1327.1795305227674
31341.63842697602,3874.943122260943,4415.765931101552,-1309.7228181031726
31341.303150809188,3879.7710990632895,4421.510329426566,-1313.5449664050302
31358.849270206603,3894.8585265706215,4433.937899343718,-1309.4322454252535
31382.139787929034,3919.803073382744,4446.052544838493,-1305.006600023103
31366.180642387942,3915.15391053604,4434.362582488368,-1299.6868848427398
31338.66564496346,3898.770081850301,4419.63278289232,-1300.580954620952
31334.86584840606,3898.39010219456,4422.963192816162,-1300.133919731846
31350.33325556913,3912.538756434769,4438.251786023591,-1298.4351871532426
31370.673343023464,3930.5766142102025,4448.287719284024,-1305.4759866566642
31358.55869752869,3924.809864140733,4435.457817966678,-1307.1076640019016
31334.239999561312,3908.046055799253,4424.013724805561,-1306.0794837569576
31331.06605184866,3903.396892952549,4426.003030062083,-1304.5372133895414
31352.97076141486,3920.026590827297,4442.275100025547,-1301.1173964878794
31375.344857614626,3939.807884670244,4454.993242620617,-1302.1232249883683
31366.851194721607,3936.3433642796713,4447.170132061259,-1300.9609342766923
31345.3488165556,3921.367695494616,4431.814483620463,-1306.034780268047
31336.162249584468,3914.528061691292,4430.093399297404,-1303.5984401224184
31350.936752669422,3929.526082220803,4441.537492458522,-1301.743245332628
31377.132997171047,3952.4366202874926,4455.797905421007,-1298.4128354087873
31370.248659878813,3949.016803385831,4445.78432390503,-1299.5751261204632
31348.478060779344,3937.326841035705,4428.908756841273,-1303.35257093341
31340.67730196444,3933.862320645133,4430.249861508592,-1300.2233267096672
31349.05920613518,3944.25588181685,4444.286757026524,-1298.6587045977956
31372.26031687979,3967.077012905719,4458.368356033368,-1296.2670679410778
31361.710293496883,3963.679547748512,4446.656041938787,-1294.881259784849
31334.15059258349,3945.2840620617935,4428.349963229891,-1291.193221949723
31330.641368704008,3944.613509728135,4430.406323719779,-1283.7947945350163
31342.57720024314,3953.397745299071,4437.245957523102,-1288.8462887819155
31367.477043566352,3975.257751376361,4449.07003033996,-1298.2340214531448
31358.536345784232,3975.2130478874506,4438.743524401609,-1299.4410156537317
31329.88140939253,3956.9516726674647,4420.549204414989,-1300.580954620952
31320.560731954665,3950.7825911978,4415.721227612642,-1298.5916493644297
31331.46838324885,3959.812695957744,4423.454931194178,-1299.999809265114
31355.898839938505,3980.085728178708,4436.754219145086,-1302.0114662660917
31351.85317419209,3980.421004345537,4430.473378953145,-1304.291344200533
31328.40619425848,3966.249998360872,4413.2848874670135,-1308.06878901348
31322.952368611383,3963.16545762604,4410.781492088019,-1312.5391379045411
31325.791040157204,3966.3394053386937,4417.73288461362,-1309.9239838032704
31340.699653708896,3980.063376434252,4429.892233597307,-1312.8967658158265
31338.553886241185,3979.5045828228695,4422.0914747824045,-1315.444864683731
31313.966967340348,3963.768954726333,4404.9476867851845,-1311.0192192815805
31304.668641646946,3960.930283180509,4402.332532683913,-1306.9959052796253
31313.85520861807,3969.6921670069896,4408.926297298229,-1307.2417744686336
31339.67147346395,3989.5405160833034,4423.834910849919,-1310.6168878813849
31344.834726433128,3996.000170230886,4424.505463183577,-1307.934678546748
31320.44897323239,3982.611475302157,4407.540489141999,-1314.1484635053234
31305.87563584753,3974.07310892023,4401.907849539262,-1308.1134925023905
31312.20117952838,3977.001187443875,4404.478300151623,-1311.868585570882
31330.66372044846,3990.479289350425,4412.010838033061,-1324.4973211881306
31336.87750540704,3998.905897010076,4409.842718820896,-1332.7004114032284
31309.608377171564,3980.823335745733,4389.413224388745,-1328.0512485565243
31294.72211536433,3969.289835606794,4384.2276196751145,-1329.9511468352257
31301.204121256367,3973.447260075481,4395.649361091776,-1323.35738222091
31319.91253136546,3986.8583067486657,4408.725131598131,-1327.6265654118736
31328.45089774739,3997.4083301315695,4410.759140343564,-1335.0696963154908
31303.37224046853,3982.767937513344,4391.648398834276,-1334.6003096819295
31287.77072283873,3973.156687397562,4381.478355107111,-1338.4671614726976
31288.977717039317,3974.0507571757744,4385.993407487084,-1333.5274259480748
31309.362507982554,3992.2450771623935,4399.91854428274,-1338.511864961608
31317.58794994211,4003.6221150901456,4398.733901826608,-1350.9841383676694
31293.62687988602,3992.155670184573,4379.466698106134,-1349.7994959115383
31271.163376708435,3976.5318008103136,4367.620273544821,-1347.6537284438286
31273.95734476535,3981.35977761266,4373.007043958551,-1358.583731482474
31291.54816765168,3996.536612097813,4384.741709797587,-1366.965635653214
31303.886330591005,4008.740664570411,4389.3908726442905,-1356.7955919260494
31282.115731491536,3994.7931760303,4368.559046811944,-1362.7858594400716
31264.793129538677,3981.9856264574087,4355.773848983508,-1368.84318218746
31264.59196383857,3983.3490828691824,4358.366651340324,-1365.6021792414404
31280.61816461303,3996.4025016310816,4369.520171823522,-1363.2105425847224
31291.48111241831,4005.767882557855,4371.86710499133,-1364.1716675963007
31269.688161574384,3991.373359128637,4351.705831492643,-1373.358234567432
31249.45983284233,3978.2081816444615,4340.127627864794,-1380.9801794266916
31247.716396774817,3979.906914223065,4345.715563978621,-1379.7284817371944
31261.03803647018,3991.015731217352,4359.506590307545,-1383.1035951499457
31275.700780832864,4005.611420346668,4368.96137821214,-1379.7955369705603
31258.80286202465,3997.453033620481,4356.62321527281,-1378.2085631142336
31239.55801004863,3984.466670091947,4345.089715133871,-1380.9578276822365
31231.13140238898,3977.805850244266,4344.083886633383,-1378.387377069876
31247.917562474915,3993.6308853186233,4357.785505984486,-1380.2649236041218
31266.93889700638,4013.7474553284,4368.112011922838,-1381.807193971538
31248.543411319664,4005.164385457562,4356.690270506176,-1372.2406473446665
31227.19749536485,3992.043911462297,4341.982822654584,-1376.3310165799876
31222.838905196066,3988.869963749643,4341.535787765478,-1375.2581328461329
31242.66490252792,4004.2479639348944,4358.612520529333,-1365.1327926078789
31258.69110330237,4018.106045497185,4373.588189314388,-1363.903446662837
31244.36363510652,4008.539498870313,4363.395793842768,-1360.9753681391917
31223.10712612953,3992.379187629126,4353.225750115604,-1357.7567169376275
31217.765059204707,3987.5288590823247,4356.9361396951845,-1353.2640163021108
31232.40545182293,3998.212992931961,4371.621235802321,-1348.12311507739
31254.958361978337,4018.754246086389,4384.518192353034,-1350.6712139452952
31245.727091518296,4016.362609429671,4375.443384104179,-1348.1678185663009
31224.22471335229,4002.83980403421,4364.111049665338,-1340.1435423068456
31213.406469035923,3994.949638241487,4364.043994431972,-1340.4117632403093
31226.795163964653,4005.499661624392,4379.421994617223,-1337.5060364611193
31249.728053775794,4025.973859545453,4395.448195391678,-1346.5584929655188
31236.31700710261,4017.971935030453,4385.993407487084,-1350.8500279009377
31217.65330048243,4005.164385457562,4375.175163170715,-1343.809228397516
31214.032317880672,4002.638638334112,4375.488087593089,-1342.7586964081163
31225.923445930894,4010.88643203812,4390.307294166958,-1339.36123125091
31246.688216529878,4029.6395456361233,4402.936029784207,-1346.0444028430466
31238.887457714973,4026.8232258347534,4393.190669201693,-1345.351498764932
31209.003175378228,4001.4092923890703,4377.34328238288,-1337.0142980831026
31203.325832286577,3996.6707225645455,4378.4832213501,-1339.8529696289263
31218.97205340529,4010.3052866822823,4389.703797066664,-1339.9423766067478
31239.200382137347,4028.1419787576174,4402.645457106288,-1340.545873707041
31231.734899489275,4027.717295612967,4397.01281750355,-1339.1377138063567
31208.690250955853,4013.7921588173103,4383.735881297098,-1334.9132341043037
31197.290861283647,4007.198394202994,4381.903038251762,-1336.9248911052814
31204.17519857588,4014.999153017897,4392.050730234472,-1340.814094640505
31223.017719151703,4029.147807258106,4405.484128652111,-1338.7577341506164
31215.239312081256,4025.0574380227854,4393.369483157335,-1345.2397400426555
31187.36668674549,4006.036103491319,4373.610541058843,-1346.5361412210634
31176.32492498457,3995.329617897227,4371.397718357768,-1342.5128272191082
31185.578547189063,4000.671684822045,4381.232485918104,-1342.3563650079209
31211.931253901872,4023.60457463319,4398.219811704136,-1344.2339115421669
31210.165466089904,4026.197376990006,4395.3811401583125,-1339.02595508408
31181.197605275825,4004.091501723707,4376.5386195824885,-1342.0881440744572
31171.11696852648,3997.0507022202855,4375.041052703983,-1338.221292283689
31181.3093639981,4007.690132581012,4385.278151664514,-1336.45550447172
31203.549349731133,4027.806702590788,4398.443329148689,-1341.5964056964406
31198.341393273044,4027.739647357422,4393.39183490179,-1342.065792330002
31167.294820224623,4008.852423292688,4379.109070194849,-1338.511864961608
31151.13450898344,4000.7610917998654,4374.1916864146815,-1340.7917428960495
31154.46491890728,4009.0759407372407,4384.317026652936,-1344.7256499201835
31172.74864587172,4025.392714189615,4399.024474504528,-1349.1065918334236
31173.17332901637,4030.108932269685,4399.851489049374,-1349.0618883445131
31144.49604088021,4012.719275083456,4383.177087685715,-1342.1551993078233
31130.526200595643,4004.426777890537,4377.38798587179,-1344.3680220088986
31134.929494253334,4009.0535889927855,4387.334512154403,-1338.3330510059657
31152.87794505095,4022.665801366067,4405.551183885477,-1338.0871818169574
31158.86821256497,4030.712429369978,4408.836890320407,-1351.6993941902392
31134.97419774225,4017.815472819266,4393.123613968327,-1343.4739522306863
31116.958691711272,4003.711522067967,4388.899134266274,-1328.5653386789966
31121.13846792441,4006.12551046914,4398.15275647077,-1331.515768947097
31145.345407169512,4026.5997083902016,4414.648343878787,-1340.8811498738708
31153.36968342897,4036.278013739349,4417.643477635798,-1333.326260247977
31124.11124993697,4019.156577486584,4399.158584971259,-1333.773295137083
31106.766296239653,4010.4393971490144,4391.223715689625,-1329.5264636905747
31110.901368963885,4017.2790309523375,4399.471509393634,-1327.0230683115803
31128.93922673932,4033.0817142822407,4415.855338079374,-1328.1183037898904
31139.35513965549,4045.2857667548383,4422.87378583834,-1332.2310247696669
31114.991738199205,4029.170159002562,4405.551183885477,-1332.163969536301
31094.316374578048,4011.981667516431,4392.63187559031,-1332.5886526809518
31095.88099668992,4015.289725695816,4398.800957059974,-1329.258242757111
31116.08697367752,4034.735743371933,4413.664867122754,-1328.5876904234517
31126.189962171316,4047.297423755816,4419.789245103508,-1328.7218008901837
31100.2395868587,4032.7017346265,4402.444291406189,-1322.575071164974
31078.893670903883,4018.418969919559,4391.201363945171,-1322.9774025651698
31076.591441224988,4015.870871051654,4395.671712836232,-1321.9939258091365
31090.337764065,4026.13032175664,4409.39568393179,-1318.9093850743038
31104.39701132739,4040.2119207634832,4415.877689823829,-1319.3117164744997
31078.04430461458,4025.571528145257,4398.420977404235,-1320.5857659084518
31051.7810048796,4008.1371674701177,4383.579419085911,-1325.8831293443598
31054.37380723641,4010.238231448917,4388.832079032908,-1318.5741089074745
31073.305734790058,4027.516129912869,4404.366541429346,-1313.477911171664
31085.2862698181,4038.803760862799,4410.021532776539,-1321.0104490531028
31060.67699917281,4020.3412199427153,4392.676579079221,-1314.1931669942342
31039.152269262348,4001.9457342559976,4382.394776629779,-1305.8783180568598
31041.074519285503,4003.2197836899504,4389.72614881112,-1311.4439024262313
31053.30092350256,4013.769807072855,4401.103186738871,-1314.6625536277954
31072.81399641204,4032.165292759573,4412.860204322363,-1317.5906321514408
31053.278571758103,4021.347048443204,4399.940896027195,-1319.8481583414268
31027.730527845688,4001.968086000453,4386.954532498662,-1313.0532280270131
31023.9754347772,3998.7270830544335,4388.273285421525,-1317.1659490067898
31044.20376350925,4014.12743498414,4401.639628605799,-1313.2767454715663
31057.190127037786,4027.739647357422,4410.803843832475,-1313.321448960477
31040.89570532986,4020.8106065762768,4397.884535537307,-1321.032800797558
31010.56438810401,3997.542440598302,4380.114898695338,-1317.389466451343
31005.647004323844,3994.234382418917,4386.596904587377,-1314.9978297946252
31015.61588235091,4001.006960988874,4397.996294259584,-1318.7529228631167
31033.22905698169,4013.4121791615694,4409.753311843075,-1318.3952949518318
31019.95212077524,4004.359722657171,4401.1925937166925,-1322.7538851206166
30997.01923096409,3989.160536427562,4393.637704090798,-1316.383637950854
30988.63732679336,3981.762109012856,4394.017683746539,-1323.2679752430888
30997.57802457548,3987.774728271333,4403.628933862321,-1328.163007278801
31013.4701148832,4001.2751819223386,4415.3412479569015,-1327.3359927339543
31002.56246358901,3997.3412748982046,4405.461776907656,-1329.615870668396
30980.03190517806,3983.3714346136376,4390.396701144779,-1326.3748677223764
30975.38274233136,3979.146954911585,4388.29563716598,-1329.5711671794854
30987.3632773594,3989.428757361026,4399.113881482349,-1322.798588609527
31010.944367759752,4011.0875977382175,4413.351942700379,-1322.7315333761617
30995.61107106341,4002.5045278673806,4404.098320495882,-1319.5575856635078
30971.091207395937,3988.288818393805,4390.597866844877,-1317.5682804069854
30963.044579392023,3983.505545080369,4386.529849354011,-1321.2116147532004
30976.52268129858,3995.351969641682,4398.577439615422,-1319.512882174597
31003.925920000784,4016.2732024518496,4412.659038622265,-1313.16498674929
31001.266062410603,4017.4354931635257,4406.333494941413,-1316.1601205063012
30966.57615501597,3990.8592690061655,4387.490974365589,-1321.5915944089406
30956.16024209979,3980.2198386454393,4389.815555788941,-1309.9910390366365
30965.8608991934,3987.864135249154,4403.5395268845,-1312.6285448823626
30991.3642396169,4009.657086093079,4422.918489327251,-1314.2155187386893
30985.86571048089,4007.868946536654,4413.597811889388,-1323.73736187665
30956.56257349999,3989.719330038945,4392.140137212293,-1335.092048059946
30943.82207916046,3981.6950537794896,4389.5696865999325,-1332.2086730252115
30951.89105890883,3986.746548026389,4400.67850359422,-1327.2018822672228
30973.88517545285,4003.9126877680646,4415.296544467991,-1336.6566701718175
30966.66556199379,3999.8223185327433,4411.58615488841,-1335.293213760044
30938.83764014693,3977.649388033079,4396.878707036818,-1333.8179986259936
30932.22152378816,3970.0721466627297,4400.231468705114,-1332.7451148921389
30935.01549184507,3969.870980962632,4407.384026930813,-1333.8850538593597
30956.137890355338,3987.752376526878,4422.82908234943,-1336.9472428497363
30957.143718855827,3988.489984093903,4420.459797437167,-1334.8685306153932
30936.624817445856,3974.006053686864,4405.72999784112,-1328.1853590232563
30923.370232983856,3965.311225093749,4402.131366983816,-1315.2213472391782
30921.13505853833,3964.551265782269,4405.506480396567,-1318.328239718466
30942.14569832632,3979.705748522967,4418.917527069751,-1317.1435972623349
30940.35755876989,3979.437527589504,4415.430654934723,-1321.1222077753791
30909.91448282176,3958.02455640132,4396.856355292363,-1316.2495274841224
30893.30713669147,3945.887559162088,4391.626047089821,-1318.5741089074745
30895.87758730383,3948.480361518903,4400.030303005016,-1312.1815099932564
30916.17297126925,3961.578483769713,4412.323762455436,-1314.2155187386893
30925.35953824038,3967.792268728289,4412.435521177712,-1321.3457252199323
30903.38777344081,3950.2014458419617,4396.319913425436,-1330.4875887021528
30883.82999704242,3930.3083932767386,4385.501669109067,-1332.096914302935
30884.768770309543,3926.7768176528,4387.066291220938,-1336.5002079606304
30907.63460488732,3945.149951595063,4403.0701402509385,-1345.2844435315662
30914.94362532421,3953.755373210356,4405.506480396567,-1344.412725497809
30884.70171507617,3931.694201432968,4387.803898787964,-1333.3933154813428
30867.91555499024,3917.277326259295,4388.407395888257,-1327.0230683115803
30873.77171203753,3919.288983260272,4397.9068872817625,-1334.6003096819295
30893.01656401355,3932.498864233359,4415.20713749017,-1330.5099404466082
30900.906729806276,3941.730134693401,4417.643477635798,-1330.554643935519
30876.96801149464,3928.520253720314,4399.717378582643,-1331.806341625016
30853.4316245832,3910.0800645446857,4386.708663309653,-1325.6596118998066
30854.035121683493,3908.448387199449,4389.77085230003,-1327.9618415787031
30870.284839902502,3916.606773925636,4402.332532683913,-1328.7218008901837
30881.72893306362,3926.173320552507,4411.20617523267,-1325.6596118998066
30854.25863912805,3908.448387199449,4394.956457013662,-1329.481760201664
30837.114851130827,3895.640837626557,4387.669788321232,-1331.9851555806586
30842.255752355548,3902.234602240873,4396.006989003061,-1332.521597447586
30857.946676963173,3912.829329112688,4408.658076364765,-1330.197016024234
30873.838767270896,3924.96632635192,4414.894213067796,-1333.9297573482702
30853.76690075003,3911.801148867744,4394.308256424458,-1334.0862195594573
30835.036138896485,3899.708855117424,4380.964264984639,-1338.8024376395272
30826.654234725745,3891.2375439688617,4377.991482972084,-1334.64501317084
30841.00405466605,3900.222945239895,4390.351997655868,-1335.8967108603372
30855.44328158418,3911.48822444537,4400.030303005016,-1339.4953417176416
30828.241208582072,3893.137442247563,4382.573590585422,-1340.9482051072366
30804.749525159543,3876.708910072912,4372.939988725185,-1342.803399897027
30802.559054202924,3873.2220379378846,4379.578456828411,-1331.2475480136334
30822.899141657253,3888.063596256208,4395.761119814053,-1336.4108009828092
30836.71251973063,3899.6641516285126,4406.3558466858685,-1339.5623969510077
30811.67856594069,3883.593247365147,4395.649361091776,-1341.0152603406025
30785.19174876115,3862.2920348992393,4385.658131320254,-1348.614853455407
30786.108170283816,3860.6603575540016,4392.855393034863,-1347.005527854625
30802.179074547184,3872.797354793234,4406.624067619332,-1350.8276761564823
30815.277196797997,3884.464965398904,4416.995277046594,-1354.1133825914126
30797.596966933845,3870.9645117478985,4402.936029784207,-1352.7499261796388
30775.08876026735,3853.4630958393927,4391.536640112,-1349.486571489164
30769.8137485759,3846.2211306358736,4391.648398834276,-1344.5021324756303
30782.353077215324,3854.535979573248,4400.276172194025,-1346.3796790098763
30798.602795434334,3867.4105843795046,4410.848547321385,-1334.801475382027
30785.19174876115,3856.212360407396,4401.527869883522,-1336.9919463386473
30763.912888039697,3837.2580811092953,4389.301465666469,-1340.9258533627813
30765.075178751373,3836.341659586628,4393.548297112978,-1339.808266140016
30777.838024835357,3845.639985280036,4402.846622806385,-1343.8539318864266
30796.635841922267,3860.548598831725,4411.183823488214,-1356.4379640147645
30781.05667603692,3850.155037660008,4397.459852392656,-1362.2717693175996
30756.31329492489,3832.2736420957617,4383.780584786008,-1360.260112316622
30754.346341412827,3830.7313717283455,4389.547334855478,-1354.8956936473485
30773.23356547756,3845.6623370244906,4406.4899571526,-1348.12311507739
30795.00416457703,3862.157924432508,4420.68331488172,-1352.191132568256
30785.57172841689,3856.748802274323,4409.954477543173,-1349.5983302114405
30754.905135024208,3831.2231101063626,4391.022549989528,-1344.0550975865242
30749.25014367701,3826.462188537382,4388.96618949964,-1349.3301092779768
30757.4085304032,3832.631270007047,4399.717378582643,-1344.7256499201835
30780.252013236528,3849.372726604072,4414.11190201186,-1342.423420241287
30771.780702087966,3843.4718660678714,4401.930201283718,-1345.2173882982
30748.668998321176,3827.71388622688,4385.568724342433,-1349.8441994004488
30736.80022201541,3817.1862145884297,4380.964264984639,-1354.0463273580465
30749.33955065484,3823.131778613541,4390.754329056064,-1361.511810006119
30770.61841137629,3836.743990986823,4402.444291406189,-1358.583731482474
30764.49403339553,3835.984031675343,4392.028378490017,-1354.3816035248765
30737.873105749262,3819.935479156432,4375.890418993285,-1350.8500279009377
30726.719585266062,3811.8664994080655,4373.096450936371,-1347.2961005325435
30734.341530125326,3814.124025598053,4383.355901641357,-1342.3340132634655
30754.07812047936,3827.42331354896,4398.331570426413,-1341.7975713965384
30748.17725994316,3822.5059297687926,4394.598829102377,-1343.809228397516
30720.304634607397,3798.8130806461672,4375.689253293187,-1348.1454668218455
30710.626329258244,3788.039539818709,4372.068270691428,-1345.6420714428511
30725.35612885429,3797.695493423402,4382.707701052153,-1346.3349755209656
30752.93818151214,3818.66142972248,4399.315047182447,-1347.676080188284
30753.65343733471,3819.823720434156,4397.1469279702815,-1353.7334029356723
30734.050957447405,3807.2396883058177,4384.562895841944,-1345.8879406318597
30720.79637298541,3795.236801533318,4379.958436484151,-1337.3495742499322
30723.03154743094,3792.062853820664,4386.865125520841,-1337.9530713502254
30741.38232962875,3802.501118481293,4403.584230373411,-1335.6731934157842
30741.538791839936,3804.065740593164,4404.746521085086,-1341.350536507432
30712.39211707021,3784.5079641947705,4385.747538298076,-1347.2737487880886
30700.32217506435,3774.829658845623,4382.43948011869,-1347.4749144881862
30709.240521102016,3779.545876925693,4392.453061634667,-1346.9608243657142
30725.780811998942,3790.766452642257,4405.707646096665,-1341.3952399963428
30726.96545445508,3792.018150331754,4405.886460052307,-1344.770353409094
30696.343564551305,3770.046385532187,4386.4851458651,-1342.1104958189126
30677.56809920885,3751.427382400916,4377.052709704961,-1346.4243824987868
30683.670125445144,3751.919120778933,4381.903038251762,-1353.8898651468594
30704.5466547664,3766.872437819533,4398.242163448592,-1347.9890046106584
30714.739050238026,3775.343748968095,4403.15954722876,-1340.3447080069434
30693.03550637192,3758.579940626615,4387.938009254695,-1339.36123125091
30679.64681144319,3747.560530610148,4383.825288274919,-1339.7188591621948
30683.02192485594,3747.851103288067,4389.301465666469,-1339.160065550812
30701.529169264933,3760.658652860958,4403.20425071767,-1340.4564667292198
30707.36297456777,3765.464277918849,4407.406378675268,-1339.2941760175438
30685.05593360137,3748.119324221531,4389.972018000129,-1340.300004518033
30670.59435493879,3737.099914205064,4383.713529552642,-1340.9929085961471
30672.38249449521,3736.675231060413,4388.809727288452,-1343.6527661863288
30691.87321566024,3748.968690510832,4401.416111161246,-1348.480742988675
30700.523340764445,3755.249530702774,4404.433596662712,-1346.4243824987868
30673.5894886958,3735.5129403487376,4385.211096431148,-1344.4797807311752
30658.41265421065,3723.979440209799,4376.449212604668,-1341.6858126742618
30661.60895366776,3726.639297799981,4379.265532406036,-1344.0103940976137
30680.183253310115,3739.558606095148,4391.246067434081,-1347.519617977097
30697.371744796248,3751.8967690344775,4400.767910572042,-1344.099801075435
30682.26196554446,3739.69271656188,4387.692140065687,-1344.6809464312728
30663.62061066873,3722.2136523978297,4377.209171916148,-1349.620681955896
30668.001552581973,3722.146597164464,4384.585247586399,-1339.785914395561
30684.050105100883,3732.495454847271,4396.386968658801,-1339.0706585729909
30693.594299983302,3738.530425850204,4400.9020210387735,-1347.8548941439265
30677.52339571993,3728.628603056503,4389.2791139220135,-1345.485609231664
30653.361159963748,3710.411931325428,4376.046881204472,-1344.8597603869152
30647.12502326072,3703.795814966657,4374.862238748341,-1349.7324406781722
30664.000590324475,3716.5810127950926,4389.413224388745,-1349.9559581227254
30679.758570165464,3729.455617601349,4399.91854428274,-1349.5983302114405
30659.97727632252,3717.3409721065727,4384.495840608578,-1348.4136877553092
30634.764508576933,3697.7384922192687,4368.424936345213,-1351.02884185658
30631.83643005329,3693.849288684045,4372.403546858257,-1344.8597603869152
30645.15806974865,3704.6675330004136,4385.591076086888,-1356.616777970407
30661.45249145657,3719.933774463389,4393.593000601888,-1360.9753681391917
30641.022997024415,3706.679190001392,4375.286921892992,-1365.1774960967894
30621.599331092755,3694.273971828696,4368.24612238957,-1354.158086080323
30621.15229620365,3692.77640495019,4370.928331724207,-1349.1736470667895
30632.68579634259,3701.11360563202,4380.159602184249,-1346.1785133097785
30650.410729695646,3715.9328122058887,4393.660055835254,-1347.9890046106584
30638.743119089977,3707.841480713068,4385.501669109067,-1344.546835964541
30613.86562751122,3686.339102547062,4368.29082587848,-1348.324280777488
30607.651842552645,3678.8959716434447,4365.832133988397,-1351.095897089946
30617.553665346342,3684.0592246126207,4376.829192260408,-1344.0550975865242
30636.10561324425,3701.1359573764753,4391.558991856456,-1352.302891290533
30621.44286888157,3692.083500872076,4382.4841836076,-1349.5312749780746
30599.493455826458,3673.129221573976,4368.939026467684,-1338.3777544948764
30598.06294418132,3667.027195337677,4367.776735756009,-1340.0094318401136
30613.597406577755,3672.637483195959,4377.231523660604,-1344.0550975865242
30638.743119089977,3688.4178147814055,4390.061424977949,-1348.7936674110497
30625.66734858362,3678.985378621266,4375.376328870813,-1345.418553998298
30602.466237839013,3660.612244679004,4358.321947851414,-1342.781048152572
30602.28742388337,3658.131201044464,4357.785505984486,-1346.1785133097785
30612.882150755187,3662.4227359798833,4367.2626456335365,-1346.4243824987868
30635.50211614396,3680.952332133333,4382.238314418592,-1340.8587981294154
30622.58280784879,3674.7161954303024,4374.884590492796,-1339.808266140016
30604.25437739544,3660.3216720010846,4362.121744408816,-1334.197978281734
30596.207749391528,3651.2468637522297,4362.948758953662,-1328.9229665902817
30601.23689189397,3653.05735505311,4374.638721303788,-1333.0580393145133
30616.145505445664,3664.322634258585,4387.938009254695,-1333.683888159262
30612.233950165984,3663.0709365690873,4382.864163263341,-1332.387486980854
30582.930813185078,3639.109866512998,4362.412317086735,-1328.744152634639
30572.134920613164,3628.559843130093,4360.132439152293,-1325.033763055058
30583.802531218837,3636.427657178361,4371.3753666133125,-1330.9122718468038
30604.85787449573,3652.967948075288,4387.982712743606,-1326.777199122572
30602.510941327924,3652.073878297076,4385.702834809164,-1333.6615364148065
30577.43228404907,3634.013668777188,4369.564875312433,-1337.193112038745
30567.15048159963,3622.3237064270634,4365.049822932461,-1332.1416177918456
30582.28261259587,3627.688125096336,4377.835020760896,-1329.7052776462172
30611.63045306569,3647.2682532391855,4396.655189592265,-1328.610042167907
30614.424421122603,3649.6598898959032,4392.96715175714,-1328.0736003009797
30591.223310377994,3632.829026321057,4377.879724249808,-1333.5274259480748
30578.058132893817,3622.524872127161,4373.364671869836,-1331.9851555806586
30586.86472020921,3626.257613451197,4377.678558549709,-1335.5390829490525
30606.8248280078,3641.3226892140738,4389.793204044486,-1335.7178969046947
30607.808304763832,3647.536474172649,4388.541506354989,-1341.417591740798
30575.040647392358,3624.4471221503168,4369.453116590156,-1340.1211905623902
30557.7627489284,3609.42674987635,4365.496857821567,-1344.9715191091918
30561.607248974717,3610.052598721099,4375.242218404081,-1347.74313542165
30580.67328699509,3622.502520382705,4388.094471465883,-1350.738269178661
30585.925946942087,3626.883462295945,4389.748500555575,-1348.5030947331304
30559.41677801809,3606.923354497356,4367.396756100268,-1357.8014204265382
30545.53634471135,3593.0429211906103,4358.120782151315,-1349.5312749780746
30554.90172563812,3598.541450326616,4364.178104898704,-1351.8558564014263
30578.39340906065,3614.85822377899,4375.756308526553,-1360.036594872069
30584.76365623041,3619.306220925596,4373.699948036665,-1355.387432025365
30558.34389428424,3597.625028803948,4354.4774478051,-1347.609024954918
30547.99503660143,3587.8126129880684,4348.844808202363,-1347.3408040214545
30553.47121399298,3590.0701391780544,4352.801066970953,-1349.2407023001556
30572.939583413558,3602.0730259505544,4366.927369466707,-1347.519617977097
30579.980382916976,3606.8786510084456,4372.984692214095,-1340.2329492846668
30552.733606425954,3588.192592643809,4357.964319940129,-1341.7528679076277
30536.372129484676,3574.3568628259736,4351.951700681651,-1343.5633592085076
30536.774460884862,3573.3510343254848,4356.5785117839,-1345.485609231664
30557.40512101712,3587.969075199256,4373.610541058843,-1347.8548941439265
30569.273897322884,3598.1391189264205,4378.393814372279,-1348.6595569443175
30537.869696363177,3575.541505282105,4355.751497239054,-1346.290272032055
30523.49752467841,3565.5279237661275,4343.949776166651,-1352.414650012809
30518.37897519815,3559.4929527631944,4345.0226599005055,-1353.867513402404
30536.930923096053,3570.534714524116,4359.461886818634,-1349.5759784669851
30550.833708147256,3580.704758251281,4363.14992465376,-1349.911254633815
30532.505277693905,3568.1430778673985,4348.397773313257,-1351.967615123703
30513.573350140257,3551.759249181658,4338.80887494193,-1353.0404988575576
30516.52378040836,3551.379269525918,4345.983784912084,-1351.9229116347924
30537.243847518428,3565.997310399689,4359.081907162894,-1351.386469767865
30550.90076338062,3578.9836739282223,4365.2062851436485,-1353.845161657949
30536.03685331784,3572.054633147077,4352.734011737587,-1349.4642197447083
30520.815315343774,3558.4647725182504,4342.854540688341,-1343.295138275044
30519.13893450963,3551.826304415024,4346.162598867726,-1344.9938708536472
30539.031987074854,3567.1596011113647,4363.172276398215,-1351.0735453454906
30555.79579541633,3582.045862918599,4373.0740991919165,-1352.5934639684515
30539.054338819307,3571.9428744248003,4360.758287997042,-1356.0356326145688
30521.61997814417,3561.6163684864487,4352.286976848481,-1350.3135860340103
30520.48003917695,3558.1965515847864,4352.666956504221,-1350.8276761564823
30536.126260295663,3570.042976146099,4364.178104898704,-1357.7343651931722
30559.819109418288,3590.42776708934,4376.493916093578,-1354.4039552693314
30537.08738530724,3572.389909313906,4357.517285051023,-1357.443792515253
30509.728850093947,3551.468676503739,4343.972127911106,-1365.289254819066
30505.727887836445,3550.373441025429,4350.565892525422,-1358.382565782376
30518.401326942603,3559.247083574186,4364.602788043355,-1360.8189059280046
30534.405175972603,3570.8252872020357,4376.449212604668,-1366.7868216975717
30519.13893450963,3559.269435318641,4364.893360721274,-1370.0278246435912
30497.59185285471,3542.1479990658763,4352.62225301531,-1368.50790602063
30497.61420459917,3540.2033972982645,4354.2315786160925,-1367.7479467091498
30516.52378040836,3554.575568983026,4368.827267745408,-1361.489458261664
30530.69478639302,3567.5842842560155,4381.634817318299,-1365.4010135413423
30517.529608908848,3561.1022783639764,4372.62706430281,-1360.0812983609794
30490.193425440008,3541.544501965582,4354.030412915995,-1365.3786617968872
30484.963117237465,3540.6504321873704,4356.712622250631,-1362.4952867621523
30493.479131874938,3547.467714246239,4366.726203766609,-1360.1036501054348
30517.261387975384,3565.75144121068,4377.767965527531,-1362.428231528787
30512.545169895315,3563.203342342776,4364.468677576623,-1370.3631008104207
30493.345021408204,3548.6523567023705,4346.721392479109,-1369.9160659213146
30489.098189961696,3544.740801422692,4347.347241323858,-1360.863609416915
30502.30807093478,3556.631929472915,4358.031375173495,-1372.2182956002111
30523.385765956136,3573.306330836574,4368.782564256498,-1371.3242258219989
30517.239036230927,3571.518191280149,4362.300558364458,-1363.7246327071946
30495.267271431363,3557.9059789068674,4347.101372134849,-1363.3893565403648
30489.18759693952,3555.000252127678,4347.973090168606,-1367.0550426310351
30502.71040233498,3566.42199354434,4363.373442098313,-1359.0084146271247
30526.894989835622,3587.924371710345,4383.557067341455,-1357.3320337929767
30524.65981539009,3588.684331021825,4378.751442283564,-1359.2766355605884
30502.82216105725,3572.099336635988,4361.898226964263,-1361.914141406315
30497.03305924333,3569.2606650901635,4360.624177530311,-1358.9413593937588
30506.51019889238,3577.8437349610017,4368.268474134025,-1359.231932071678
30535.008673072894,3604.4199591183615,4384.697006308676,-1367.7255949646944
30527.520838680368,3602.47535735075,4375.801012015464,-1367.3456153089542
30501.77162906785,3584.8174792310574,4356.153828639249,-1365.713937963717
30495.58019585373,3581.777641985136,4352.398735570757,-1360.8189059280046
30503.89504479111,3588.0137786881664,4358.321947851414,-1360.483629761175
30525.06214679029,3607.035113219632,4372.872933491818,-1356.4379640147645
30523.408117700597,3612.779511544647,4368.581398556399,-1359.7013187052391
30493.27796617484,3592.3947206014063,4347.079020390394,-1363.2775978180885
30481.7444660359,3585.1751071423423,4344.329755822391,-1363.03172862908
30491.869806274157,3593.132328168432,4355.595035027866,-1358.449621015742
30516.94846355301,3614.52294761216,4372.5823608139,-1358.8519524159376
30512.56752163977,3615.305258668096,4370.369538112824,-1361.377699539387
30482.97381198094,3595.479261336239,4351.705831492643,-1359.8577809164265
30473.65313454308,3590.0477874335998,4346.81079945693,-1364.261074574122
30481.61035556917,3595.926296225345,4356.5785117839,-1364.3281298074878
30503.068030246264,3611.6172208329695,4370.123668923816,-1359.7907256830604
30504.43148665804,3613.338305156029,4366.10035492186,-1364.1716675963007
30475.821253755243,3593.512307824172,4347.414296557224,-1359.5895599829628
30464.51127106086,3585.5550867980824,4342.474561032601,-1356.0356326145688
30476.22358515544,3594.786357258124,4351.974052426106,-1362.2494175731442
30498.351812166195,3609.0020667316994,4367.284997377992,-1361.355347794932
30507.627786115147,3614.81352029008,4371.3753666133125,-1361.288292561566
30486.103056204687,3598.899078237901,4354.924482694207,-1356.5720744814962
30472.62495429813,3588.147889154898,4347.950738424152,-1356.6838332037728
30482.258556158373,3595.7474822697027,4354.678613505199,-1362.294121062055
30504.23032095794,3612.600697589004,4368.20141890066,-1353.5545889800298
30515.585007141235,3622.457816893794,4372.939988725185,-1357.2202750707002
30493.009745241376,3611.214889432775,4359.081907162894,-1363.5905222404626
30471.954401964475,3595.8815927364344,4350.43178205869,-1358.7178419492056
30482.83970151421,3608.040941720121,4362.76994499802,-1362.942321651259
30508.767725082365,3631.2867559536407,4384.473488864122,-1359.3660425384096
30519.496562420914,3642.574386903571,4391.648398834276,-1361.5788652394851
30489.7463905509,3623.731866327747,4374.348148625869,-1355.6333012143734
30469.31689611875,3610.8796132659454,4365.295692121469,-1354.0239756135911
30474.100169432186,3613.785340045136,4375.823363759919,-1357.3320337929767
30495.401381898093,3627.3975524184175,4393.458890135156,-1360.036594872069
30509.14770473811,3638.931052557356,4400.097358238382,-1359.6342634718733
30487.48886436092,3626.682296595848,4383.937046997196,-1358.6284349713844
30467.28288737332,3610.656095821392,4375.890418993285,-1355.1192110919012
30473.76489326536,3613.137139455931,4381.143078940282,-1351.4311732567755
30493.9485185085,3628.1351599854415,4392.900096523774,-1351.2076558122226
30508.94653903801,3641.903834569912,4401.304352438969,-1353.1522575798342
30489.79109403981,3633.253709465708,4387.848602276874,-1356.616777970407
30471.529718819824,3623.463645394283,4377.767965527531,-1356.326205292488
30471.283849630818,3623.6201076054704,4376.315102137935,-1355.7003564477393
30483.130274192128,3631.465569909283,4384.29467490848,-1348.614853455407
30505.41496341407,3649.257558495708,4394.218849446636,-1351.02884185658
30493.50148361939,3642.507331670205,4382.3500731408685,-1349.0842400889685
30473.809596754265,3627.688125096336,4370.324834623913,-1343.0269173415802
30477.40822761157,3628.246918707719,4371.107145679849,-1348.9054261333258
30498.64238484411,3644.72015437128,4385.635779575799,-1344.2786150310774
30516.635539130635,3661.81923887959,4393.525945368522,-1341.4622952297086
30498.575329610747,3654.4431632093383,4378.05853820545,-1339.1153620619014
30472.222622897934,3638.2157967347857,4361.115915908327,-1347.7207836771947
30469.60746879667,3635.108904255498,4358.411354829234,-1346.9384726212588
30486.728905049436,3645.9942038052327,4368.871971234318,-1348.257225544122
30506.107867492185,3660.455782467816,4379.891381250784,-1349.9783098671808
30493.03209698583,3653.4596864533055,4370.593055557377,-1345.2844435315662
30471.820291497745,3639.400439190917,4358.366651340324,-1352.4817052461751
30475.12834967713,3643.5131601706935,4362.255854875548,-1359.1648768383118
30488.338230650217,3654.53257018716,4375.622198059821,-1341.3952399963428
30510.04177451632,3674.246808796741,4390.4861081226,-1346.7820104100715
30499.357640666683,3669.2176662942966,4381.679520807209,-1346.5361412210634
30480.35865787967,3654.979605076266,4368.491991578579,-1347.8548941439265
30480.582175324223,3653.012651564199,4370.4365933461895,-1342.8257516414824
30495.8484167872,3663.830895880568,4377.253875405058,-1347.8548941439265
30518.736603109435,3683.4110240234168,4387.110994709849,-1346.6255481988846
30510.108829749686,3682.53930598966,4375.95747422665,-1354.7168796917058
30485.611317826668,3666.066070326098,4363.127572909305,-1341.8199231409935
30483.89023350361,3664.769669147691,4364.558084554445,-1337.774257394583
30499.402344155595,3678.314826287607,4377.0080062160505,-1339.0483068285355
30517.28373971984,3694.54219276216,4391.022549989528,-1340.2329492846668
30511.159361739086,3693.9163439174113,4383.1100324523495,-1344.2115597977115
30487.13123644963,3677.465459998305,4368.96137821214,-1343.0716208304907
30478.74933227889,3671.072861084088,4365.452154332656,-1347.609024954918
30492.674469074547,3679.320654788096,4373.34232012538,-1343.4963039751417
30515.94263505252,3699.4148730534166,4390.240238933592,-1350.6935656897506
30516.99316704192,3703.862870200023,4387.781547043508,-1346.9384726212588
30491.445123129502,3686.7637856917127,4367.933197967195,-1351.0064901121248
30482.88440500312,3679.63357921047,4362.859351975841,-1361.1988855837449
30488.047657972296,3678.9630268768105,4366.502686322056,-1355.2533215586332
30512.99220478442,3698.789024208668,4381.634817318299,-1361.1318303503788
30508.186579726527,3695.659779984925,4374.638721303788,-1365.0210338856025
30480.51512009086,3674.3585675190175,4358.768982740519,-1359.4107460273203
30477.40822761157,3672.2575035402183,4361.406488586246,-1359.03076637158
30488.31587890576,3679.454765254828,4370.973035213117,-1357.7790686820829
30507.0019372704,3692.6422944834585,4387.2227534321255,-1352.705222690728
30505.59377736971,3695.704483473836,4383.467660363634,-1351.5876354679629
30484.761951537366,3684.640369968459,4371.129497424305,-1353.93456863577
30482.280907902827,3683.2322100677743,4369.184895656693,-1356.0579843590242
30489.142893450608,3687.4566897698273,4374.884590492796,-1354.4710105026977
30513.86392281818,3708.601440024548,4394.531773869011,-1344.1892080532562
30514.690937363022,3713.876451716,4390.642570333787,-1348.83837089996
30490.104018462185,3696.106814874031,4370.347186368369,-1345.55266446503
30477.810559011767,3683.075747856587,4361.898226964263,-1347.2961005325435
30492.786227796823,3692.843460183557,4374.124631181316,-1350.1124203339125
30516.36731819717,3709.4731580583048,4388.832079032908,-1341.7975713965384
30520.9047223216,3713.0270854266982,4385.00993073105,-1338.4448097282425
30497.815370299268,3695.570373007104,4366.279168877503,-1345.8879406318597
30489.142893450608,3686.316750802607,4360.668881019221,-1341.5964056964406
30500.207006955985,3691.032968882677,4367.799087500463,-1334.9132341043037
30531.6559114046,3715.9328122058887,4386.149869698271,-1336.0531730715245
30544.7093301665,3727.8462920005672,4387.2227534321255,-1339.7188591621948
30516.12144900816,3705.092216145064,4367.709680522643,-1328.1853590232563
30509.348870438203,3698.051416641643,4363.731070009598,-1328.2077107677117
30520.43533568804,3705.427492311894,4368.268474134025,-1336.7907806385494
30540.507202208904,3719.531443063193,4377.142116682782,-1339.4729899731865
30548.24090579044,3727.175739666908,4378.10324169436,-1338.8471411284377
30525.17390551256,3710.434283069883,4360.847694974863,-1331.582824180463
30509.88531230513,3696.822070696601,4354.298633849458,-1334.4438474707422
30513.685108862534,3697.894954430456,4361.518247308522,-1336.1202283048904
30533.824030616765,3713.854099971545,4376.449212604668,-1332.096914302935
30547.726815667967,3725.007620454743,4378.751442283564,-1334.2650335150995
30532.14764978262,3713.5411755491705,4362.702889764654,-1335.8967108603372
30517.529608908848,3706.366265579017,4357.874912962308,-1336.7237254051836
30523.89985607861,3710.031951669688,4362.233503131092,-1338.8471411284377
30552.9124203816,3730.3496873795616,4374.795183514975,-1341.484646974164
30570.43618803456,3747.180550954408,4380.2937126509805,-1338.4448097282425
30550.8113564028,3739.156274694953,4361.540599052978,-1339.6965074177394
30530.024234059365,3725.8793384885,4345.7826192119865,-1347.7654871661052
30535.008673072894,3729.746190279269,4349.269491347014,-1344.7032981757282
30558.925039640075,3750.6003678560696,4367.57557005591,-1338.221292283689
30578.125188127186,3770.0687372766415,4378.05853820545,-1346.4243824987868
30567.57516474428,3765.732498852313,4364.9157124657295,-1358.5613797380186
30550.47608023597,3753.081411490609,4354.186875127181,-1345.954995865225
30555.99696111643,3753.9978330132767,4360.914750208229,-1345.8879406318597
30578.01342940491,3767.006548286265,4374.370500370324,-1348.547798222041
30597.10181916974,3781.4681269488487,4382.975921985617,-1349.397164511343
30584.20486261903,3772.214504744352,4368.737860767586,-1350.2018273117335
30564.62473447618,3755.7636208252457,4355.930311194696,-1348.3913360108538
30568.75980720041,3757.3952981704833,4357.941968195673,-1345.709126676217
30592.407952834124,3775.679025134925,4373.543485825478,-1350.8500279009377
30615.98904323448,3793.962752099365,4384.384081886302,-1352.3699465238983
30597.52650231439,3780.4175949594496,4368.112011922838,-1351.095897089946
30579.175720116586,3765.8889610635,4357.047898417461,-1354.9180453918036
30580.963859673007,3764.6149116295474,4358.836037973886,-1354.4263070137868
30601.080429682785,3778.852972847578,4372.694119536176,-1348.9501296222363
30622.40399389315,3796.5332027117256,4384.1158609528375,-1351.74409767915
30612.5245228439,3789.782975886223,4368.044956689472,-1355.387432025365
30590.88803421117,3771.789821599701,4352.465790804123,-1351.162952323312
30592.117380156207,3775.120231523542,4352.644604759766,-1359.1872285827671
30607.58478731928,3785.0220543172422,4359.037203673984,-1353.711051191217
30635.457412655047,3803.03756034822,4371.688291035687,-1352.9734436241918
30625.086203227784,3793.359254999072,4359.7524594965535,-1359.2989873050435
30600.94631921605,3774.717900123346,4343.011002899529,-1354.225141313689
30604.321432628803,3776.751908868779,4344.977956411595,-1351.6993941902392
30620.638206081177,3788.12894679653,4354.43274431619,-1351.0064901121248
30648.01909303893,3809.8101389181775,4370.10131717936,-1355.096859347446
30643.16876449213,3806.569135972159,4360.423011830212,-1359.321339049499
30621.845200281765,3787.9277810964327,4343.14511336626,-1352.4370017572644
30627.05315673985,3787.2572287627736,4345.3132325784245,-1348.8160191555046
30644.666331370638,3798.030769590232,4356.042069916973,-1352.5040569906305
30666.682799659116,3812.939383141921,4366.949721211162,-1354.3816035248765
30667.30864850386,3813.855804664589,4361.406488586246,-1356.773240181594
30646.901505816164,3799.4836329798254,4344.262700589025,-1360.3718710388985
30644.44281392608,3795.1250428110416,4343.748610466553,-1350.6935656897506
30662.36891297924,3805.5633074716698,4355.81855247242,-1353.7557546801277
30691.02384937094,3825.769284459268,4372.202381158159,-1352.191132568256
30686.17352082414,3823.288240824728,4362.144096153271,-1359.4107460273203
30664.224107769027,3810.0560081071862,4345.223825600604,-1361.7576791951276
30657.5856396658,3804.736292926824,4344.977956411595,-1358.069641360002
30673.231860784515,3813.94521164241,4354.142171638271,-1368.753775209639
30700.143361108705,3833.391229318527,4366.3238723664135,-1368.709071720728
30699.159884352677,3833.681801996446,4359.797162985464,-1368.2396850871664
30677.63515444221,3819.443740778416,4344.352107566847,-1368.50790602063
30672.427197984125,3815.2863163097286,4341.088752876372,-1371.8830194333816
30685.88294814622,3823.5117582692815,4350.565892525422,-1372.8217927005044
30710.469867047057,3842.622499778569,4366.81561074443,-1371.0783566329906
30713.107372892784,3844.90237771301,4367.2626456335365,-1365.1104408634235
30691.87321566024,3828.719714727368,4349.001270413551,-1376.50983053563
30685.570023723845,3822.908261168988,4342.9662994106175,-1372.1512403668453
30694.98010813953,3828.250328093807,4349.269491347014,-1371.4359845442757
30722.76332649748,3848.210435892396,4361.294729863969,-1378.4767840476973
30722.718623008564,3847.830456236656,4353.315157093425,-1380.3990340708535
30700.366878553257,3830.932537428444,4334.092656861861,-1376.9121619358257
30694.10839010577,3823.399999547005,4330.181101582182,-1377.6274177583955
30706.804180956387,3828.876176938555,4338.04891563045,-1381.091938148968
30732.1063556798,3843.5389213012368,4352.152866381749,-1374.3417113234657
30743.39398662973,3853.016060950287,4355.639738516777,-1379.8625922039262
30722.718623008564,3838.822703221167,4339.099447619849,-1379.5943712704625
30714.627291515742,3832.161883373485,4334.785560939975,-1379.6837782482835
30725.93727421013,3838.4427235654266,4344.173293611204,-1377.8285834584933
30750.255972177503,3856.1006016851193,4359.350128096357,-1378.879115447893
30762.54943162792,3867.05295646822,4363.105221164849,-1378.1191561364124
30739.661245305688,3848.389249848038,4345.29088083397,-1382.4330428162866
30726.69723352161,3836.8781014535552,4333.846787672852,-1384.7352724951832
30734.38623361424,3844.991784690832,4338.160674352726,-1389.1832696417891
30758.74963507052,3866.225941923373,4352.823418715408,-1389.9879324421804
30768.69616135313,3878.050014740231,4355.5279797945,-1385.159955639834
30748.736053554545,3868.036433224253,4341.468732532112,-1386.0763771625016
30740.644722061723,3860.9285784874655,4339.233558086581,-1383.3718160834094
30748.624294832265,3861.688537798946,4346.699040734654,-1380.51079279313
30774.28409746696,3878.675863584979,4363.060517675939,-1381.158993382334
30785.6164319058,3886.6330846110686,4366.949721211162,-1378.901467192348
30769.14319624224,3873.6020175936246,4348.956566924639,-1379.5943712704625
30755.955667013608,3862.2920348992393,4338.607709241833,-1382.2318771161888
30763.7117223396,3866.985901234854,4342.340450565869,-1385.8528597179486
30786.532853428467,3883.950875276432,4357.092601906372,-1388.6915312637725
30802.4696472251,3897.9877707943647,4366.882665977796,-1386.1657841403228
30780.05084753643,3881.335721175161,4349.470657047112,-1384.3329410949875
30763.309390939405,3867.365880890594,4339.769999953509,-1381.382510826887
30766.818614818887,3870.919808258988,4345.29088083397,-1381.158993382334
30782.151911515222,3883.1909159649513,4357.964319940129,-1384.154127139345
30803.117847814305,3900.0217795397975,4365.161581654737,-1382.32128409401
30789.393876718743,3889.158831734518,4351.415258814724,-1379.5720195260071
30771.44542592113,3874.585494349658,4339.501779020045,-1381.158993382334
30775.513443412,3876.507744372815,4344.150941866749,-1377.6721212473062
30795.83117912188,3890.991674779853,4359.059555418438,-1377.1356793803786
30817.646481710257,3910.0800645446857,4371.107145679849,-1375.9063334353368
30799.56392044591,3900.066483028708,4356.377346083802,-1375.0569671460353
30781.45900743711,3885.560200877214,4341.021697643006,-1378.32032183651
30786.644612150743,3885.493145643848,4344.62032850031,-1375.459298546231
30808.705783928133,3899.6641516285126,4355.796200727964,-1373.2241241007
30829.984644649583,3916.1150355476175,4365.027471188006,-1372.262999089122
30820.775725934,3909.074236044197,4353.493971049067,-1369.3796240543872
30806.02357459349,3896.981942293876,4342.80983719943,-1368.2396850871664
30805.66594668221,3893.092738758653,4347.257834346036,-1368.3290920649877
30823.659100968733,3902.569878407703,4357.450229817657,-1373.0453101450576
30846.36847333533,3919.2219280269055,4369.408413101246,-1370.9218944218037
30837.58423776439,3914.259840757828,4362.121744408816,-1370.0278246435912
30814.986624120076,3897.876012072088,4350.655299503243,-1373.5594002675296
30812.840856652365,3893.4727184143926,4351.012927414528,-1375.995740413158
30829.38114754929,3905.386198209071,4363.932235709695,-1373.6041037564405
30853.6327902833,3923.044076328764,4377.879724249808,-1373.894676434359
30842.591028522376,3913.7904541242665,4363.48520082059,-1377.1133276359235
30821.91566490122,3898.971247550398,4349.984747169584,-1376.4427753022642
30826.85540042584,3903.262782485817,4357.226712373104,-1370.9218944218037
30845.943790190675,3916.4726634589033,4369.72133752362,-1369.0219961431023
30869.413121868747,3932.2529950443504,4381.679520807209,-1372.1959438557558
30861.478252587112,3926.01685834132,4371.420070102224,-1374.028786901091
30839.282970342992,3909.074236044197,4357.561988539933,-1370.1842868547783
30838.835935453888,3909.5436226777583,4361.473543819612,-1362.4952867621523
30851.889354215786,3921.5241577058023,4370.973035213117,-1360.997719883647
30879.024371984528,3945.239358572884,4383.91469525274,-1362.405879784331
30873.16821493724,3943.0935911051743,4371.732994524597,-1359.6342634718733
30849.385958836792,3925.770989152312,4354.142171638271,-1358.2037518267337
30844.82620296791,3921.6359164280793,4354.768020483019,-1356.192094825756
30863.892240988287,3933.884672389588,4370.011910201539,-1355.163914580812
30892.524825635533,3953.4200970435263,4385.0546342199605,-1357.6673099598063
30888.188587211203,3952.056640631753,4377.611503316343,-1360.5283332500856
30866.82031951193,3936.946861379965,4361.00415718605,-1362.8976181623482
30870.62011606933,3937.572710224713,4360.333604852392,-1363.8810949183817
30886.86983428834,3947.005146384853,4368.62610204531,-1365.2221995857
30910.07094503295,3964.8865419490985,4382.260666163047,-1361.3106443060212
30909.579206654933,3964.573617526724,4376.292750393481,-1360.6177402279068
30885.81930229894,3946.893387662577,4358.903093207252,-1359.1872285827671
30878.6890958177,3940.567843981724,4357.204360628648,-1357.1979233262448
30891.29547969049,3949.955576652954,4366.547389810967,-1360.1483535943453
30912.55198866749,3965.288873349294,4376.225695160115,-1363.6575774738285
30914.518942179555,3965.959425682953,4369.117840423327,-1362.1376588508676
30890.35670642337,3949.016803385831,4352.666956504221,-1358.6060832269293
30880.7901597965,3940.389030026082,4352.152866381749,-1355.1862663252673
30893.038915758007,3946.513408006836,4359.886569963285,-1353.1522575798342
30917.55877942548,3962.8301814592105,4374.258741648047,-1353.7557546801277
30925.8512766184,3970.608588529657,4375.666901548731,-1347.8995976328372
30898.98447978312,3947.474533018415,4354.008061171539,-1347.8548941439265
30894.424723914235,3939.673774203512,4349.202436113648,-1348.7489639221387
30900.63850887281,3943.138294594085,4355.90795945024,-1349.9783098671808
30925.27013126256,3963.210161114951,4370.973035213117,-1351.542931979052
30936.244837790116,3973.0002251863752,4371.800049757963,-1349.4418680002534
30912.283767734025,3953.665966232535,4354.298633849458,-1345.6644231873065
30896.92811929323,3941.774838182311,4351.057630903439,-1347.74313542165
30907.99223279861,3951.967233653931,4363.686366520687,-1344.390373753354
30933.00383484409,3970.206257129462,4379.287884150492,-1341.484646974164
30940.53637272553,3975.771841498833,4379.846677761874,-1341.2611295296108
30921.157410282784,3960.080916891208,4361.4511920751565,-1343.0492690860356
30906.80759034248,3945.395820784071,4349.895340191762,-1349.128943577879
30912.21671250066,3943.317108549728,4351.571721025911,-1352.5934639684515
30942.32451228196,3962.45020180347,4367.061479933439,-1353.7557546801277
30954.662675221287,3969.088669906696,4365.362747354835,-1356.8179436705043
30931.998006343605,3951.7660679538335,4347.503703535045,-1354.806286669527
30919.79395387101,3941.1489893375615,4339.121799364305,-1356.2367983146669
30932.33328251044,3948.033326629797,4347.347241323858,-1354.9851006251697
30955.243820577125,3964.618321015635,4359.14896239626,-1354.6945279472504
30967.202003860715,3977.068242677241,4361.33943335288,-1352.816981413005
30947.063082106484,3961.489076791892,4342.563968010422,-1349.5983302114405
30936.580113956945,3953.084820876697,4339.881758675785,-1345.485609231664
30934.32258776696,3949.888521419588,4349.604767513843,-1346.714955176706
30954.43915777673,3963.16545762604,4368.514343323033,-1343.9433388642478
30968.63251550585,3974.162515898051,4376.560971326944,-1344.3680220088986
30949.208849574192,3960.25973084685,4364.714546765631,-1342.2446062856443
30935.50723022309,3949.396783041571,4357.76315424003,-1340.5235219625858
30941.98923611513,3954.604739499657,4364.9157124657295,-1338.7353824061613
30960.541184013036,3962.874884948121,4374.214038159137,-1340.8811498738708
30979.80838773351,3973.2907978642943,4379.801974272964,-1339.6294521843736
30965.16799511528,3962.360794825649,4364.580436298899,-1335.6508416713289
30945.856087905897,3944.59115798368,4352.95752918214,-1330.7558096356163
30952.047521120017,3946.5581114957463,4361.562950797433,-1325.994888066636
30974.46632080869,3962.941940181487,4377.544448082977,-1325.0784665439685
30989.486693082657,3975.5036205653696,4384.920523753229,-1329.906443346315
30975.62861152037,3967.009957672353,4368.849619489864,-1330.4652369576977
30961.4576055357,3953.621262743624,4358.612520529333,-1326.3748677223764
30966.88907943834,3956.0128994003417,4362.322910108914,-1326.240757255645
30986.200986647727,3971.860286219154,4375.085756192894,-1327.8947863453373
31000.103771698927,3982.7232340244336,4380.025491717517,-1326.0619433000022
30988.52556807108,3974.274274620328,4364.28986362098,-1321.971574064681
30971.00180041812,3958.6951087349785,4349.33654658038,-1323.6032514099184
30974.57807953097,3957.9798529124087,4352.555197781944,-1327.1795305227674
30996.75101003063,3971.6367687746015,4363.440497331679,-1329.414704968298
31021.96377777622,3991.641580062101,4373.141154425282,-1336.1649317938009
31008.820952036494,3984.623132303135,4358.567817040422,-1336.2319870271667
30989.486693082657,3969.848629218177,4344.799142455953,-1333.1697980367896
30991.408943105813,3967.1887716279953,4346.43081980119,-1336.8131323830048
31010.206760192727,3982.231495646417,4357.159657139738,-1339.6294521843736
31033.11729825941,4001.878679022632,4369.207247401148,-1338.6906789172506
31023.41664116581,3998.0788824652295,4356.556160039444,-1340.0988388179348
31004.28354791207,3986.143050926096,4342.854540688341,-1340.4341149847646
31003.52358860059,3987.7300247824223,4346.05084014545,-1340.9258533627813
31022.56727487651,4003.5327081123246,4360.065383918927,-1339.7188591621948
31041.543905919065,4020.050647264796,4371.822401502419,-1340.5905771959517
31029.228094724192,4015.714408840467,4360.154790896749,-1344.6585946868177
31003.68005081177,3999.3529318991823,4341.692249976665,-1347.4749144881862
30998.382687375863,3996.938943498009,4339.948813909151,-1346.1338098208678
31012.598396849444,4007.17604245854,4349.090677391372,-1345.2620917871109
31034.90543781584,4024.364533944671,4360.847694974863,-1346.513789476608
31030.300978458046,4023.693981611012,4350.230616358593,-1347.0725830879908
31011.7713823046,4010.3052866822823,4334.539691750967,-1344.770353409094
31006.161094446317,4003.93503951252,4334.584395239877,-1345.1726848092896
31020.95794927573,4017.3013826967936,4348.800104713453,-1345.5079609761192
31044.53903967608,4039.295499240816,4361.71941300862,-1348.1007633329348
31039.129917517894,4039.3625544741817,4353.203398371148,-1343.451600486231
31015.3700131619,4023.1128362551735,4335.3890580402685,-1344.1892080532562
31011.65962358232,4019.6930193535113,4332.2821655609805,-1346.0444028430466
31025.29418770006,4032.0088305483855,4341.111104620827,-1345.954995865225
31052.20568802425,4057.3780605051593,4358.634872273788,-1343.7198214196949
31046.17071702132,4057.936854116542,4351.057630903439,-1347.094934832446
31020.488562642167,4040.2789759968496,4330.516377749012,-1347.0725830879908
31017.649891096346,4039.139037029629,4328.147092836749,-1346.290272032055
31029.272798213104,4048.1691417895727,4337.66893597471,-1348.547798222041
31055.200821781254,4069.872685655676,4355.3491658388575,-1345.3738505093877
31052.406853724344,4073.068985112785,4348.4201250577125,-1349.8665511449042
31025.11537374441,4058.0486128388175,4329.488197504067,-1352.034670357069
31016.554655618034,4058.5850547057457,4330.203453326637,-1349.8889028893595
31025.741222589164,4070.386775778148,4339.792351697964,-1352.548760479541
31048.29413274457,4090.391587065648,4354.43274431619,-1346.6255481988846
31048.607057166944,4093.7890522228554,4353.113991393327,-1345.9326441207702
31025.42829816679,4078.992197393441,4336.19372084066,-1346.1561615653231
31022.5225713876,4077.09229911474,4334.919671406708,-1345.8879406318597
31026.25531271164,4079.5956944937343,4340.686421476176,-1346.3796790098763
31049.34466473397,4099.511098803413,4355.5279797945,-1343.5410074640522
31054.86554561443,4107.021284940396,4355.326814094403,-1343.4068969973205
31029.94335054676,4089.9445521765415,4337.288956318969,-1343.2057312972229
31018.94629227475,4080.601522994223,4331.678668460688,-1343.7868766530603
31024.46717315521,4082.657883484112,4337.378363296791,-1347.8772458883818
31049.29996124506,4103.534412805368,4354.924482694207,-1351.9229116347924
31054.57497293651,4110.709322775522,4354.589206527377,-1351.4758767456865
31031.46326916972,4095.4430813125473,4339.457075531134,-1347.519617977097
31021.51674288711,4088.089357386751,4334.204415584137,-1347.1172865769013
31032.2232284812,4096.694779002044,4343.100409877349,-1346.3126237765102
31052.00452232415,4113.905622232631,4354.522151294012,-1347.609024954918
31059.33589450549,4122.8463200147535,4354.991537927573,-1348.547798222041
31034.14547850436,4106.842470984754,4335.657278973732,-1344.7256499201835
31018.834533552475,4098.348808091737,4329.957584137629,-1342.1999027967338
31024.75774583313,4106.283677373371,4339.434723786679,-1342.4904754746528
31048.607057166944,4127.495482861457,4357.964319940129,-1337.0366498275578
31060.56524045053,4139.520721378412,4364.133401409794,-1333.2592050146109
31038.727586117697,4125.372067138203,4342.787485454976,-1339.1153620619014
31013.671280583298,4106.708360518022,4329.599956226344,-1340.903501618326
31016.353489917936,4112.408055354125,4337.758342952531,-1339.227120784178
31035.553638405043,4132.234052685983,4355.81855247242,-1344.1221528198903
31051.065749057027,4146.226244715005,4362.702889764654,-1348.0560598440245
31028.445783668256,4131.250575929949,4342.340450565869,-1348.7489639221387
31012.50898987162,4121.684029303077,4331.790427182964,-1348.614853455407
31021.986129520672,4131.451741630047,4338.563005752922,-1345.954995865225
31042.415623952824,4151.7247738510105,4350.409430314235,-1343.1386760638568
31054.82084212552,4163.548846667868,4352.734011737587,-1344.5021324756303
31038.884048328884,4155.926901808608,4337.356011552335,-1343.2057312972229
31017.20285620724,4144.371049925215,4323.90026139024,-1341.8869783743596
31014.76651606161,4142.1582272241385,4325.151959079738,-1339.4059347398204
31033.318463959517,4155.613977386234,4339.032392386484,-1337.7966091390383
31049.21055426724,4171.081384549307,4349.180084369193,-1341.8199231409935
31027.14938248985,4159.525532665913,4335.47846501809,-1343.5633592085076
31009.98324274817,4149.266081960926,4323.81085441242,-1342.3116615190104
31015.79469630655,4156.351584953259,4328.5717759814,-1343.4739522306863
31034.48075467119,4170.924922338119,4342.675726732698,-1341.93168186327
31057.838327626985,4193.030797604418,4355.90795945024,-1340.903501618326
31037.4758884282,4182.972512599529,4338.250081330548,-1343.6527661863288
31012.24076893816,4164.2864542348925,4322.04506660045,-1340.3670597513983
31012.352527660438,4161.827762344809,4321.843900900352,-1339.4059347398204
31032.2232284812,4176.0211200739295,4335.523168507,-1335.449675971231
31054.172641536315,4193.678998193622,4345.469694789612,-1341.5293504630747
31043.01912105312,4189.119242324739,4335.053781873439,-1343.3174900194992
31021.56144637602,4173.428317717114,4320.972182866595,-1343.2727865305883
31020.354452175437,4174.523553195423,4322.0674183449055,-1344.5915394534516
31035.888914571875,4189.298056280381,4334.137360350771,-1340.5905771959517
31056.16194679284,4209.235812334516,4345.424991300702,-1340.903501618326
31041.09687102996,4201.390350030702,4331.969241138607,-1342.8928068748482
31020.15328647533,4186.660550434655,4318.9605258656175,-1339.02595508408
31019.95212077524,4187.442861490591,4325.017848613006,-1336.097876560435
31035.53128666059,4202.038550619906,4340.775828453998,-1336.6790219162729
31054.105586302947,4218.869414194753,4355.170351883216,-1338.8247893839823
31043.28734198658,4214.220251348049,4347.4813517905895,-1341.641109185351
31019.303920186037,4196.562373228357,4333.578566739388,-1340.5682254514963
31017.24755969615,4196.361207528259,4335.187892340171,-1335.4943794601418
31033.609036637437,4211.202765846582,4345.223825600604,-1336.097876560435
31049.56818217852,4225.55258578689,4356.220883872615,-1338.511864961608
31037.699405872758,4221.9316031851295,4349.895340191762,-1336.5449114495411
31010.60909159292,4205.503071010479,4332.460979516623,-1336.2319870271667
31004.06003046752,4202.999675631485,4331.5222062495,-1337.4389812277534
31014.90062652834,4212.990905403007,4340.529959264989,-1339.9200248622924
31034.413699437824,4228.011277676974,4355.751497239054,-1337.8860161168595
31027.685824356777,4227.296021854403,4351.1246861368045,-1334.8908823598483
30997.71213504221,4207.537079755912,4333.802084183942,-1332.83452186996
30989.240823893648,4202.932620398119,4336.596052240855,-1327.0677718004908
30996.974527475184,4213.035608891918,4348.487180291078,-1328.475931701175
31013.55952186102,4229.464141066568,4361.227674630603,-1330.5322921910636
31009.20093169224,4228.234795121526,4355.751497239054,-1333.6391846703511
30982.53530055705,4211.269821079948,4338.719467964109,-1335.963766093703
30974.5110242976,4208.45350127858,4336.461941774123,-1341.9763853521808
30980.85891972291,4215.516652526457,4344.419162800213,-1342.3787167523762
31001.22135892169,4234.627394035744,4358.009023429039,-1339.8306178844712
31003.97062348969,4243.568091817867,4353.359860582335,-1337.193112038745
30977.193233632235,4224.949088686596,4330.717543449109,-1333.5274259480748
30968.90073643932,4216.902460682686,4325.040200357461,-1331.806341625016
30977.528509799067,4224.703219497588,4331.455151016135,-1331.0240305690802
31002.741277544654,4246.339708130326,4345.715563978621,-1332.7451148921389
31004.90939675682,4252.553493088901,4345.424991300702,-1328.9453183347366
30977.819082476984,4234.873263224753,4328.594127725855,-1330.129960790868
30962.41873054728,4223.004486918984,4322.112121833816,-1329.8170363684935
30970.37595157337,4228.368905588259,4329.376438781791,-1330.3758299798765
30994.784056518565,4250.988870977029,4347.928386679696,-1330.3981817243316
30992.6159373064,4254.74396404552,4347.213130857126,-1330.2417195131443
30964.51979452608,4238.740115015521,4328.705886448131,-1330.4652369576977
30950.371140285868,4229.799417233398,4322.805025911931,-1332.2086730252115
30958.015436889586,4236.527292314446,4329.66701145971,-1334.5556061930188
30984.56930930249,4257.98496699154,4346.76609596802,-1334.9802893376695
30990.403114605324,4265.405746150702,4348.218959357615,-1335.829655626971
30962.686951480744,4249.379545376247,4333.064476616916,-1332.409838725309
30949.74529144112,4242.763429017476,4331.231633571581,-1327.8277311119714
30958.238954334138,4249.6030628208,4340.842883687364,-1328.610042167907
30987.40798084831,4273.742946832532,4361.965282197629,-1325.257280499611
30995.342850129942,4282.728348103565,4363.57460779841,-1326.5536816780188
30969.75010272862,4264.89165602823,4346.542578523467,-1328.0736003009797
30960.474128779668,4259.437830381135,4345.715563978621,-1322.8432920984378
30965.61503000439,4262.008280993496,4352.532846037489,-1321.6586496423067
30985.37397210288,4277.743909090032,4366.726203766609,-1326.1737020222786
30993.6664692958,4289.545630162434,4369.900151479263,-1326.1737020222786
30969.54893702852,4276.156935233705,4351.169389625716,-1325.614908410896
30952.24868682012,4262.768240304976,4343.189816855171,-1320.8316350974603
30958.66363747879,4267.484458385045,4349.627119258299,-1320.1163792748905
30982.04356217904,4284.315321959892,4362.457020575645,-1321.9268705757704
30989.352582615924,4293.121909275283,4366.078003177405,-1326.0395915555468
30968.49840503912,4284.337673704347,4353.1810466266925,-1325.1678735217895
30950.304085052503,4272.133621231749,4342.563968010422,-1321.032800797558
30952.94159089823,4271.954807276107,4342.921595921707,-1325.838425855449
30975.762721987096,4290.484403429557,4359.059555418438,-1329.414704968298
30995.00757396312,4311.42798798418,4371.576532313411,-1326.486626444653
30974.019285919585,4300.542688434445,4352.398735570757,-1327.000716567125
30952.539259498037,4283.242438226037,4339.904110420241,-1322.575071164974
30950.952285641702,4279.152068990716,4342.3180988214135,-1324.385562465854
30969.88421319535,4295.84882209883,4356.265587361525,-1327.3136409894994
30984.12227441338,4311.919726362196,4363.753421754053,-1330.576995679974
30962.59754450292,4301.794386123942,4349.604767513843,-1330.062905557502
30944.671445449767,4290.03736854045,4338.942985408662,-1328.677097401273
30952.31574205348,4296.921705832685,4347.503703535045,-1322.5974229094295
30971.113559140394,4314.37841825228,4363.284035120491,-1324.6090799104072
30979.5625185445,4323.497929990045,4369.050785189961,-1326.5536816780188
30962.686951480744,4314.668990930199,4354.253930360547,-1322.7315333761617
30943.576209971456,4304.141319291749,4343.413334299724,-1320.1387310193456
30942.32451228196,4304.498947203034,4345.134418622783,-1322.9550508207144
30959.155375856804,4320.5698514664,4358.791334484975,-1323.3126787319993
30979.696629011232,4338.987688897573,4370.950683468662,-1319.9152135747927
30964.944477670728,4330.449322515646,4355.438572816679,-1320.5857659084518
30941.721015181665,4312.746740907042,4337.132494107783,-1320.3398967194437
30939.910523880782,4310.489214717057,4337.780694696987,-1318.127074018368
30958.149547356315,4324.459055001624,4349.33654658038,-1319.4458269412312
30979.204890633213,4343.346279066358,4360.311253107936,-1320.8539868419157
30964.810367204,4334.740857451065,4345.33558432288,-1325.8607775999044
30943.46445124918,4320.346334021847,4330.359915537824,-1326.196053766734
30936.64716919031,4316.770054908998,4329.152921337238,-1327.1124752894016
30950.259381563592,4328.839996914863,4344.977956411595,-1329.3029462460215
30967.045541649528,4344.039183144472,4360.110087407838,-1333.438018970253
30956.450814777712,4339.434723786679,4351.325851836902,-1333.9297573482702
30933.070890077463,4320.3016305329365,4336.394886540757,-1334.0191643260914
30934.523753467056,4322.290935789459,4334.964374895618,-1341.93168186327
30948.292428051525,4336.596052240855,4347.079020390394,-1348.860722644415
30964.78801545954,4352.868122204319,4359.551293796456,-1345.5973679539404
30953.053349620503,4347.90603493524,4344.687383733676,-1343.585710952963
30931.103936565392,4333.064476616916,4328.124741092293,-1340.8587981294154
30921.760907383075,4328.214148070115,4325.71075269112,-1341.417591740798
30928.01939583056,4336.305479562936,4334.76320919552,-1345.351498764932
30944.51498323858,4352.286976848481,4344.24034884457,-1346.6702516877951
30928.511134208577,4344.039183144472,4330.203453326637,-1351.2970627900438
30898.045706515997,4322.626211956288,4311.606801939822,-1349.8665511449042
30892.34601167989,4315.7865781529645,4311.763264151009,-1344.032745842069
30900.169122239247,4319.161691565716,4319.362857265814,-1341.417591740798
30923.392584728317,4338.04891563045,4337.467770274612,-1335.1143998044015
30918.13992478132,4341.021697643006,4338.674764475199,-1332.1192660473905
30887.56273836645,4321.441569500157,4322.626211956288,-1330.129960790868
30879.11377896235,4316.054799086428,4320.905127633229,-1331.068734057991
30889.686154089708,4325.129607335282,4330.404619026735,-1333.8179986259936
30913.155485767784,4343.033354643983,4343.703906977643,-1335.6508416713289
30909.422744443746,4341.692249976665,4334.584395239877,-1342.3116615190104
30882.131264463816,4322.961488123118,4315.764226408509,-1342.1104958189126
30873.14586319278,4317.708828176121,4312.523223462489,-1343.965690608703
30878.42087488424,4324.861386401819,4317.440607242657,-1346.0444028430466
30901.376116439835,4346.453171545645,4331.410447527224,-1346.2679202875995
30896.235215215114,4344.396811055757,4329.2870318039695,-1342.0434405855467
30866.99913346757,4326.4707120026005,4314.289011274459,-1342.535178963563
30854.43745308369,4319.005229354529,4311.785615895465,-1343.585710952963
30865.27804914452,4325.956621880129,4322.447398000646,-1341.2834812740662
30888.88149128932,4342.742781966064,4337.199549341149,-1342.6916411747509
30896.77165708204,4348.733049480087,4338.607709241833,-1342.7139929192058
30870.150729435773,4327.968278881107,4317.887642131763,-1341.3728882518874
30855.19741239517,4315.048970585939,4311.450339728634,-1341.0152603406025
30864.316924132934,4321.061589844417,4320.703961933132,-1342.5575307080187
30887.808607555464,4339.948813909151,4337.221901085603,-1345.7985336540382
30890.98255526812,4347.168427368215,4337.378363296791,-1349.0395366000578
30866.21682241164,4331.81277892742,4319.340505521358,-1350.0453651005466
30853.655142027757,4321.173348566693,4313.976086852084,-1348.1007633329348
30859.243078141582,4323.922613134696,4321.553328222433,-1347.609024954918
30881.371305152337,4341.468732532112,4336.551348751945,-1349.352461022432
30884.902880776277,4347.168427368215,4335.433761529179,-1352.9510918797364
30859.77952000851,4328.5717759814,4317.977049109584,-1352.5040569906305
30846.882563457795,4318.625249698788,4312.5679269514,-1351.542931979052
30851.241153626583,4320.927479377685,4319.496967732545,-1350.0230133560913
30869.61428756885,4336.260776074026,4336.417238285213,-1349.8441994004488
30875.671610316236,4344.530921522489,4342.206340099137,-1346.4020307543317
30849.788290236986,4326.738932936065,4327.2306713140815,-1344.9491673647365
30830.56579000542,4312.277354273481,4319.340505521358,-1343.809228397516
30828.822353937907,4308.656371671721,4321.396866011246,-1345.7314784206724
30847.62017102482,4322.693267189654,4334.673802217699,-1350.7606209231164
30864.003999710563,4339.054744130939,4342.385154054779,-1351.386469767865
30833.359758062332,4316.770054908998,4323.073246845394,-1351.8111529125158
30814.80781016443,4301.101482045828,4313.193775796149,-1350.134772078368
30816.752411932044,4299.80508086742,4319.362857265814,-1348.1678185663009
30838.34419707587,4315.026618841484,4336.327831307392,-1341.9093301188148
30852.67166527172,4324.973145124095,4342.72043022161,-1339.74121090665
30832.465688284123,4309.751607150031,4326.873043402797,-1342.6245859413846
30809.15281881724,4293.390130208746,4313.484348474068,-1348.4360394997643
30808.482266483577,4293.3007232309255,4317.641772942755,-1351.5876354679629
30829.09057487137,4308.790482138453,4335.679630718188,-1350.805324412027
30844.178002378703,4321.553328222433,4346.564930267922,-1354.7615831806163
30826.98951089257,4310.511566461511,4334.897319662252,-1355.968577381203
30807.36467926081,4293.144261019738,4323.743799179054,-1354.4263070137868
30807.87876938329,4290.394996451735,4328.527072492489,-1356.7061849482282
30824.352005046847,4300.274467500981,4343.167465110715,-1358.8072489270269
30842.032234911,4314.914860119207,4355.416221072223,-1357.063812859513
30828.554133004443,4307.561136193412,4339.635889486777,-1358.6954902047505
30811.00801360703,4296.362912221302,4324.749627679543,-1359.6342634718733
30807.56584496091,4295.401787209724,4329.108217848328,-1359.0754698604906
30825.4248887807,4312.612630440311,4344.016831400017,-1356.2144465702113
30848.827165225408,4333.846787672852,4358.925444951707,-1350.6265104563845
30827.593007992866,4318.915822376707,4344.799142455953,-1350.8276761564823
30802.648461180743,4300.721502390087,4329.510549248523,-1349.0842400889685
30802.335536758368,4300.475633201079,4329.778770181986,-1347.9219493772923
30815.791286920463,4313.059665329417,4342.988651155073,-1346.8267138989825
30829.604664993843,4325.934270135674,4353.404564071246,-1349.6877371892615
30807.81171414992,4312.925554862685,4338.987688897573,-1351.8111529125158
30782.151911515222,4298.0616447999055,4328.124741092293,-1347.229045299178
30773.457082922112,4293.256019742014,4332.393924283258,-1345.485609231664
30783.13538827126,4303.068435557894,4345.134418622783,-1347.1396383213566
30796.747600644543,4316.524185719989,4357.293767606469,-1349.643033700351
30783.80594060492,4309.416330983202,4347.324889579402,-1350.738269178661
30757.78851005894,4290.640865640744,4331.432799271679,-1349.3077575335217
30751.75353905601,4283.980045793062,4330.404619026735,-1348.994833111147
30766.773911329976,4294.284199986959,4343.458037788634,-1346.9831761101696
30787.024591806483,4312.7914443959535,4357.472581562112,-1354.0910308469572
30773.59119338885,4305.929458848173,4345.827322700897,-1358.0249378710912
30747.95374249861,4288.18217375066,4330.851653915841,-1351.02884185658
30738.07427144936,4283.443603926135,4334.696153962154,-1344.5691877089964
30751.865297778288,4295.066511042895,4348.040145401972,-1344.9938708536472
30775.46873992309,4316.278316530981,4364.222808387614,-1344.9491673647365
30762.19180371664,4309.595144938844,4356.757325739543,-1343.7645249086054
30737.31431213788,4291.825508096875,4343.748610466553,-1340.0764870734797
30733.00042545801,4287.288103972448,4345.156770367238,-1339.36123125091
30744.22100117457,4296.027636054473,4356.891436206274,-1338.8918446173484
30764.65049560672,4314.311363018914,4369.00608170105,-1343.3174900194992
30765.70102759612,4318.871118887797,4363.641663031776,-1349.643033700351
30735.07913769235,4299.08982504485,4342.183988354682,-1353.3087197910213
30721.51162880798,4288.830374339864,4333.913842906219,-1354.225141313689
30735.727338281555,4300.632095412266,4345.045011644961,-1349.911254633815
30765.58926887385,4325.308421290925,4360.110087407838,-1346.8267138989825
30764.00229501752,4326.649525958243,4352.801066970953,-1348.257225544122
30734.96737897008,4307.158804793216,4335.970203396107,-1346.4020307543317
30722.718623008564,4300.18506052316,4333.399752783746,-1339.1377138063567
30730.586437056834,4305.66123791471,4343.7262587220985,-1337.3048707610214
30755.910963524697,4327.610650969822,4363.395793842768,-1337.0142980831026
30751.9100012672,4326.604822469333,4356.667918761721,-1336.097876560435
30729.580608556345,4312.94790660714,4337.177197596693,-1335.9861178381584
30716.12485839425,4305.70594140362,4332.170406838704,-1335.7178969046947
30718.8517712178,4309.66220017221,4338.451247030645,-1336.0084695826138
30739.28126564995,4325.241366057559,4352.734011737587,-1330.4652369576977
30742.4552133626,4327.834168414374,4351.415258814724,-1332.2533765141222
30717.6000735283,4308.835185627364,4334.517340006511,-1328.2747660010775
30706.290090833914,4296.586429665856,4327.275374802992,-1326.330164233466
30712.705041492587,4298.441624455646,4330.158749837727,-1328.319469489988
30733.17923941365,4310.846842628342,4341.692249976665,-1328.45357995672
30743.63985581873,4321.843900900352,4347.034316901483,-1328.744152634639
30717.644777017213,4305.638886170254,4331.008116127028,-1327.783027623061
30695.36008779527,4286.03640628295,4321.352162522336,-1324.9443560772368
30699.629270986235,4285.65642662721,4329.421142270701,-1325.2349287551558
30720.483448563034,4297.748720377532,4345.134418622783,-1330.4428852132423
30729.84882948981,4304.968333836596,4348.889511691274,-1333.3039085035216
30700.098657619797,4282.437775425646,4328.281203303481,-1333.996812581636
30681.859634144264,4268.266769440981,4319.318153776902,-1336.2096352827116
30676.674029430636,4262.455315882601,4321.106293333327,-1335.0473445710356
30691.493236004502,4275.419327666679,4334.80791268443,-1334.3767922373763
30697.21528258506,4282.75069984802,4337.870101674807,-1336.8354841274602
30668.51564270445,4258.901388514208,4318.267621787503,-1338.1095335614127
30648.10850001675,4238.471894082057,4306.600011181833,-1339.4729899731865
30651.39420645168,4239.03068769344,4312.366761251302,-1341.8646266299045
30671.35431425027,4251.279443654948,4324.213185812615,-1345.55266446503
30689.481579003525,4264.109344972294,4331.678668460688,-1343.585710952963
30668.940325849097,4246.853798252797,4312.322057762392,-1342.0881440744572
30648.44377618358,4229.866472466764,4300.162708778705,-1338.221292283689
30650.54484016238,4228.592423032811,4302.174365779682,-1337.997774839136
30670.527299705424,4241.8246557503535,4316.524185719989,-1337.997774839136
30684.743009179,4254.252225667504,4327.521243992001,-1338.2436440281444
30663.710017646557,4238.784818504431,4315.250136286037,-1333.974460837181
30646.25330522696,4224.211481119572,4307.494080960046,-1334.2650335150995
30644.241648225983,4220.657553751177,4311.897374617741,-1334.3767922373763
30657.205660010062,4229.195920133105,4323.676743945688,-1334.9802893376695
30670.68376191661,4239.857702238286,4334.852616173341,-1334.3097370040105
30646.901505816164,4221.082236895828,4319.049932843439,-1335.6508416713289
30627.611950351235,4203.446710520591,4307.069397815394,-1330.9122718468038
30628.237799195984,4201.189184330605,4310.265697272504,-1326.9560130782145
30646.096843015774,4215.74016997101,4322.581508467378,-1331.4263619692758
30665.7887298809,4231.766370745465,4333.779732439486,-1328.297117745533
30643.0346540254,4213.393236803203,4315.674819430687,-1329.3923532238427
30623.320415415816,4197.054111606373,4302.9343250911625,-1329.0123735681027
30625.980273006,4198.596381973789,4307.985819338062,-1329.8617398574042
30637.3796626782,4206.508899510968,4321.575679966889,-1327.939489834248
30651.461261685046,4215.226079848538,4332.1033516053385,-1329.749981135128
30637.49142140048,4202.999675631485,4320.61455495531,-1332.901577103326
30615.497304856457,4186.369977756736,4309.371627494291,-1331.582824180463
30618.15716244664,4184.671245178133,4313.752569407531,-1331.873396858382
30633.22223820952,4191.466175492546,4324.280241045981,-1335.941414349248
