 EXG Channel 0, EXG Channel 1, EXG Channel 2, EXG Channel 3
-8667.023023012045,-24879.123256102,-31806.688822113138,-13956.76451406056
-8664.184351466221,-24868.30501178563,-31814.266063483487,-13953.90349077028
-8633.964792962646,-24837.236086992754,-31808.02992678045,-13948.315554656454
-8645.319479145943,-24843.04754055113,-31810.62272913727,-13944.38164763232
-8684.18916275372,-24865.77926466218,-31809.460438425594,-13938.23491790711
-8705.132747308344,-24872.529491487683,-31809.594548892328,-13945.454531366177
-8697.846078615914,-24857.93380235837,-31812.589682649337,-13953.94819425919
-8677.461287672673,-24838.93481957136,-31816.72475537357,-13963.268871697052
-8686.267874988065,-24839.493613182734,-31820.949235075623,-13969.035621766525
-8710.38540725534,-24843.9639620738,-31813.28258672745,-13964.118237986357
-8715.52630848006,-24835.894982325437,-31823.27381649897,-13976.702270114694
-8697.220229771165,-24814.929046026355,-31839.54588646244,-13974.847075324902
-8658.752877563582,-24788.106952679987,-31842.339854519352,-13965.213473464666
-8647.979336736124,-24782.09433342151,-31823.83261011036,-13962.240691452109
-8665.1454764778,-24791.325603881556,-31805.124200001264,-13953.836435536914
-8666.575988122939,-24788.06224919108,-31806.398249435217,-13951.981240747124
-8647.62170882484,-24774.874719962445,-31823.38557522125,-13973.1483427463
-8605.84629843787,-24748.81258592756,-31826.336005489356,-13980.658528883285
-8595.966827388624,-24748.544364994093,-31821.55273217592,-13968.163903732766
-8614.272906097522,-24767.05160940309,-31809.281624469957,-13950.95306050218
-8619.302048599964,-24773.01952517265,-31800.43033366565,-13954.819912292947
-8605.287504826487,-24767.56569952556,-31807.96287154709,-13961.43602865172
-8575.805553889937,-24755.160481352865,-31813.036717538445,-13969.19208397771
-8571.26814976551,-24757.239193587207,-31800.63149936575,-13956.585700104915
-8594.402205276752,-24776.03701067412,-31797.166978975176,-13951.534205858015
-8609.377874061809,-24787.61521430197,-31805.72769710156,-13953.031772736524
-8604.728711215104,-24786.27410963465,-31810.48861867054,-13953.545862858997
-8579.314777769421,-24772.23721411672,-31819.362261219296,-13961.167807718257
-8584.79095516097,-24779.61328978697,-31814.087249527845,-13967.091019998912
-8616.396321820775,-24799.104010952,-31813.371993705277,-13968.253310710588
-8624.688819013694,-24797.070002206565,-31798.1057522423,-13961.43602865172
-8615.166975875733,-24788.688098035826,-31789.366220160275,-13952.227109936131
-8597.531449500495,-24780.909690965374,-31803.648984867217,-13962.821836807949
-8608.014417650034,-24792.46554284877,-31808.58872039184,-13968.275662455042
-8648.582833836417,-24823.60152287501,-31798.01634526448,-13963.693554841704
-8663.402040410285,-24831.379929945462,-31793.38953416223,-13959.647889095297
-8652.583796093917,-24819.06411875059,-31797.502255142008,-13953.836435536914
-8626.409903336753,-24797.18176092884,-31800.251519710007,-13955.33400241542
-8628.42156033773,-24797.33822314003,-31805.124200001264,-13966.062839753968
-8659.42342989724,-24815.979578015755,-31808.76753434748,-13963.939424030714
-8667.693575345704,-24814.0573279926,-31803.760743589493,-13946.683877311216
-8653.410810638763,-24799.595749330016,-31807.20291223561,-13945.074551710431
-8630.053237682967,-24784.642432289416,-31811.606205893306,-13944.895737754792
-8641.47497909963,-24796.37709812845,-31818.42348795217,-13954.37287740384
-8664.318461932953,-24810.704566324304,-31812.768496604986,-13945.409827877264
-8665.167828222255,-24808.558798856597,-31804.945386045623,-13940.447740608186
-8650.929767004225,-24798.768734785168,-31805.951214546112,-13944.649868565784
-8635.305897629965,-24791.325603881556,-31815.62951989526,-13952.115351213855
-8646.347659390887,-24805.72012731077,-31824.793735121937,-13964.229996708633
-8674.577912637938,-24828.138926999443,-31823.94436883264,-13967.113371743366
-8685.977302310146,-24832.94455205733,-31805.884159312747,-13932.199946904177
-8682.736299364125,-24827.334264199053,-31799.513912142986,-13919.2359351201
-8665.57015962245,-24815.621950104472,-31811.986185549045,-13929.80831024746
-8678.981206295635,-24826.596656632028,-31814.087249527845,-13937.072627195434
-8716.48743349164,-24847.92022084239,-31808.34285120283,-13942.101769697878
-8738.503901780117,-24856.793863391147,-31807.739354102538,-13946.080380210922
-8737.900404679824,-24850.356560988017,-31802.307880199896,-13936.647944050785
-8723.751750439615,-24835.649113136427,-31805.72769710156,-13936.156205672767
-8737.20750060171,-24844.65686615192,-31798.28456619794,-13932.71403702665
-8779.005262733133,-24868.93086063038,-31789.589737604827,-13929.42833059172
-8797.132527486388,-24871.59071822056,-31791.91431902818,-13932.736388771104
-8790.963446016724,-24859.766645403703,-31790.05912423839,-13939.307801640964
-8776.88184700988,-24845.84150860805,-31802.039659266437,-13942.86172900936
-8789.488230882673,-24853.619915678493,-31808.34285120283,-13953.277641925531
-8817.226745751708,-24868.863805397013,-31790.28264168294,-13938.749008029585
-8831.218937780732,-24873.781189177174,-31780.514929355973,-13933.60810680486
-8830.526033702616,-24868.05914259662,-31792.69663008412,-13946.974449989137
-8806.69907411326,-24847.674351653382,-31788.896833526716,-13925.941458456691
-8814.343370716973,-24853.55286044513,-31785.231147436043,-13929.540089313996
-8846.663993199349,-24871.81423566511,-31787.73454281504,-13928.958943958158
-8857.28107181562,-24872.998878121245,-31786.661659081183,-13924.220374133633
-8851.760190935158,-24863.7676076612,-31787.980412004046,-13935.351542872377
-8830.771902891625,-24846.28854349715,-31795.62470860776,-13950.841301779905
-8838.952641362268,-24853.91048835641,-31792.808388806392,-13947.086208711413
-8868.523999276638,-24873.11063684352,-31795.66941209667,-13956.13866521581
-8881.443307571806,-24879.771456691204,-31791.266118438976,-13948.673182567738
-8877.196476125298,-24873.40120952144,-31798.53043538695,-13950.48367386862
-8851.268452557142,-24851.004761577224,-31797.74812433101,-13948.33790640091
-8856.699926459782,-24858.29143026965,-31788.114522470776,-13941.52062434204
-8889.512287320173,-24882.2748520702,-31792.450760895103,-13941.386513875308
-8904.71147354978,-24890.701459729848,-31797.52460688646,-13949.9919354906
-8894.519078078161,-24878.698572957343,-31793.613051606782,-13950.215452935154
-8878.76109823717,-24866.0698373401,-31807.20291223561,-13951.33304015792
-8885.868952973957,-24868.819101908102,-31796.8540545528,-13944.783979032514
-8917.071988233565,-24887.92984341739,-31786.57225210336,-13941.587679575408
-8936.585061143049,-24896.91524468842,-31786.214624192075,-13940.537147586008
-8931.891194807435,-24890.701459729848,-31791.91431902818,-13948.449665123186
-8911.61816258647,-24875.34581128905,-31796.47407489706,-13956.295127426998
-8906.924296250856,-24870.87546239799,-31798.77630457596,-13943.599336576384
-8928.985468028244,-24884.845302682555,-31801.10088599931,-13941.52062434204
-8940.72013386728,-24892.73546847528,-31786.68401082564,-13933.89867948278
-8929.656020361903,-24882.006631136734,-31773.74235078601,-13924.220374133633
-8911.327589908551,-24871.233090309277,-31790.32734517185,-13943.018191220546
-8910.969961997267,-24872.373029276496,-31795.64706035221,-13948.539072101006
-8923.062255747587,-24878.36329679052,-31791.355525416795,-13942.906432498268
-8924.112787736987,-24876.619860723004,-31793.16601671768,-13943.442874365195
-8905.38202588344,-24862.739427416254,-31794.01538300698,-13940.045409207987
-8868.881627187924,-24839.359502716008,-31797.591662119827,-13946.750932544584
-8861.505551517672,-24839.87359283848,-31790.52851087195,-13951.042467480002
-8885.198400640298,-24860.72777041528,-31792.808388806392,-13954.797560548492
-8889.355825108985,-24867.701514685337,-31788.181577704145,-13943.197005176187
-8856.521112504139,-24845.193308018843,-31778.57032758836,-13932.401112604275
-8824.781635377603,-24832.475165423773,-31790.707324827592,-13940.179519674724
-8820.914783586835,-24839.13598527145,-31788.561557359884,-13939.464263852153
-8832.470635470228,-24851.518851699693,-31779.62085957776,-13931.305877125964
-8834.348182004474,-24860.638363437454,-31786.1028654698,-13934.680990538716
-8815.371550961918,-24852.34586624454,-31792.495464384017,-13949.030810479024
-8783.967350002213,-24834.55387765812,-31790.215586449576,-13960.609014106873
-8776.792440032059,-24836.230258492265,-31797.256385953,-13945.275717410532
-8805.35796944594,-24865.68985768436,-31799.96094703209,-13944.04637146549
-8814.70099862826,-24873.647078710448,-31784.09120846882,-13945.47688311063
-8800.462937410228,-24864.08053208357,-31779.62085957776,-13940.80536851947
-8782.156858701332,-24854.96102034581,-31790.126179471757,-13941.498272597584
-8792.528068128595,-24866.69568618485,-31789.880310282748,-13947.063856966955
-8837.23155703921,-24901.810276724136,-31797.52460688646,-13957.032734994023
-8850.687307201304,-24910.147477405964,-31795.91528128568,-13953.881139025823
-8842.305403030563,-24904.291320358672,-31800.51974064347,-13960.743124573604
-8819.484271941696,-24888.51098877323,-31802.553749388902,-13961.771304818549
-8822.83703360999,-24889.44976204035,-31810.86859832628,-13969.549711888994
-8844.65233619837,-24901.989090679777,-31796.116446985776,-13948.874348267836
-8842.551272219573,-24896.35645107704,-31786.86282478128,-13938.681952796216
-8821.205356264754,-24880.330250302584,-31778.99501073301,-13934.301010882977
-8788.013015748622,-24859.63253493697,-31786.39343814772,-13930.210641647654
-8778.625283077394,-24854.670447667893,-31788.583909104334,-13932.736388771104
-8783.967350002213,-24858.82787213658,-31786.125217214256,-13934.122196927334
-8770.466896351207,-24850.02128482119,-31788.67331608216,-13935.776226017026
-8737.833349446459,-24829.48003166676,-31793.56834811787,-13940.626554563829
-8699.835383872436,-24810.749269813216,-31798.79865632041,-13942.99583947609
-8693.979226825146,-24817.16422047189,-31795.401191163208,-13941.654734808772
-8702.741110651627,-24827.133098498954,-31782.66069682368,-13926.61201079035
-8706.29503802002,-24834.39741544693,-31792.51781612847,-13926.388493345798
-8693.509840191584,-24833.101014268523,-31798.619842364773,-13939.017228963046
-8651.890892015803,-24812.984444258745,-31795.20002546311,-13935.128025427824
-8640.536205832506,-24815.644301848926,-31800.58679587684,-13941.028885964024
-8659.33402291942,-24836.945514314837,-31801.83849356633,-13951.62361283584
-8654.953081006179,-24838.0631015376,-31800.452685410102,-13948.986106990113
-8629.1368161603,-24822.796860074624,-31800.76560983248,-13949.209624434665
-8591.295312797465,-24799.998080730213,-31807.58289189135,-13961.659546096273
-8579.292426024966,-24799.640452818927,-31810.265101225985,-13950.841301779905
-8592.099975597856,-24814.43730764834,-31799.62567086526,-13938.27962139602
-8591.049443608457,-24817.790069316638,-31803.269005211478,-13949.47784536813
-8561.679251394184,-24801.04861271961,-31807.001746535512,-13942.593508075895
-8517.48985260604,-24779.03214443113,-31807.09115351333,-13934.792749260992
-8511.588992069841,-24788.174007913352,-31804.319537200878,-13952.0929994694
-8524.240079431544,-24803.417897631876,-31792.495464384017,-13953.05412448098
-8518.339218895342,-24803.037917976133,-31789.589737604827,-13947.823816278436
-8499.2061256416,-24798.63462431844,-31798.3069179424,-13950.48367386862
-8463.599796724297,-24782.76488575517,-31792.808388806392,-13947.197967433687
-8457.274253043444,-24786.72114452376,-31792.204891706097,-13941.006534219568
-8474.574503251852,-24806.54714185561,-31800.922072043668,-13943.778150532024
-8472.316977061866,-24810.235179690742,-31803.1572464892,-13950.818950035447
-8440.443389468597,-24791.347955626006,-31804.319537200878,-13961.279566440531
-8392.677711567607,-24766.671629747347,-31806.73352560205,-13967.649813610296
-8370.66124327913,-24763.810606457067,-31802.710211600093,-13978.66922362676
-8380.27249339491,-24783.56954855556,-31788.360391659786,-13951.33304015792
-8386.530981842398,-24801.09331620852,-31799.424505165163,-13953.098827969889
-8361.206455374535,-24791.30325213709,-31792.249595195008,-13946.460359866664
-8328.59526021424,-24778.2498333752,-31796.78699931944,-13952.38357214732
-8326.337734024255,-24786.76584801267,-31810.846246581823,-13974.33298520243
-8347.996574401448,-24806.68125232235,-31811.00270879301,-13960.296089684498
-8353.092772137257,-24813.25266519221,-31821.97741532057,-13959.536130373015
-8330.249289303934,-24798.835790018536,-31801.0561825104,-13948.919051756748
-8302.980161068459,-24786.989365457222,-31796.831702808347,-13947.868519767348
-8305.818832614283,-24799.34988014101,-31800.407981921195,-13956.295127426998
-8328.17057706959,-24821.92514204087,-31805.30301395691,-13967.649813610296
-8325.041332845847,-24823.065081008088,-31807.851112824814,-13961.681897840726
-8299.001550555415,-24808.91642676788,-31809.14751400322,-13954.775208804038
-8263.574035593752,-24791.079734692543,-31811.87442682677,-13961.078400740436
-8261.405916381587,-24798.925196996355,-31821.82095310938,-13977.037546281525
-8279.957864279493,-24815.040804748634,-31806.845284324325,-13969.61676712236
-8279.600236368207,-24817.655958849904,-31805.72769710156,-13967.448647910196
-8257.315547146267,-24804.87076102147,-31797.993993520024,-13958.709115828173
-8221.709218228963,-24783.21192064428,-31796.831702808347,-13959.267909439552
-8230.314639844257,-24796.287691150632,-31813.10377277181,-13975.651738125294
-8256.935567490527,-24820.762851329197,-31820.2116275086,-13973.751839846593
-8267.329128662244,-24833.905677068917,-31817.39530770723,-13971.740182845617
-8256.644994812608,-24830.083528767056,-31810.756839604004,-13961.257214696076
-8235.05320966878,-24819.980540273256,-31804.09601975632,-13966.465171154165
-8239.72472425994,-24827.44602292133,-31807.001746535512,-13964.229996708633
-8266.323300161755,-24848.00962782021,-31807.24761572452,-13960.184330962222
-8273.721727576461,-24851.20592727732,-31811.829723337854,-13955.892796026805
-8263.194055938013,-24843.516927184693,-31819.138743774743,-13967.42629616574
-8229.733494488419,-24820.360519929,-31818.937578074645,-13963.62649960834
-8220.211651350457,-24815.59959836001,-31814.377822205763,-13952.76355180306
-8235.209671879968,-24829.90471481141,-31821.30686298691,-13958.753819317082
-8219.67520948353,-24822.998025774723,-31823.050299054423,-13966.934557787725
-8176.178714773502,-24796.108877194987,-31817.037679795943,-13964.185293219722
-8124.2109089149135,-24768.19154837031,-31817.529418173963,-13962.933595530223
-8109.436405829955,-24775.299403107096,-31818.311729229896,-13969.10267699989
-8116.186632655458,-24788.978670713743,-31809.34867970332,-13966.353412431889
-8111.090434919648,-24791.45971434828,-31816.12125827328,-13966.420467665252
-8093.097280633126,-24787.39169685742,-31813.662566383195,-13974.1988747357
-8062.296576773713,-24776.796969985604,-31814.22135999457,-13978.311595715477
-8067.102201831603,-24790.744458525714,-31814.35547046131,-13979.362127704875
-8094.706606233908,-24815.53254312665,-31805.28066221245,-13962.061877496468
-8102.12738539307,-24822.372176929974,-31806.666470368684,-13957.122141971844
-8089.230428842357,-24817.05246174961,-31811.270929726477,-13956.026906493536
-8064.084716330138,-24807.48591512274,-31822.20093276512,-13969.706174100182
-8066.722222175864,-24818.661787350396,-31824.39140372174,-13971.986052034625
-8092.672597488475,-24843.53927892915,-31817.507066429505,-13977.976319548648
-8086.212943340892,-24838.66659863789,-31803.58192963385,-13970.153208989288
-8059.457905227889,-24822.886267052447,-31813.371993705277,-13955.982203004623
-8025.907936800473,-24808.53644711214,-31811.785019848947,-13964.922900786749
-8021.996381520794,-24813.029147747657,-31804.43129592315,-13965.57110137595
-8044.951623076395,-24834.531525913662,-31806.621766879773,-13963.648851352797
-8050.874835357051,-24844.29923824063,-31804.02896452296,-13958.709115828173
-8033.865157826563,-24836.92316257038,-31808.253444225007,-13958.396191405796
-8008.652390080976,-24826.931932798856,-31803.04548776692,-13958.686764083715
-8020.230593708825,-24842.041712050643,-31804.073668011868,-13959.692592584204
-8047.656184155487,-24863.722904172293,-31806.77822909096,-13960.318441428954
-8058.78735289423,-24873.04358161016,-31816.925921073667,-13970.264967711564
-8047.432666710933,-24865.175767561886,-31815.473057684078,-13967.806275821482
-8019.627096608531,-24845.0144940632,-31818.02115655198,-13968.074496754944
-8020.074131497638,-24846.623819663982,-31814.266063483487,-13962.777133319038
-8056.216902281869,-24872.73065718778,-31800.475037154563,-13956.965679760657
-8071.125515833559,-24882.45366602584,-31806.934691302147,-13965.258176953575
-8064.598806452609,-24874.518796744203,-31808.789886091938,-13965.973432776143
-8048.0808673001375,-24861.35361926003,-31816.054203039912,-13968.14155198831
-8051.1877597794255,-24861.39832274894,-31803.090191255837,-13952.450627380686
-8077.562818236687,-24873.602375221537,-31793.99303126252,-13947.980278489624
-8096.606504512609,-24884.01828813771,-31799.3574499318,-13959.133798972822
-8090.660940487497,-24875.9716601338,-31805.168903490176,-13962.71007808567
-8066.811629153684,-24858.98433434777,-31809.661604125693,-13967.850979310391
-8076.266417058279,-24867.58975596306,-31809.885121570245,-13965.392287420307
-8112.230373886869,-24889.29329982916,-31809.95217680361,-13957.90445302778
-8127.809539772218,-24894.21068360933,-31815.07072628388,-13954.57404310394
-8124.32266763719,-24887.661622483927,-31805.43712442364,-13952.696496569692
-8113.482071576366,-24882.833645681578,-31817.86469434079,-13958.016211750057
-8122.534528080765,-24889.0250788957,-31816.56829316238,-13962.151284474288
-8158.878464565095,-24910.84038148408,-31818.49054318554,-13968.499179899596
-8171.708365882441,-24913.813163496638,-31815.24954023952,-13964.632328108828
-8164.555807656742,-24903.41960232492,-31810.28745297044,-13956.026906493536
-8143.455760890933,-24883.146570103952,-31809.303976214407,-13959.759647817573
-8154.609281374131,-24890.701459729848,-31811.405040193207,-13963.33592693042
-8186.684034667496,-24909.8792564725,-31809.01340353649,-13956.920976271747
-8196.161174316547,-24910.01336693923,-31808.14168550273,-13956.630403593828
-8190.7744039028175,-24902.413773824428,-31810.53332215945,-13966.353412431889
-8172.624787405109,-24889.82974169609,-31814.48958092804,-13964.00647926408
-8177.206895018447,-24891.439067296877,-31807.67229886917,-13955.535168115515
-8206.420625021532,-24908.918131460923,-31808.409906436194,-13951.467150624652
-8215.696598970486,-24910.50510531725,-31800.363278432287,-13951.33304015792
-8208.3875785336,-24899.59745402306,-31798.32926968685,-13973.841246824411
-8185.47704046691,-24880.710229958324,-31807.11350525779,-13964.520569386552
-8189.701520168963,-24883.012459637222,-31807.515836657985,-13955.021077993046
-8215.741302459395,-24898.233997611285,-31801.503217399502,-13952.76355180306
-8220.345761817189,-24899.53039878969,-31800.072705754366,-13962.844188552404
-8200.67622669652,-24885.851131183044,-31799.64802260972,-13962.464208896665
-8164.488752423376,-24863.20881404982,-31793.501292884503,-13969.862636311367
-8160.241920976869,-24869.266136797207,-31784.53824335793,-13985.799430108003
-8184.895895111072,-24893.49542778676,-31780.58198458934,-13977.641043381816
-8186.147592800569,-24901.49735230176,-31786.68401082564,-13977.70809861518
-8163.885255323084,-24896.602320266047,-31799.49156039853,-13982.826648095448
-8120.366408868601,-24881.380782291984,-31809.303976214407,-13992.348491233408
-8112.543298309243,-24892.8248754531,-31814.243711739036,-13999.679863414747
-8129.3741618840895,-24915.735413519797,-31815.696575128622,-14002.406776238297
-8128.256574661324,-24920.205762410853,-31813.39434544973,-14003.43495648324
-8110.7104552639075,-24911.153305906453,-31815.182485006157,-14004.843116383923
-8082.480202016855,-24895.01534640972,-31823.027947309965,-14004.798412895014
-8085.676501473964,-24899.82097146761,-31824.927845588667,-14008.665264685782
-8119.740560023852,-24925.190201424382,-31819.11639203029,-14017.561258978994
-8132.615164830109,-24932.968608494837,-31814.91426407269,-14015.035511855544
-8123.048618203237,-24923.40206186796,-31819.07168854138,-13999.679863414747
-8095.399510312022,-24904.91716920342,-31824.279644999464,-13998.718738403171
-8098.953437680417,-24910.438050083885,-31831.119278802787,-14004.910171617292
-8125.730827537875,-24928.855887515056,-31826.13483978925,-14001.892686115823
-8131.363467140612,-24929.34762589307,-31825.0619560554,-13996.975302335655
-8121.104016435625,-24920.69750078887,-31833.510915459505,-13998.115241302878
-8091.957341665905,-24899.955081934346,-31840.64112194075,-13998.271703514063
-8087.732861963852,-24897.40698306644,-31826.17954327817,-13992.3037877445
-8108.028245929271,-24910.21453263933,-31809.460438425594,-13978.021023037556
-8107.648266273531,-24909.11929716102,-31801.905548799703,-13974.53415090253
-8091.331492821157,-24902.346718591063,-31809.706307614604,-13985.10652602989
-8056.283957515235,-24881.44783752535,-31810.466266926083,-13992.370842977864
-8051.701849901897,-24881.87252067,-31803.67133661167,-13977.395174192809
-8071.863123400584,-24898.323404589108,-31801.905548799703,-13974.735316602626
-8078.792164181729,-24906.59355003757,-31799.49156039853,-13977.52928465954
-8063.034184340738,-24898.077535400094,-31793.322478928865,-13972.522493901552
-8038.156692761981,-24883.34773580405,-31793.858920795792,-13971.606072378883
-8039.631907896031,-24887.50516027274,-31789.14270271572,-13972.008403779078
-8070.745536177819,-24910.01336693923,-31787.24280443702,-13969.035621766525
-8082.748422950319,-24916.294207131174,-31793.702458584605,-13969.706174100182
-8071.304329789202,-24905.855942470545,-31792.808388806392,-13967.985089777125
-8049.444323711911,-24890.67910798539,-31785.18644394713,-13963.380630419331
-8060.016698839271,-24896.1776371214,-31793.00955450649,-13970.779057834035
-8094.952475422916,-24914.953102463856,-31799.75978133199,-13976.009366036578
-8109.279943618768,-24916.65183504246,-31783.66652532417,-13971.561368889972
-8094.2148678558915,-24899.3292330896,-31779.486749111027,-13956.13866521581
-8069.672652443965,-24882.006631136734,-31796.04939175241,-13955.736333815616
-8077.138135092036,-24888.086305628574,-31797.390496419728,-13965.884025798325
-8101.74740573733,-24898.77043947821,-31791.802560305903,-13956.0939617269
-8112.632705287065,-24900.424468567904,-31784.202967191097,-13941.85590050887
-8103.379083082567,-24891.573177763603,-31781.76662704547,-13939.821891763437
-8071.371385022568,-24869.48965424176,-31779.039714221923,-13938.793711518492
-8077.316949047679,-24876.55280548964,-31785.94640325861,-13940.76066503056
-8110.486937819355,-24900.22330286781,-31780.17965318914,-13936.335019628408
-8118.980600712372,-24900.35741333454,-31776.29044965392,-13939.017228963046
-8112.185670397958,-24890.656756240936,-31780.939612500624,-13947.175615689232
-8083.463678772889,-24868.77439841919,-31786.23697593653,-13940.313630141454
-8096.2712283457795,-24882.006631136734,-31781.654868323192,-13943.66639180975
-8137.04081023226,-24912.49441057377,-31779.75497004449,-13945.923917999737
-8152.150589484047,-24918.775250765717,-31784.11356021328,-13951.601261091384
-8141.04177248976,-24906.9288262044,-31785.901699769704,-13957.47976988313
-8108.251763373824,-24882.78894219267,-31784.068856724367,-13961.391325162807
-8114.398493099034,-24888.756857962235,-31796.898758041712,-13972.43308692373
-8145.04273474726,-24909.722794261317,-31802.173769733166,-13969.952043289191
-8153.894025551561,-24911.51093381774,-31786.23697593653,-13961.771304818549
-8151.077705750193,-24906.012404681733,-31782.3030689124,-13952.785903547516
-8130.603507829132,-24894.523608031704,-31784.71705731357,-13958.642060594806
-8135.163263698014,-24899.26217785623,-31780.87255726726,-13958.709115828173
-8153.46934240691,-24906.79471573767,-31773.518833341463,-13953.076476225431
-8171.66366239353,-24919.043471699177,-31784.96292650258,-13952.674144825238
-8172.1106972826365,-24919.535210077192,-31796.49642664152,-13955.065781481955
-8152.105885995136,-24905.855942470545,-31803.93955754513,-13967.269833954551
-8155.101019752147,-24903.9783959363,-31790.90849052769,-13956.85392103838
-8186.348758500667,-24920.07165194412,-31779.93378400013,-13954.551691359484
-8195.535325471797,-24921.144535677977,-31780.559632844885,-13957.23390069412
-8187.935732356994,-24915.623654797517,-31786.52754861445,-13961.43602865172
-8163.102944267148,-24897.78696272218,-31781.520757856462,-13963.604147863884
-8177.5645229297315,-24908.761669249736,-31774.27879265294,-13960.988993762612
-8210.868622168138,-24928.252390414764,-31775.64224906472,-13956.80921754947
-8217.641200738097,-24923.960855479345,-31776.24574616501,-13947.577947089429
-8208.901668656072,-24913.857866985545,-31786.9522317591,-13946.99680173359
-8188.919209113027,-24899.753916234247,-31789.43327539364,-13958.642060594806
-8200.877392396616,-24909.20870413884,-31791.19906320561,-13964.56527287546
-8227.967706676449,-24922.9326752344,-31781.073722967358,-13958.66441233926
-8237.176625392036,-24922.2844746452,-31771.7977490184,-13954.171711703744
-8228.638259010108,-24913.679053029904,-31779.710266555583,-13960.027868751034
-8203.67136045353,-24895.50708478774,-31782.81715903487,-13965.012307764568
-8212.47794776892,-24901.51970404621,-31788.315688170875,-13961.100752484888
-8242.049305683293,-24921.45746010035,-31781.453702623097,-13952.361220402863
-8254.856855256183,-24928.76648053724,-31772.535356585428,-13942.57115633144
-8238.942413204004,-24916.294207131174,-31763.885231481225,-13934.56923181644
-8211.695636712986,-24900.44682031236,-31769.026132705945,-13935.99974346158
-8218.781139705317,-24908.15817214944,-31773.29531589691,-13941.766493531048
-8249.514788331364,-24926.799527025167,-31770.613106562272,-13944.940441243702
-8263.216407682468,-24933.236829428297,-31771.462472851574,-13948.628479078829
-8248.151331919591,-24921.815088011637,-31773.876461252745,-13949.85782502387
-8230.068770655247,-24912.06972742912,-31780.649039822703,-13954.506987870573
-8234.58382303522,-24918.21645715433,-31775.262269408977,-13944.85103426588
-8259.43896286952,-24935.449652129373,-31765.00281870399,-13939.911298741255
-8270.793649052817,-24939.76353880925,-31771.77539727395,-13944.962792988155
-8258.522541346854,-24927.93946599239,-31774.77053103096,-13947.846168022892
-8232.460407311966,-24909.096945416564,-31781.43135087864,-13952.897662269792
-8240.3952765936,-24913.43318384089,-31782.347772401303,-13953.009420992068
-8271.575960108752,-24935.27083817373,-31786.080513725345,-13957.412714649765
-8280.360195679688,-24940.8364225431,-31784.67235382466,-13956.228072193631
-8270.25720718589,-24931.04635847168,-31783.48771136853,-13950.37191514634
-8243.569224306253,-24908.962834949834,-31778.659734566183,-13943.152301687278
-8252.040535454815,-24917.8811809875,-31780.29141191142,-13940.246574908087
-8285.366986437677,-24942.155175465963,-31788.2039294486,-13952.182406447222
-8290.396128940121,-24939.741187064792,-31783.130083457243,-13963.939424030714
-8280.248436957412,-24928.095928203576,-31788.2039294486,-13963.782961819526
-8246.162026663069,-24902.63729126898,-31775.28462115343,-13944.627516821329
-8246.92198597455,-24905.677128514904,-31768.64615305021,-13937.989048718102
-8279.600236368207,-24927.581838081103,-31769.09318793931,-13942.705266798172
-8285.031710270847,-24925.860753758046,-31765.8968884822,-13941.632383064316
-8264.848085027705,-24908.113468660533,-31754.9445336991,-13934.32336262743
-8248.687773786518,-24897.898721444457,-31763.684065781126,-13948.136740700813
-8254.63333781163,-24904.805410481145,-31770.054312950888,-13953.94819425919
-8280.82958231325,-24921.72568103381,-31766.61214430477,-13952.987069247612
-8284.942303293026,-24923.871448501523,-31757.157356400177,-13944.694572054694
-8272.022994997858,-24915.891875730977,-31751.882344708723,-13938.905470240768
-8242.004602194382,-24897.943424933368,-31762.41001634717,-13944.403999376776
-8244.798570251294,-24904.91716920342,-31771.9989147185,-13951.176577946731
-8268.938454263027,-24928.61001832605,-31772.982391474536,-13949.634307579316
-8267.999680995903,-24931.62750382752,-31763.482900081028,-13940.738313286103
-8246.609061552175,-24920.69750078887,-31761.35948435777,-13938.86076675186
-8218.311753071755,-24910.97449195081,-31770.791920517917,-13947.734409300616
-8218.065883882748,-24918.596436810072,-31757.53733605592,-13953.05412448098
-8235.29907885779,-24933.952085250865,-31752.66465576466,-13946.505063355571
-8231.38752357811,-24933.661512572948,-31761.314780868863,-13949.410790134763
-8213.997866391881,-24923.40206186796,-31769.65198155069,-13962.374801918842
-8182.973645087915,-24906.12416340401,-31772.222432163053,-13969.750877589093
-8185.164116044536,-24912.38265185149,-31764.82400474835,-13969.974395033643
-8213.081444869214,-24932.58862883909,-31762.14179541371,-13963.71590658616
-8215.24956408138,-24933.013311983745,-31763.52760356994,-13963.738258330615
-8203.157270331058,-24926.598361325072,-31767.23799314952,-13967.694517099204
-8174.591740917175,-24912.762631507238,-31775.3516763868,-13972.902473557291
-8175.798735117762,-24919.803431010656,-31765.82983324884,-13967.895682799302
-8196.00471210536,-24935.248486429275,-31755.10099591029,-13960.117275728857
-8197.234058050402,-24936.85781203005,-31758.163184900663,-13960.988993762612
-8173.965892072427,-24926.57600958061,-31756.75502499998,-13962.598319363397
-8138.851301533139,-24914.57312280812,-31762.0970919248,-13963.514740886065
-8134.045676475249,-24923.06678570113,-31769.406112361685,-13954.61874659285
-8143.99220275786,-24939.9870562538,-31766.14275767121,-13927.841356735393
-8135.94557475395,-24945.01619875624,-31766.947420471603,-13916.598429274372
-8101.836812715151,-24932.85684977256,-31765.941591971117,-13916.240801363088
-8044.236367253825,-24909.70044251686,-31772.602411818792,-13924.108615411356
-8017.950715774384,-24910.59451229507,-31775.441083364614,-13925.293257867486
-8027.584317634621,-24938.66830333093,-31771.77539727395,-13929.651848036272
-8005.903125512973,-24941.55167836567,-31763.61701054776,-13920.867612465336
-7968.463953550334,-24936.16490795194,-31766.746254771504,-13925.159147400756
-7918.776025626186,-24924.094965946075,-31776.67042930966,-13935.552708572472
-7896.513688148701,-24927.26891365873,-31765.494557082005,-13930.94824921468
-7900.358188195013,-24942.55750686616,-31756.106824410777,-13929.584792802909
-7896.84896431553,-24949.12891973602,-31765.874536737745,-13939.084284196411
-7875.145420449427,-24941.8869545325,-31760.59952504629,-13936.536185328509
-7844.702344501298,-24928.140631692488,-31760.10778666828,-13941.721790042138
-7849.239748625726,-24936.54488760768,-31761.314780868863,-13944.359295887863
-7879.302844918114,-24959.544832652195,-31761.76181575797,-13936.89381323979
-7890.635179356955,-24967.256184489277,-31754.9445336991,-13930.52356607003
-7883.348510664525,-24961.288268719705,-31755.77154824395,-13938.771359774037
-7867.188199423337,-24949.151271480478,-31771.127196684745,-13944.314592398954
-7868.84222851303,-24943.69744583338,-31752.195269131094,-13932.84814749338
-7889.852868301019,-24947.139614479496,-31743.65690274917,-13923.438063077696
-7910.639990644454,-24955.543870394693,-31752.061158664368,-13927.2378596351
-7912.495185434245,-24951.587611626102,-31754.653961021184,-13930.031827692012
-7898.525345149678,-24938.869469031037,-31762.253554135987,-13932.937554471202
-7914.260973246214,-24949.486547647302,-31755.123347654742,-13934.904507983269
-7940.144293325459,-24961.332972208616,-31745.780318472425,-13922.901621210767
-7948.257976562736,-24962.294097220198,-31746.71909173955,-13932.691685282194
-7931.605926943533,-24947.27372494623,-31755.95036219959,-13934.61393530535
-7907.42133944289,-24933.303884661666,-31755.972713944044,-13924.75681600056
-7922.9334500948735,-24951.095873248087,-31746.27205685044,-13927.193156146188
-7956.170494099915,-24977.89561485,-31741.62289400374,-13930.27769688102
-7957.690412722875,-24975.03459155972,-31740.01356840296,-13923.818042733436
-7937.037400846172,-24958.449597173883,-31741.980521915026,-13921.493461310083
-7903.778005096675,-24939.942352764887,-31751.41295807516,-13922.275772366022
-7908.47187143229,-24948.167794724443,-31754.296333109894,-13929.271868380532
-7931.404761243434,-24961.80235884218,-31746.71909173955,-13921.582868287906
-7935.226909545292,-24959.678943118925,-31749.17778362963,-13915.167917629233
-7926.643839674454,-24951.386445926008,-31744.930952183124,-13913.871516450825
-7908.740092365753,-24936.1872596964,-31747.546106284397,-13912.55276352796
-7923.42518847289,-24941.90930627696,-31751.010626674968,-13913.670350750728
-7961.669023235921,-24959.477777418822,-31751.927048197635,-13919.593563031383
-7979.4833635668,-24960.729475108325,-31750.38477783022,-13918.788900230991
-7977.248189121269,-24948.03368425771,-31746.38381557272,-13922.543993299483
-7954.76233419923,-24924.921980490923,-31737.4431177906,-13914.98910367359
-7966.876979694007,-24930.375806138018,-31735.319702067343,-13903.254437834554
-8005.210221434859,-24952.16875698194,-31740.929989925626,-13901.958036656146
-8016.050817495682,-24952.23581221531,-31747.72492024004,-13906.89777218077
-8005.254924923769,-24937.327198663617,-31749.647170263197,-13907.389510558784
-7985.652445036465,-24922.306826389653,-31760.174841901644,-13920.107653153857
-7988.826392749119,-24922.35152987856,-31753.826946476336,-13918.632438019806
-8019.984724519816,-24936.1872596964,-31736.012606145458,-13907.747138470071
-8034.4463031824,-24938.869469031037,-31746.2944085949,-13911.032844905
-8032.479349670333,-24932.678035816916,-31752.53054529793,-13917.000760674568
-8013.189794205403,-24917.32238737612,-31756.71032151107,-13920.845260720882
-8016.386093662512,-24917.098869931564,-31743.992178916,-13915.570249029428
-8045.443361454411,-24931.962779994345,-31731.22933283202,-13900.639283733284
-8065.559931464188,-24943.876259789024,-31748.037844662413,-13915.279676351509
-8056.194550537414,-24934.84615502908,-31755.928010455136,-13910.138775126788
-8032.479349670333,-24917.92588447641,-31752.642304020206,-13901.779222700505
-8038.73783811782,-24920.71985253333,-31746.38381557272,-13894.93958889718
-8070.924350133461,-24939.562373109147,-31750.921219697146,-13904.595542501873
-8082.726071205863,-24941.81989929913,-31746.45087080609,-13907.680083236704
-8070.365556522079,-24927.447727614373,-31748.350769084787,-13911.457528049652
-8057.915634860473,-24917.992939709777,-31767.394455360707,-13925.315609611942
-8066.498704731311,-24923.22324791232,-31754.832774976825,-13913.312722839442
-8096.204173112414,-24939.62942834252,-31740.929989925626,-13897.1300598538
-8111.93980120895,-24944.94914352288,-31750.65299876368,-13897.375929042808
-8106.642437773042,-24937.014274241243,-31756.173879644142,-13907.836545447892
-8086.905847419006,-24922.46328860084,-31756.017417432955,-13908.03771114799
-8100.249838858824,-24935.092024218087,-31752.150565642187,-13908.864725692836
-8124.836757759662,-24948.212498213357,-31754.028112176435,-13902.092147122878
-8134.492711364354,-24950.0900447476,-31763.81817624786,-13899.968731399624
-8124.724999037386,-24940.76936730973,-31759.996027946,-13905.51196402454
-8101.702702248419,-24925.92780899141,-31758.25259187849,-13907.52362102552
-8103.580248782665,-24928.72177704833,-31753.75989124297,-13901.935684911692
-8141.600566101142,-24952.07935000412,-31749.066024907355,-13899.052309876955
-8148.239034204368,-24951.341742437096,-31751.25649586397,-13897.375929042808
-8141.265289934313,-24945.0385505007,-31762.14179541371,-13907.389510558784
-8116.678371033475,-24924.921980490923,-31755.95036219959,-13908.03771114799
-8119.762911768307,-24923.7820415237,-31742.919295182142,-13898.448812776664
-8153.2681767068125,-24945.284419689702,-31737.063138134858,-13900.236952333087
-8164.622862890109,-24951.11822499254,-31746.830850461825,-13898.89584766577
-8154.56457788522,-24942.199878954874,-31758.67727502314,-13903.433251790197
-8132.5481095967425,-24925.27960840221,-31764.1981559036,-13905.310798324444
-8139.588909100164,-24930.487564860294,-31742.740481226505,-13891.072737106411
-8165.963967557427,-24943.63039060001,-31736.593751501296,-13879.941568367669
-8170.031985048293,-24940.545849865182,-31744.23804810501,-13888.524638238508
-8160.666604121519,-24930.062881715643,-31743.85806844927,-13885.79772541496
-8137.689010821464,-24912.98614895179,-31748.66369350716,-13890.782164428492
-8147.546130126254,-24921.278646144707,-31745.601504516784,-13897.867667420824
-8176.022252562315,-24937.885992275,-31745.936780683613,-13900.683987222194
-8182.325444498711,-24939.9870562538,-31753.826946476336,-13903.433251790197
-8166.925092569005,-24929.191163681888,-31752.61995227575,-13903.388548301284
-8142.829912046184,-24913.053204185155,-31756.062120921863,-13906.450737291663
-8149.602490616142,-24918.30586413215,-31752.441138320108,-13904.059100634946
-8180.00086307536,-24936.701349818868,-31755.883306966225,-13903.813231445936
-8185.924075356016,-24935.9860939963,-31754.318684854352,-13897.219466831622
-8162.208874488935,-24918.55173332116,-31751.748234241997,-13895.297216808463
-8124.859109504117,-24895.127105132,-31751.122385397244,-13901.689815722682
-8130.916432251505,-24905.58772153708,-31749.066024907355,-13906.964827414136
-8161.493618666365,-24929.392329381983,-31745.869725450248,-13902.405071545252
-8167.595644902664,-24933.393291639484,-31748.864859207257,-13909.065891392936
-8147.456723148432,-24919.66932054393,-31743.63455100472,-13900.058138377446
-8122.1545484250255,-24906.079459915098,-31748.66369350716,-13904.75200471306
-8121.349885624634,-24910.147477405964,-31755.77154824395,-13910.94343792718
-8139.410095144522,-24926.0842712026,-31751.81528947536,-13912.217487361131
-8139.745371311352,-24931.135765449497,-31759.258420378977,-13918.855955464358
-8114.443196587944,-24918.61878855453,-31749.021321418444,-13913.335074583898
-8080.870876416073,-24902.346718591063,-31753.111690653765,-13907.724786725616
-8085.117707862581,-24913.41083209644,-31757.582039544828,-13911.41282456074
-8106.55303079522,-24930.107585204554,-31748.50723129597,-13909.289408837489
-8109.190536640947,-24931.60515208306,-31746.20500161708,-13909.51292628204
-8096.025359156771,-24921.949198478367,-31760.264248879463,-13918.766548486536
-8070.0302803552495,-24907.129991904498,-31769.115539683768,-13919.794728731482
-8076.489934502832,-24917.0318146982,-31770.791920517917,-13925.159147400756
-8098.416995813489,-24930.77813753821,-31753.0446354204,-13908.909429181747
-8106.530679050766,-24935.15907945145,-31746.652036506184,-13905.221391346622
-8095.533620778754,-24928.632370070503,-31756.084472666324,-13898.515868010028
-8063.660033185486,-24907.68878551588,-31759.727807012536,-13893.598484229862
-8074.813553668685,-24920.585742066596,-31757.224411633542,-13901.309836066945
-8103.848469716128,-24941.90930627696,-31743.18751611561,-13897.979426143102
-8115.158452410514,-24951.386445926008,-31746.71909173955,-13908.976484415112
-8100.629818514564,-24943.451576644373,-31750.54124004141,-13912.820984461428
-8075.93114089145,-24932.32040790563,-31751.927048197635,-13908.574153014915
-8084.737728206841,-24944.54681212268,-31758.85608897878,-13910.876382693814
-8109.011722685304,-24959.65659137447,-31752.798766231397,-13901.108670366844
-8110.755158752819,-24955.52151865024,-31743.56749577135,-13894.671367963716
-8093.387853311045,-24939.428262642417,-31741.466431792556,-13895.721899953116
-8073.226579812358,-24926.66541655844,-31747.166126628654,-13910.47405129362
-8088.068138130682,-24937.97539925282,-31743.925123682635,-13909.08824313739
-8114.040865187749,-24952.61579187105,-31731.005815387467,-13899.029958132502
-8125.619068815597,-24959.343666952096,-31730.178800842623,-13906.786013458492
-8111.895097720039,-24946.22319295683,-31727.295425807886,-13890.26807430602
-8088.962207908894,-24929.45938461535,-31728.077736863823,-13890.245722561564
-8096.964132423894,-24935.516707362734,-31733.37510029973,-13895.341920297376
-8121.998086213838,-24948.27955344672,-31729.999986886975,-13886.26711204852
-8128.077760705682,-24947.47489064633,-31733.039824132906,-13882.579074213396
-8116.27603963328,-24936.924867263424,-31739.365367813756,-13888.36817602732
-8092.538487021743,-24920.518686833228,-31742.31579808185,-13903.813231445936
-8094.393681811533,-24921.07748044461,-31742.58401901532,-13924.37683634482
-8121.2157751579025,-24938.914172519944,-31743.969827171542,-13930.970600959135
-8131.028190973782,-24944.41270165595,-31751.144737141694,-13927.863708479848
-8118.242993145346,-24935.69552131838,-31751.077681908333,-13923.99685668908
-8089.9903881538385,-24915.869523986523,-31748.99896967399,-13924.935629956202
-8097.791146968741,-24920.69750078887,-31744.30510333837,-13920.867612465336
-8122.355714125123,-24934.466175373334,-31739.1418503692,-13913.446833306174
-8127.831891516673,-24933.6838643174,-31735.207943345064,-13910.876382693814
-8121.014609457805,-24927.291265403182,-31730.625835731727,-13910.809327460447
-8102.239144115347,-24917.07651818711,-31736.03495788991,-13916.598429274372
-8113.504423320821,-24926.352492136062,-31738.38189105772,-13922.923972955225
-8136.437313131966,-24938.377730653017,-31727.80951593036,-13919.75002524257
-8146.741467325863,-24942.624562099525,-31725.93196939611,-13906.584847758397
-8136.392609643056,-24934.287361417697,-31726.60252172977,-13900.572228499916
-8118.533565823265,-24925.369015380027,-31731.43049853212,-13904.506135524052
-8123.652115303531,-24930.04052997119,-31734.31387356685,-13907.903600681258
-8154.56457788522,-24949.240678458296,-31736.325530567832,-13910.27288559352
-8157.000918030849,-24941.6857888324,-31730.46937352054,-13912.686873994697
-8145.489769636366,-24927.71594854784,-31733.30804506637,-13930.1882899032
-8114.89023147705,-24901.0279656682,-31728.27890256392,-13936.491481839596
-8125.574365326687,-24908.35933784954,-31725.70845195156,-13942.906432498268
-8151.815313317217,-24925.16784967993,-31720.23227456001,-13947.533243600516
-8156.173903486003,-24923.200896167866,-31719.204094315064,-13937.698476040185
-8139.857130033628,-24909.543980305672,-31723.830905417315,-13941.095941197387
-8111.202193641925,-24889.762686462724,-31715.60546345776,-13941.408865619764
-8113.9961616988385,-24893.40602080894,-31721.014585615947,-13934.94921147218
-8153.402287173544,-24925.369015380027,-31733.039824132906,-13935.172728916732
-8160.599548888154,-24926.57600958061,-31728.65888221966,-13929.249516636077
-8139.678316077986,-24906.995881437768,-31723.1380013392,-13915.65965600725
-8120.679333290975,-24895.30591908764,-31735.587923000807,-13929.763606758548
-8131.207004929424,-24904.13485814749,-31741.935818426115,-13939.017228963046
-8155.123371496603,-24917.92588447641,-31734.80561194487,-13936.446778350686
-8162.633557633586,-24917.992939709777,-31727.22837057452,-13931.439987592696
-8156.285662208279,-24912.06972742912,-31730.71524270955,-13933.563403315951
-8131.788150285262,-24895.618843510016,-31751.41295807516,-13957.368011160854
-8139.477150377888,-24901.92203544641,-31757.738501756012,-13940.358333630364
-8160.934825054983,-24916.495372831272,-31749.37894932973,-13926.254382879066
-8169.540246670276,-24923.7820415237,-31741.645245748197,-13922.164013643744
-8154.721040096408,-24910.59451229507,-31736.638454990203,-13924.220374133633
-8129.329458395178,-24890.47794228529,-31740.08062363632,-13933.42929284922
-8136.973754998894,-24896.49056154377,-31740.415899803156,-13932.870499237835
-8171.104868782148,-24919.155230421453,-31739.45477479157,-13937.89964174028
-8184.448860221966,-24924.76551827973,-31741.734652726016,-13941.319458641943
-8171.28368273779,-24912.047375684662,-31751.90469645318,-13942.615859820353
-8146.607356859131,-24894.27773884269,-31754.51985055445,-13942.593508075895
-8149.267214449313,-24897.42933481089,-31752.32937959783,-13947.71205755616
-8180.671415409019,-24922.17271592292,-31750.85416446378,-13945.90156625528
-8194.90947662705,-24935.337893407097,-31745.981484172524,-13950.37191514634
-8176.134011284592,-24921.43510835589,-31750.13890864121,-13953.657621581273
-8151.837665061673,-24907.107640160044,-31744.886248694213,-13948.561423845462
-8161.583025644187,-24915.69071003088,-31740.058271891867,-13934.61393530535
-8197.211706305947,-24940.07646323162,-31742.76283297096,-13940.0901126969
-8208.231116322413,-24943.339817922097,-31748.082548151324,-13957.368011160854
-8196.04941559427,-24933.192125939386,-31753.111690653765,-13961.592490862906
-8165.13695301258,-24915.198971652862,-31749.937742941114,-13948.76258954556
-8167.908569325039,-24919.7810792662,-31748.216658618054,-13955.401057648784
-8201.212668563447,-24943.831556300112,-31739.23125734702,-13950.37191514634
-8206.308866299256,-24945.26206794525,-31734.42563228913,-13936.75970277306
-8201.637351708097,-24944.61386735605,-31749.62481851874,-13954.57404310394
-8182.370147987623,-24934.57793409561,-31749.42365281864,-13953.188234947713
-8174.1670577725245,-24927.55948633665,-31745.15446962768,-13953.724676814638
-8204.028988364815,-24948.95010578038,-31742.58401901532,-13979.13861026032
-8219.384636805611,-24957.55552739567,-31728.591826986296,-13961.838360051914
-8211.62858147962,-24949.419492413937,-31735.967902656543,-13944.2922406545
-8190.7744039028175,-24932.90155326147,-31740.684120736616,-13954.216415192655
-8199.133956329102,-24939.65178008697,-31738.20307710208,-13950.304859912976
-8227.610078765163,-24958.159024495963,-31743.209867860067,-13950.886005268814
-8224.346724074689,-24952.86166106005,-31730.55878049836,-13941.922955742237
-8212.120319857637,-24944.36799816704,-31730.156449098165,-13948.315554656454
-8179.240903763879,-24922.55269557866,-31729.575303742327,-13954.104656470376
-8184.225342777413,-24929.906419504456,-31731.788126443404,-13948.919051756748
-8215.741302459395,-24954.292172705194,-31736.03495788991,-13945.968621488646
-8224.77140721934,-24957.689637862404,-31739.052443391374,-13945.47688311063
-8209.929848901016,-24944.055073744665,-31738.33718756881,-13940.648906308284
-8191.914342870038,-24937.59541959708,-31747.09907139529,-13955.62457509334
-8196.295284783278,-24943.295114433186,-31739.3430160693,-13953.165883203255
-8216.613020493152,-24950.85000405908,-31726.960149641058,-13951.042467480002
-8218.334104816211,-24945.351474923074,-31722.936835639102,-13945.879214510824
-8207.940543644494,-24937.483660874805,-31734.31387356685,-13944.962792988155
-8190.170906802525,-24929.12410844852,-31742.62872250423,-13945.186310432711
-8201.659703452553,-24940.389387653995,-31737.018434645943,-13941.364162130852
-8230.381695077622,-24960.394198941496,-31730.581132242816,-13940.313630141454
-8239.747076004396,-24964.10458852108,-31741.466431792556,-13957.390362905307
-8218.758787960862,-24945.329123178617,-31749.44600456309,-13963.157112974775
-8189.47800272441,-24923.7820415237,-31748.79780397389,-13951.37774364683
-8202.799642419774,-24936.79075679669,-31748.95426618508,-13951.243633180098
-8230.67226775554,-24954.806262827668,-31739.030091646924,-13943.085246453911
-8243.412762095066,-24958.494300662795,-31741.980521915026,-13952.696496569692
-8232.505110800876,-24945.105605734065,-31742.22639110403,-13957.926804772236
-8204.565430231742,-24924.07261420162,-31751.85999296427,-13970.935520045225
-8210.62275297913,-24931.158117193954,-31747.926085940137,-13974.176522991243
-8235.276727113334,-24947.27372494623,-31729.21767583104,-13965.168769975757
-8246.139674918613,-24953.12988199352,-31730.11174560925,-13964.319403686452
-8235.29907885779,-24946.334951679102,-31736.66080673466,-13967.918034543758
-8197.032892350304,-24920.049300199666,-31744.975655672035,-13978.468057926662
-8197.524630728321,-24923.64793105697,-31750.116556896755,-13987.788735364526
-8235.67905851353,-24956.437940172906,-31745.981484172524,-13972.0978107569
-8238.987116692915,-24961.757655353267,-31744.930952183124,-13955.62457509334
-8213.014389635848,-24941.32816092112,-31739.72299572504,-13946.66152556676
-8174.032947305793,-24916.182448408897,-31732.033995632413,-13942.839377264903
-8180.917284598027,-24926.86658225853,-31733.33039681082,-13950.48367386862
-8214.020218136337,-24956.482643661817,-31729.4411932756,-13946.505063355571
-8218.445863538487,-24961.02004778624,-31730.156449098165,-13943.062894709456
-8202.2855522973,-24949.86652730305,-31735.16323985616,-13946.99680173359
-8169.450839692455,-24928.431204370405,-31738.04661489089,-13952.249461680589
-8179.911456097539,-24941.775195810224,-31728.256550819464,-13954.395229148296
-8210.332180301211,-24966.339762966607,-31728.256550819464,-13946.683877311216
-8215.450729781476,-24969.670172890448,-31724.434402517607,-13936.200909161676
-8197.524630728321,-24955.208594227865,-31723.09329785029,-13944.38164763232
-8171.216627504424,-24937.103681219065,-31735.699681723083,-13954.171711703744
-8177.430412463,-24942.87043128853,-31737.35371081277,-13952.04829598049
-8206.822956421729,-24961.2435652308,-31737.778393957426,-13944.828682521424
-8209.616924478642,-24956.86262331756,-31739.9912166585,-13934.077493438424
-8193.031930092804,-24941.30580917666,-31741.488783537006,-13931.417635848242
-8164.108772767637,-24921.34570137807,-31746.607333017277,-13935.619763805838
-8161.828894833196,-24923.580875823605,-31745.8920771947,-13939.218394663145
-8183.733604399396,-24939.741187064792,-31739.09714688029,-13940.76066503056
-8191.3331975142,-24945.01619875624,-31736.504344523477,-13934.85980449436
-8170.3449094706675,-24929.146460192977,-31734.33622531131,-13931.305877125964
-8138.985411999872,-24911.153305906453,-31733.486859022007,-13923.192193888688
-8148.797827815752,-24925.6819398024,-31739.007739902467,-13922.253420621566
-8178.480944452399,-24950.55943138116,-31743.23221960452,-13925.47207182313
-8175.083479295192,-24944.36799816704,-31730.40231828717,-13913.960923428647
-8152.195292972958,-24927.31361714764,-31720.81341991585,-13901.689815722682
-8124.3897228705555,-24912.02502394021,-31720.165219326645,-13889.41870801672
-8131.162301440514,-24919.64696879947,-31726.20019032957,-13895.028995875002
-8156.620938375108,-24936.76840505224,-31729.15062059768,-13905.489612280086
-8149.982470271882,-24927.201858425364,-31720.835771660302,-13893.777298185503
-8138.314859666212,-24920.876314744517,-31715.85133264677,-13898.113536609831
-8106.105995906115,-24903.576064536104,-31719.76288792645,-13906.808365202947
-8103.3120278492015,-24909.40986983894,-31728.3906612862,-13899.633455232795
-8116.253687888824,-24920.96572172233,-31730.447021776086,-13897.152411598256
-8097.254705101813,-24908.44874482736,-31727.116611852245,-13893.822001674414
-8062.654204684998,-24889.0250788957,-31725.775507184924,-13893.263208063032
-8022.510471643266,-24871.00957286472,-31730.26820782044,-13883.383737013786
-8007.378340647023,-24870.33902053106,-31733.464507277557,-13886.98236787109
-8013.905050027973,-24880.48671251377,-31726.75898394096,-13884.32251028091
-8004.584372590109,-24878.653869468435,-31736.258475334464,-13891.497420251062
-7979.259846122247,-24864.661677439413,-31753.178745887133,-13899.499344766064
-7943.631165460488,-24846.132081285967,-31763.52760356994,-13903.589714001384
-7948.503845751745,-24859.29725877014,-31745.75796672797,-13902.025091889513
-7968.709822739342,-24873.714133943813,-31728.45771651956,-13886.98236787109
-7965.357061071046,-24868.10384608553,-31732.57043749934,-13887.965844627124
-7943.80997941613,-24853.53050870067,-31736.817268945848,-13895.453679019653
-7914.171566268393,-24841.594677161534,-31730.80464968737,-13883.853123647348
-7931.561223454621,-24864.25934603922,-31726.46841126304,-13891.36330978433
-7962.116058125027,-24888.555692262136,-31718.824114659325,-13886.84825740436
-7970.4309070624,-24897.13876213297,-31734.962074156057,-13885.596559714862
-7951.81190393113,-24886.298166072156,-31722.02041411644,-13878.667518933717
-7931.114188565516,-24876.463398511816,-31716.790105913893,-13883.920178880711
-7938.110284580027,-24884.26415732672,-31726.669576963137,-13899.745213955071
-7955.231720832792,-24894.791828965168,-31719.025280359423,-13872.65489967524
-7955.566996999622,-24895.574140021105,-31710.06223083285,-13868.899806606749
-7942.513578237722,-24887.01342189472,-31716.924216380623,-13876.901731121749
-7925.839176874063,-24879.056200868632,-31733.75507995547,-13888.0776033494
-7934.265784533714,-24886.991070150267,-31736.66080673466,-13890.089260350378
-7960.640842990976,-24903.106677902542,-31737.62193174624,-13889.08343184989
-7971.973177429817,-24910.035718683688,-31753.67048426515,-13905.780184958005
-7953.756505698741,-24897.36227957753,-31743.768661471448,-13899.61110348834
-7927.80613038613,-24877.33511654557,-31736.638454990203,-13891.542123739971
-7938.825540402597,-24880.88904391397,-31731.16227759865,-13886.580036470896
-7974.297758853168,-24902.21260812433,-31742.98635041551,-13898.85114417686
-7981.517372312233,-24900.245654612263,-31750.250667363485,-13909.84820244887
-7964.038308148183,-24879.905567157934,-31741.42172830364,-13897.599446487362
-7946.089857350571,-24869.73552343077,-31748.77545222944,-13887.18353357119
-7965.535875026689,-24891.79669520816,-31748.350769084787,-13902.829754689905
-7992.246209650781,-24909.365166350028,-31738.2924840799,-13904.014397146037
-7994.257866651758,-24906.951177948857,-31736.884324179213,-13898.314702309932
-7982.567904301633,-24896.78113422169,-31743.00870215997,-13899.566399999429
-7961.154933113448,-24883.30303231514,-31749.222487118543,-13903.008568645546
-7970.028575662205,-24890.947328918857,-31746.316760339352,-13908.75296697056
-7998.862326009551,-24908.247579127263,-31741.108803881267,-13907.27775183651
-8013.122738972037,-24915.26602688623,-31750.362426085765,-13901.712167467138
-8001.030445221716,-24905.40890758144,-31745.71326323906,-13897.80061218746
-7972.777840230208,-24886.09700037205,-31734.403280544677,-13886.289463792977
-7983.193753146381,-24898.032831911187,-31733.822135188835,-13886.155353326243
-8013.145090716493,-24921.21159091134,-31728.770640941937,-13880.857989890335
-8023.270430954747,-24927.71594854784,-31732.726899710528,-13882.713184680128
-8013.592125605599,-24918.97641646581,-31735.25264683397,-13890.13396383929
-7987.86526773754,-24898.9269016894,-31733.28569332191,-13891.586827228884
-7996.716558541842,-24903.33019534709,-31732.95041715508,-13888.41287951623
-8029.797140335696,-24924.89962874647,-31732.14575435469,-13896.347748797863
-8043.54346317571,-24934.30971316215,-31737.15254511268,-13890.536295239484
-8030.4453409249,-24924.720814790824,-31745.08741439431,-13885.060117847934
-8005.523145857232,-24907.21939888232,-31753.75989124297,-13896.79478368697
-8013.793291305697,-24912.159134406946,-31754.0951674098,-13896.101879608856
-8045.465713198867,-24931.180468938408,-31732.413975288157,-13892.190324329178
-8058.742649405319,-24936.8354602856,-31729.016510130947,-13893.978463885602
-8051.053649312694,-24926.68776830289,-31743.25457134897,-13904.215562846131
-8032.121721759048,-24913.299073374164,-31751.971751686546,-13910.585810015897
-8037.732009617331,-24918.439974598885,-31738.627760246727,-13883.204923058143
-8069.180914065947,-24937.684826574903,-31729.999986886975,-13879.60629220084
-8077.831039170152,-24937.237791685795,-31722.51215249445,-13884.255455047543
-8068.59976871011,-24925.547829335672,-31726.714280452048,-13887.496457993562
-8046.762114377274,-24912.06972742912,-31734.13505961121,-13895.096051108369
-8056.26160577078,-24920.853963000056,-31733.53156251092,-13890.98333012859
-8081.78729793874,-24933.08036721711,-31721.37221352723,-13872.431382230689
-8096.070062645682,-24939.674131831423,-31733.240989833,-13883.540199224974
-8085.654149729508,-24930.442861371383,-31736.683158479114,-13888.189362071678
-8059.904940116995,-24914.103736174555,-31731.072870620832,-13884.858952147835
-8072.667786200976,-24930.01817822673,-31734.827963689324,-13894.246684819063
-8105.591905783643,-24950.9394110369,-31727.965978141547,-13903.097975623366
-8120.70168503543,-24955.543870394693,-31729.21767583104,-13891.36330978433
-8105.904830206017,-24941.81989929913,-31730.13409735371,-13885.663614948227
-8080.133268849047,-24923.111489190043,-31733.911542166657,-13883.629606202794
-8086.861143930095,-24927.73830029229,-31727.921274652635,-13881.930873624193
-8114.622010543587,-24944.1891842114,-31715.828980902315,-13881.930873624193
-8125.46260660441,-24947.966629024344,-31719.04763210388,-13887.69762369366
-8115.136100666059,-24935.002617240265,-31725.41787927364,-13877.08054507739
-8092.203210854914,-24916.160096664444,-31732.07869912132,-13875.873550876804
-8100.138080136548,-24920.40692811095,-31732.01164388796,-13879.807457900935
-8126.870766505095,-24934.30971316215,-31722.623911216728,-13875.158295054234
-8144.238071946868,-24945.84321330109,-31729.46354502005,-13867.469294961607
-8135.833816031673,-24940.389387653995,-31731.65401597667,-13869.07862056239
-8106.709493006408,-24916.182448408897,-31740.28178933642,-13881.41678350172
-8119.248821645835,-24923.84909675707,-31739.52183002494,-13889.105783594345
-8152.463513906421,-24942.98219001081,-31733.017472388445,-13883.2272748026
-8160.778362843796,-24943.11630047754,-31734.0903561223,-13886.356519026342
-8143.791037057762,-24925.52547759121,-31733.039824132906,-13882.377908513296
-8120.075836190682,-24907.867599471523,-31730.357614798264,-13875.493571221064
-8132.123426452092,-24915.914227475438,-31725.037899617902,-13873.146638053257
-8162.231226233391,-24933.46034687285,-31727.116611852245,-13874.30892876493
-8170.993110059871,-24935.02496898472,-31731.408146787664,-13871.917292108214
-8152.75408658434,-24917.63531179849,-31727.22837057452,-13873.772486898004
-8125.507310093321,-24900.759744734736,-31739.365367813756,-13894.112574352332
-8140.795903300751,-24917.8811809875,-31748.50723129597,-13906.003702402557
-8168.534418169787,-24938.26597193074,-31743.29927483789,-13886.065946348424
-8177.877447352105,-24941.0375882432,-31739.790050958403,-13860.36144022482
-8166.254540235346,-24929.99582648228,-31741.645245748197,-13863.31187049292
-8145.556824869732,-24915.869523986523,-31754.20692613208,-13873.638376431272
-8163.61703438962,-24930.912248004945,-31763.61701054776,-13882.199094557654
-8199.871563896128,-24952.90636454897,-31750.161260385667,-13876.767620655017
-8201.659703452553,-24945.284419689702,-31741.53348702592,-13874.621853187306
-8188.04749107927,-24928.1853351814,-31745.33328358332,-13878.332242766886
-8172.1106972826365,-24913.299073374164,-31748.820155718346,-13875.493571221064
-8187.376938745611,-24922.440936856383,-31743.768661471448,-13879.2263125451
-8221.642162995597,-24942.87043128853,-31744.21569636056,-13887.429402760195
-8229.264107854857,-24943.049245244176,-31746.69673999509,-13891.832696417892
-8212.85792742466,-24929.861716015545,-31751.56942028635,-13892.03386211799
-8188.583932946198,-24913.72375651881,-31743.075757393333,-13899.70051046616
-8199.871563896128,-24924.07261420162,-31739.812402702857,-13893.643187718772
-8229.889956699606,-24942.065768488144,-31742.47226029304,-13884.031937602991
-8246.318488874256,-24953.331047693617,-31750.831812719323,-13887.116478337824
-8232.348648589688,-24939.674131831423,-31750.943571441603,-13881.997928857558
-8202.2855522973,-24915.46719258633,-31741.108803881267,-13878.578111955896
-8215.987171648405,-24929.057053215158,-31742.58401901532,-13883.584902713885
-8250.833541254227,-24957.153195995477,-31743.16516437116,-13885.46244924813
-8253.739268033418,-24957.75669309577,-31742.204039359574,-13886.736498682085
-8238.897709715095,-24948.52542263573,-31735.43146078962,-13885.350690525853
-8220.323410072733,-24939.04828298668,-31749.35659758528,-13904.215562846131
-8231.834558467217,-24945.351474923074,-31751.48001330853,-13913.491536795083
-8263.909311760583,-24962.69642862039,-31746.89790569519,-13904.37202505732
-8271.888884531127,-24961.2435652308,-31750.921219697146,-13903.835583190392
-8265.004547238892,-24955.387408183506,-31744.1933446161,-13889.239894061076
-8244.172721406547,-24942.22223069933,-31736.146716612187,-13890.871571406316
-8252.576977321742,-24948.145442979985,-31734.0903561223,-13894.64901621926
-8276.247474699912,-24961.95882105337,-31731.363443298756,-13888.636396960785
-8279.68964334603,-24962.20469024237,-31715.538408224395,-13876.208827043632
-8268.78199205184,-24954.9403732944,-31719.00292861497,-13885.954187626146
-8244.463294084466,-24938.26597193074,-31724.47910600652,-13900.885152922292
-8254.163951178069,-24945.060902245157,-31737.51017302396,-13903.27678957901
-8285.657559115596,-24967.61381240056,-31727.85421941927,-13882.154391068743
-8295.268809231378,-24974.27463224824,-31728.323606052832,-13875.31475726542
-8281.611893369185,-24965.93743156641,-31736.973731157035,-13878.332242766886
-8254.767448278362,-24949.732416836312,-31743.589847515806,-13891.251551062054
-8261.227102425946,-24955.968553539344,-31746.540277783904,-13890.35748128384
-8290.440832429033,-24976.308640993677,-31745.75796672797,-13887.004719615546
-8296.721672620974,-24975.146350282,-31752.23997262001,-13889.977501628102
-8287.713919605485,-24967.122074022544,-31756.28563836642,-13892.212676073632
-8259.01427972487,-24947.65370460197,-31744.014530660457,-13900.013434888537
-8263.417573382565,-24946.58082086812,-31739.72299572504,-13894.26903656352
-8292.02780628536,-24962.13763500901,-31736.772565456937,-13892.03386211799
-8302.354312223712,-24968.50788217877,-31738.33718756881,-13901.332187811398
-8291.916047563082,-24961.355323953077,-31746.33911208381,-13911.792804216482
-8267.552646106798,-24945.91026853445,-31755.90565871068,-13913.715054239638
-8276.202771211001,-24951.85583255957,-31756.844431977803,-13914.60912401785
-8306.377626225665,-24970.050152546188,-31747.926085940137,-13910.51875478253
-8309.193946027035,-24966.80914960017,-31736.37023405674,-13906.070757635924
-8294.97823655346,-24953.107530249064,-31734.917370667143,-13902.025091889513
-8268.290253673822,-24934.64498932898,-31744.930952183124,-13908.12711812581
-8278.057966000792,-24944.882088289512,-31747.233181862022,-13911.636342005297
-8304.589486669242,-24961.84706233109,-31741.399376559184,-13910.921086182723
-8321.196832799535,-24971.81594035816,-31749.267190607454,-13918.341865341888
-8312.524355950876,-24959.701294863386,-31754.0951674098,-13915.793766473982
-8284.227047470456,-24936.701349818868,-31751.792937730905,-13911.077548393912
-8295.760547609396,-24946.89374529049,-31751.54706854189,-13920.331170598409
-8320.928611866071,-24961.0423995307,-31743.85806844927,-13913.491536795083
-8322.940268867049,-24956.192070983896,-31740.102975380774,-13908.484746037097
-8310.803271627818,-24945.686751089903,-31749.468356307552,-13918.94536244218
-8284.964655037482,-24927.26891365873,-31757.738501756012,-13919.347693842376
-8292.363082452188,-24931.180468938408,-31756.82208023335,-13913.156260628257
-8314.424254229576,-24936.142556207487,-31741.935818426115,-13903.388548301284
-8322.001495599925,-24923.17854442341,-31741.42172830364,-13900.862801177836
-8302.890754090638,-24890.88027368549,-31734.20211484458,-13903.835583190392
-8270.078393230247,-24851.78707263316,-31729.128268853223,-13908.507097781552
-8285.523448648864,-24853.642267422947,-31729.86587642025,-13913.916219939736
-8310.64680941663,-24855.810386635112,-31727.787164185906,-13912.485708294596
-8318.671085676086,-24839.53831667165,-31724.881437406715,-13903.165030856731
-8303.002512812915,-24808.24587443422,-31739.298312580388,-13920.66644676524
-8270.3019106748,-24771.074923405045,-31748.171955129143,-13927.304914868464
-8274.884018288138,-24760.346086066496,-31739.85710619177,-13913.938571684192
-8298.97919881096,-24764.727027979738,-31725.12730659572,-13907.054234391955
-8299.180364511058,-24752.36651329595,-31730.51407700945,-13904.997873902068
-8278.616759612174,-24724.315074004546,-31738.51600152445,-13908.41769080373
-8249.850064498194,-24696.822428324514,-31740.48295503652,-13916.710187996649
-8256.15325643459,-24695.9283585463,-31743.56749577135,-13920.532336298507
-8279.980216023949,-24704.64553888387,-31736.37023405674,-13911.99396991658
-8275.867495044171,-24691.525064888607,-31726.31194905185,-13900.527525011006
-8261.182398937035,-24675.051829225045,-31733.732728211016,-13907.143641369776
-8239.210634137467,-24657.97509646119,-31749.55776328537,-13920.934667698702
-8240.238814382412,-24655.20348014873,-31746.67438825064,-13916.46431880764
-8260.198922181002,-24661.95370697424,-31726.20019032957,-13902.159202356244
-8266.949149006505,-24661.707837785227,-31726.35665254076,-13907.367158814332
-8246.944337719004,-24641.054825908523,-31733.95624565557,-13908.0824146369
-8223.385599063111,-24616.22203781868,-31735.94555091209,-13909.84820244887
-8234.427360824033,-24615.998520374123,-31741.17585911463,-13915.816118218438
-8257.762582035373,-24620.26770356509,-31738.605408502277,-13921.582868287906
-8259.01427972487,-24607.124877825365,-31735.7890887009,-13915.99493217408
-8238.003639936882,-24581.19685425721,-31738.51600152445,-13911.301065838465
-8203.023159864326,-24545.970504995646,-31729.821172931337,-13902.226257589611
-8210.041607623292,-24545.836394528917,-31737.15254511268,-13909.9823129156
-8234.762636990861,-24554.642981844307,-31741.84641144829,-13912.642170505784
-8239.277689370834,-24547.222202685145,-31728.70358570857,-13901.712167467138
-8224.30202058578,-24529.586676309907,-31720.679309449115,-13904.75200471306
-8198.642217951086,-24505.60325450936,-31732.168106099143,-13910.406996060252
-8202.509069741855,-24502.56341726344,-31738.27013233544,-13908.104766381355
-8230.202881121979,-24515.907408703257,-31731.85518167677,-13902.673292478716
-8236.126093402636,-24514.275731358022,-31729.91057990916,-13902.203905845156
-8222.715046729452,-24501.3340713184,-31730.447021776086,-13895.207809830645
-8197.748148172874,-24484.525559488007,-31734.20211484458,-13900.393414544274
-8205.459500009954,-24488.437114767687,-31726.55781824086,-13904.32732156841
-8235.522596302342,-24509.134830133306,-31728.882399664213,-13901.712167467138
-8238.204805636979,-24509.447754555677,-31722.2886350499,-13899.253475577054
-8227.967706676449,-24502.67517598572,-31730.84935317628,-13899.879324421803
-8201.458537752455,-24484.16793157672,-31723.27211180593,-13895.230161575098
-8209.706331456462,-24489.822922923915,-31712.74444016748,-13891.028033617502
-8239.121227159647,-24509.246588855574,-31714.66669019064,-13896.03482437549
-8244.373887106643,-24508.10664988836,-31710.397506999678,-13893.263208063032
-8227.990058420904,-24491.588710735883,-31709.8834168772,-13899.454641277152
-8206.420625021532,-24476.814207650925,-31717.81828615884,-13906.27192333602
-8222.044494395792,-24490.51582700203,-31721.4392687606,-13906.920123925223
-8253.024012210848,-24510.163010378245,-31726.60252172977,-13900.147545355268
-8257.181436679535,-24507.391394065788,-31716.387774513696,-13887.049423104458
-8245.133846418124,-24497.44486778317,-31715.22548380202,-13895.65484471975
-8222.15625311807,-24485.1290565883,-31716.32071928033,-13894.425498774708
-8230.225232866434,-24494.002699137058,-31716.23131230251,-13903.254437834554
-8257.20378842399,-24511.772335979025,-31721.21575131604,-13916.240801363088
-8264.468105371965,-24511.72763249012,-31710.01752734393,-13899.40993778824
-8249.894767987105,-24496.75196370506,-31714.331414023807,-13909.46822279313
-8227.967706676449,-24485.21846356612,-31735.319702067343,-13937.363199873353
-8243.166892906058,-24498.76362070604,-31727.764812441448,-13916.106690896357
-8271.978291508949,-24511.548818534477,-31716.432478002607,-13898.448812776664
-8282.707128847496,-24509.15718187776,-31718.220617559036,-13908.820022203929
-8272.44767814251,-24493.84623692587,-31721.0369373604,-13909.155298370755
-8243.368058606155,-24468.208786035637,-31737.2419520905,-13926.410845090251
-8257.673175057553,-24475.875434383805,-31724.859085662258,-13918.923010697725
-8291.133736507147,-24494.29327181497,-31719.04763210388,-13903.500307023563
-8297.012245298893,-24487.923024645213,-31723.808553672858,-13909.51292628204
-8287.892733561128,-24474.51197797203,-31731.85518167677,-13916.41961531873
-8264.87043677216,-24453.948373073148,-31746.71909173955,-13919.459452564652
-8270.167800208068,-24454.194242262158,-31735.699681723083,-13903.924990168214
-8297.191059254536,-24466.33123950139,-31719.673480948622,-13890.55864698394
-8298.59921915522,-24457.435245208177,-31718.46648674804,-13888.83756266088
-8289.435003928544,-24444.962971802117,-31721.506323993963,-13896.124231353311
-8273.051175242803,-24435.6199426198,-31734.492687522496,-13915.972580429623
-8285.366986437677,-24445.70057936914,-31732.346920054784,-13913.89386819528
-8314.960696096503,-24459.871585353805,-31725.037899617902,-13905.601371002362
-8325.443664246042,-24460.31862024291,-31735.207943345064,-13913.04450190598
-8315.094806563236,-24452.271992239,-31733.397452044184,-13928.154281157767
-8290.060852773291,-24434.859983308317,-31734.38092880022,-13927.036693935
-8300.588524411742,-24444.203012490638,-31733.039824132906,-13919.682970009206
-8321.97914385547,-24456.138844029767,-31721.528675738416,-13908.909429181747
-8324.147263067634,-24450.439149193666,-31721.551027482878,-13901.287484322487
-8309.305704749311,-24440.090291510856,-31728.3906612862,-13903.32149306792
-8281.343672435722,-24423.997035503035,-31735.52086776744,-13904.193211101678
-8286.216352726979,-24429.763785572504,-31736.48199277902,-13914.676179251215
-8305.282390747356,-24443.420701434698,-31721.193399571588,-13910.764623971538
-8299.694454633529,-24437.43043392068,-31713.727916923515,-13897.174763342711
-8284.294102703823,-24432.40129141823,-31711.91742562264,-13889.239894061076
-8256.041497712315,-24418.185581944657,-31713.99613785698,-13897.1300598538
-8259.103686702692,-24426.74630007104,-31713.526751223417,-13909.065891392936
-8274.749907821406,-24440.492622911053,-31704.80957088585,-13891.765641184527
-8268.714936818473,-24437.676303109685,-31711.470390733528,-13897.219466831622
-8249.023049953348,-24431.462518151107,-31734.24681833349,-13923.505118311065
-8223.698523485486,-24426.12045122629,-31739.633588747216,-13931.931725970711
-8232.639221267607,-24437.206916476123,-31726.893094407693,-13914.89969669577
-8259.103686702692,-24452.40610270573,-31720.1875710711,-13897.778260443003
-8263.01524198237,-24451.04264629396,-31724.434402517607,-13899.454641277152
-8250.565320320764,-24442.861907823317,-31730.51407700945,-13905.1319843688
-8221.329238573222,-24423.818221547397,-31731.76577469895,-13899.007606388046
-8228.593555521198,-24430.993131517545,-31727.40718453016,-13891.65388246225
-8255.415648867565,-24443.55481190143,-31718.913521637147,-13888.569341727418
-8265.87626527265,-24439.017407777003,-31720.70166119357,-13889.172838827712
-8253.58280582223,-24422.54417211344,-31728.45771651956,-13901.80157444496
-8229.4429218105,-24401.667642792185,-31741.734652726016,-13919.548859542474
-8234.33795384621,-24402.3605468703,-31742.80753645987,-13916.41961531873
-8260.713012303473,-24412.709404553105,-31729.17297234213,-13902.695644223171
-8269.743117063417,-24407.92613123967,-31722.445097261087,-13893.777298185503
-8255.080372700737,-24388.457761819096,-31728.725937453022,-13892.0785656069
-8228.258279354368,-24365.77074119696,-31732.637492732705,-13900.527525011006
-8237.780122492328,-24369.704648221094,-31734.492687522496,-13907.210696603144
-8271.531256619843,-24388.860093219293,-31733.12923111072,-13902.717995967629
-8284.428213170555,-24391.385840342744,-31735.90084742318,-13904.148507612766
-8266.837390284229,-24371.470436033065,-31737.577228257327,-13905.176687857713
-8236.193148636003,-24343.48605197502,-31733.30804506637,-13907.747138470071
-8250.25239589839,-24349.476319489044,-31722.310986794357,-13900.304007566454
-8282.952998036504,-24365.055485374392,-31727.675405463626,-13902.136850611789
-8295.82760284276,-24367.670639475666,-31730.0893938648,-13897.3312255539
-8284.763489337383,-24355.04190385841,-31726.960149641058,-13904.595542501873
-8263.127000704646,-24338.211040283568,-31729.41884153114,-13909.647036748773
-8275.73338457744,-24343.1954792971,-31731.45285027657,-13907.680083236704
-8309.082187304759,-24361.322744050354,-31730.491725264998,-13902.673292478716
-8321.710922922006,-24362.30622080639,-31729.35178629777,-13903.567362256928
-8309.2610012604,-24348.71636017756,-31728.167143841645,-13902.203905845156
-8289.524410906364,-24335.59588618229,-31728.61417873075,-13907.389510558784
-8303.31543723529,-24343.664865930663,-31736.10201312328,-13915.100862395868
-8332.663277705107,-24359.82517717185,-31737.733690468514,-13908.641208248284
-8336.530129495875,-24357.83587191533,-31731.542257254398,-13897.89001916528
-8324.236670045457,-24345.60946769828,-31729.597655486785,-13898.89584766577
-8304.097748291224,-24332.35488323628,-31736.213771845552,-13907.903600681258
-8318.22405078698,-24343.418996741653,-31739.47712653603,-13904.215562846131
-8345.60493774473,-24355.33247653633,-31731.18462934311,-13900.907504666748
-8352.802199459338,-24351.37621776774,-31729.21767583104,-13901.80157444496
-8340.821664431294,-24335.99821758249,-31726.58016998532,-13902.60623724535
-8319.229879287468,-24320.888438330705,-31728.770640941937,-13919.191231631188
-8327.567079969296,-24326.90105758918,-31736.03495788991,-13925.494423567585
-8353.785676215371,-24343.731921164028,-31744.1933446161,-13920.867612465336
-8358.41248731762,-24344.87186013125,-31746.652036506184,-13916.598429274372
-8334.339658539255,-24324.218848254543,-31752.128213897733,-13915.99493217408
-8297.995722054926,-24300.078964242814,-31738.40424280217,-13913.37977807281
-8301.393187212132,-24305.57749337882,-31730.2905595649,-13919.526507798018
-8328.349391025233,-24324.48706918801,-31741.26526609245,-13922.61104853285
-8332.372705027188,-24326.118746533248,-31733.30804506637,-13915.123214140322
-8319.02871358737,-24318.47444992953,-31737.778393957426,-13921.89579271028
-8292.139565007636,-24302.49295264399,-31745.75796672797,-13921.314647354442
-8297.124004021169,-24309.757269591963,-31745.176821372133,-13922.834565977404
-8316.659428675108,-24324.10708953227,-31737.0407863904,-13917.783071730504
-8321.554460710819,-24327.3927959672,-31740.348844569788,-13920.867612465336
-8311.876155361671,-24319.77085110794,-31742.539315526406,-13922.141661899288
-8288.563285894787,-24303.3870224222,-31753.603429031784,-13917.626609519317
-8298.576867410764,-24310.181952736613,-31749.62481851874,-13914.452661806665
-8324.907222379115,-24325.269380243943,-31741.488783537006,-13919.191231631188
-8330.584565470763,-24325.04586279939,-31741.019396903444,-13923.482766566607
-8315.720655407984,-24311.835981826305,-31739.588885258305,-13929.115406169343
-8291.357253951699,-24295.27333918492,-31730.40231828717,-13925.047388678478
-8300.49911743392,-24303.744650333483,-31727.094260107788,-13920.554688042965
-8323.476710733976,-24316.28397897291,-31719.271149548436,-13911.368121071831
-8328.863481147704,-24315.881647572714,-31722.735669939004,-13915.391435073789
-8314.69247516304,-24305.935121290106,-31725.28376880691,-13914.98910367359
-8285.54580039332,-24286.44440012508,-31731.47520202103,-13911.837507705392
-8293.480669674953,-24293.41814439513,-31737.577228257327,-13917.85012696387
-8318.3134577648,-24308.6396823692,-31729.195324086588,-13922.633400277306
-8322.984972355958,-24309.46669691404,-31722.489800749998,-13914.206792617657
-8307.65167565962,-24295.22863569601,-31726.33430079631,-13912.03867340549
-8281.701300347007,-24281.057629711348,-31733.866838677743,-13910.071719893424
-8287.31158820529,-24286.980841992005,-31716.20896055805,-13898.068833120924
-8319.185175798557,-24307.43268816861,-31705.65893717515,-13893.687891207685
-8326.293030535344,-24306.76213583495,-31710.41985874413,-13896.012472631037
-8313.708998407006,-24293.19462695058,-31725.50728625146,-13907.121289625322
-8289.524410906364,-24274.933251730592,-31731.74342295449,-13913.60329551736
-8295.984065053948,-24277.682516298595,-31725.663748462648,-13920.308818853951
-8320.50392872142,-24291.00415599396,-31717.840637903293,-13905.735481469092
-8325.689533435052,-24292.36761240573,-31719.38290827071,-13908.03771114799
-8308.83631811575,-24279.85063551076,-31725.350824040277,-13911.904562938758
-8275.845143299717,-24256.09073115477,-31726.155486840667,-13904.550839012962
-8284.003530025904,-24263.60091729175,-31724.70262345107,-13898.918199410224
-8313.038446073348,-24284.36568789073,-31722.51215249445,-13898.627626732306
-8321.956792111016,-24288.94779550407,-31728.882399664213,-13911.591638516384
-8299.873268589172,-24271.401676106656,-31726.647225218683,-13913.759757728549
-8269.16197170758,-24251.3745130747,-31726.960149641058,-13905.646074491273
-8270.190151952524,-24254.81668172081,-31721.79689667188,-13894.783126685994
-8294.441794686532,-24275.02265870841,-31724.1885333286,-13904.819059946423
-8297.503983676908,-24278.44247561008,-31727.630701974715,-13908.730615226104
-8279.39907066811,-24266.774865004405,-31733.643321233198,-13908.440042548184
-8256.935567490527,-24256.627173021698,-31739.07479513583,-13915.279676351509
-8271.128925219647,-24272.809836007335,-31728.41301303065,-13905.310798324444
-8295.06764353128,-24289.32777515981,-31715.359594268757,-13898.89584766577
-8300.856745345205,-24291.451190883065,-31723.18270482811,-13904.75200471306
-8285.098765504214,-24278.06249595433,-31726.33430079631,-13905.333150068898
-8256.667346557064,-24257.387132333177,-31734.47033577804,-13920.353522342864
-8263.462276871476,-24262.19275739107,-31729.552951997877,-13921.962847943649
-8288.898562061615,-24278.956565732547,-31721.014585615947,-13911.770452472028
-8293.92770456406,-24282.622251823217,-31723.070946105832,-13908.685911737191
-8277.230951455946,-24270.552309817354,-31723.51798099494,-13898.158240098744
-8249.939471476016,-24251.77684447489,-31725.775507184924,-13901.913333167236
-8266.122134461659,-24266.685458026583,-31729.08356536431,-13915.100862395868
-8294.084166775247,-24284.52215010192,-31723.026242616925,-13922.789862488493
-8299.873268589172,-24285.550330346865,-31725.663748462648,-13924.846222978382
-8284.517620148375,-24276.497873842465,-31730.625835731727,-13925.740292756593
-8254.163951178069,-24257.05185616635,-31735.90084742318,-13929.763606758548
-8257.807285524284,-24263.84678648076,-31733.93389391111,-13922.700455510672
-8279.041442756825,-24277.548405831865,-31724.412050773157,-13914.98910367359
-8284.83054457075,-24282.108161700748,-31725.12730659572,-13913.692702495182
-8265.83156178374,-24270.641716795173,-31723.294463550388,-13909.624685004315
-8236.081389913725,-24255.643696265663,-31733.866838677743,-13919.682970009206
-8239.657669026574,-24265.299649870354,-31729.4411932756,-13929.070702680434
-8262.076468715248,-24283.76219079044,-31721.99806237198,-13917.023112419023
-8259.237797169424,-24284.52215010192,-31719.65112920417,-13906.674254736216
-8229.845253210695,-24268.697115027564,-31723.47327750603,-13908.283580336998
-8187.712214912441,-24251.50862354143,-31717.52771348092,-13907.41186230324
-8184.448860221966,-24261.85748122424,-31703.91550110764,-13909.781147215504
-8201.883220897105,-24277.74957153196,-31699.311041749843,-13891.743289440072
-8197.546982472775,-24281.795237278373,-31710.732783166502,-13897.018301131524
-8181.565485187231,-24283.89630125717,-31710.844541888782,-13905.109632624344
-8152.4411621619665,-24273.390981363176,-31715.001966357468,-13923.549821799974
-8151.658851106031,-24276.4308186091,-31710.665727933138,-13905.936647169192
-8172.177752516002,-24292.479371128007,-31709.168161054637,-13892.860876662837
-8177.385708974089,-24295.988595007493,-31719.584073970807,-13898.694681965671
-8162.477095422399,-24285.95266174706,-31723.294463550388,-13903.32149306792
-8132.995144485849,-24265.634926037183,-31718.13121058121,-13907.165993114231
-8136.213795687413,-24269.36766736122,-31713.347937267776,-13909.870554193323
-8165.829857090695,-24289.059554226347,-31710.33045176631,-13907.61302800334
-8174.435278705988,-24291.652356583163,-31719.829943159813,-13898.582923243395
-8161.918301811016,-24280.0294494664,-31714.912559379645,-13893.643187718772
-8135.006801486827,-24261.030466679396,-31707.581187198302,-13900.549876755462
-8137.778417799284,-24261.343391101767,-31712.99030935649,-13908.283580336998
-8165.85220883515,-24278.28601339889,-31712.342108767287,-13912.776280972515
-8170.143743770569,-24277.66016455414,-31710.12928606621,-13911.099900138368
-8155.793923830262,-24263.46680682502,-31720.835771660302,-13915.167917629233
-8125.619068815597,-24241.159765858625,-31720.209922815557,-13919.682970009206
-8125.149682182036,-24243.618457748707,-31714.733745424004,-13923.125138655323
-8148.75312432684,-24260.404617834643,-31707.111800564744,-13922.208717132657
-8151.055354005737,-24259.04116142287,-31713.124419823223,-13924.063911922443
-8130.983487484871,-24246.03244614988,-31717.930044881112,-13911.256362349552
-8100.294542347735,-24230.90031515364,-31721.17104782713,-13910.406996060252
-8108.698798262931,-24242.299704825844,-31711.023355844423,-13911.792804216482
-8128.480092105877,-24256.582469532783,-31699.84748361677,-13916.956057185658
-8135.073856720192,-24258.10238815575,-31703.35670749625,-13921.1358333988
-8118.332400123168,-24240.66802748061,-31707.55883545385,-13912.55276352796
-8090.862106187596,-24218.137469069658,-31708.989347098992,-13908.395339059274
-8102.999103426827,-24225.29002729536,-31713.303233778865,-13915.212621118144
-8124.121501937092,-24236.13062335618,-31710.621024444223,-13914.60912401785
-8123.048618203237,-24232.50964075442,-31706.932986609103,-13901.935684911692
-8107.514155806799,-24219.679739437077,-31713.079716334312,-13913.245667606076
-8080.133268849047,-24203.184152029055,-31719.695832693084,-13916.620781018828
-8081.74259444983,-24208.034480575858,-31712.11859132273,-13906.920123925223
-8102.3732545820785,-24223.83716390576,-31705.18955054159,-13896.504211009053
-8096.964132423894,-24222.250190049435,-31703.446114474074,-13900.438118033186
-8068.845637899118,-24206.536913697357,-31708.69877442107,-13914.206792617657
-8029.68538161342,-24181.83823607424,-31718.064155347845,-13924.980333445114
-8028.880718813029,-24186.64386113213,-31713.4373442456,-13914.787937973491
-8040.838902096618,-24197.752678126417,-31707.84940813177,-13902.762699456538
-8036.614422394565,-24199.764335127395,-31708.22938778751,-13909.289408837489
-8024.209204221869,-24200.72546013897,-31712.878550634214,-13913.938571684192
-7992.4920788397885,-24186.018012287383,-31713.37028901223,-13914.56442052894
-7990.078090438616,-24189.08020127776,-31704.340184252287,-13909.89290593778
-8016.475500640333,-24212.393070744645,-31703.960204596548,-13910.764623971538
-8020.789387320207,-24221.37847201568,-31709.8834168772,-13911.301065838465
-7999.465823109845,-24209.75556489892,-31705.547178452875,-13900.594580244371
-7968.061622150139,-24190.756582111902,-31711.246873288976,-13908.507097781552
-7976.376471087512,-24204.011166573902,-31722.355690283264,-13922.722807255126
-8004.4055586344675,-24223.635998205664,-31711.80566690036,-13910.004664660057
-8004.897297012484,-24219.992663859448,-31707.000041842468,-13898.247647076563
-7988.893447982485,-24211.722518410985,-31705.480123219502,-13892.257379562545
-7974.208351875348,-24208.816791631794,-31716.76775416944,-13905.735481469092
-7988.088785182093,-24223.07720459428,-31720.41108851565,-13912.0833768944
-8022.957506532372,-24248.89346944016,-31720.23227456001,-13914.363254828842
-8036.279146227735,-24256.113082899225,-31712.65503318966,-13914.94440018468
-8028.880718813029,-24248.89346944016,-31721.975710627525,-13916.285504851998
-8004.24909642328,-24230.78855643136,-31725.484934507007,-13911.144603627276
-8010.038198237205,-24234.5212977554,-31719.42761175962,-13904.886115179792
-8043.498759686799,-24255.80015847685,-31718.60059721477,-13910.406996060252
-8059.055573827693,-24264.51733881442,-31723.875608906223,-13916.509022296552
-8045.421009709956,-24252.603859019742,-31721.75219318297,-13911.368121071831
-8024.678590855431,-24241.40563504763,-31722.15452458317,-13916.710187996649
-8030.333582202624,-24244.17725136009,-31712.878550634214,-13909.84820244887
-8055.322832503657,-24258.03533292238,-31707.581187198302,-13899.253475577054
-8068.353899521101,-24263.690324269573,-31711.492742477985,-13904.506135524052
-8056.015736581771,-24250.167518874117,-31719.94170188209,-13913.245667606076
-8032.613460137065,-24231.526163998387,-31722.780373427915,-13917.313685096942
-8040.838902096618,-24234.253076821933,-31719.04763210388,-13916.196097874175
-8070.901998389006,-24248.91582118461,-31713.0350128454,-13912.75392922806
-8082.614312483587,-24248.98287641798,-31717.28184429191,-13914.542068784483
-8071.416088511478,-24231.54851574284,-31720.12051583773,-13913.916219939736
-8046.605652166088,-24212.214256789,-31721.819248416337,-13930.076531180925
-8053.914672602973,-24215.99170160195,-31714.331414023807,-13920.062949664944
-8082.681367716953,-24233.80604193283,-31709.168161054637,-13905.668426235728
-8090.750347465319,-24238.16463210161,-31711.06805933333,-13905.064929135437
-8079.17214383747,-24226.60878021822,-31715.15842856865,-13914.22914436211
-8048.326736489146,-24202.759468884407,-31710.12928606621,-13912.642170505784
-8050.807780123685,-24206.581617186264,-31710.06223083285,-13913.916219939736
-8071.527847233755,-24219.433870248067,-31704.56370169684,-13904.215562846131
-8074.008890868294,-24219.61268420371,-31708.832884887805,-13907.52362102552
-8055.345184248113,-24204.52525669637,-31705.435419730595,-13905.064929135437
-8020.565869875654,-24183.604023886208,-31712.05153608937,-13910.541106526984
-8022.152843731981,-24191.114210023192,-31715.538408224395,-13921.89579271028
-8037.061457283671,-24204.50290495192,-31706.530655208902,-13906.651902991762
-8025.460901911367,-24200.70310839452,-31697.500550448964,-13897.934722654192
-7999.309360898657,-24195.11517228069,-31710.777486655414,-13914.497365295574
-7950.247281819258,-24179.3571924397,-31707.625890687217,-13914.922048440225
-7929.191938542359,-24183.49226516393,-31698.931062094103,-13901.488650022586
-7941.910081137429,-24206.33574799725,-31700.94271909508,-13902.583885500895
-7940.166645069915,-24212.393070744645,-31706.62006218673,-13906.160164613744
-7920.564165182611,-24205.4640299635,-31710.732783166502,-13905.199039602168
-7890.098737490027,-24190.577768156265,-31704.51899820793,-13903.924990168214
-7903.085101018561,-24205.955768341515,-31703.1331900517,-13909.915257682236
-7930.66715367641,-24224.038329605857,-31704.697812163573,-13903.097975623366
-7929.884842620474,-24220.394995259645,-31696.51707369293,-13890.1786673282
-7925.727418151787,-24216.55049521333,-31696.829998115303,-13898.694681965671
-7903.666246374399,-24196.478628692465,-31697.45584696005,-13890.536295239484
-7915.356208724525,-24203.65353866262,-31698.21580627153,-13898.98525464359
-7945.732229439286,-24218.495096980943,-31696.539425437382,-13900.03578663299
-7958.67388947891,-24220.03736734836,-31702.641451673684,-13898.962902899137
-7950.649613219454,-24210.046137576835,-31710.55396921086,-13897.577094742906
-7929.303697264636,-24191.762410612395,-31708.676422676617,-13905.176687857713
-7942.066543348616,-24197.28329149285,-31696.584128926293,-13903.65676923475
-7973.806020475152,-24209.97908234347,-31693.25371900245,-13906.003702402557
-7982.143221156982,-24204.07822180727,-31696.60648067075,-13912.262190850042
-7969.827409962108,-24186.196826243024,-31700.160408039144,-13899.186420343687
-7950.269633563714,-24166.951974267005,-31702.574396440315,-13898.158240098744
-7955.321127810613,-24165.96849751097,-31689.81155035633,-13895.31956855292
-7978.611645533043,-24177.16672148308,-31687.151692766158,-13897.442984276177
-7986.412404347945,-24178.26195696139,-31688.582204411294,-13899.27582732151
-7974.901255953462,-24168.69541033452,-31693.25371900245,-13897.666501720729
-7952.90713940944,-24154.97143923896,-31697.14292253768,-13905.37785355781
-7963.054831392149,-24160.93935500853,-31696.718239393027,-13904.997873902068
-7995.643674807987,-24180.519483151376,-31693.141960280176,-13898.582923243395
-8001.656294066464,-24177.27848020536,-31690.102123034256,-13890.424536517208
-7993.922590484928,-24167.533119622844,-31705.05544007485,-13900.41576628873
-7973.917779197429,-24153.429168871546,-31711.202169800064,-13911.055196649457
-7983.730195013309,-24157.09485496221,-31696.494721948475,-13912.03867340549
-8005.031407479216,-24163.08512247624,-31690.392695712173,-13902.583885500895
-8007.4900993693,-24156.55841309529,-31687.956355566545,-13898.001777887555
-7997.856497509062,-24146.187203668025,-31685.229442743,-13892.123269095811
-7977.829334477107,-24133.580819795232,-31695.600652170266,-13920.37587408732
-7985.406575847456,-24138.67701753104,-31698.707544649547,-13925.09209216739
-8004.182041189914,-24148.93646823603,-31683.620117142214,-13894.045519118969
-8006.77484354673,-24149.40585486959,-31687.17404451061,-13895.431327275195
-7994.146107929481,-24144.041436200318,-31696.22650101501,-13907.076586136413
-7968.754526228253,-24132.23971512791,-31699.623966172217,-13913.826812961915
-7977.024671676716,-24140.711026276476,-31690.347992223265,-13898.22529533211
-8002.505660355767,-24156.178433439545,-31686.101160776758,-13887.876437649304
-8004.629076079021,-24155.06084621678,-31680.69203861857,-13884.36721376982
-7988.982854960305,-24141.135709421123,-31676.087579260777,-13886.155353326243
-7967.391069816479,-24124.61777026865,-31686.03410554339,-13897.688853465184
-7976.1753053874145,-24130.988017438416,-31686.86112008824,-13902.449775034163
-8003.846765023085,-24148.712950791472,-31683.865986331224,-13899.521696510516
-8018.576564619132,-24158.01127648488,-31690.437399201084,-13907.680083236704
-8005.567849346144,-24146.2989623903,-31695.91357659264,-13906.718958225129
-7980.064508922638,-24127.836421470216,-31702.350878995763,-13905.780184958005
-7991.218029405836,-24136.844174485705,-31688.492797433475,-13906.361330313845
-8025.058570511172,-24157.519538106862,-31684.93887006508,-13902.717995967629
-8039.475445684844,-24164.672096332564,-31690.99619281247,-13902.427423289708
-8022.756340832275,-24151.64102931512,-31690.83973060128,-13914.56442052894
-7995.040177707694,-24130.31746510476,-31678.2780502174,-13898.538219754484
-8008.093596469593,-24140.755729765384,-31683.5307101644,-13891.36330978433
-8036.4579601833775,-24157.251317173403,-31683.17308225311,-13881.08150733489
-8039.54250091821,-24154.88203226114,-31684.491835175973,-13890.022205117011
-8029.327753702135,-24148.91411649157,-31687.71048637754,-13902.85210643436
-8007.981837747317,-24136.82182274125,-31691.21971025702,-13909.535278026497
-8010.999323248783,-24140.196936154003,-31679.93207930709,-13900.885152922292
-8032.077018270138,-24155.73139855044,-31670.45493965804,-13896.32539705341
-8031.361762447568,-24156.245488672917,-31671.147843736155,-13894.112574352332
-8014.217974450347,-24144.734340278428,-31682.16725375262,-13906.137812869289
-7975.147125142471,-24117.845191698696,-31681.18377699659,-13898.47116452112
-7972.643729763477,-24124.66247375756,-31680.08854151828,-13883.428440502696
-7994.771956774231,-24147.774177524352,-31681.78727409688,-13883.27197829151
-7988.759337515752,-24148.087101946727,-31680.021486284917,-13890.960978384135
-7965.044136648672,-24137.2465058859,-31691.73380037949,-13905.37785355781
-7932.656458932932,-24122.80727896777,-31690.325640478808,-13900.438118033186
-7929.258993775725,-24127.70231100349,-31674.03121877089,-13889.84339116137
-7946.671002706409,-24143.281476888835,-31673.36066643723,-13890.960978384135
-7948.436790518379,-24145.114319934168,-31673.78534958188,-13886.22240855961
-7939.697258436354,-24141.71685477696,-31680.13324500719,-13880.053327089943
-7921.167662282904,-24133.87139247315,-31680.960259552037,-13883.137867824778
-7935.338668267569,-24145.717817034463,-31684.245965986964,-13902.27096107852
-7963.81479070363,-24162.146349209117,-31681.519053163414,-13902.539182011984
-7973.515447797233,-24163.442750387523,-31687.03993404388,-13904.32732156841
-7963.81479070363,-24152.26687815987,-31693.05255330236,-13910.116423382333
-7940.501921236744,-24131.524459305343,-31697.634660915694,-13908.730615226104
-7955.589348744077,-24140.711026276476,-31690.347992223265,-13905.690777980182
-7982.38909034599,-24155.30671540579,-31683.441303186573,-13891.028033617502
-7991.665064294943,-24160.291154419323,-31690.392695712173,-13904.886115179792
-7986.345349114579,-24153.540927593825,-31696.1817975261,-13920.264115365044
-7969.805058217652,-24142.029779199336,-31705.72599240852,-13928.243688135588
-7982.366738601535,-24153.67503806055,-31709.838713388293,-13912.776280972515
-8008.942962758895,-24170.17062546857,-31699.691021405582,-13903.835583190392
-8012.25102093828,-24168.158968467596,-31690.482102689995,-13904.617894246328
-8000.382244632512,-24158.90534626309,-31689.2304050005,-13908.529449526008
-7973.962482686339,-24144.3990641116,-31695.80181787036,-13922.991028188591
-7985.540686314188,-24159.77706429685,-31694.03603005839,-13915.95022868517
-8007.601858091576,-24176.63027961615,-31688.448093944564,-13915.167917629233
-8004.874945268029,-24176.69733484952,-31685.967050310024,-13907.076586136413
-7983.372567102024,-24166.080256233246,-31686.682306132592,-13905.623722746815
-7957.824523189608,-24153.2503549159,-31681.831977585796,-13907.389510558784
-7966.184075615893,-24162.97336375396,-31674.61236412673,-13911.256362349552
-7990.860401494551,-24178.865454061684,-31677.98747753948,-13896.70537670915
-8001.1198521995375,-24180.36302094019,-31675.484082160485,-13879.2263125451
-7990.502773583266,-24167.734285322946,-31665.55990762233,-13882.690832935672
-7967.078145394104,-24148.78000602484,-31664.755244821936,-13888.0776033494
-7986.121831670026,-24161.453445131,-31677.45103567255,-13891.497420251062
-8017.235459951814,-24180.58653838474,-31679.954431051545,-13890.871571406316
-8025.550308889188,-24184.565148897786,-31678.725085106504,-13894.783126685994
-8005.925477257429,-24164.515634121377,-31667.012771011923,-13885.440097503675
-7984.691320024886,-24147.952991479997,-31672.73481759248,-13895.476030764108
-7997.744738786786,-24159.88882301913,-31676.04287577187,-13898.135888354289
-8028.277221712736,-24175.44563716002,-31673.807701326336,-13892.70441445165
-8037.106160772581,-24171.332916180243,-31675.1264542492,-13888.211713816132
-8024.030390266227,-24155.48552936143,-31681.18377699659,-13901.80157444496
-7998.325884142624,-24138.63231404213,-31685.207090998545,-13912.105728638857
-8004.986703990306,-24144.86845074516,-31663.972933766003,-13907.27775183651
-8031.54057640321,-24161.27463117536,-31658.36264590772,-13899.454641277152
-8032.456997925878,-24160.089988719224,-31653.0205789829,-13877.237007288575
-8015.983762262316,-24151.05988395928,-31668.242116956964,-13888.301120793954
-7990.502773583266,-24137.69354077501,-31684.46948343152,-13907.680083236704
-7992.447375350878,-24145.337837378724,-31686.190567754576,-13904.863763435336
-8007.355988902568,-24158.279497418345,-31674.858233315736,-13896.548914497962
-7998.370587631534,-24153.540927593825,-31665.4257971556,-13895.207809830645
-7973.202523374859,-24142.61092455517,-31675.93111704959,-13899.722862210616
-7934.913985122917,-24126.4953168029,-31680.55792815184,-13901.42159478922
-7929.326049009092,-24133.267895372857,-31675.7746548384,-13901.958036656146
-7944.838159661074,-24149.987000225425,-31679.52974790689,-13904.595542501873
-7935.80805490113,-24147.64006705762,-31680.490872918475,-13900.818097688923
-7910.572935411088,-24132.038549427816,-31679.82032058481,-13898.135888354289
-7878.162905950893,-24113.35249106318,-31682.815454341824,-13897.46533602063
-7879.79458329613,-24116.749956220385,-31680.423817685107,-13891.542123739971
-7898.32417944958,-24126.003578424883,-31665.4257971556,-13878.801629400448
-7901.051092273127,-24123.477831301432,-31665.73872157797,-13887.138830082278
-7887.7741560666755,-24110.96085440646,-31675.081750760288,-13894.626664474808
-7858.672184785865,-24090.732525674408,-31658.02736974089,-13891.78799292898
-7865.93650173384,-24098.51093274485,-31649.37724463669,-13877.013489844025
-7897.787737582653,-24120.68386324452,-31653.55702084983,-13872.632547930783
-7911.04232204465,-24126.24944761389,-31658.98849475247,-13879.248664289556
-7907.130766764971,-24122.40494756758,-31677.965125795025,-13896.548914497962
-7881.828592041564,-24103.09304035819,-31680.93790780758,-13906.56249601394
-7889.897571789929,-24109.2397700834,-31670.90197454715,-13906.495440780574
-7916.13851978046,-24126.71883424745,-31674.634715871183,-13901.689815722682
-7919.80420587113,-24124.50601154637,-31670.23142221349,-13909.42351930422
-7902.70512136282,-24110.15619160607,-31667.92919253459,-13888.211713816132
-7875.257179171704,-24092.85594139766,-31672.69011410357,-13881.439135246175
-7888.154135722415,-24105.32821480372,-31681.60846014124,-13890.916274895226
-7917.636086658966,-24126.271799358343,-31687.352858466253,-13891.31860629542
-7923.291078006158,-24129.40104358209,-31691.80085561286,-13891.631530717796
-7905.454385930823,-24120.95208417798,-31687.978707311,-13891.89975165126
-7879.504010618211,-24109.53034276132,-31687.68813463308,-13893.88905690778
-7889.919923534385,-24122.78492722332,-31683.061323530837,-13892.0785656069
-7910.282362733169,-24135.614828540663,-31674.67941936009,-13896.45950752014
-7913.925697079385,-24139.191107653514,-31675.34997169375,-13894.738423197085
-7897.139536993449,-24126.025930169337,-31672.913631548123,-13873.50426596454
-7870.250388413715,-24106.37874679312,-31679.373285695707,-13876.65586193274
-7883.393214153435,-24116.5934940092,-31676.46755891652,-13886.624739959803
-7919.42422621539,-24139.369921609155,-31670.052608257844,-13893.598484229862
-7929.929546109384,-24142.052130943797,-31670.49964314695,-13892.03386211799
-7914.238621501759,-24123.72370049044,-31666.99041926747,-13875.31475726542
-7894.65849335891,-24108.077479371725,-31660.93309652008,-13878.779277655993
-7906.683731875865,-24115.989996908906,-31653.445262127552,-13871.492608963565
-7940.948956125851,-24137.20180239699,-31648.952561492035,-13870.062097318423
-7947.363906784524,-24136.10656691868,-31652.35002664924,-13875.962957854625
-7938.870243891507,-24126.24944761389,-31665.31403843332,-13889.41870801672
-7922.374656483491,-24114.82770619723,-31671.952506536545,-13907.747138470071
-7930.398932742946,-24115.230037597423,-31669.493814646463,-13905.310798324444
-7957.086915622583,-24124.930694691026,-31666.31986693381,-13886.445926004164
-7962.898369180963,-24122.53905803431,-31661.82716629829,-13873.772486898004
-7951.744848697764,-24110.58087475072,-31666.342218678263,-13873.280748519988
-7926.554432696633,-24088.787923906795,-31671.57252688081,-13877.952263111149
-7936.009220601228,-24095.87342689913,-31671.25960245843,-13882.579074213396
-7967.435773305389,-24116.23586609791,-31669.33735243528,-13875.158295054234
-7972.688433252387,-24116.88406668712,-31677.920422306117,-13877.952263111149
-7954.851741177052,-24105.439973526,-31689.90095733416,-13888.457583005142
-7925.794473385153,-24090.39724950758,-31701.07682956181,-13890.35748128384
-7926.845005374552,-24100.030851367814,-31701.00977432845,-13893.084394107387
-7945.955746883839,-24120.70621498897,-31700.741553394982,-13901.309836066945
-7946.916871895418,-24127.63525577012,-31702.46263771804,-13910.652865249262
-7929.102531564538,-24122.02496791184,-31703.647280174173,-13909.937609426692
-7892.222153213282,-24102.42248802453,-31696.87470160421,-13881.41678350172
-7893.540906136144,-24111.027909639823,-31683.642468886672,-13875.381812498788
-7918.485452948267,-24131.524459305343,-31673.36066643723,-13880.165085812225
-7926.375618740991,-24134.60900004017,-31673.338314692777,-13876.36528925482
-7918.150176781438,-24128.484622059423,-31684.64829738716,-13885.440097503675
-7896.580743382066,-24114.44772654149,-31689.36451546723,-13897.3312255539
-7909.008313299217,-24126.33885459171,-31694.52776843641,-13903.70147272366
-7935.629240945487,-24144.935505978527,-31683.5307101644,-13883.942530625169
-7945.285194550181,-24149.89759324761,-31682.65899213064,-13876.633510188283
-7932.857624633029,-24137.090043674714,-31678.546271150863,-13873.88424562028
-7913.322199979091,-24122.58376152322,-31684.84946308726,-13875.381812498788
-7925.883880362974,-24128.10464240368,-31675.41702692712,-13864.250643760044
-7950.2249300748035,-24137.715892519464,-31661.044855242355,-13854.706448877629
-7958.137447611982,-24141.47098558796,-31664.06234074382,-13865.100010049346
-7942.558281726633,-24128.886953459616,-31665.69401808906,-13869.88328336278
-7921.212365771815,-24116.079403886724,-31675.104102504745,-13880.142734067767
-7929.326049009092,-24123.72370049044,-31672.354837936746,-13883.674309691703
-7953.018898131717,-24137.358264608178,-31662.989457009968,-13882.26614979102
-7958.807999945641,-24139.034645442327,-31660.28489593088,-13884.769545170016
-7944.055848605139,-24126.74118599191,-31664.330561677285,-13893.643187718772
-7920.988848327262,-24111.72081371794,-31672.779521081397,-13901.46629827813
-7930.421284487401,-24121.01913941135,-31676.132282749688,-13892.637359218284
-7966.4299448049,-24147.75182577989,-31672.98068678149,-13882.668481191216
-7976.421174576423,-24152.87037526016,-31673.15950073713,-13884.546027725462
-7965.357061071046,-24142.92384897755,-31684.31302122033,-13896.258341820045
-7938.758485169231,-24121.48852604491,-31690.347992223265,-13895.252513319554
-7947.386258528979,-24125.780060980327,-31684.335372964782,-13884.121344580812
-7979.4833635668,-24144.287305389324,-31680.11089326273,-13869.190379284666
-7995.978950974817,-24153.76444503837,-31688.962184067037,-13873.70543166464
-7982.366738601535,-24141.605096054685,-31691.66674514613,-13871.090277563368
-7958.651537734454,-24126.897648203096,-31700.160408039144,-13877.348766010851
-7966.318186082624,-24135.480718073934,-31694.818341114325,-13877.885207877782
-7997.029482964216,-24156.625468328653,-31687.3305067218,-13874.353632253842
-8000.650465565975,-24154.21147992748,-31683.37424795321,-13871.73847815257
-7985.406575847456,-24142.275648388342,-31686.65995438814,-13868.050440317444
-7961.043174391172,-24127.836421470216,-31692.02437305741,-13869.45860021813
-7964.351232570557,-24132.15030815009,-31667.258640200933,-13855.667573889206
-7992.179154417415,-24151.43986361502,-31659.323770919294,-13859.199149513144
-8002.617419078043,-24156.02197122836,-31674.32179144881,-13872.386678741776
-7988.5581718156545,-24147.125976935145,-31686.03410554339,-13878.13107706679
-7958.897406923463,-24128.97636043744,-31680.043838029367,-13887.965844627124
-7960.327918568602,-24132.93261920603,-31670.432587913587,-13886.200056815154
-7983.3949188464785,-24151.484567103933,-31668.733855334984,-13854.393524455254
-7989.049910193671,-24159.866471274672,-31672.98068678149,-13860.160274524722
-7973.67191000842,-24153.94325899401,-31676.5793176388,-13873.79483864246
-7945.799284672652,-24139.63814254262,-31679.86502407373,-13877.952263111149
-7952.661270220432,-24152.35628513769,-31683.79893109786,-13879.203960800643
-7977.404651332456,-24173.12105573667,-31683.061323530837,-13878.734574167083
-7978.142258899482,-24169.74594232392,-31680.066189773825,-13873.683079920183
-7962.227816847303,-24156.78193053984,-31685.587070654285,-13873.951300853649
-7940.054886347639,-24143.504994333387,-31697.254681259958,-13880.768582912517
-7957.690412722875,-24159.01710498537,-31694.37130622522,-13883.69666143616
-7993.140279428992,-24181.480608162958,-31696.80764637085,-13884.143696325267
-8002.416253377945,-24185.101590764712,-31700.94271909508,-13885.283635292488
-7994.593142818588,-24178.93250929505,-31692.85138760226,-13878.578111955896
-7969.313319839635,-24162.63808758713,-31684.76005610944,-13881.685004435183
-7982.880828724007,-24175.31152669329,-31682.61428864173,-13884.61308295883
-8018.487157641311,-24196.478628692465,-31677.20516648354,-13878.51105672253
-8026.913765300962,-24195.5622071698,-31673.539480392872,-13874.64420493176
-8020.118834986549,-24187.917910566084,-31679.060361273336,-13883.98723411408
-7999.376416132023,-24171.578785369253,-31675.908765305136,-13878.958091611636
-8017.190756462903,-24183.93930005304,-31678.9262508066,-13872.878417119791
-8054.652280169997,-24207.52039045339,-31674.96999203801,-13871.067925818912
-8068.376251265557,-24210.94020735505,-31678.21099498403,-13868.65393741774
-8066.766925664774,-24204.212332274,-31687.93400382209,-13881.50619047954
-8046.985631821827,-24189.236663488944,-31686.25762298794,-13880.343899767864
-8059.3461465056125,-24193.68466063555,-31675.59584088276,-13871.514960708018
-8094.639551000542,-24209.75556489892,-31670.63375361368,-13871.090277563368
-8109.324647107679,-24211.946035855537,-31670.969029780517,-13869.279786262488
-8102.775585982274,-24201.79834387283,-31678.2780502174,-13872.0737543194
-8080.513248504788,-24183.559320397297,-31672.13132049219,-13872.02905083049
-8093.052577144215,-24189.08020127776,-31671.43841641408,-13882.087335835378
-8125.4402548599555,-24204.949939841023,-31678.523919406405,-13894.827830174903
-8135.297374164746,-24205.709899152505,-31679.283878717888,-13887.854085904848
-8128.278926405779,-24198.33382348225,-31689.006887555945,-13884.858952147835
-8106.50832730631,-24180.36302094019,-31694.684230647592,-13885.21658005912
-8121.305182135723,-24187.917910566084,-31692.359649224243,-13876.857027632836
-8161.314804710723,-24214.33767251225,-31702.730858651503,-13885.484800992584
-8172.982415316394,-24215.902294624128,-31698.819303371827,-13880.723879423604
-8167.081554780192,-24205.39697473013,-31700.00394582796,-13872.587844441874
-8147.479074892888,-24186.68856462104,-31701.233291773,-13873.236045031075
-8164.891083823572,-24194.064640291293,-31693.27607074691,-13873.817190386915
-8198.776328417818,-24209.822620132283,-31695.93592833709,-13876.387640999275
-8212.723816957929,-24213.063623078306,-31696.60648067075,-13875.13594330978
-8203.358436031156,-24201.708936895007,-31686.190567754576,-13864.585919926873
-8187.600456190165,-24188.297890221824,-31683.195433997567,-13860.003812313536
-8206.733549443907,-24199.45141070502,-31693.07490504681,-13866.709335650128
-8230.493453799898,-24209.710861410007,-31685.36355320973,-13860.227329758089
-8241.468160327455,-24211.901332366622,-31676.64637287216,-13860.45084720264
-8236.595480036198,-24206.581617186264,-31679.03800952888,-13854.102951777337
-8219.608154250163,-24193.17057051308,-31680.334410707288,-13855.89109133376
-8235.544948046798,-24202.848875862222,-31676.35580019424,-13861.635489658773
-8263.77520129385,-24216.572846957788,-31661.0225034979,-13853.49945467704
-8277.186247967034,-24220.50675398192,-31659.54728836385,-13853.521806421497
-8272.268864186868,-24211.45429747752,-31662.40831165413,-13854.147655266244
-8244.82092199575,-24186.3085849653,-31655.70278831754,-13848.515015663508
-8259.595425080708,-24196.63509090365,-31648.304360902832,-13850.392562197752
-8297.660445888096,-24220.70791968202,-31648.21495392501,-13855.60051865584
-8310.535050694352,-24224.865344150705,-31652.55119234934,-13862.350745481344
-8299.448585444521,-24210.64963467713,-31655.00988423942,-13866.88814960577
-8282.528314891853,-24196.992718814938,-31659.99432325296,-13871.045574074456
-8292.988931296937,-24204.905236352115,-31660.508413375428,-13876.588806699374
-8322.627344444674,-24223.300722038835,-31655.903954017635,-13870.956167096636
-8331.88096664917,-24226.27350405139,-31660.35195116424,-13858.841521601858
-8318.22405078698,-24214.27061727889,-31669.53851813537,-13863.915367593214
-8292.474841174466,-24195.472800191976,-31661.60364885374,-13861.054344302936
-8304.79065236934,-24204.368794485188,-31650.18190743708,-13860.853178602836
-8336.731295195972,-24223.88186739467,-31655.300456917343,-13858.059210545924
-8342.430990032077,-24223.07720459428,-31663.68236108808,-13856.628698900784
-8326.807120657817,-24207.43098347557,-31662.609477354228,-13850.325506964387
-8301.2590767454,-24190.242491989437,-31665.828128555797,-13860.69671639165
-8311.3620652392,-24201.30660549481,-31666.36457042272,-13865.725858894091
-8341.022830131393,-24221.37847201568,-31663.950582021545,-13857.567472167906
-8346.70017322304,-24223.97127437249,-31666.0739977448,-13850.45961743112
-8333.892623650148,-24215.611721946207,-31665.35874192223,-13850.526672664486
-8313.865460618194,-24203.050041562325,-31670.2761257024,-13860.003812313536
-8329.84695790374,-24216.23757079096,-31671.661933858628,-13869.950338596149
-8357.69723149505,-24233.627227977184,-31665.73872157797,-13866.061135060923
-8368.537827555874,-24237.628190234685,-31679.149768251154,-13875.761792154526
-8357.406658817132,-24227.502849996432,-31683.396599697666,-13882.869646891317
-8338.944117897048,-24215.298797523832,-31679.976782796,-13876.633510188283
-8344.710867966518,-24221.08789933776,-31675.55113739385,-13866.396411227754
-8370.303615367844,-24236.04121637836,-31677.920422306117,-13867.782219383982
-8372.628196791196,-24230.810908175816,-31679.55209965135,-13872.386678741776
-8355.685574494073,-24214.89646612364,-31661.626000598197,-13866.396411227754
-8331.724504437983,-24197.68562289305,-31663.83882329927,-13872.476085719596
-8340.84401617575,-24206.60396893072,-31662.341256420765,-13875.426515987698
-8371.890589224171,-24227.681663952077,-31656.97683775149,-13879.69569917866
-8373.432859591587,-24223.434832505565,-31656.93213426258,-13879.025146845002
-8357.853693706238,-24210.94020735505,-31666.72219833401,-13875.448867732151
-8333.289126549857,-24197.529160681865,-31675.685247860583,-13886.669443448716
-8346.655469734129,-24210.15789629911,-31679.999134540456,-13898.515868010028
-8369.901283967649,-24222.74192842745,-31668.286820445875,-13867.469294961607
-8365.721507754506,-24216.72930916897,-31670.186718724577,-13849.431437186176
-8353.763324470918,-24211.1637247996,-31674.388846682174,-13845.02814352848
-8329.802254414828,-24196.299814736823,-31681.92138456361,-13842.480044660577
-8339.391152786155,-24205.37462298568,-31679.52974790689,-13849.677306375184
-8374.66220553663,-24230.49798375344,-31689.56568116733,-13863.60244317084
-8381.211266662034,-24233.22489657699,-31682.055495030345,-13861.434323958674
-8366.302653110344,-24218.53980046985,-31681.831977585796,-13856.494588434052
-8339.726428952985,-24198.870265349186,-31683.84363458677,-13851.845425587348
-8351.12581862519,-24207.252169519925,-31678.389808939675,-13847.240966229554
-8378.260836393933,-24224.641826706156,-31680.3791141962,-13850.996059298046
-8389.526115599409,-24236.08591986727,-31684.78240785389,-13862.641318159262
-8380.473659095009,-24228.016940118905,-31697.36643998223,-13874.778315398493
-8354.456228549032,-24207.02865207537,-31694.79598936987,-13880.299196278957
-8358.524246039897,-24210.69433816604,-31680.714390363028,-13865.927024594192
-8382.507667840442,-24227.189925574057,-31675.59584088276,-13859.60148091334
-8400.925505271614,-24240.913896669612,-31685.07298053181,-13861.948414081147
-8385.547505086364,-24226.139393584657,-31686.592899154773,-13855.93579482267
-8356.512589038919,-24205.32991949677,-31679.775617095904,-13854.97466981109
-8366.41441183262,-24218.942131870048,-31681.80962584133,-13860.517902436008
-8393.124746456713,-24240.53391701388,-31675.104102504745,-13854.639393644262
-8398.533868614897,-24243.059664137327,-31671.17019548061,-13855.51111167802
-8384.787545774883,-24234.141318099657,-31680.624983385205,-13855.824036100394
-8358.300728595344,-24216.036405090857,-31686.57054741032,-13859.132094279776
-8366.347356599255,-24224.015977861403,-31682.726047364005,-13854.192358755156
-8389.861391766237,-24237.38232104568,-31668.309172190333,-13839.194338225643
-8393.504726112453,-24238.209335590524,-31663.950582021545,-13839.015524270002
-8374.349281114255,-24224.641826706156,-31653.82524178329,-13835.930983535169
-8347.169559856602,-24209.73321315446,-31663.391788410165,-13839.663724859203
-8357.965452428514,-24228.218105819,-31669.963201280025,-13842.79296908295
-8377.65733929364,-24249.04993165135,-31666.588087867272,-13838.769655080994
-8374.908074725638,-24249.72048398501,-31669.44911115755,-13838.523785891985
-8352.310461081323,-24237.60583849023,-31676.378151938698,-13838.143806236243
-8315.966524596992,-24219.724442925984,-31686.74936136596,-13841.36245743781
-8323.432007245065,-24236.71176871202,-31696.651184159666,-13841.764788838003
-8341.156940598124,-24255.710751499028,-31693.678402147103,-13844.469349917095
-8343.258004576923,-24260.47167306801,-31696.69588764857,-13853.320640721398
-8319.11812056519,-24246.92651592809,-31699.333393494297,-13853.298288976945
-8285.903428304604,-24232.330826798778,-31702.50734120695,-13867.424591472698
-8287.646864372118,-24243.238478092968,-31696.047687059367,-13866.59757692785
-8307.986951826448,-24263.399751591656,-31681.89903281916,-13861.747248381049
-8300.588524411742,-24264.67380102561,-31683.955393309046,-13874.577149698396
-8271.643015342119,-24257.387132333177,-31692.51611143543,-13873.392507242264
-8232.750979989885,-24244.33371357128,-31692.337297479786,-13869.950338596149
-8224.436131052511,-24253.14030088667,-31685.922346821117,-13857.88039659028
-8233.734456745919,-24273.681554041097,-31677.98747753948,-13856.561643667415
-8222.491529284898,-24275.670859297617,-31670.90197454715,-13848.40325694123
-8193.009578348348,-24262.639792280173,-31669.82909081329,-13845.139902250756
-8156.643290119564,-24246.658294994628,-31675.573489138307,-13856.338126222863
-8160.308976210234,-24259.93523120108,-31672.13132049219,-13849.565547652906
-8181.274912509312,-24279.85063551076,-31653.914648761114,-13827.660838086706
-8183.174810788013,-24281.482312856,-31643.856363756226,-13827.88435553126
-8166.723926868907,-24272.0275249514,-31645.666855057105,-13829.292515431944
-8138.292507921757,-24255.509585798933,-31651.70182606004,-13837.093274246845
-8136.638478832064,-24258.571774789307,-31653.042930727355,-13839.17198648119
-8155.6151098746195,-24274.352106374758,-31650.897163259648,-13833.06996024489
-8162.074764022203,-24279.358897132744,-31651.88064001568,-13838.993172525546
-8145.735638825374,-24266.81956849332,-31653.624076083197,-13848.64912613024
-8122.311010636212,-24250.83807120777,-31662.0730354873,-13859.132094279776
-8134.492711364354,-24254.86138520973,-31655.52397436189,-13859.2215012576
-8166.858037335639,-24273.90507148565,-31647.812622524816,-13849.342030208354
-8175.888142095583,-24275.045010452868,-31641.33061663277,-13830.901841032726
-8167.170961758014,-24263.62326903621,-31641.59883756624,-13836.757998080016
-8146.786170814774,-24246.92651592809,-31642.44820385554,-13842.189471982656
-8162.119467511114,-24256.314248599323,-31646.56092483532,-13849.677306375184
-8192.674302181518,-24274.28505114139,-31641.844706755248,-13845.564585395408
-8200.229191807413,-24274.1285889302,-31642.604666066727,-13838.657896358716
-8193.590723704187,-24266.66310628213,-31649.4219481256,-13842.234175471564
-8171.149572271058,-24248.60289676224,-31650.763052792918,-13837.227384713577
-8182.839534621184,-24255.59899277675,-31647.52204984689,-13827.16909970869
-8209.438110522999,-24272.295745884865,-31643.23051491148,-13812.30518964591
-8213.841404180695,-24270.105274928246,-31635.809735752315,-13809.86884950028
-8208.566392489241,-24261.902184713148,-31640.905933488124,-13815.523840847474
-8191.377901003111,-24250.145167129656,-31650.78540453737,-13825.872698530282
-8200.05037785177,-24257.364780588723,-31641.2188579105,-13823.145785706734
-8229.711142743963,-24278.487179098986,-31633.68632002906,-13805.86788724278
-8236.997811436393,-24281.77288553392,-31626.422003081087,-13802.78334650795
-8225.620773508641,-24273.413333107637,-31638.424889853584,-13824.241021185044
-8201.726758685918,-24258.70588525604,-31644.50456434543,-13818.40721588221
-8209.773386689829,-24266.439588837577,-31632.43462233956,-13805.711425031594
-8236.506073058375,-24284.07511521281,-31625.30441585832,-13804.839706997838
-8242.630451039131,-24286.84673152527,-31636.994378208445,-13812.618114068284
-8225.084331641714,-24274.01683020793,-31640.59300906575,-13822.966971751091
-8201.458537752455,-24259.30938235633,-31656.3733406512,-13854.97466981109
-8208.76755818934,-24264.338524858777,-31657.043892984857,-13841.273050459988
-8230.605212522176,-24276.654336053653,-31636.703805530527,-13813.266314657489
-8232.639221267607,-24274.843844752773,-31634.73685201846,-13818.563678093396
-8216.076578626225,-24264.67380102561,-31645.219820168,-13833.516995133996
-8195.892953383083,-24253.74379798696,-31657.401520896143,-13842.591803382851
-8201.14561333008,-24257.02950442189,-31658.0720732298,-13844.804626083927
-8231.968668933949,-24275.983783719992,-31655.25575342843,-13850.861948831314
-8240.998773693893,-24281.45996111154,-31653.55702084983,-13852.113646520813
-8223.475006040931,-24268.18302490509,-31653.80289003884,-13850.236099986569
-8203.425491264521,-24255.442530565564,-31665.35874192223,-13866.776390883491
-8208.946372144983,-24259.5776032898,-31667.54921287885,-13863.825960615392
-8230.292288099801,-24270.105274928246,-31656.038064484368,-13834.992210268048
-8235.589651535709,-24272.56396681833,-31658.18383195208,-13822.698750817628
-8222.066846140247,-24266.41723709312,-31659.256715685933,-13830.365399165796
-8198.597514462175,-24252.290934597368,-31666.9233640341,-13844.491701661553
-8205.526555243321,-24257.878870711196,-31662.38595990968,-13838.657896358716
-8241.311698116268,-24283.739839045986,-31666.0739977448,-13823.25754442901
-8263.752849549395,-24299.162542720147,-31670.90197454715,-13832.868794544793
-8251.593500565708,-24284.700964057563,-31654.182869694578,-13822.765806050991
-8228.906479943571,-24269.501777827954,-31655.389863895165,-13831.63944859975
-8239.411799837566,-24278.59893782126,-31648.43847136956,-13836.489777146551
-8276.739213077928,-24304.28109220041,-31650.31601790381,-13851.867777331803
-8293.97240805297,-24313.31119696036,-31663.28002968789,-13863.378925726289
-8280.78487882434,-24299.408411909157,-31650.98657023747,-13850.437265686664
-8256.667346557064,-24282.71165880104,-31646.40446262413,-13849.1185127638
-8269.050212985303,-24293.90988277315,-31655.143994706155,-13856.829864600884
-8303.561306424297,-24319.48027843002,-31656.485099373476,-13861.255510003031
-8306.444681459032,-24315.524019661432,-31644.30339864533,-13841.653030115727
-8289.524410906364,-24298.84961829777,-31648.08084345828,-13835.707466090616
-8266.323300161755,-24283.87394951272,-31662.721236076504,-13845.1175505063
-8273.744079320917,-24290.691231571585,-31671.28195420289,-13851.845425587348
-8294.508849919897,-24304.839885811794,-31665.023465755403,-13837.540309135951
-8295.246457486923,-24303.09644974428,-31660.374302908695,-13825.02333224098
-8274.369928165666,-24290.870045527223,-31662.251849442942,-13824.196317696133
-8246.474951085444,-24280.61059482224,-31676.534614149885,-13834.433416656664
-8252.621680810653,-24295.608615351757,-31684.42477994261,-13842.725913849585
-8269.609006596686,-24309.645510869686,-31673.450073415053,-13832.980553267069
-8265.58569259473,-24308.036185268906,-31670.87962280269,-13829.73955032105
-8251.749962776896,-24301.66593809914,-31680.803797340846,-13836.64623935774
-8225.710180486463,-24290.110086215747,-31677.495739161463,-13836.087445746356
-8230.67226775554,-24295.921539774125,-31670.79021582487,-13828.331390420366
-8252.264052899367,-24308.393813180188,-31669.091483246262,-13826.811471797404
-8262.657614071086,-24313.80293533837,-31664.08469248828,-13826.006808997014
-8256.53323609033,-24307.343281190788,-31658.74262556346,-13829.158404965212
-8237.981288192426,-24297.262644441445,-31665.403445411142,-13837.674419602685
-8248.44190459751,-24305.33162418981,-31669.71733209101,-13843.59763188334
