 EXG Channel 0, EXG Channel 1, EXG Channel 2, EXG Channel 3
-13154.359239859492,-11750.915557255215,-20904.3348913592,-17284.156952399844
-13146.89375721142,-11745.595842074854,-20894.14249588758,-17281.56415004303
-13149.665373523876,-11778.09527851287,-20892.600225520164,-17295.578693816507
-13152.07936192505,-11792.24393275308,-20893.94133018748,-17305.301702654568
-13170.363088889491,-11807.57722944942,-20891.32617608621,-17304.09470845398
-13194.391214178946,-11824.676313957729,-20884.82181844972,-17300.876057252415
-13190.144382732438,-11825.704494202671,-20883.503065526853,-17300.85370550796
-13161.623556807466,-11793.540333931487,-20884.106562627145,-17302.641845064383
-13162.808199263598,-11795.261418254546,-20884.151266116056,-17312.588371346996
-13186.65751059741,-11810.885287628806,-20883.637175993583,-17314.823545792526
-13183.997653007227,-11803.039825324991,-20879.36799280262,-17310.911990512846
-13174.431106380356,-11793.1827060202,-20874.85294042265,-17307.58158058901
-13166.22801616526,-11809.924162617226,-20875.724658456405,-17315.09176672599
-13159.075457939562,-11822.038808112004,-20878.69744046896,-17320.27737143962
-13153.040486936628,-11821.278848800524,-20875.635251478583,-17320.456185395265
-13160.282452140147,-11802.704549158165,-20873.51183575533,-17319.495060383684
-13159.611899806489,-11791.394566463778,-20875.545844500764,-17319.67387433933
-13170.541902845134,-11810.013569595048,-20883.03367889329,-17325.48532789771
-13183.058879740103,-11838.690857731208,-20891.259120852843,-17333.48725241271
-13172.397097634925,-11829.794863437995,-20887.32521382871,-17331.363836689456
-13165.08807719804,-11804.67150267023,-20877.803370690748,-17321.2384964512
-13158.829588750552,-11804.71620615914,-20876.015231134323,-17318.176307460824
-13160.863597495983,-11838.377933308831,-20884.84417019417,-17324.63596160841
-13158.4049056059,-11833.929936162229,-20890.36505107463,-17331.18502273381
-13165.89273999843,-11839.71903797615,-20893.382536576097,-17333.19667973479
-13169.446667366825,-11828.252593070578,-20889.40392606305,-17328.256944210167
-13168.530245844157,-11842.021267655047,-20890.879141197103,-17332.034389023112
-13167.546769088123,-11842.423599055242,-20895.01421392133,-17339.879851326925
-13153.129893914447,-11820.518889489042,-20889.493333040875,-17337.488214670208
-13165.89273999843,-11860.662622530774,-20892.354356331158,-17341.511528672163
-13169.111391199996,-11846.804540968484,-20893.986033676392,-17340.550403660585
-13145.26207986618,-11790.120517029824,-20887.593434762173,-17329.10631049947
-13143.40688507639,-11807.510174216051,-20890.521513285817,-17332.749644845684
-13147.40784733389,-11826.017418625048,-20899.261045367843,-17343.590240906506
-13154.739219515232,-11822.418787767743,-20902.390289591585,-17343.09850252849
-13135.539071028124,-11833.706418717671,-20912.76149901885,-17355.48136895673
-13137.237803606726,-11860.215587641667,-20927.737167803905,-17372.87102614296
-13152.347582858514,-11859.053296929991,-20930.866412027648,-17375.754401177695
-13170.117219700483,-11867.97164296766,-20931.4922608724,-17380.001232624203
-13173.51468485769,-11866.742297022618,-20924.585571835705,-17376.357898277987
-13173.157056946404,-11865.937634222226,-20918.57295257723,-17373.474523243254
-13182.455382639811,-11866.362317366877,-20923.624446824128,-17374.48035174374
-13178.56617910459,-11854.33707884992,-20931.268743427845,-17381.744668691717
-13179.70611807181,-11875.034794215537,-20937.30371443078,-17388.181971094844
-13184.869371040986,-11864.663584788274,-20937.370769664143,-17388.629005983952
-13196.447574668837,-11856.080514917436,-20931.71577831695,-17381.63290996944
-13198.615693881,-11850.470227059152,-20926.19489743649,-17373.653337198895
-13178.02973723766,-11830.107787860368,-20922.10452820117,-17367.43955224032
-13166.22801616526,-11828.63257272632,-20921.836307267706,-17365.91963361736
-13179.214379693793,-11850.269061359057,-20919.62348456663,-17363.997383594204
-13190.27849319917,-11865.44589584421,-20916.784813020804,-17361.739857404216
-13192.647778111432,-11854.515892805564,-20914.728452530915,-17358.34239224701
-13190.256141454714,-11843.34002057791,-20911.509801329357,-17358.34239224701
-13187.775097820177,-11838.53439552002,-20907.732356516404,-17359.52703470314
-13185.338757674546,-11823.648133712786,-20898.814010478734,-17352.10625554398
-13199.889743314952,-11820.742406933596,-20896.04239416628,-17346.160691518868
-13211.4679469428,-11840.63545949882,-20904.021966936823,-17352.799159622093
-13207.176412007382,-11834.354619306878,-20908.224094894424,-17350.787502621115
-13188.22213270928,-11818.52958423252,-20905.296016370776,-17345.37838046293
-13187.261007697703,-11816.227354553625,-20902.725565758417,-17339.902203071382
-13201.18614449336,-11827.716151203653,-20899.998652934868,-17338.516394915154
-13200.068557270592,-11857.511026562575,-20898.545789545275,-17343.70199962878
-13189.920865287884,-11865.848227244403,-20900.579798290702,-17347.05476129708
-13185.674033841377,-11833.393494295298,-20899.66337676804,-17346.98770606371
-13181.404850650411,-11797.787165377997,-20898.14345814508,-17344.439607195807
-13196.984016535762,-11809.834755639406,-20894.455420309954,-17343.52318567314
-13188.624464109476,-11800.201153779168,-20890.320347585723,-17339.522223415643
-13173.268815668682,-11792.467450197631,-20885.917053928024,-17334.00134253518
-13172.017117979183,-11810.639418439796,-20888.17458011801,-17336.795310592093
-13188.356243176013,-11827.850261670384,-20885.984109161396,-17338.158767003868
-13199.643874125944,-11809.745348661583,-20882.474885281907,-17334.38132219092
-13196.559333391113,-11840.970735665647,-20886.878178939605,-17338.605801892973
-13201.47671717128,-11871.570273824964,-20889.87331269661,-17344.35020021799
-13180.354318661011,-11810.4382527397,-20885.246501594367,-17339.164595504357
-13185.584626863556,-11777.603540134853,-20878.786847446783,-17331.587354134008
-13187.216304208792,-11777.067098267926,-20870.404943276044,-17321.864345295948
-13182.477734384269,-11797.496592700076,-20872.3271932992,-17323.451319152275
-13169.536074344644,-11786.231313494602,-20871.299013054253,-17319.71857782824
-13163.925786486365,-11793.428575209213,-20868.572100230707,-17316.209353948754
-13173.84996102452,-11806.213773037643,-20866.113408340625,-17316.723444071227
-13176.353356403511,-11791.372214719322,-20862.26890829431,-17314.51062137015
-13172.777077290664,-11780.397508191769,-20859.69845768195,-17310.934342257304
-13188.892685042942,-11789.248798996068,-20865.196986817955,-17314.801194048072
-13183.863542540495,-11794.09912754287,-20868.75091418635,-17315.874077781926
-13184.489391385245,-11798.122441544823,-20869.51087349783,-17308.341539900488
-13187.775097820177,-11782.632682637295,-20860.860748393625,-17300.60783631895
-13190.23378971026,-11795.61904616583,-20861.441893749463,-17300.3843188744
-13193.363033934002,-11801.251685768568,-20865.88989089607,-17303.200638675768
-13189.987920521253,-11808.538354460998,-20869.309707797733,-17308.676816067316
-13182.857714040008,-11819.758930177562,-20860.972507115905,-17303.357100886955
-13167.300899899114,-11776.195380234169,-20846.93561159797,-17289.566074558028
-13162.539978330136,-11768.774601075009,-20848.52258545429,-17287.822638490517
-13161.400039362912,-11772.976729032604,-20852.99293434536,-17290.03546119159
-13144.256251365692,-11756.99523174706,-20849.55076569924,-17289.70018502476
-13146.044390922118,-11747.406333375731,-20848.008495331826,-17288.60494954645
-13163.6575655529,-11765.980633018093,-20846.198004030943,-17283.329937855
-13164.663394053388,-11788.645301895776,-20836.56440217071,-17279.910120953336
-13160.103638184506,-11797.787165377997,-20832.809309102217,-17282.547626799063
-13166.049202209617,-11794.14383103178,-20834.820966103194,-17285.76627800063
-13161.46709459628,-11762.85138879435,-20834.97742831438,-17284.55928380004
-13163.94813823082,-11759.18570270368,-20832.36227421311,-17278.74783024166
-13165.646870809422,-11761.979670760593,-20836.206774259423,-17281.27357736511
-13150.805312491097,-11749.842673521362,-20834.70920738092,-17282.52527505461
-13141.395228075413,-11756.101161968849,-20838.35254172713,-17288.068507679523
-13150.917071213376,-11769.735726086585,-20843.828719118683,-17293.656443793352
-13157.868463738974,-11767.120571985311,-20833.859841091617,-17281.072411665013
-13162.69644054132,-11779.302272713456,-20834.97742831438,-17278.837237219483
-13167.099734199017,-11778.56466514643,-20839.917163839003,-17280.938301198283
-13148.45837932329,-11752.949566000649,-20841.794710373248,-17276.535007540584
-13162.249405652216,-11764.438362650675,-20845.59450693065,-17277.049097663057
-13172.195931934826,-11786.05249953896,-20843.158166785022,-17279.060754664035
-13161.198873662815,-11762.4267056497,-20837.27965799328,-17272.84696970546
-13171.346565645525,-11765.488894640075,-20840.967695828404,-17275.70799299574
-13151.855844480497,-11762.985499261082,-20839.29131499425,-17274.679812750794
-13134.64500124991,-11759.36451665932,-20837.190251015458,-17272.98108017219
-13150.4029810909,-11738.108007682324,-20837.234954504365,-17267.951937669746
-13162.472923096768,-11740.834920505871,-20837.61493416011,-17267.527254525095
-13157.220263149771,-11743.897109496247,-20838.39724521604,-17273.204597616746
-13152.07936192505,-11752.56958634491,-20840.475957450388,-17276.423248818308
-13165.848036509518,-11774.496647655566,-20848.45553022093,-17284.201655888755
-13173.581740091056,-11777.268263968022,-20846.153300542035,-17279.932472697794
-13158.874292239463,-11745.03704846347,-20837.771396371296,-17271.729382482696
-13147.541957800622,-11733.324734368887,-20836.54205042625,-17263.16866435631
-13147.27373686716,-11752.36842064481,-20849.059027321226,-17271.394106315864
-13158.851940495008,-11769.825133064403,-20849.68487616597,-17278.36785058592
-13166.563292332088,-11760.437400393175,-20841.48178595088,-17273.338708083476
-13165.22218766477,-11769.601615619851,-20838.061969049213,-17274.679812750794
-13154.873329981963,-11784.443173938176,-20839.425425460988,-17276.602062773953
-13141.506986797687,-11761.778505060496,-20847.002666831337,-17281.117115153924
-13130.666390736866,-11745.260565908024,-20848.34377149865,-17272.288176094076
-13148.726600256754,-11742.533653084476,-20848.34377149865,-17261.738152711172
-13154.739219515232,-11728.452054077632,-20850.31072501072,-17264.04038239007
-13132.141605870916,-11730.17313840069,-20844.722788896896,-17265.18032135729
-13118.663503964366,-11728.563812799908,-20848.67904766548,-17270.030649904093
-13124.854937178488,-11753.597766589854,-20852.23297503388,-17272.55639702754
-13133.952097171796,-11761.197359704658,-20855.94336461346,-17274.0763156505
-13132.678047737843,-11744.500606596544,-20855.988068102368,-17271.863492949426
-13136.03080940614,-11735.13522566977,-20857.239765791863,-17271.394106315864
-13133.08037913804,-11746.333449641876,-20863.542957728263,-17278.99369943067
-13132.968620415762,-11742.734818784576,-20864.16880657301,-17281.40768783184
-13143.295126354114,-11729.055551177926,-20856.56921345821,-17276.535007540584
-13149.97829794625,-11732.542423312954,-20858.849091392647,-17279.105458152946
-13157.98022246125,-11749.66385956572,-20864.548786228752,-17283.218179132724
-13153.353411359005,-11755.743534057565,-20866.761608929828,-17286.280368123098
-13154.158074159392,-11755.65412707974,-20861.352486771644,-17282.2794058656
-13157.17555966086,-11757.777542802996,-20855.049294835248,-17279.641900019873
-13147.653716522898,-11743.31596414041,-20855.205757046435,-17284.291062866578
-13150.648850279911,-11761.867912038317,-20863.989992617368,-17294.304644382555
-13132.454530293291,-11765.131266728791,-20872.528358999298,-17295.154010671857
-13124.586716245023,-11751.675516566696,-20878.406867791044,-17296.27159789462
-13131.247536092704,-11752.457827622631,-20872.729524699396,-17294.41640310483
-13137.193100117816,-11765.488894640075,-20876.641079979072,-17298.596179317974
-13135.874347194953,-11796.110784543847,-20881.536112014783,-17303.982949731704
-13129.593507003012,-11788.95822631815,-20883.815989949228,-17305.212295676745
-13134.153262871894,-11779.212865735635,-20884.330080071697,-17306.240475921688
-13140.74702748621,-11793.09329904238,-20878.51862651332,-17302.86536250894
-13147.810178734086,-11789.584075162897,-20876.350507301155,-17298.216199662234
-13143.83156822104,-11755.274147424,-20876.641079979072,-17289.968405958225
-13129.50410002519,-11758.649260836752,-20879.636213736085,-17297.120964183923
-13132.83450994903,-11785.270188483024,-20882.65369923755,-17303.42415612032
-13147.609013033987,-11776.396545934263,-20877.78101894629,-17301.18898167479
-13129.191175602817,-11740.209071661124,-20866.38162927409,-17290.70601352525
-13132.20866110428,-11769.84748480886,-20866.292222296262,-17294.41640310483
-13133.527414027143,-11781.358633203345,-20874.38355378909,-17300.51842934113
-13120.898678409896,-11751.22848167759,-20880.060896880736,-17299.04321420708
-13119.155242342382,-11733.771769257995,-20879.256234080345,-17292.51650482613
-13125.5478412566,-11748.70273455414,-20880.016193391824,-17294.125830426914
-13126.307800568082,-11755.743534057565,-20878.585681746685,-17298.10444093996
-13130.018190147664,-11770.406278420243,-20889.1804086185,-17307.76039454465
-13142.758684487188,-11792.310987986444,-20893.27077785382,-17312.85659228046
-13142.758684487188,-11788.868819340329,-20887.056992895246,-17308.743871300685
-13145.418542077368,-11790.344034474378,-20881.267891081323,-17306.75456604416
-13137.774245473653,-11777.67059536822,-20881.737277714885,-17309.727348056716
-13138.22128036276,-11771.814438320927,-20887.347565573164,-17318.578638861018
-13145.664411266376,-11799.821174123428,-20891.70615574195,-17323.58542961901
-13150.112408412982,-11780.375156447311,-20889.13570512959,-17317.841031293992
-13153.532225314644,-11772.753211588051,-20889.96271967444,-17316.3881679044
-13153.286356125636,-11779.61519713583,-20891.125010386117,-17319.070377239033
-13150.69355376882,-11775.770697089518,-20896.91411220004,-17320.322074928532
-13167.680879554857,-11787.550066417463,-20901.831495980205,-17324.591258119497
-13164.931614986852,-11789.651130396263,-20896.22120812192,-17320.165612717345
-13150.805312491097,-11757.3752114028,-20892.868446453627,-17312.811888791548
-13143.004553676195,-11745.640545563763,-20897.294091855776,-17313.2365719362
-13143.093960654016,-11762.47140913861,-20897.98699593389,-17318.71274932775
-13156.013268949184,-11764.863045795328,-20899.395155834576,-17316.969313260237
-13172.5088563572,-11769.512208642032,-20893.986033676392,-17309.168554445336
-13179.16967620488,-11779.61519713583,-20890.588568519182,-17306.75456604416
-13158.740181772731,-11779.861066324838,-20883.570120760214,-17304.161763687345
-13140.657620508387,-11777.290615712478,-20879.479751524897,-17304.1841154318
-13144.658582765887,-11781.537447158988,-20878.2280538354,-17305.86049626595
-13149.017172934671,-11751.094371210858,-20871.50017875435,-17300.1831531743
-13149.598318290513,-11748.054533964936,-20869.622632220107,-17295.444583349774
-13156.281489882647,-11779.168162246724,-20872.3271932992,-17299.177324673812
-13157.93551897234,-11807.845450382883,-20880.08324862519,-17310.442603879288
-13173.64879532442,-11804.71620615914,-20881.491408525875,-17309.123850956425
-13169.670184811375,-11747.093408953358,-20871.187254331977,-17294.66227229384
-13165.490408598234,-11749.127417698792,-20871.85780666564,-17298.484420595698
-13171.301862156612,-11761.309118426934,-20876.41756253452,-17304.742909043183
-13160.5059695847,-11737.325696626389,-20878.04923987976,-17305.502868354662
-13155.36506835998,-11742.2207286621,-20882.78780970428,-17307.447470122275
-13168.910225499896,-11764.90774928424,-20881.714925970427,-17308.833278278504
-13167.725583043764,-11765.533598128986,-20880.016193391824,-17306.419289877333
-13160.908300984896,-11767.746420830064,-20872.99774563286,-17300.33961538549
-13148.659545023387,-11752.36842064481,-20868.66150720853,-17295.690452538784
-13148.860710723486,-11733.548251813443,-20866.493387996365,-17287.1297344124
-13168.664356310888,-11735.64931579224,-20858.469111736908,-17281.117115153924
-13164.618690564475,-11744.27708915199,-20851.897698867047,-17278.010222674635
-13159.611899806489,-11770.339223186878,-20854.199928545942,-17279.105458152946
-13162.65173705241,-11771.657976109742,-20862.961812372425,-17284.84985647796
-13156.37089686047,-11736.476330337087,-20862.157149572035,-17282.681737265793
-13162.741144030231,-11732.251850635035,-20853.3729140011,-17273.137542383378
-13164.88691149794,-11761.309118426934,-20853.998762845848,-17274.255129606143
-13154.850978237508,-11764.438362650675,-20850.17661454399,-17272.265824349623
-13138.89183269642,-11740.432589105678,-20846.957963342426,-17271.349402826956
-13151.967603202773,-11755.14003695727,-20858.066780336718,-17278.814885475025
-13169.401963877914,-11760.057420737436,-20859.586698959676,-17277.540836041073
-13164.864559753483,-11728.764978500009,-20850.534242455276,-17270.2765190931
-13152.191120647329,-11722.573545285886,-20849.818986632705,-17271.349402826956
-13144.524472299156,-11733.727065769084,-20851.450663977943,-17273.60692901694
-13137.88600419593,-11739.158539671726,-20850.958925599924,-17272.668155749816
-13144.345658343516,-11734.88935648076,-20842.532317940277,-17270.432981304286
-13148.234861878736,-11741.416065861711,-20839.40307371653,-17271.79643771606
-13152.03465843614,-11760.012717248526,-20843.53814644076,-17273.338708083476
-13152.861672980986,-11763.410182405732,-20848.74610289885,-17278.70312675275
-13155.677992782354,-11762.873740538806,-20847.62851567609,-17278.524312797108
-13168.284376655149,-11759.610385848331,-20844.40986447452,-17271.885844693883
-13160.41656260688,-11749.172121187705,-20844.499271452343,-17268.443676047766
-13153.487521825737,-11732.3189058684,-20843.336980740667,-17267.639013247375
-13149.84418747952,-11739.94085072766,-20846.488576708864,-17273.785742972585
-13156.281489882647,-11763.4772376391,-20852.99293434536,-17278.94899594176
-13157.220263149771,-11767.321737685412,-20851.80829188923,-17272.62345226091
-13153.5545770591,-11758.51515037002,-20848.768454643305,-17268.93541442578
-13141.909318197886,-11722.014751674504,-20848.1202540541,-17267.303737080543
-13139.808254219086,-11752.055496222436,-20850.98127734438,-17272.3775830719
-13149.441856079324,-11795.23906651009,-20853.104693067635,-17275.797399973562
-13140.635268763932,-11744.075923451892,-20842.93464934047,-17264.576824256997
-13130.576983759043,-11718.84080396185,-20837.726692882385,-17262.095780622458
-13124.094977867006,-11709.095443379336,-20838.84428010515,-17270.835312704483
-13135.024980905651,-11737.03512394847,-20843.672256907492,-17273.875149950403
-13139.517681541169,-11720.60659177382,-20843.49344295185,-17270.12005688191
-13144.613879276978,-11726.4180453322,-20839.4701289499,-17266.566129513518
-13137.46132105128,-11734.151748913737,-20836.095015537147,-17267.03551614708
-13130.152300614394,-11743.830054262884,-20835.64798064804,-17271.61762376042
-13126.330152312536,-11724.741664498051,-20836.206774259423,-17271.863492949426
-13125.145509856406,-11717.209126616614,-20837.48082369337,-17270.65649874884
-13137.528376284645,-11720.181908629169,-20837.83845160466,-17268.46602779222
-13142.401056575902,-11726.753321499027,-20836.40793995952,-17270.902367937848
-13133.03567564913,-11737.325696626389,-20836.810271359715,-17275.03744066208
-13125.816062190064,-11739.829092005384,-20835.49151843685,-17274.0763156505
-13126.956001157285,-11741.639583306263,-20838.732521382877,-17272.60110051645
-13150.335925857536,-11766.450019651656,-20841.593544673156,-17268.488379536677
-13163.232882408249,-11787.840639095384,-20839.78305337227,-17269.382449314886
-13150.067704924071,-11743.31596414041,-20838.46430044941,-17266.61083300243
-13128.230050591235,-11702.4122717872,-20839.000742316337,-17263.61569924542
-13123.782053444633,-11703.55221075442,-20834.70920738092,-17261.782856200083
-13127.805367446586,-11687.973044869072,-20832.541088168757,-17259.614736987918
-13129.369989558458,-11698.724233952074,-20835.42446320349,-17261.671097477807
-13128.230050591235,-11728.60851628882,-20838.59841091614,-17263.883920178883
-13130.040541892116,-11757.75519105854,-20841.3700272286,-17271.17058887131
-13138.55655652959,-11746.981650231082,-20840.543012683756,-17274.500998795153
-13131.627515748443,-11693.918608894182,-20831.4682044349,-17263.861568434426
-13120.652809220888,-11679.725251165064,-20825.3661781986,-17254.876167163395
-13119.378759786936,-11702.166402598192,-20826.282599721268,-17252.88686190687
-13122.373893543949,-11715.37628357128,-20835.245649247845,-17256.93252765328
-13130.778149459142,-11727.60268778833,-20842.55466968473,-17261.17935909979
-13155.141550915429,-11747.65220256474,-20839.514832438806,-17256.97723114219
-13146.513777555678,-11725.814548231909,-20831.736425368363,-17253.825635173995
-13136.276678595148,-11718.773748728485,-20827.48959392185,-17259.23475733218
-13142.98220193174,-11739.404408860732,-20833.949248069435,-17268.33191732549
-13144.368010087968,-11744.634717063274,-20833.92689632498,-17265.090914379467
-13151.811140991584,-11751.56375784442,-20830.64118989005,-17260.08412362148
-13146.424370577855,-11742.198376917646,-20825.54499215424,-17256.641954975363
-13144.613879276978,-11714.012827159504,-20828.853050333622,-17257.98305964268
-13150.26887062417,-11718.12554813928,-20838.88898359406,-17262.207539344734
-13144.144492643416,-11721.634772018764,-20840.297143494743,-17258.161873598325
-13142.289297853626,-11716.69503649414,-20831.199983501432,-17249.042361860556
-13144.926803699353,-11718.773748728485,-20829.680064878477,-17247.99182987116
-13142.468111809269,-11719.4666528066,-20834.664503892007,-17248.99765837165
-13149.017172934671,-11720.852460962828,-20842.33115224018,-17251.21048107272
-13154.091018926028,-11717.589106272351,-20843.046408062743,-17251.23283281718
-13152.816969492074,-11697.047853117929,-20831.55761141272,-17242.672114690795
-13131.113425625972,-11685.69316693463,-20826.036730532254,-17239.431111744776
-13121.613934232466,-11710.905934680217,-20825.768509598794,-17243.767350169106
-13120.183422587326,-11716.3150568384,-20823.868611320093,-17245.376675769887
-13130.5993355035,-11719.041969661948,-20826.416710188,-17248.88589964937
-13138.847129207508,-11709.877754435272,-20821.678140363478,-17245.309620536522
-13139.6517920079,-11693.06924260488,-20818.2136199729,-17240.615754200906
-13138.333039085035,-11696.086728106347,-20816.04550076073,-17238.045303588548
-13142.445760064811,-11717.499699294533,-20820.13586999606,-17239.609925700417
-13135.494367539211,-11723.780539486474,-20822.23693397485,-17241.4204170013
-13142.915146698377,-11729.636696533764,-20819.107689751112,-17235.720722165195
-13142.155187386894,-11713.69990273713,-20813.09507049264,-17231.1162628074
-13127.112463368472,-11683.4579924891,-20809.63055010206,-17227.964666839205
-13117.50121325269,-11684.732041923053,-20810.614026858097,-17231.719759907694
-13118.261172564173,-11697.047853117929,-20813.385643170557,-17235.072521575992
-13125.525489512143,-11710.481251535566,-20810.524619880274,-17231.473890718687
-13127.201870346293,-11710.056568390915,-20808.15533496801,-17234.73724540916
-13127.045408135104,-11717.767920227996,-20810.63637860255,-17240.012257100614
-13117.054178363584,-11705.787385199952,-20812.78214607026,-17241.2192513012
-13113.701416695289,-11706.83791718935,-20812.69273909244,-17245.153158325335
-13135.136739627927,-11722.573545285886,-20812.73744258135,-17245.108454836423
-13137.014286162172,-11726.50745231002,-20811.753965825315,-17243.45442574673
-13126.084283123528,-11729.65904827822,-20810.2116954579,-17240.12401582289
-13118.238820819715,-11723.020580174993,-20816.89486705004,-17241.778044912582
-13111.086262594015,-11697.830164173862,-20819.30885545121,-17239.49816697814
-13118.842317920007,-11706.994379400538,-20815.754928082817,-17235.296039020544
-13123.312666811067,-11718.773748728485,-20812.02218675878,-17231.138614551855
-13107.97937011473,-11706.927324167173,-20809.09410823513,-17228.478756961675
-13106.951189869786,-11716.426815560675,-20812.603332114617,-17234.692541920253
-13108.269942792647,-11697.003149629016,-20813.58680887065,-17237.799434399538
-13114.751948684689,-11696.26554206199,-20807.03774774525,-17232.45736747472
-13124.11732961146,-11714.728082982074,-20800.689852319934,-17228.07642556148
-13105.006588102173,-11680.93224536565,-20796.80064878472,-17224.388387726354
-13086.186419270804,-11651.651460129198,-20801.3604046536,-17227.964666839205
-13088.242779760692,-11670.337518493834,-20803.48382037685,-17230.333951751465
-13100.491535722202,-11693.024539115971,-20801.09218372013,-17226.198879027233
-13108.44875674829,-11703.105175865314,-20802.0086052428,-17229.2163645287
-13105.185402057816,-11689.492963492032,-20805.942512266935,-17231.920925607792
-13105.07364333554,-11705.675626477674,-20807.618893101084,-17235.854832631925
-13108.828736404032,-11715.331580082368,-20807.21656170089,-17237.64297218835
-13117.12123359695,-11705.385053799757,-20805.09314597764,-17239.36405651141
-13113.41084401737,-11670.315166749378,-20796.554779595703,-17232.680884919275
-13121.569230743557,-11674.293777262425,-20797.225331929367,-17234.13374830887
-13120.339884798514,-11689.716480936586,-20803.148544210024,-17238.64880068884
-13109.566343971055,-11705.69797822213,-20810.524619880274,-17239.811091400516
-13119.132890597928,-11709.721292224083,-20807.887114034547,-17233.574954697484
-13120.004608631683,-11702.07699562037,-20803.17089595448,-17231.384483740865
-13124.139681355917,-11701.898181664728,-20804.93668376645,-17229.864565117903
-13131.336943070524,-11721.3665510853,-20816.89486705004,-17237.665323932808
-13134.153262871894,-11740.812568761416,-20824.04742527573,-17237.955896610725
-13113.746120184198,-11686.430774501656,-20810.83754430265,-17223.65078015933
-13102.391434000903,-11670.918663849672,-20804.13202096605,-17220.07450104648
-13111.4438905053,-11695.371472283778,-20809.83171580216,-17229.529288951075
-13122.709169710775,-11700.802946186415,-20817.63247461706,-17237.71002742172
-13110.438062004812,-11690.431736759156,-20816.20196297192,-17242.873280390893
-13110.236896304716,-11697.718405451586,-20810.345805924637,-17241.73334142367
-13119.177594086836,-11727.60268778833,-20806.63541634505,-17239.92285012279
-13108.985198615215,-11695.63969321724,-20802.477991876363,-17235.60896344292
-13107.711149181265,-11686.564884968388,-20803.416765143487,-17234.714893664706
-13127.55949825758,-11712.649370747731,-20804.757869810805,-17233.73141690867
-13122.418597032858,-11683.748565167018,-20793.917273749983,-17220.946219080237
-13101.25149503368,-11645.147102492703,-20789.178703925456,-17212.877239331872
-13095.238875775203,-11648.20929148308,-20794.185494683446,-17218.30871323451
-13100.938570611308,-11666.984756825535,-20801.919198264983,-17225.617733671395
-13101.273846778136,-11672.55034119491,-20805.942512266935,-17225.953009838227
-13117.143585341406,-11695.706748450608,-20805.383718655557,-17226.288286005056
-13127.55949825758,-11699.417138030189,-20808.714128579395,-17228.21053602821
-13129.906431425385,-11694.298588549924,-20811.575151869674,-17230.244544773646
-13119.624628975944,-11702.278161320468,-20814.860858304604,-17236.525384965586
-13109.16401257086,-11696.712576951097,-20815.10672749361,-17241.040437345557
-13111.846221905496,-11659.854550344297,-20812.3127594367,-17235.22898378718
-13116.204812074282,-11672.393878983725,-20805.160201211,-17234.40196924233
-13113.343788784005,-11693.806850171906,-20811.12811698057,-17239.27464953359
-13107.375873014436,-11686.810754157395,-20811.530448380763,-17238.537041966563
-13106.750024169687,-11679.702899420608,-20812.625683859074,-17239.94520186725
-13117.434158019323,-11686.676643690664,-20807.95416926792,-17235.541908209554
-13121.50217551019,-11693.851553660816,-20808.378852412567,-17232.770291897094
-13127.201870346293,-11706.234420089057,-20816.380776927566,-17235.74307390965
-13131.69457098181,-11699.21597233009,-20815.710224593902,-17235.430149487274
-13138.422446062856,-11696.89139090674,-20820.962884540902,-17238.31352452201
-13161.824722507565,-11713.342274825844,-20824.248590975832,-17235.296039020544
-13174.69932731382,-11719.824280717885,-20817.923047294986,-17227.74114939465
-13147.787826989632,-11685.514352978988,-20813.430346659465,-17222.063806303002
-13132.052198893094,-11679.613492442786,-20817.78893682825,-17227.83055637247
-13149.84418747952,-11712.93994342565,-20826.349654954636,-17240.101664078436
-13161.355335874005,-11685.849629145818,-20822.97454154188,-17236.59244019895
-13141.305821097592,-11665.867169602772,-20809.78701231325,-17226.60121042743
-13142.915146698377,-11692.465745504587,-20813.54210538174,-17233.55260295303
-13157.779056761154,-11740.477292594587,-20821.74519559684,-17242.113321079414
-13162.249405652216,-11722.953524941628,-20826.617875888096,-17244.750826925138
-13146.022039177662,-11679.21116104259,-20818.392433928544,-17235.74307390965
-13139.6517920079,-11651.025611284447,-20808.557666368208,-17226.60121042743
-13142.848091465008,-11683.50269597801,-20810.30110243572,-17231.786815141062
-13140.74702748621,-11680.261693031993,-20813.698567592928,-17235.206632042722
-13149.397152590413,-11691.50462049301,-20820.1135182516,-17235.60896344292
-13147.430199078346,-11697.830164173862,-20811.575151869674,-17228.858736617414
-13141.194062375316,-11687.593065213332,-20807.663596589995,-17226.243582516145
-13131.001666903696,-11672.729155150551,-20808.22239020138,-17228.03172207257
-13132.11925412646,-11697.807812429406,-20811.664558847497,-17232.278553519078
-13141.417579819868,-11720.40542607372,-20821.45462291892,-17240.951030367738
-13146.871405466964,-11702.635789231754,-20819.666483362496,-17233.59730644194
-13150.89471946892,-11700.914704908697,-20823.309817708712,-17234.021989586592
-13143.295126354114,-11697.293722306937,-20822.39339618604,-17234.089044819957
-13140.367047830468,-11694.231533316555,-20825.83556483216,-17236.50303322113
-13138.020114662662,-11686.877809390762,-20830.17180325649,-17239.900498378338
-13145.329135099548,-11691.437565259645,-20830.77530035678,-17235.251335531633
-13151.565271802578,-11709.296609079434,-20834.06100679171,-17236.681847176773
-13150.89471946892,-11701.205277586614,-20836.050312048235,-17237.50886172162
-13165.490408598234,-11716.784443471965,-20840.967695828404,-17244.951992625236
-13152.280527625147,-11709.877754435272,-20843.158166785022,-17247.008353115125
-13150.246518879714,-11699.21597233009,-20840.967695828404,-17246.248393803646
-13153.93455671484,-11712.001170158526,-20836.765567870807,-17244.50495773613
-13145.373838588455,-11675.210198785093,-20831.89288757955,-17241.621582701395
-13143.093960654016,-11688.21891405808,-20834.88802133656,-17247.187167070766
-13157.712001527789,-11734.88935648076,-20841.638248162064,-17255.233795074677
-13171.123048200972,-11736.453978592632,-20846.108597053124,-17257.670135220305
-13166.339774887536,-11697.628998473763,-20836.92203008199,-17245.980172870182
-13134.041504149618,-11693.73979493854,-20834.93272482547,-17241.956858868227
-13124.542012756112,-11679.92641686516,-20837.726692882385,-17246.717780437208
-13130.88990818142,-11696.310245550902,-20844.23105051888,-17253.2221380737
-13140.679972252845,-11702.009940387004,-20845.393341230552,-17249.77996942758
-13139.227108863248,-11699.21597233009,-20840.118329539106,-17242.068617590503
-13132.812158204575,-11714.929248682172,-20840.051274305737,-17245.84606240345
-13121.524527254644,-11680.775783154462,-20840.386550472565,-17247.298925793046
-13127.26892557966,-11670.091649304826,-20845.773320886296,-17250.539928739065
-13146.781998489145,-11697.137260095747,-20847.159129042524,-17250.249356061144
-13162.31646088558,-11736.409275103722,-20845.61685867511,-17251.121074094903
-13151.095885169016,-11720.539536540457,-20844.722788896896,-17251.83632991747
-13133.192137860317,-11694.857382161306,-20845.52745169729,-17251.344591539455
-13136.634306506432,-11727.423873832688,-20851.517719211308,-17259.860606176928
-13147.586661289532,-11747.763961287015,-20848.41082673202,-17260.687620721772
-13147.564309545078,-11710.056568390915,-20840.61006791712,-17248.215347315712
-13137.88600419593,-11696.198486828624,-20842.420559218,-17251.009315372627
-13130.286411081126,-11693.516277493987,-20845.21452727491,-17255.680829963785
-13140.03177166364,-11701.674664220174,-20850.17661454399,-17256.12786485289
-13132.096902382003,-11682.854495388809,-20847.248536020343,-17248.282402549077
-13128.11829186896,-11683.815620400384,-20841.21356501741,-17243.186204813268
-13139.495329796711,-11716.627981260775,-20847.0697220647,-17244.102626335934
-13146.334963600037,-11708.849574190328,-20854.870480879603,-17252.12690259539
-13126.55366975709,-11691.92930363766,-20857.3738762586,-17255.79258868606
-13136.924879184353,-11705.69797822213,-20860.279603037787,-17256.820768931004
-13139.852957707995,-11701.294684564436,-20858.491463481365,-17251.746922939652
-13137.573079773556,-11698.143088596236,-20857.61974544761,-17249.2211758162
-13139.003591418696,-11718.50552779502,-20861.03956234927,-17251.501053750642
-13130.68874248132,-11702.345216553837,-20863.38649551708,-17258.810074187528
-13136.366085572969,-11694.902085650216,-20860.70428618244,-17262.341649811468
-13140.724675741754,-11707.93315266766,-20861.374838516094,-17267.594309758464
-13135.248498350204,-11725.769844742996,-20862.09009433867,-17269.89653943736
-13127.78301570213,-11732.5200715685,-20866.292222296262,-17274.590405772975
-13133.281544838135,-11728.675571522186,-20877.155170101545,-17279.9771761867
-13130.420521547858,-11702.79225144294,-20872.1260275991,-17269.538911526073
-13130.666390736866,-11709.117795123791,-20862.85005365015,-17266.85670219144
-13149.419504334868,-11747.56279558692,-20865.08522809568,-17274.23277786169
-13140.724675741754,-11722.595897030342,-20864.213510061923,-17271.237644104676
-13120.049312120596,-11682.720384922077,-20860.190196059968,-17264.085085878978
-13132.923916926851,-11720.830109218372,-20856.1221785691,-17262.632222489385
-13144.07743741005,-11721.83593771886,-20845.63921041956,-17256.351382297442
-13141.149358886403,-11696.310245550902,-20843.35933248512,-17254.719704952207
-13150.447684579813,-11742.645411806752,-20847.02501857579,-17258.02776313159
-13161.668260296376,-11757.3752114028,-20851.428312233485,-17260.821731188506
-13142.602222276,-11699.797117685928,-20845.505099952832,-17254.13855959637
-13141.328172842048,-11701.629960731265,-20842.822890618198,-17253.51271075162
-13149.821835735063,-11718.661990006209,-20843.918126096505,-17256.731361953185
-13146.290260111124,-11713.923420181683,-20844.16399528551,-17256.865472419915
-13141.93166994234,-11722.595897030342,-20844.61103017462,-17256.261975319623
-13149.106579912494,-11708.491946279044,-20843.98518132987,-17252.596289228954
-13141.976373431253,-11705.183888099658,-20839.246611505343,-17244.974344369693
-13132.74510297121,-11702.300513064924,-20840.297143494743,-17240.280478034078
-13121.41276853237,-11687.4589547466,-20843.78401562977,-17238.827614644484
-13114.371969028947,-11683.681509933653,-20847.807329631727,-17240.436940245265
-13127.246573835204,-11710.436548046657,-20846.734445897877,-17240.727512923182
-13127.157166857383,-11703.84278343234,-20842.867594107105,-17237.441806488252
-13125.16786160086,-11684.396765756224,-20841.48178595088,-17237.151233810335
-13119.892849909407,-11685.782573912453,-20845.438044719464,-17244.21438505821
-13120.541050498612,-11709.676588735174,-20853.50702446783,-17251.009315372627
-13136.589603017524,-11725.300458109434,-20853.55172795674,-17249.60115547194
-13127.134815112928,-11685.424946001169,-20841.302971995232,-17238.581745455474
-13123.35737029998,-11690.208219314602,-20843.582849929677,-17240.1687193118
-13123.670294722357,-11700.624132230776,-20849.97544884389,-17246.963649626214
-13129.906431425385,-11711.040045146949,-20855.83160589118,-17255.345553796953
-13137.975411173751,-11719.60076327333,-20847.673219164997,-17244.147329824846
-13133.907393682885,-11705.474460777576,-20840.90064059504,-17233.12791980838
-13134.153262871894,-11711.84470794734,-20847.74027439836,-17239.542870467052
-13117.724730697242,-11689.78353616995,-20844.879251108083,-17239.095835577948
-13115.802480674089,-11668.996413826517,-20844.56632668571,-17242.40389375733
-13126.151338356894,-11672.460934217088,-20838.84428010515,-17239.609925700417
-13131.98514365973,-11674.919626107172,-20830.574134656687,-17236.79360589905
-13130.956963414785,-11689.470611747576,-20828.853050333622,-17236.65949543232
-13131.135777370428,-11703.909838665706,-20832.3175707242,-17241.331010023478
-13142.401056575902,-11710.436548046657,-20838.53135568277,-17246.02487635909
-13145.26207986618,-11718.237306861558,-20841.526489439784,-17247.388332770865
-13136.768416973164,-11709.050739890426,-20837.48082369337,-17243.968515869205
-13129.772320958651,-11687.883637891253,-20834.23982074736,-17237.71002742172
-13135.114387883472,-11708.559001512407,-20841.347675484143,-17243.879108891382
-13123.513832511167,-11711.487080036057,-20847.85203312064,-17248.036533360068
-13122.038617377117,-11697.517239751489,-20846.868556364603,-17245.71195193672
-13130.331114570035,-11690.185867570146,-20843.11346329611,-17242.135672823868
-13118.149413841891,-11702.479327020566,-20842.48761445137,-17241.73334142367
-13102.16791655635,-11680.21698954308,-20845.102768552635,-17242.18037631278
-13110.192192815804,-11681.44633548812,-20850.824815133197,-17248.148292082347
-13127.380684301936,-11702.389920042744,-20848.142605798555,-17241.666286190306
-13120.630457476433,-11701.74171945354,-20830.97646605688,-17228.523460450586
-13102.771413656645,-11662.067373045373,-20824.87443982058,-17224.70131214873
-13107.465279992255,-11678.205332542102,-20833.32339922469,-17233.440844230754
-13101.005625844671,-11677.3559662528,-20831.37879745708,-17235.117225064903
-13110.013378860162,-11682.07218433287,-20830.12709976758,-17233.574954697484
-13119.602277231488,-11701.40644328671,-20830.79765210124,-17234.13374830887
-13120.921030154352,-11710.12362362428,-20832.809309102217,-17235.720722165195
-13111.578000972033,-11695.93026589516,-20832.87636433558,-17234.80430064253
-13109.186364315316,-11695.75145193952,-20839.000742316337,-17234.625486686884
-13111.712111438765,-11694.946789139129,-20834.105710280623,-17230.84804187394
-13108.40405325938,-11685.961387868094,-20823.756852597817,-17220.633294657862
-13112.226201561238,-11699.327731052368,-20826.17084099899,-17223.986056326157
-13116.629495218933,-11699.730062452563,-20832.20581200192,-17225.349512737932
-13117.367102785958,-11695.84085891734,-20836.54205042625,-17228.07642556148
-13130.286411081126,-11689.627073958764,-20831.40114920153,-17224.94718133774
-13131.024018648151,-11696.89139090674,-20818.0124542728,-17216.67703588927
-13115.668370207355,-11687.347196024322,-20813.58680887065,-17213.2125154987
-13107.375873014436,-11695.483231006054,-20820.18057348497,-17217.436995200755
-13110.616875960455,-11686.78840241294,-20825.27677122078,-17222.89082084785
-13131.292239581617,-11720.852460962828,-20826.036730532254,-17222.555544681018
-13117.322399297049,-11681.669852932677,-20818.280675206268,-17211.871410831383
-13117.277695808138,-11657.21704449857,-20817.49836415033,-17213.12310852088
-13137.148396628903,-11693.06924260488,-20825.813213087706,-17224.388387726354
-13111.622704460944,-11682.183943055146,-20822.12517525258,-17226.847079616437
-13107.532335225624,-11670.650442916209,-20816.62664611657,-17220.096852790935
-13114.30491379558,-11691.92930363766,-20815.28554144925,-17219.336893479456
-13115.02016961815,-11672.505637706,-20820.35938744061,-17221.25914350261
-13110.795689916098,-11660.92743407815,-20825.857916576617,-17222.957876081215
-13105.632436946922,-11673.332652250843,-20830.574134656687,-17227.562335439008
-13112.382663772423,-11682.049832588416,-20828.18249799997,-17225.12599529338
-13126.330152312536,-11687.593065213332,-20820.04646301824,-17218.21930625669
-13130.845204692509,-11693.337463538344,-20818.571247884185,-17215.40298645532
-13132.879213437942,-11704.468632277089,-20823.35452119762,-17218.040492301046
-13122.30683831058,-11698.858344418806,-20820.69466360744,-17220.1639080243
-13116.07070160755,-11681.423983743667,-20813.385643170557,-17209.815050341494
-13122.060969121572,-11689.872943147771,-20812.73744258135,-17211.31261722
-13135.06968439456,-11717.387940572256,-20816.917218794493,-17217.034663800558
-13124.162033100372,-11687.257789046502,-20816.20196297192,-17216.475870189177
-13111.01920736065,-11653.774875852452,-20816.380776927566,-17215.157117266313
-13124.564364500568,-11680.909893621194,-20817.11838449459,-17217.638160900853
-13132.231012848735,-11690.543495481432,-20817.87834380607,-17216.967608567193
-13119.4458150203,-11660.033364299938,-20818.07950950617,-17212.251390487123
-13118.30587605308,-11674.897274362716,-20822.527506652776,-17218.59928591243
-13109.566343971055,-11703.17223109868,-20828.093091022147,-17224.07546330398
-13101.11738456695,-11695.93026589516,-20823.108652008614,-17218.93456207926
-13094.814192630552,-11650.556224650889,-20814.614989115595,-17211.93846606475
-13092.511962951658,-11641.704933846586,-20814.525582137776,-17212.810184098504
-13096.803497887076,-11667.632957414742,-20821.3652159411,-17221.102681291424
-13105.095995079995,-11683.16741981118,-20828.98716080036,-17227.808204628018
-13123.513832511167,-11693.158649582703,-20825.41088168751,-17223.40491097032
-13139.048294907609,-11699.21597233009,-20822.97454154188,-17218.59928591243
-13130.241707592217,-11689.5600187254,-20823.041596775245,-17219.314541735
-13112.382663772423,-11663.16260852368,-20818.325378695172,-17215.112413777402
-13105.297160780092,-11672.41623072818,-20824.22623923138,-17217.436995200755
-13106.727672425232,-11687.07897509086,-20827.73546311086,-17217.995788812135
-13099.195134543794,-11671.768030138974,-20825.54499215424,-17217.816974856494
-13088.175724527327,-11647.561090893876,-20821.58873338565,-17215.44768994423
-13084.06300354755,-11656.904120076197,-20822.03576827476,-17223.159041781313
-13097.809326387563,-11681.334576765845,-20831.669370134998,-17230.84804187394
-13115.02016961815,-11697.807812429406,-20833.815137602705,-17229.4175302288
-13119.244649320204,-11695.572637983876,-20829.165974756,-17225.282457504567
-13114.349617284492,-11690.051757103414,-20826.26024797681,-17221.437957458253
-13112.44971900579,-11694.186829827648,-20829.34478871164,-17225.394216226843
-13096.423518231337,-11655.339497964324,-20830.305913723223,-17224.54484993754
-13101.229143289229,-11667.252977759004,-20832.20581200192,-17224.678960404275
-13108.292294537105,-11676.864227874785,-20829.255381733823,-17222.51084119211
-13103.844297390497,-11659.87690208875,-20831.915239324004,-17226.98119008317
-13099.463355477255,-11663.855512601796,-20836.49734693734,-17237.665323932808
-13101.564419456055,-11695.818507172884,-20839.626591161086,-17242.64976294634
-13100.849163633486,-11704.580390999365,-20833.54691666924,-17235.676018676284
-13108.001721859184,-11689.939998381138,-20836.60910565962,-17237.12888206588
-13121.233954576726,-11689.761184425495,-20841.817062117705,-17237.821786143995
-13120.45164352079,-11693.583332727354,-20845.03571331927,-17240.772216412093
-13087.058137304562,-11670.941015594128,-20840.78888187276,-17241.59923095694
-13084.39827971438,-11677.534780208443,-20839.89481209455,-17241.666286190306
-13092.131983295916,-11676.998338341517,-20839.55953592772,-17240.32518152299
-13089.315663494548,-11664.906044591196,-20841.70530339543,-17241.643934445852
-13087.505172193669,-11663.16260852368,-20850.17661454399,-17241.778044912582
-13092.511962951658,-11673.377355739756,-20860.23489954888,-17246.74013218166
-13106.571210214044,-11681.893370377227,-20861.48659723837,-17244.147329824846
-13114.036692862115,-11682.943902366627,-20857.910318125527,-17243.879108891382
-13123.670294722357,-11697.874867662773,-20859.81021640423,-17248.237699060166
-13121.345713299002,-11707.664931734196,-20864.03469610628,-17252.909213651325
-13102.793765401098,-11685.760222167995,-20866.851015907647,-17258.18422534278
-13108.269942792647,-11671.611567927786,-20862.69359143896,-17252.28336480658
-13106.951189869786,-11661.106248033791,-20858.67027743701,-17246.404856014833
-13100.603294444478,-11672.907969106194,-20858.31264952572,-17248.192995571255
-13107.6440939479,-11693.449222260622,-20864.50408273984,-17253.780931685083
-13112.852050405983,-11701.764071197997,-20868.147417086057,-17262.18518760028
-13120.630457476433,-11685.3578907678,-20868.303879297244,-17261.157007355334
-13118.082358608528,-11682.45216398861,-20862.403018761044,-17254.51853925211
-13107.040596847606,-11668.616434170775,-20857.105655325136,-17248.863547904915
-13107.040596847606,-11667.36473648128,-20858.17853905899,-17253.333896795975
-13109.029902104128,-11658.491093932522,-20859.18436755948,-17254.473835763198
-13120.07166386505,-11673.511466206488,-20858.35735301463,-17254.451484018744
-13114.64018996241,-11665.464838202575,-20852.210623289426,-17249.332934538477
-13100.133907810916,-11660.435695700133,-20851.875347122597,-17246.248393803646
-13106.437099747312,-11708.000207901026,-20854.84812913515,-17249.064713605014
-13092.333148996016,-11683.21212330009,-20859.11731232611,-17251.255184561633
-13089.695643150288,-11642.509596646976,-20859.78786465977,-17246.963649626214
-13094.747137397188,-11650.712686862074,-20854.08816982367,-17240.258126289624
-13091.30496875107,-11664.526064935457,-20858.2232425479,-17239.833443144973
-13080.553779668067,-11650.288003717424,-20858.960850114927,-17238.045303588548
-13082.63249190241,-11641.146140235203,-20856.390399502565,-17237.195937299246
-13098.032843832118,-11670.583387682842,-20854.199928545942,-17236.011294843112
-13105.990064858206,-11671.432753972143,-20848.61199243212,-17231.89857386334
-13102.614951445456,-11638.039247755916,-20845.102768552635,-17231.07155931849
-13094.702433908276,-11620.940163247606,-20846.779149386784,-17236.45832973222
-13079.704413378766,-11620.984866736517,-20842.62172491809,-17237.978248355183
-13095.194172286294,-11651.83027408484,-20843.69460865195,-17237.665323932808
-13109.83456490452,-11648.96925079456,-20843.49344295185,-17231.540945952052
-13102.637303189911,-11647.806960082884,-20842.465262706908,-17232.211498285713
-13103.531372968124,-11669.197579526612,-20843.78401562977,-17235.474852976186
-13098.50223046568,-11651.15972175118,-20844.722788896896,-17233.55260295303
-13098.032843832118,-11646.73407634903,-20847.159129042524,-17234.111396564414
-13097.094070564995,-11646.264689715468,-20842.68878015146,-17227.22705927218
-13102.145564811894,-11664.950748080106,-20845.75096914184,-17229.439881973252
-13104.626608446431,-11706.32382706688,-20853.52937621229,-17239.162890811313
-13101.206791544771,-11704.088652621347,-20854.915184368518,-17241.93450712377
-13088.086317549503,-11638.06159950037,-20846.89090810906,-17232.993809341646
-13094.456564719268,-11625.164642949658,-20841.906469095527,-17227.36116973891
-13086.767564626643,-11640.833215812829,-20840.252440005832,-17227.16000403881
-13079.212675000748,-11652.120846762758,-20840.967695828404,-17229.998675584637
-13085.493515192691,-11668.817599870874,-20848.3214197542,-17233.262030275113
-13099.508058966168,-11665.174265524658,-20850.958925599924,-17230.177489540278
-13102.123213067438,-11664.637823657731,-20840.163033028013,-17228.389349983856
-13088.958035583262,-11653.439599685622,-20841.3700272286,-17226.467099960697
-13079.816172101042,-11652.2996607184,-20844.99100983036,-17226.847079616437
-13084.286520992104,-11662.648518401207,-20850.80246338874,-17233.709065164217
-13084.085355292003,-11645.415323426168,-20853.41761749001,-17231.87622211888
-13098.97161709924,-11649.997431039505,-20852.36708550061,-17226.93648659426
-13106.772375914145,-11653.976041552549,-20854.46814947941,-17230.915097107303
-13089.762698383654,-11658.222872999058,-20849.84133837716,-17232.144443052344
-13067.120381250428,-11663.140256779225,-20849.57311744369,-17234.916059364805
-13068.886169062396,-11666.87299810326,-20844.61103017462,-17235.58661169846
-13075.658747632357,-11654.758352608484,-20839.02309406079,-17229.708102906716
-13082.900712835875,-11663.676698646152,-20838.866631849603,-17228.925791850783
-13096.468221720246,-11662.469704445566,-20842.48761445137,-17231.45153897423
-13099.619817688445,-11676.327786007856,-20847.360294742623,-17233.686713419764
-13092.199038529285,-11697.383129284755,-20843.31462899621,-17229.149309295335
-13089.382718727911,-11681.289873276935,-20835.625628903585,-17223.673131903786
-13076.977500555218,-11651.673811873652,-20831.535259668264,-17222.60024816993
-13065.600462627466,-11626.505747616977,-20830.618838145598,-17222.622599914386
-13069.10968650695,-11626.05871272787,-20837.61493416011,-17231.049207574037
-13091.908465851364,-11640.028553012438,-20839.78305337227,-17233.664361675306
-13092.176686784827,-11668.661137659688,-20837.50317543783,-17230.51276570711
-13090.701471650777,-11678.764126153485,-20839.31366673871,-17232.41266398581
-13089.717994894743,-11674.472591218066,-20843.806367374225,-17242.292135035055
-13077.7374598667,-11636.675791344142,-20844.47691970789,-17242.2697832906
-13080.01733780114,-11620.090796958304,-20840.252440005832,-17240.191071056255
-13093.584846685511,-11645.16945423716,-20839.38072197208,-17238.98407685567
-13089.78505012811,-11667.677660903651,-20839.157204527524,-17238.805262900027
-13089.472125705735,-11672.907969106194,-20836.16207077051,-17235.60896344292
-13091.953169340271,-11677.534780208443,-20840.565364428207,-17241.062789090014
-13094.389509485902,-11681.73690816604,-20840.69947489494,-17238.805262900027
-13086.87932334892,-11645.348268192802,-20838.17372777149,-17230.713931407205
-13087.281654749117,-11641.526119890945,-20841.32532373969,-17230.401006984834
-13092.623721673934,-11673.73498365104,-20850.2213180329,-17236.79360589905
-13079.324433723026,-11671.54451269442,-20854.53520471277,-17238.201765799735
-13072.10482026396,-11649.617451383763,-20852.635306434076,-17233.574954697484
-13078.050384289072,-11656.233567742536,-20850.422483733,-17228.322294750487
-13078.095087777983,-11657.105285776292,-20847.69557090945,-17226.824727871983
-13073.244759231182,-11658.960480566082,-20844.298105752245,-17228.255239517122
-13066.315718450036,-11670.806905127396,-20844.99100983036,-17232.770291897094
-13081.82782910202,-11680.64167268773,-20848.88021336558,-17237.0171233436
-13096.132945553416,-11671.87978886125,-20841.794710373248,-17232.770291897094
-13082.386622713402,-11660.25688174449,-20835.044483547743,-17226.69061740525
-13082.833657602509,-11681.5580942104,-20842.71113189592,-17235.854832631925
-13085.940550081796,-11676.372489496767,-20847.29323950925,-17238.2688210331
-13106.88413463642,-11685.536704723443,-20848.969620343403,-17236.614791943408
-13117.612971974966,-11684.039137844937,-20842.867594107105,-17230.08808256246
-13115.467204507257,-11680.55226570991,-20840.92299233949,-17229.26106801761
-13090.455602461769,-11674.629053429251,-20838.285486493765,-17231.853870374427
-13078.855047089464,-11671.209236527591,-20838.03961730476,-17233.73141690867
-13090.477954206224,-11678.048870330917,-20837.50317543783,-17228.88108836187
-13091.975521084729,-11668.817599870874,-20835.335056225667,-17227.048245316535
-13085.962901826251,-11648.87984381674,-20832.07170153519,-17225.528326693577
-13094.30010250808,-11659.608681155289,-20833.45750969142,-17227.65174241683
-13101.340902011503,-11678.808829642396,-20839.760701627816,-17235.251335531633
-13104.35838751297,-11694.70091995012,-20842.577021429184,-17235.340742509456
-13097.474050220737,-11662.44735270111,-20838.50900393832,-17225.215402271202
-13093.383680985413,-11667.320032992367,-20838.374893471588,-17227.65174241683
-13095.909428108864,-11688.822411158371,-20841.45943420642,-17235.139576809357
-13091.059099562062,-11680.507562221,-20847.4720534649,-17238.000600099636
-13098.435175232313,-11657.664079387676,-20847.40499823153,-17237.620620443897
-13117.389454530414,-11659.251053244,-20841.593544673156,-17237.330047765976
-13105.543029969102,-11634.127692476235,-20833.32339922469,-17231.540945952052
-13088.64511116089,-11635.91583203266,-20836.139719026058,-17232.233850030167
-13094.009529830162,-11657.708782876583,-20844.767492385807,-17240.99573385665
-13105.945361369297,-11680.462858732088,-20846.376817986587,-17246.158986825823
-13102.68200667882,-11662.156780023191,-20839.02309406079,-17238.4699867332
-13098.479878721224,-11652.21025374058,-20830.082396278667,-17227.763501139107
-13100.044500833095,-11661.329765478346,-20833.524564924784,-17230.22219302919
-13104.984236357715,-11651.427942684644,-20836.452643448432,-17231.049207574037
-13096.982311842718,-11635.53585237692,-20829.724768367385,-17224.053111559526
-13111.846221905496,-11662.849684101306,-20829.858878834115,-17219.627466157373
-13115.534259740623,-11670.27046326047,-20838.6207626606,-17222.197916769735
-13111.533297483124,-11671.723326650064,-20834.955076569924,-17223.382559225865
-13102.078509578529,-11664.079030046349,-20833.27869573578,-17227.070597060992
-13105.945361369297,-11644.67771585914,-20832.004646301823,-17224.433091215265
-13114.103748095484,-11665.21896901357,-20831.490556179357,-17222.488489447653
-13109.58869571551,-11660.189826511123,-20833.43515794697,-17226.31063774951
-13094.098936807985,-11642.5990036248,-20831.803480601728,-17227.74114939465
-13086.588750671,-11646.443503671111,-20831.22233524589,-17230.51276570711
-13099.709224666263,-11657.440561943122,-20836.98908531536,-17228.322294750487
-13112.337960283514,-11666.02363181396,-20836.34088472616,-17225.30480924902
-13104.827774146532,-11652.344364207313,-20829.30008522273,-17221.236791758158
-13101.050329333584,-11655.183035753136,-20830.17180325649,-17224.678960404275
-13107.085300336516,-11648.321050205355,-20833.43515794697,-17230.64687617384
-13105.095995079995,-11655.78653285343,-20826.953152054924,-17225.97536158268
-13106.325341025036,-11644.297736203402,-20816.89486705004,-17216.587628911453
-13113.813175417565,-11647.628146127245,-20815.37494842708,-17216.006483555615
-13115.869535907452,-11641.079085001837,-20820.426442673976,-17216.78879461155
-13105.990064858206,-11648.58927113882,-20826.975503799385,-17221.616771413897
-13087.527523938124,-11644.409494925678,-20828.49542242234,-17218.241658001145
-13100.625646188932,-11671.54451269442,-20834.865669592105,-17219.940390579748
-13107.420576503346,-11685.290835534435,-20836.206774259423,-17220.722701635685
-13102.033806089616,-11660.16747476667,-20842.845242362648,-17226.422396471786
-13104.760718913163,-11647.78460833843,-20851.450663977943,-17233.262030275113
-13091.908465851364,-11628.405645895678,-20851.070684322203,-17230.333951751465
-13091.416727473346,-11630.663172085664,-20847.69557090945,-17226.064768560504
-13093.271922263137,-11657.507617176489,-20852.74706515635,-17230.333951751465
-13103.754890412676,-11682.45216398861,-20851.40596048903,-17233.910230864316
-13100.290370022103,-11666.537721936433,-20844.275754007787,-17224.70131214873
-13089.7403466392,-11633.05480874238,-20838.151376027035,-17219.046320801535
-13095.93177985332,-11646.465855415569,-20835.223297503388,-17221.147384780335
-13094.97065484174,-11660.3015852334,-20830.97646605688,-17221.616771413897
-13107.912314881363,-11684.664986689686,-20830.954114312422,-17227.852908116925
-13105.520678224646,-11660.88273058924,-20834.038655047258,-17232.524422708088
-13099.664521177356,-11648.365753694266,-20831.37879745708,-17227.31646625
-13110.013378860162,-11649.885672317228,-20828.04838753324,-17221.03562605806
-13102.123213067438,-11632.227794197535,-20822.28163746377,-17216.520573678084
-13095.171820541838,-11638.262765200468,-20824.516811909296,-17220.54388768004
-13100.469183977746,-11655.74182936452,-20832.22816374638,-17226.55650693852
-13114.997817873696,-11653.73017236354,-20837.659637649016,-17230.333951751465
-13109.275771293136,-11638.866262300762,-20828.94245731145,-17225.68478890476
-13099.329245010524,-11644.25303271449,-20831.132928268067,-17226.288286005056
-13109.991027115706,-11677.713594164086,-20839.336018483165,-17233.284382019567
-13105.990064858206,-11687.950693124616,-20841.66059990652,-17238.715855922204
-13097.652864176378,-11666.06833530287,-20841.168861528506,-17236.79360589905
-13102.30202702308,-11653.998393297004,-20837.74904462684,-17230.93744885176
-13117.612971974966,-11679.814658142885,-20839.73834988336,-17235.474852976186
-13105.766547413654,-11654.4007246972,-20832.42932944648,-17230.69157966275
-13082.16310526885,-11615.508689344966,-20832.809309102217,-17231.049207574037
-13078.832695345009,-11623.935297004617,-20839.067797549706,-17237.330047765976
-13092.82488737403,-11643.515425147463,-20842.59937317364,-17235.22898378718
-13101.5420677116,-11673.824390628864,-20844.946306341448,-17239.386408255865
-13094.389509485902,-11660.88273058924,-20846.667390664505,-17244.616716458408
-13090.723823395232,-11640.185015223626,-20846.46622496441,-17243.521480980096
-13093.182515285316,-11662.536759678933,-20844.58867843016,-17242.046265846046
-13097.585808943011,-11668.92935859315,-20841.70530339543,-17238.98407685567
-13101.318550267048,-11665.420134713666,-20842.197041773445,-17237.93354486627
-13105.587733458013,-11683.793268655929,-20846.957963342426,-17243.186204813268
-13108.35934977047,-11681.5580942104,-20852.59060294516,-17247.522443237598
-13113.321437039547,-11667.476495203557,-20850.578945944184,-17244.348495524944
-13122.239783077215,-11668.92935859315,-20847.539108698264,-17242.22507980169
-13116.02599811864,-11670.046945815917,-20846.488576708864,-17243.74499842465
-13102.123213067438,-11644.633012370232,-20840.252440005832,-17241.956858868227
-13098.546933954589,-11663.430829457144,-20844.9686580859,-17249.757617683128
-13107.420576503346,-11689.381204769756,-20846.667390664505,-17251.903385150836
-13120.853974920989,-11673.73498365104,-20840.34184698365,-17243.633239702373
-13118.060006864072,-11657.30645147639,-20836.18442251497,-17236.905364621325
-13109.991027115706,-11655.473608431055,-20836.765567870807,-17237.665323932808
-13099.172782799338,-11647.851663571795,-20834.55274516973,-17237.575916954986
-13096.44586997579,-11656.725306120552,-20831.28939047925,-17232.591477941452
-13102.011454345162,-11655.227739242047,-20829.635361389563,-17233.530251208576
-13104.40309100188,-11649.818617083862,-20833.591620158157,-17236.123053565392
-13104.894829379897,-11649.416285683668,-20839.045445805248,-17235.474852976186
-13099.619817688445,-11662.693221890118,-20844.678085407984,-17242.73916992416
-13106.437099747312,-11671.320995249867,-20851.22714653339,-17245.26491704761
-13104.604256701978,-11663.743753879518,-20849.416655232508,-17233.79847214204
-13109.231067804229,-11666.31420449188,-20845.102768552635,-17228.344646494945
-13109.49928873769,-11670.203408027102,-20849.863690121616,-17234.40196924233
-13106.414748002857,-11677.043041830426,-20858.111483825625,-17243.186204813268
-13112.40501551688,-11683.4579924891,-20857.016248347318,-17245.287268792068
-13120.228126076236,-11658.625204399254,-20852.43414073397,-17236.301867521033
-13109.49928873769,-11646.041172270916,-20851.070684322203,-17235.22898378718
-13112.740291683707,-11686.654291946208,-20860.70428618244,-17245.68960019226
-13117.992951630707,-11696.578466484363,-20868.303879297244,-17254.2726700631
-13113.92493413984,-11690.990530370538,-20865.1746350735,-17253.803283429537
-13120.339884798514,-11688.93416988065,-20860.570175715708,-17248.93060313828
-13110.281599793623,-11668.012937070482,-20860.257251293333,-17246.13663508137
-13105.319512524547,-11672.013899327982,-20858.69262918146,-17244.25908854712
-13098.524582210135,-11655.630070642244,-20861.531300727285,-17246.49426299265
-13113.45554750628,-11663.631995157242,-20866.94042288547,-17248.192995571255
-13125.324323812049,-11688.68830069164,-20867.253347307844,-17247.50009149314
-13106.772375914145,-11686.006091357003,-20858.849091392647,-17241.17454781229
-13093.294274007592,-11671.678623161151,-20855.4739779799,-17238.89466987785
-13094.367157741448,-11696.64552171773,-20855.09399832416,-17244.303792036033
-13085.582922170512,-11651.472646173555,-20849.48371046588,-17233.396140741843
-13078.698584878275,-11643.247204214002,-20838.285486493765,-17225.17069878229
-13078.363308711449,-11671.633919672242,-20838.061969049213,-17227.539983694554
-13083.280692491617,-11668.437620215132,-20849.50606221033,-17231.339780251954
-13076.821038344033,-11667.387088225734,-20848.857861621127,-17233.440844230754
-13094.97065484174,-11681.5580942104,-20849.237841276867,-17238.09000707746
-13113.366140528458,-11681.781611654951,-20846.443873219952,-17236.927716365783
-13103.73253866822,-11674.182018540148,-20846.354466242134,-17231.920925607792
-13081.44784944628,-11647.650497871697,-20844.946306341448,-17229.328123250976
-13068.036802773096,-11644.141273992214,-20852.03180933378,-17237.061826832512
-13082.274863991126,-11681.848666888318,-20859.452588492943,-17248.036533360068
-13089.650939661376,-11675.478419718556,-20850.2213180329,-17239.27464953359
-13087.371061726935,-11653.327840963346,-20845.28158250828,-17231.608001185417
-13086.745212882188,-11643.046038513903,-20844.47691970789,-17234.469024475697
-13090.433250717311,-11675.433716229643,-20848.07555056519,-17240.235774545166
-13077.312776722049,-11668.415268470677,-20846.108597053124,-17238.31352452201
-13095.68591066431,-11671.812733627885,-20847.0697220647,-17235.40779774282
-13097.988140343206,-11678.272387775469,-20844.5216231968,-17233.194975041744
-13078.54212266709,-11653.908986319184,-20838.03961730476,-17226.37769298288
-13072.35068945297,-11662.492056190022,-20845.706265652927,-17235.720722165195
-13085.06883204804,-11685.246132045524,-20847.807329631727,-17235.318390765
-13090.54500943959,-11672.751506895009,-20842.97935282938,-17229.372826739887
-13086.16406752635,-11642.330782691335,-20840.095977794645,-17224.477794704177
-13057.531482879102,-11624.181166193624,-20841.45943420642,-17221.2144400137
-13048.657840330345,-11643.53777689192,-20847.181480786978,-17224.88012610437
-13056.4809508897,-11651.696163618108,-20843.76166388532,-17223.159041781313
-13071.613081885944,-11648.097532760805,-20838.39724521604,-17219.56041092401
-13081.06786979054,-11682.16159131069,-20841.347675484143,-17225.75184413813
-13062.672384103822,-11652.746695607508,-20840.967695828404,-17223.181393525767
-13054.11166597744,-11628.4950528735,-20839.02309406079,-17226.13182379387
-13057.687945090289,-11649.326878705846,-20837.83845160466,-17229.55164069553
-13057.307965434547,-11652.88080607424,-20832.541088168757,-17221.16973652479
-13055.072790989016,-11632.004276752985,-20830.77530035678,-17216.94525682274
-13055.475122389213,-11640.073256501348,-20833.301047480232,-17219.381596968364
-13050.82595954251,-11650.77974209544,-20838.106672538124,-17225.707140649218
-13060.325450936014,-11665.464838202575,-20842.93464934047,-17229.484585462164
-13065.06402076054,-11670.158704538191,-20837.994913815848,-17225.08129180447
-13058.470256146224,-11664.59312016882,-20833.569268413696,-17222.868469103392
-13047.763770552132,-11662.536759678933,-20836.296181237245,-17221.817937113992
-13049.574261853011,-11669.711669649085,-20834.530393425277,-17222.4661377032
-13047.763770552132,-11641.5484716354,-20834.016303302804,-17221.370902224888
-13049.127226963905,-11609.384311364212,-20825.70145436543,-17213.234867243154
-13062.739439337189,-11645.281212959437,-20826.88609682156,-17214.84419284394
-13067.790933584089,-11671.052774316404,-20829.45654743392,-17216.855849844917
-13056.548006123068,-11635.357038421278,-20829.389492200557,-17214.866544588393
-13068.372078939925,-11645.795303081906,-20832.3175707242,-17216.67703588927
-13075.479933676712,-11647.73990484952,-20827.713111366407,-17211.334968964456
-13068.327375451014,-11634.217099454056,-20824.65092237603,-17209.30096021902
-13069.221445229226,-11637.011067510972,-20822.92983805297,-17211.960817809202
-13061.554796881055,-11648.58927113882,-20823.44392817544,-17220.40977721331
-13071.54602665258,-11664.97309982456,-20828.98716080036,-17225.774195882583
-13077.335128466502,-11661.150951522704,-20825.65675087652,-17221.2144400137
-13065.153427738362,-11632.674829086642,-20819.375910684576,-17217.347588222932
-13066.315718450036,-11627.802148795385,-20819.08533800666,-17216.967608567193
-13079.6373581454,-11655.920643320162,-20824.159183998014,-17223.02493131458
-13068.215616728738,-11648.991602539016,-20819.420614173487,-17218.576934167973
-13054.96103226674,-11632.227794197535,-20813.028015259268,-17212.430204442764
-13065.600462627466,-11650.936204306628,-20818.973579284386,-17215.537096922053
-13074.071773776028,-11664.190788768625,-20828.450718933436,-17220.20861151321
-13066.181607983304,-11649.617451383763,-20835.93855332596,-17229.775158140084
-13056.123322978416,-11613.00529396597,-20833.65867539152,-17230.333951751465
-13058.313793935036,-11590.474735555024,-20826.751986354822,-17220.096852790935
-13052.703506076754,-11616.53686958991,-20826.819041588195,-17223.919001092792
-13043.606346083445,-11627.10924471727,-20827.93662881096,-17225.193050526745
-13039.91830824832,-11615.016950966949,-20832.541088168757,-17230.333951751465
-13047.137921707385,-11632.764236064462,-20833.43515794697,-17229.909268606814
-13067.142732994884,-11659.340460221823,-20833.65867539152,-17228.344646494945
-13074.63056738741,-11652.344364207313,-20829.92593406748,-17223.203745270224
-13063.164122481838,-11636.653439599686,-20829.18832650045,-17215.64885564433
-13062.515921892636,-11647.337573449324,-20832.42932944648,-17217.436995200755
-13059.207863713247,-11653.283137474436,-20839.112501038613,-17222.130861536367
-13057.509131134646,-11634.574727365343,-20830.998817801337,-17211.133803264358
-13057.509131134646,-11632.317201175358,-20826.014378787804,-17207.758689851606
-13054.603404355455,-11634.328858176334,-20824.919143309493,-17211.089099775447
-13056.43624740079,-11657.105285776292,-20822.885134564058,-17211.625541642374
-13051.608270598445,-11636.564032621864,-20816.3137216942,-17204.83061132796
-13058.224386957216,-11617.185070179114,-20808.557666368208,-17198.192143224733
-13075.032898787607,-11665.21896901357,-20811.619855358585,-17201.947236293225
-13057.464427645737,-11638.195709967102,-20811.97748326987,-17203.802431083015
-13040.812378026532,-11602.20940139406,-20819.24180021785,-17207.78104159606
-13047.29438391857,-11615.575744578333,-20825.09795726513,-17211.78200385356
-13045.685058317787,-11605.785680506908,-20821.18640198545,-17206.082309017456
-13031.983438966685,-11592.978130934016,-20817.83364031716,-17201.477849659666
-13032.117549433417,-11618.749692290983,-20821.633436874563,-17209.435070685755
-13047.093218218472,-11646.30939320438,-20832.49638467984,-17221.952047580726
-13059.610195113444,-11668.079992303848,-20837.50317543783,-17230.69157966275
-13060.325450936014,-11625.119939460748,-20825.3661781986,-17217.235829500656
-13058.939642779786,-11623.622372582242,-20822.39339618604,-17212.83253584296
-13059.029049757606,-11636.340515177311,-20828.718939866896,-17220.3650737244
-13053.016430499129,-11639.872090801253,-20828.294256722245,-17221.706178391716
-13055.452770644755,-11658.44639044361,-20829.143623011547,-17224.92482959328
-13056.570357867522,-11638.821558811853,-20824.40505318702,-17221.147384780335
-13063.789971326589,-11639.872090801253,-20822.12517525258,-17222.197916769735
-13071.322509208025,-11648.991602539016,-20821.432271174464,-17225.93065809377
-13056.123322978416,-11676.97598659706,-20827.824870088683,-17231.183318040767
-13059.029049757606,-11676.484248219043,-20830.082396278667,-17233.664361675306
-13054.670459588822,-11621.834233025818,-20819.4653176624,-17221.482660947164
-13047.137921707385,-11619.532003346922,-20826.12613751008,-17223.87429760388
-13052.837616543487,-11659.407515455188,-20835.022131803293,-17234.245507031144
-13066.941567294783,-11694.589161227845,-20845.929783097483,-17241.152196067833
-13060.817189314032,-11671.87978886125,-20845.84037611966,-17233.418492486297
-13071.881302819407,-11657.038230542928,-20841.302971995232,-17226.668265660795
-13069.266148718138,-11637.30164018889,-20836.92203008199,-17219.940390579748
-13055.586881111489,-11627.310410417367,-20836.98908531536,-17222.801413870027
-13058.626718357413,-11646.532910648932,-20843.18051852948,-17231.49624246314
-13072.663613875344,-11678.294739519924,-20848.768454643305,-17239.587573955963
-13089.15920128336,-11676.97598659706,-20846.957963342426,-17235.117225064903
-13079.905579078864,-11651.226776984548,-20841.906469095527,-17226.288286005056
-13050.669497331322,-11628.293887173402,-20837.61493416011,-17222.868469103392
-13029.412988354325,-11631.19961395259,-20841.526489439784,-17229.283419762065
-13036.654953557843,-11650.086838017323,-20856.233937291378,-17238.44763498874
-13052.278822932103,-11652.21025374058,-20853.55172795674,-17236.145405309846
-13058.336145679492,-11651.83027408484,-20850.288373266267,-17235.60896344292
-13064.72874459371,-11666.06833530287,-20854.33403901268,-17243.16385306881
-13062.225349214716,-11679.054698831404,-20854.2222802904,-17246.13663508137
-13061.510093392146,-11662.179131767649,-20851.897698867047,-17246.427207759287
-13091.886114106908,-11689.403556514211,-20856.345696013654,-17250.98696362817
-13070.607253385457,-11638.173358222648,-20849.79663488825,-17246.471911248198
-13054.49164563318,-11626.841023783809,-20847.717922653905,-17247.857719404426
-13056.592709611978,-11666.247149258514,-20853.08234132318,-17256.060809619525
-13057.39737241237,-11676.528951707956,-20858.67027743701,-17259.100646865445
-13060.325450936014,-11644.297736203402,-20846.82385287569,-17245.533137981074
-13074.63056738741,-11639.20153846759,-20844.61103017462,-17236.59244019895
-13070.316680707536,-11642.263727457968,-20850.154262799533,-17239.051132089036
-13061.77831432561,-11654.244262486012,-20853.149396556542,-17240.392236756354
-13070.048459774072,-11667.07416380336,-20856.546861713752,-17239.02878034458
-13084.130058780916,-11667.185922525636,-20851.65182967804,-17236.815957643506
-13069.757887096152,-11649.125713005747,-20846.130948797578,-17231.65270467433
-13046.422665884813,-11618.190898679602,-20843.18051852948,-17226.712969149707
-13033.05632270054,-11624.225869682536,-20844.923954596998,-17228.746977895138
-13046.28855541808,-11641.771989079953,-20852.36708550061,-17233.619658186395
-13063.275881204116,-11646.667021115663,-20845.54980344174,-17227.048245316535
-13056.637413100889,-11637.927489033638,-20838.39724521604,-17220.767405124596
-13061.711259092244,-11668.59408242632,-20845.706265652927,-17231.94327735225
-13052.100008976462,-11688.88946639174,-20847.673219164997,-17237.978248355183
-13046.512072862635,-11642.68841060262,-20847.717922653905,-17234.22315528669
-13060.571320125024,-11625.388160394212,-20845.97448658639,-17230.2668965181
-13068.573244640023,-11626.237526683512,-20844.141643541057,-17229.59634418444
-13064.01348877114,-11635.848776799296,-20846.063893564213,-17232.591477941452
-13065.175779482815,-11658.87107358826,-20849.79663488825,-17238.69350417775
-13066.20395972776,-11658.491093932522,-20851.98710584487,-17243.074446090992
-13068.439134173292,-11655.2500909865,-20840.34184698365,-17234.692541920253
-13068.59559638448,-11648.87984381674,-20834.865669592105,-17234.245507031144
-13079.078564534017,-11655.808884597884,-20842.912297596016,-17242.895632135347
-13074.608215642957,-11676.3054342634,-20849.908393610527,-17251.054018861534
-13053.105837476953,-11658.4016869547,-20852.769416900806,-17249.35528628293
-13055.408067155848,-11649.975079295047,-20850.31072501072,-17242.31448677951
-13071.657785374857,-11685.581408212354,-20848.813158132216,-17240.88397513437
-13087.862800104953,-11732.363609357311,-20853.708190167927,-17242.917983879805
-13057.82205555702,-11649.528044405944,-20848.67904766548,-17237.93354486627
-13045.461540873235,-11595.883857713206,-20848.83550987667,-17235.69837042074
-13051.317697920524,-11626.01400923896,-20845.147472041543,-17230.199841284735
-13058.604366612955,-11653.573710152354,-20844.879251108083,-17226.891783105348
-13051.451808387255,-11627.01983773945,-20843.35933248512,-17228.3669982394
-13054.849273544463,-11641.436712913122,-20848.232012776378,-17236.63714368786
-13069.936701051796,-11658.893425332715,-20850.198966288444,-17239.1181873224
-13075.569340654534,-11665.621300413764,-20844.208698774422,-17235.22898378718
-13048.926061263808,-11643.046038513903,-20830.97646605688,-17222.063806303002
-13028.183642409283,-11608.78081426392,-20829.54595441174,-17219.15807952381
-13026.350799363949,-11622.594192337296,-20831.870535835093,-17223.87429760388
-13023.936810962774,-11643.314259447368,-20837.950210326937,-17231.36213199641
-13032.09519768896,-11656.233567742536,-20838.59841091614,-17230.60217268493
-13050.87066303142,-11678.942940109127,-20845.683913908477,-17235.02781808708
-13053.91050027734,-11668.370564981768,-20848.74610289885,-17237.195937299246
-13043.91927050582,-11644.834178070329,-20852.680009922984,-17238.917021622303
-13034.464482601225,-11630.797282552396,-20856.74802741385,-17241.956858868227
-13051.72002932072,-11663.207312012592,-20855.116350068613,-17240.682809434275
-13057.15150322336,-11654.02074504146,-20855.988068102368,-17239.475815233687
-13059.878416046908,-11663.92256783516,-20858.31264952572,-17244.303792036033
-13058.090276490484,-11676.55130345241,-20860.36901001561,-17249.2211758162
-13053.508168877146,-11649.93037580614,-20854.445797734952,-17242.895632135347
-13064.706392849255,-11657.68643113213,-20851.80829188923,-17242.381542012878
-13063.700564348766,-11669.175227782158,-20850.109559310626,-17246.248393803646
-13051.72002932072,-11690.208219314602,-20851.76358840032,-17249.489396749665
-13051.29534617607,-11700.802946186415,-20856.099826824648,-17258.340687553966
-13044.34395365047,-11622.504785359475,-20855.38457100208,-17249.332934538477
-13040.991191982172,-11617.229773668025,-20854.33403901268,-17243.879108891382
-13049.328392664003,-11638.553337878388,-20854.33403901268,-17245.0190478586
-13056.97268926772,-11664.92839633565,-20861.75481817184,-17254.339725296464
-13044.411008883835,-11682.273350032969,-20863.58766121717,-17254.49618750765
-13024.00386619614,-11669.152876037702,-20856.92684136949,-17246.203690314735
-13021.00873243913,-11649.438637428122,-20851.40596048903,-17240.74986466764
-13008.692921244256,-11616.268648656447,-20846.957963342426,-17235.83248088747
-13004.6696072423,-11621.3424946478,-20842.08528305117,-17236.391274498856
-13001.495659529646,-11644.230680970037,-20843.64990516304,-17243.36501876891
-13009.586991022468,-11650.198596739605,-20844.83454761917,-17244.817882158506
-13025.412026096825,-11652.769047351963,-20838.35254172713,-17238.89466987785
-13028.20599415374,-11655.49596017551,-20834.73155912537,-17234.021989586592
-13029.256526143135,-11678.272387775469,-20834.150413769534,-17239.542870467052
-13032.229308155693,-11683.525047722464,-20841.347675484143,-17242.42624550179
-13021.05343592804,-11640.699105346095,-20843.046408062743,-17239.14053906686
-13023.355665606936,-11630.663172085664,-20836.16207077051,-17232.88205061937
-13033.838633756475,-11648.87984381674,-20836.854974848626,-17232.658533174817
-13036.364380879926,-11650.3997624397,-20843.53814644076,-17236.570088454497
-13020.807566739031,-11666.850646358806,-20855.988068102368,-17249.824672916493
-13010.637523011868,-11669.756373137996,-20858.491463481365,-17258.050114876045
-13015.890182958865,-11650.64563162871,-20852.99293434536,-17251.813978173017
-13024.562659807523,-11651.383239195731,-20851.94240235596,-17250.98696362817
-13028.362456364925,-11655.339497964324,-20856.725675669397,-17253.825635173995
-13023.53447956258,-11652.612585140776,-20857.57504195869,-17255.70318170824
-13036.520843091112,-11678.585312197842,-20858.37970475909,-17260.32999281049
-13035.470311101712,-11651.986736296029,-20850.064855821714,-17246.807187415026
-13023.690941773766,-11622.929468504128,-20846.93561159797,-17238.581745455474
-13016.918363203808,-11640.609698368276,-20849.036675576768,-17241.30865827902
-13028.518918576112,-11680.59696919882,-20854.69166692396,-17248.103588593436
-13029.994133710165,-11664.548416679909,-20851.4730157224,-17247.388332770865
-13037.660782058334,-11644.16362573667,-20845.862727864114,-17239.609925700417
-13043.29342166107,-11646.68937286012,-20840.61006791712,-17236.123053565392
-13040.76767453762,-11656.635899142731,-20841.526489439784,-17238.715855922204
-13018.550040549046,-11648.67867811664,-20845.61685867511,-17242.40389375733
-13005.317807831503,-11653.104323518792,-20845.147472041543,-17241.107492578925
-13010.749281734144,-11650.332707206337,-20840.90064059504,-17239.94520186725
-13019.86879347191,-11654.154855508192,-20837.61493416011,-17236.03364658757
-13022.640409784366,-11657.30645147639,-20840.677123150483,-17235.810129143018
-13025.188508652273,-11663.07320154586,-20845.728617397384,-17237.866489632903
-13028.742436020666,-11650.288003717424,-20849.215489532413,-17235.36309425391
-13020.874621972398,-11655.74182936452,-20843.448739462943,-17232.010332585614
-13025.233212141182,-11661.195655011614,-20841.07945455068,-17230.557469196017
-13025.680247030288,-11667.968233581572,-20841.32532373969,-17233.105568063926
-13008.983493922176,-11618.101491701782,-20844.83454761917,-17231.719759907694
-13015.934886447774,-11629.92556451864,-20854.669315179508,-17235.765425654106
-13029.368284865412,-11654.043096785916,-20851.22714653339,-17232.524422708088
-13037.593726824967,-11657.775838109952,-20847.56146044272,-17227.74114939465
-13032.318715133517,-11634.68648608762,-20843.76166388532,-17224.298980748532
-13021.00873243913,-11611.373616620736,-20843.158166785022,-17224.634256915364
-13030.10589243244,-11629.67969532963,-20851.98710584487,-17228.21053602821
-13040.834729770986,-11630.931393019127,-20843.78401562977,-17222.197916769735
-13049.082523474995,-11627.980962751028,-20840.364198728108,-17217.772271367583
-13047.54025310758,-11647.404628682689,-20843.627553418584,-17220.61094291341
-13053.39641015487,-11669.823428371365,-20845.52745169729,-17226.69061740525
-13033.190433167272,-11639.760332078977,-20843.60520167413,-17222.93552433676
-13030.441168599267,-11646.957593793582,-20840.677123150483,-17222.44378595874
-13022.998037695652,-11644.610660625776,-20834.776262614283,-17218.085195789958
-13014.996113180652,-11637.234584955524,-20830.909410823515,-17213.54779166553
-13014.459671313723,-11628.62916334023,-20832.65284689103,-17216.140594022345
-13028.071883687006,-11627.712741817564,-20833.099881780134,-17221.84028885845
-13049.44015138628,-11652.903157818697,-20835.53622192576,-17226.31063774951
-13046.065037973529,-11684.195600056124,-20837.21260275991,-17228.635219172862
-13029.05536044304,-11657.30645147639,-20831.28939047925,-17221.84028885845
-13005.675435742787,-11629.478529629532,-20830.685893378963,-17219.247486501634
-12995.57244724899,-11611.284209642912,-20832.161108513013,-17219.60511441292
-13009.229363111182,-11625.790491794409,-20829.322436967188,-17218.867506845894
-13009.408177066824,-11630.5961168523,-20827.154317755023,-17217.235829500656
-13014.213802124716,-11635.580555865832,-20838.732521382877,-17221.929695836272
-13017.544212048557,-11623.175337693136,-20839.35837022762,-17215.514745177596
-13016.560735292524,-11625.119939460748,-20837.54787892674,-17212.765480609596
-13014.43731956927,-11615.82161376734,-20831.244686990343,-17204.048300272025
-13017.857136470931,-11619.35318939128,-20828.83069858917,-17200.89670430383
-13015.174927136297,-11631.311372674869,-20828.808346844715,-17202.72954734916
-13024.115624918417,-11668.705841148596,-20833.055178291223,-17211.022044542082
-13031.58110756649,-11660.726268378052,-20838.24078300485,-17218.21930625669
-13017.678322515289,-11593.71573850104,-20828.98716080036,-17210.776175353072
-13019.041778927063,-11618.25795391297,-20826.103785765623,-17213.614846898898
-13028.228345898193,-11652.344364207313,-20826.50611716582,-17221.817937113992
-13019.198241138249,-11647.762256593976,-20829.97063755639,-17227.539983694554
-13028.138938920372,-11645.795303081906,-20840.40890221702,-17232.50207096363
-13031.312886633026,-11634.842948298809,-20837.145547526547,-17226.958838338716
-13021.209898139226,-11616.849794012283,-20823.242762475344,-17212.45255618722
-13013.498546302146,-11617.43093936812,-20822.84043107515,-17211.15615500881
-13005.496621787146,-11621.476605114533,-20823.063948519703,-17213.905419576815
-13018.080653915484,-11639.626221612243,-20834.2174690029,-17220.677998146773
-13032.318715133517,-11642.241375713513,-20835.4691666924,-17223.69548364824
-13023.713293518222,-11631.53489011942,-20829.948285811937,-17224.969533082192
-13019.15353764934,-11630.193785452102,-20831.915239324004,-17228.188184283757
-13012.693883501755,-11634.664134343164,-20842.50996619582,-17237.911193121814
-13019.95820044973,-11656.770009609463,-20851.338905255667,-17245.287268792068
-13044.142787950372,-11686.251960546011,-20848.768454643305,-17244.951992625236
-13045.930927506795,-11651.606756640287,-20844.47691970789,-17238.201765799735
-13041.661744315834,-11647.337573449324,-20844.767492385807,-17238.31352452201
-13042.48875886068,-11660.279233488944,-20854.669315179508,-17246.963649626214
-13043.6286978279,-11641.481416402034,-20858.960850114927,-17239.542870467052
-13057.307965434547,-11648.58927113882,-20855.116350068613,-17231.675056418786
-13047.003811240653,-11641.280250701937,-20852.72471341189,-17233.12791980838
-13032.609287811434,-11632.563070364366,-20848.61199243212,-17236.055998332024
-13034.844462256964,-11655.518311919966,-20855.51868146881,-17244.59436471395
-13037.414912869324,-11648.07518101635,-20867.96860313041,-17252.685696206772
-13045.238023428685,-11666.180094025149,-20869.555576986742,-17253.915042151813
-13054.11166597744,-11684.285007033946,-20869.287356053275,-17253.55741424053
-13041.43822687128,-11662.246187001014,-20868.46034150843,-17249.668210705306
-13028.474215087204,-11652.031439784938,-20870.65081246505,-17250.696390950252
-13025.188508652273,-11652.009088040482,-20870.51670199832,-17252.618640973407
-13038.711314047732,-11650.77974209544,-20867.61097521913,-17245.46608274771
-13059.274918946616,-11676.148972052211,-20866.068704851717,-17242.582707712972
-13053.888148532886,-11644.811826325871,-20865.040524606768,-17242.18037631278
-13029.14476742086,-11617.050959712382,-20862.760646672326,-17239.609925700417
-13026.641372041866,-11632.808939553372,-20865.018172862317,-17242.64976294634
-13036.878471002396,-11652.657288629687,-20860.346658271155,-17240.79456815655
-13045.34978215096,-11660.3015852334,-20852.61295468962,-17234.692541920253
-13040.253584415148,-11643.962460036571,-20852.568251200708,-17230.401006984834
-13044.29925016156,-11650.042134528416,-20860.23489954888,-17235.340742509456
-13062.895901548374,-11681.334576765845,-20869.957908386936,-17246.851890903938
-13065.846331816476,-11666.06833530287,-20863.721771683904,-17239.721684422693
-13059.364325924436,-11648.812788583373,-20861.41954200501,-17237.955896610725
-13048.166101952327,-11621.029570225426,-20864.995821117856,-17243.074446090992
-13040.231232670694,-11618.570878335344,-20868.303879297244,-17247.969478126703
-13049.551910108556,-11644.945936792605,-20878.384516046583,-17256.75371369764
-13044.031029228096,-11634.30650643188,-20872.349545043653,-17246.673076948297
-13030.552927321543,-11611.530078831922,-20860.43606524897,-17235.765425654106
-13046.646183329369,-11659.11694277727,-20863.922937384003,-17243.052094346534
-13044.165139694827,-11683.189771555635,-20873.780056688796,-17259.480626521185
-13035.336200634982,-11645.772951337452,-20881.1784841035,-17262.56516725602
-13043.405180383346,-11636.184052966126,-20881.647870737062,-17254.920870652302
-13042.600517582956,-11627.690390073109,-20874.31649855572,-17247.835367659973
-13035.559718079534,-11632.496015131,-20876.41756253452,-17254.786760185572
-13042.935793749786,-11651.673811873652,-20885.55942601674,-17266.70023998025
-13051.00477349815,-11647.02464902695,-20884.598301005164,-17266.141446368867
-13064.237006215692,-11651.986736296029,-20884.46419053843,-17264.75563821264
-13075.077602276517,-11657.865245087773,-20885.402963805554,-17265.917928924315
-13071.233102230204,-11660.748620122507,-20882.56429225973,-17260.061771877023
-13050.647145586869,-11657.574672409854,-20879.435048035983,-17261.492283522162
-13048.6801920748,-11660.59215791132,-20883.167789360024,-17264.42036204581
-13060.280747447105,-11651.338535706824,-20875.03175437829,-17260.486455021673
-13058.984346268697,-11633.05480874238,-20868.303879297244,-17253.602117729442
-13062.180645725804,-11633.613602353764,-20872.37189678811,-17254.093856107458
-13053.999907255162,-11629.322067418345,-20873.154207844043,-17255.725533452696
-13059.140808479884,-11655.74182936452,-20873.109504355136,-17256.284327064077
-13088.39924197188,-11694.70091995012,-20870.293184553764,-17257.021934631102
-13065.91338704984,-11625.92460226114,-20861.374838516094,-17246.203690314735
-13041.952316993753,-11608.043206696892,-20859.296126281755,-17245.443731003255
-13034.91151749033,-11612.424148610133,-20859.4749402374,-17248.260050804623
-13029.10006393195,-11616.179241678625,-20861.08426583818,-17250.22700431669
-13043.427532127802,-11629.612640096264,-20855.049294835248,-17248.148292082347
-13041.706447804743,-11610.948933476084,-20846.60033543114,-17241.040437345557
-13036.163215179828,-11600.734186260008,-20847.0697220647,-17243.946164124747
-13037.10198844695,-11616.983904479015,-20852.47884422289,-17248.640030460363
-13040.231232670694,-11636.11699773276,-20857.79855940325,-17254.116207851912
-13048.523729863611,-11625.321105160843,-20853.194100045457,-17249.55645198303
-13048.657840330345,-11630.193785452102,-20851.249498277844,-17240.54869896754
-13047.316735663026,-11630.48435813002,-20854.4234459905,-17238.402931499833
-13050.11070371994,-11641.72728559104,-20853.864652379118,-17240.70516117873
-13037.884299502886,-11619.219078924549,-20849.93074535498,-17239.431111744776
-13046.91440426283,-11619.308485902367,-20851.450663977943,-17241.50982397912
-13048.76959905262,-11628.092721473304,-20849.148434299044,-17239.162890811313
-13051.429456642802,-11638.821558811853,-20847.539108698264,-17241.062789090014
-13049.417799641824,-11639.648573356695,-20851.204794788933,-17248.617678715906
-13052.837616543487,-11638.262765200468,-20853.104693067635,-17249.690562449763
-13057.464427645737,-11634.619430854253,-20849.528413954784,-17242.78387341307
-13057.218558456729,-11633.3453814203,-20847.427349975987,-17246.69542869275
-13038.331334391993,-11607.81968925234,-20850.958925599924,-17247.768312426604
-13025.7249505192,-11615.173413178136,-20857.66444893652,-17251.121074094903
-13020.919325461307,-11619.15202369118,-20861.330135027187,-17252.12690259539
-13031.536404077578,-11624.292924915902,-20856.50215822484,-17250.629335716883
-13021.634581283875,-11611.954761976573,-20844.43221621897,-17244.393199013855
-13018.974723693696,-11610.099567186782,-20844.208698774422,-17246.74013218166
-13014.996113180652,-11621.655419070175,-20850.17661454399,-17252.238661317668
-13014.370264335905,-11614.413453866657,-20852.83647213417,-17252.41747527331
-13020.539345805568,-11617.92267774614,-20850.154262799533,-17253.445655518255
-13018.706502760231,-11614.905192244672,-20846.287411008765,-17250.897556650347
-13006.055415398529,-11613.429977110622,-20852.03180933378,-17257.536024753575
-13017.410101581823,-11619.934334747117,-20863.09592283916,-17265.537949268575
-13023.15449990684,-11620.269610913949,-20864.92876588449,-17261.55933875553
-13021.545174306057,-11625.455215627577,-20857.1727105585,-17256.910175908826
-13029.43534009878,-11640.654401857186,-20851.78594014477,-17254.429132274287
-13023.735645262675,-11621.454253370075,-20853.50702446783,-17255.144388096858
-13016.6724940148,-11622.638895826209,-20858.871443137105,-17260.911138166328
-13013.453842813236,-11611.239506154005,-20858.871443137105,-17257.379562542388
-13039.851253014953,-11640.229718712537,-20863.677068195,-17257.670135220305
-13036.744360535666,-11633.099512231292,-20855.138701813063,-17250.204652572233
-13023.869755729407,-11625.723436561042,-20856.233937291378,-17250.048190361045
-13014.01263642462,-11591.368805333232,-20861.66541119402,-17250.741094439163
-13011.6209997679,-11594.878029212718,-20865.48755949588,-17249.891728149858
-13026.350799363949,-11611.82065150984,-20858.80438790374,-17243.27561179109
-13033.10102618945,-11631.266669185958,-20850.24366977736,-17242.35919026842
-13030.932906977285,-11644.007163525484,-20853.998762845848,-17248.41651301581
-13003.753185719632,-11583.14336337368,-20856.770379158304,-17248.215347315712
-13002.032101396571,-11585.91497968614,-20860.301954782244,-17253.289193307068
-13013.565601535513,-11619.91198300266,-20858.78203615928,-17253.020972373604
-13024.495604574156,-11618.548526590888,-20855.85395763564,-17249.690562449763
-13029.256526143135,-11607.73028227452,-20860.145492571057,-17253.69152470726
-13024.897935974352,-11610.479546842522,-20867.94625138596,-17258.586556742976
-13022.372188850904,-11623.018875481948,-20867.2756990523,-17255.92669915279
-13029.256526143135,-11614.100529444282,-20867.16394033002,-17251.545757239553
-13027.513090075625,-11601.985883949505,-20862.134797827577,-17244.236736802668
-13029.01065695413,-11615.06165445586,-20858.871443137105,-17244.50495773613
-13030.597630810456,-11618.86145101326,-20852.210623289426,-17240.056960589525
-13029.5247470766,-11615.732206789518,-20856.546861713752,-17244.28144029158
-13037.481968102691,-11647.292869960413,-20854.51285296832,-17246.02487635909
-13046.467369373724,-11653.707820619084,-20848.947268598946,-17244.616716458408
-13011.553944534537,-11605.271590384436,-20847.963791842914,-17241.018085601103
-12992.733775703166,-11606.523288073931,-20849.48371046588,-17241.37571351239
-12992.867886169895,-11605.405700851166,-20856.3233442692,-17249.087065349468
-13005.7201392317,-11611.82065150984,-20852.814120389718,-17247.298925793046
-13006.39069156536,-11601.494145571489,-20842.26409700681,-17236.257164032122
-12998.567581006,-11581.489334283988,-20838.084320793667,-17234.93841110926
-12995.393633293348,-11588.083098898303,-20845.080416808178,-17240.660457689817
-12995.348929804435,-11597.67199726963,-20845.84037611966,-17239.207594300224
-12998.031139139071,-11589.468907054534,-20833.21164050241,-17227.428224972275
-12995.930075160277,-11576.884874926196,-20826.99785554384,-17221.952047580726
-12991.19150533575,-11585.177372119117,-20830.64118989005,-17225.662437160307
-12999.662816484311,-11605.070424684338,-20833.65867539152,-17224.164870281802
-13006.345988076448,-11615.799262022883,-20834.06100679171,-17220.566239424497
-13007.57533402149,-11610.591305564798,-20825.589695643157,-17211.647893386827
-13011.464537556712,-11593.179296634116,-20812.26805594779,-17196.60516936841
-13011.844517212454,-11568.90530215565,-20803.148544210024,-17187.396250652822
-13021.276953372591,-11571.498104512466,-20794.99015748384,-17184.088192473435
-13034.643296556867,-11571.47575276801,-20783.411953855983,-17177.62853832585
-13056.659764845344,-11559.696383440065,-20766.894014703517,-17158.54014856102
-13072.954186553265,-11544.787769888377,-20743.782310936727,-17134.2438023381
-13087.035785560109,-11527.398112702143,-20718.077804813125,-17106.013549091047
-13104.716015424254,-11505.024016502382,-20690.741621344285,-17075.928101054204
-13106.50415498068,-11472.859856231196,-20655.26940289371,-17040.344123881358
-13105.140698568905,-11437.655858714088,-20617.114975108503,-16999.21691408359
-13101.631474689422,-11404.68703564251,-20582.3580124805,-16958.626146152754
-13088.868628605442,-11390.06899476874,-20556.429988912343,-16933.659247596177
-13079.927930823318,-11411.951352590484,-20536.87221251395,-16919.801166033885
-13044.63452632839,-11361.212892676938,-20516.08509017052,-16901.182162902613
-13023.66859002931,-11289.888476120052,-20492.01226139215,-16870.00147938746
-13006.52480203209,-11274.75634512381,-20475.49432223968,-16853.818816401817
-12979.725060430175,-11277.125630036073,-20469.302889025555,-16852.254194289948
-12952.411228705792,-11282.065365560697,-20464.94429885677,-16851.6283454452
-12929.500690639105,-11277.483257947357,-20465.86072037944,-16850.689572178075
-12939.13429249934,-11298.672711690988,-20463.223214533715,-16848.610859943732
-12932.249955207106,-11278.37732772557,-20450.817996361016,-16837.256173760437
-12920.671751579255,-11244.156806964496,-20444.04541779106,-16829.410711456625
-12917.833080033432,-11254.572719880667,-20449.72276088271,-16831.89175509116
-12912.803937530987,-11275.13632477955,-20451.265031250125,-16833.366970225212
-12892.687367521212,-11252.98574602434,-20444.067769535515,-16828.60604865623
-12875.364765568347,-11241.385190652036,-20449.14161552687,-16832.227031257993
-12860.344393294385,-11247.777789566257,-20470.66634543733,-16850.220185544513
-12855.44936125867,-11285.507534206812,-20494.180380604317,-16877.77988645791
-12852.096599590372,-11304.394758271546,-20515.191020392303,-16904.06553793735
-12850.06259084494,-11323.90783118103,-20537.54276484761,-16933.43573015162
-12854.421181013726,-11345.164340158028,-20558.84397731352,-16954.73694261753
-12839.73608490659,-11336.648325520557,-20577.060649044597,-16971.03136432545
-12834.77399763751,-11372.947558515974,-20600.41822200039,-16998.702823961117
-12848.006230355051,-11422.344913762205,-20627.95557116933,-17023.177984139682
-12862.221939828629,-11416.868736370652,-20645.121710911004,-17035.247926145545
-12873.93425392321,-11417.181660793029,-20650.75435051374,-17043.942754738662
-12875.409469057258,-11456.632489756645,-20665.79707453216,-17065.400429415757
-12871.96730041114,-11456.40897231209,-20684.460781152346,-17080.599615645366
-12870.492085277092,-11431.352666777691,-20705.449069195874,-17097.81045887595
-12898.923504224242,-11478.112516178193,-20721.16234554796,-17113.747252672583
-12911.060501463477,-11514.143528240147,-20729.834822396617,-17118.217601563647
-12895.481335578124,-11486.919103493585,-20732.67349394244,-17123.313799299456
-12882.964358683152,-11471.965786452984,-20744.00582838128,-17136.501328528087
-12902.656245548278,-11520.80434808783,-20766.69284900342,-17156.416732837766
-12925.99146675962,-11549.325174012802,-20775.65589853,-17165.73741027563
-12941.414170433782,-11547.894662367662,-20781.467352088377,-17169.984241722137
-12954.333478728948,-11561.596281718765,-20790.11747719258,-17178.54495984852
-12956.389839218837,-11551.739162413976,-20797.895884263027,-17185.384593651845
-12960.480208454155,-11557.28239503889,-20804.93668376645,-17192.87242804437
-12967.208083535204,-11555.874235138206,-20808.40120415702,-17197.141611235336
-12962.42481022177,-11565.95487188755,-20810.54697162473,-17198.2591984581
-12954.89227234033,-11567.139514343682,-20818.101861250623,-17206.059957273003
-12965.576406189968,-11596.219133880037,-20830.84235559015,-17220.700349891227
-12981.468496497691,-11620.984866736517,-20844.74514064135,-17234.55843145352
-12992.71142395871,-11609.116090430747,-20847.74027439836,-17234.55843145352
-13002.970874663695,-11608.40083460818,-20840.677123150483,-17229.529288951075
-13007.508278788124,-11604.221058395036,-20840.051274305737,-17230.043379073548
-13004.557848520024,-11610.188974164605,-20842.465262706908,-17233.239678530656
-13011.53159279008,-11643.11309374727,-20850.467187221908,-17239.36405651141
-13023.266258629115,-11656.345326464812,-20859.67610593749,-17246.2707455481
-13017.030121926084,-11628.427997640134,-20852.18827154497,-17240.3698850119
-13007.418871810303,-11606.456232840566,-20856.189233802463,-17245.46608274771
-13009.452880555737,-11622.884765015217,-20869.332059542183,-17257.759542198128
-13019.91349696082,-11635.267631443458,-20885.827646950205,-17270.008298159635
-13029.949430221252,-11625.58932609431,-20882.85486493765,-17263.593347500962
-13035.760883779632,-11636.295811688402,-20880.41852479202,-17257.491321264664
-13035.313848890526,-11625.566974349857,-20882.18431260399,-17254.36207704092
-13035.805587268542,-11624.672904571642,-20883.100734126656,-17255.1220363524
-13044.63452632839,-11650.913852562173,-20894.388365076586,-17263.79451320106
-13047.29438391857,-11636.02759075494,-20897.741126744884,-17264.710934723727
-13059.476084646712,-11637.30164018889,-20894.09779239867,-17255.524367752598
-13063.409991670847,-11622.951820248583,-20895.01421392133,-17259.950013154747
-13031.223479655204,-11622.102453959282,-20900.71390875744,-17264.308603323534
-13029.882374987888,-11648.25399497199,-20912.38151936311,-17269.047173148057
-13047.808474041043,-11671.253940016502,-20914.124955430623,-17273.294004594565
-13054.424590399813,-11676.21602728558,-20912.314464129744,-17275.26095810663
-13044.72393330621,-11655.697125875608,-20910.213400150944,-17271.908196438337
-13038.621907069912,-11641.280250701937,-20913.834382752702,-17274.255129606143
-13042.15348269385,-11638.530986133932,-20919.62348456663,-17279.84306571997
-13049.931889764295,-11653.976041552549,-20918.75176653287,-17281.161818642835
-13048.791950797076,-11668.83995161533,-20914.52728683082,-17280.401859331352
-13045.014505984129,-11663.319070734868,-20911.688615284995,-17274.746867984162
-13041.05824721554,-11672.505637706,-20912.493278085385,-17278.636071519384
-13039.359514636935,-11679.769954653972,-20922.640970068096,-17289.09668792447
-13045.260375173137,-11670.98571908304,-20920.60696132266,-17283.28523436609
-13049.931889764295,-11669.175227782158,-20913.834382752702,-17277.473780807708
-13058.470256146224,-11673.220893528567,-20919.01998746633,-17277.853760463448
-13046.19914844026,-11663.430829457144,-20917.52242058783,-17271.818789460514
-13042.734628049688,-11665.509541691488,-20921.769252034337,-17274.366888328423
-13060.77248582512,-11679.345271509324,-20931.80518529477,-17280.647728520362
-13059.744305580176,-11649.952727550592,-20930.75465330537,-17276.222083118213
-13054.223424699716,-11662.268538745468,-20929.1900311935,-17279.1278098974
-13042.175834438303,-11665.554245180398,-20924.96555149145,-17283.933434955292
-13042.511110605135,-11672.662099917186,-20930.218211438445,-17291.913007725838
-13049.171930452816,-11678.093573819826,-20936.05201674128,-17297.32212988402
-13042.309944905037,-11650.712686862074,-20931.20168819448,-17293.924664726816
-13049.82013104202,-11666.627128914251,-20935.85085104118,-17298.10444093996
-13041.326468149004,-11657.708782876583,-20938.935391776013,-17300.496077596676
-13050.222462442216,-11657.619375898765,-20942.131691233124,-17304.47468810972
-13066.181607983304,-11665.93422483614,-20938.197784208987,-17302.954769486758
-13084.666500647843,-11685.290835534435,-20929.10062421568,-17297.411536861844
-13082.610140157956,-11669.73402139354,-20922.41745262354,-17296.696281039272
-13075.368174954436,-11657.440561943122,-20913.56616181924,-17292.31533912603
-13064.6840411048,-11663.810809112883,-20910.77219376233,-17289.878998980403
-13072.39539294188,-11660.390992211223,-20910.25810363985,-17286.36977510092
-13089.695643150288,-11670.35987023829,-20902.74791750287,-17279.351327341956
-13087.482820449211,-11677.892408119727,-20899.998652934868,-17275.50682729564
-13083.615968658443,-11657.038230542928,-20898.635196523097,-17271.483513293686
-13077.7374598667,-11665.755410880496,-20903.150248903068,-17270.343574326467
-13066.315718450036,-11663.006146312491,-20901.630330280102,-17266.588481257975
-13070.24962547417,-11655.205387497592,-20898.948120945468,-17256.664306719817
-13063.67821260431,-11639.872090801253,-20894.56717903223,-17252.618640973407
-13060.236043958192,-11636.139349477216,-20897.741126744884,-17252.28336480658
-13052.837616543487,-11632.317201175358,-20901.09388841318,-17252.484530506674
-13069.48966616269,-11665.01780331347,-20902.18912389149,-17253.08802760697
-13074.742326109688,-11637.97219252255,-20896.46707731093,-17243.27561179109
-13071.724840608222,-11609.496070086489,-20892.64492900907,-17236.257164032122
-13061.755962581154,-11624.069407471348,-20888.86748419613,-17237.2182890437
-13048.210805441238,-11644.655364114686,-20892.1308388866,-17241.867451890404
-13057.330317179005,-11641.59317512431,-20891.303824341758,-17238.13471056637
-13064.34876493797,-11644.610660625776,-20883.99480390487,-17235.45250123173
-13059.945471280274,-11643.805997825384,-20885.246501594367,-17241.956858868227
-13045.39448563987,-11602.567029305344,-20886.74406847287,-17242.2697832906
-13045.170968195316,-11614.793433522396,-20889.00159466286,-17246.918946137303
-13049.373096152916,-11632.250145941993,-20890.72267898592,-17247.477739748687
-13070.383735940904,-11658.535797421431,-20887.88400744009,-17246.047228103547
-13067.075677761515,-11640.497939645998,-20884.21832134942,-17244.79553041405
-13033.883337245386,-11615.642799811698,-20879.971489902917,-17245.399027514344
-13017.343046348458,-11623.622372582242,-20884.28537658279,-17254.74205669666
-13028.764787765122,-11640.140311734714,-20891.817914464227,-17259.726495710194
-13050.647145586869,-11656.613547398276,-20891.594397019675,-17258.43009453179
-13065.712221349744,-11677.31126276389,-20891.504990041853,-17257.759542198128
-13030.888203488375,-11618.146195190691,-20893.606054020653,-17254.585594485474
-13008.625866010889,-11584.730337230008,-20890.879141197103,-17253.26684156261
-13012.448014312748,-11598.655474025663,-20884.486542282884,-17254.98792588567
-13016.96306669272,-11624.270573171449,-20880.843207936672,-17249.51174849412
-13024.115624918417,-11623.287096415414,-20878.31746081322,-17245.667248447808
-13018.840613226965,-11613.765253277452,-20874.78588518928,-17242.515652479608
-13015.57725853649,-11607.171488663136,-20879.88208292509,-17244.124978080392
-13033.793930267566,-11625.67873307213,-20882.765457959827,-17244.907289136325
-13047.54025310758,-11636.340515177311,-20879.74797245836,-17241.30865827902
-13050.15540720885,-11633.68065758713,-20881.55846375924,-17243.61088795792
-13037.504319847149,-11628.87503252924,-20883.056030637745,-17244.41555075831
-13027.177813908796,-11636.519329132954,-20882.72075447092,-17242.962687368716
-13034.978572723696,-11655.78653285343,-20882.519588770818,-17242.18037631278
-13029.34593312096,-11614.592267822298,-20876.59637649016,-17233.17262329729
-13030.307058132536,-11606.232715396014,-20875.67995496749,-17231.764463396605
-13037.7278372917,-11620.53783184741,-20879.85973118064,-17237.59826869944
-13031.67051454431,-11645.772951337452,-20883.480713782395,-17245.84606240345
-13031.223479655204,-11656.144160764714,-20885.02298414981,-17248.774140927093
-13035.023276212609,-11645.460026915078,-20881.67022248152,-17244.728475180684
-13037.459616358236,-11639.983849523527,-20880.262062580838,-17242.493300735154
-13012.202145123738,-11619.10732020227,-20879.256234080345,-17241.442768745754
-12998.14289786135,-11618.950857991083,-20882.63134749309,-17246.203690314735
-13016.359569592423,-11619.532003346922,-20885.22414984991,-17247.768312426604
-13038.085465202985,-11640.654401857186,-20884.1289143716,-17246.248393803646
-13035.91734599082,-11643.493073403011,-20884.84417019417,-17241.442768745754
-13022.506299317634,-11602.701139772074,-20885.604129505653,-17239.408760000322
-13024.361494107425,-11609.5407735754,-20891.84026620868,-17248.215347315712
-13040.00771522614,-11644.834178070329,-20887.459324295443,-17244.393199013855
-13047.517901363124,-11634.887651787718,-20884.26302483833,-17236.905364621325
-13040.164177437327,-11617.118014945749,-20884.21832134942,-17236.748902410138
-13012.29155210156,-11609.697235786583,-20880.105600369647,-17237.03947508806
-13011.017502667608,-11612.088872443304,-20882.72075447092,-17243.052094346534
-13029.323581376504,-11632.54071861991,-20884.21832134942,-17243.78970191356
-13049.194282197272,-11651.047963028905,-20881.580815503698,-17240.101664078436
-13061.06305850304,-11651.986736296029,-20883.167789360024,-17243.007390857627
-13051.787084554087,-11645.72824784854,-20881.3796498036,-17244.08027459148
-13029.457691843236,-11612.446500354588,-20881.491408525875,-17240.593402456452
-13039.471273359211,-11629.433826140625,-20889.00159466286,-17241.12984432338
-13053.06113398804,-11646.421151926656,-20888.7333737294,-17241.532175723576
-13049.954241508753,-11658.02170729896,-20888.37574581811,-17242.895632135347
-13031.268183144117,-11634.01593375396,-20889.51568478533,-17243.677943191284
-13035.91734599082,-11627.980962751028,-20901.362109346643,-17255.1220363524
-13029.390636609867,-11615.374578878234,-20900.08805991269,-17250.2717078056
-13031.312886633026,-11623.600020837786,-20894.723641243418,-17247.544794982052
-13021.321656861504,-11612.15592767667,-20890.588568519182,-17242.98503911317
-13015.53255504758,-11618.25795391297,-20890.588568519182,-17241.576879212487
-13019.555869049536,-11632.607773853277,-20890.99089991938,-17247.99182987116
-13028.831842998488,-11661.441524200622,-20892.64492900907,-17249.98113512768
-13041.05824721554,-11673.332652250843,-20891.03560340829,-17248.88589964937
-13039.359514636935,-11639.82738731234,-20888.219283606923,-17246.293097292557
-13037.5266715916,-11615.06165445586,-20891.437934808488,-17246.851890903938
-13024.38384585188,-11584.260950596446,-20891.750859230862,-17246.404856014833
-13030.66468604382,-11593.559276289854,-20891.750859230862,-17242.493300735154
-13031.424645355302,-11605.673921784632,-20884.26302483833,-17235.541908209554
-13030.374113365902,-11617.229773668025,-20882.13960911508,-17235.98894309866
-13024.38384585188,-11623.376503393234,-20886.56525451723,-17237.821786143995
-13024.160328407328,-11647.806960082884,-20894.455420309954,-17245.376675769887
-13055.072790989016,-11681.111059321292,-20904.200780892468,-17254.339725296464
-13052.792913054576,-11666.269501002967,-20899.79748723477,-17249.735265938674
-13036.610250068934,-11642.3978379247,-20892.533170286795,-17240.682809434275
-13035.24679365716,-11636.63108785523,-20901.116240157637,-17247.678905448785
-13032.609287811434,-11648.768085094463,-20912.448574596478,-17256.105513108436
-13025.255563885636,-11612.91588698815,-20906.525362315817,-17248.260050804623
-13028.541270320567,-11608.065558441347,-20897.539961044786,-17241.152196067833
-13039.985363481685,-11647.650497871697,-20895.438897065986,-17242.02391410159
-13046.668535073824,-11658.02170729896,-20894.880103454605,-17247.522443237598
-13055.363363666936,-11649.68450661713,-20900.311577357243,-17250.65168746134
-13053.44111364378,-11636.809901810871,-20896.780001733303,-17243.74499842465
-13053.686982832787,-11636.92166053315,-20891.37087957512,-17239.833443144973
-13044.612174583934,-11615.173413178136,-20886.207626605945,-17237.4194547438
-13045.238023428685,-11619.040264968904,-20889.1804086185,-17241.666286190306
-13036.81141576903,-11609.138442175205,-20895.17067613252,-17246.09193159246
-13042.265241416126,-11614.033474210915,-20899.126934901116,-17249.198824071744
-13065.198131227273,-11660.011012555482,-20900.82566747972,-17249.064713605014
-13047.495549618669,-11630.372599407743,-20892.28730109779,-17241.286306534566
-13023.780348751588,-11595.392119335189,-20887.973414417917,-17239.967553611703
-13030.329409876991,-11614.34639863329,-20892.622577264618,-17248.863547904915
-13049.842482786476,-11622.77300629294,-20890.297995841265,-17247.589498470963
-13057.129151478906,-11622.705951059575,-20879.14447535807,-17236.570088454497
-13054.96103226674,-11636.072294243848,-20875.501141011853,-17234.17845179778
-13040.365343137426,-11619.733169047018,-20876.395210790062,-17231.65270467433
-13031.424645355302,-11597.940218203095,-20878.94330965797,-17227.249411016634
-13051.20593919825,-11627.086892972817,-20881.80433294825,-17227.629390672373
-13052.591747354478,-11625.946954005594,-20874.495312511364,-17217.705216134218
-13048.38961939688,-11607.015026451949,-20871.45547526544,-17214.50891667711
-13042.846386771964,-11594.565104790345,-20869.980260131397,-17215.3135794775
-13037.750189036156,-11602.231753138514,-20874.584719489183,-17220.767405124596
-13034.7774070236,-11606.076253184829,-20873.98122238889,-17217.772271367583
-13054.759866566645,-11646.01882052646,-20872.863635166126,-17219.046320801535
-13064.527578893612,-11635.848776799296,-20870.80727467624,-17216.006483555615
-13051.071828731518,-11596.95674144706,-20866.336925785177,-17210.17267825278
-13038.756017536643,-11598.230790881014,-20868.862672908625,-17210.373843952875
-13037.23609891368,-11565.843113165274,-20867.812140919228,-17209.16684975229
-13048.143750207872,-11588.731299487508,-20859.36318151512,-17205.344701450435
-13038.085465202985,-11568.122991099715,-20858.066780336718,-17203.288340960546
-13016.873659714898,-11554.600185704254,-20860.79369316026,-17207.60222764042
-13019.15353764934,-11565.5301887429,-20865.84518740716,-17207.758689851606
-13034.844462256964,-11587.189029120093,-20869.82379792021,-17209.993864297136
-13044.098084461462,-11589.178334376616,-20861.687762938476,-17205.679977617263
-13039.091293703474,-11585.311482585848,-20858.73733267037,-17204.31652120549
-13036.118511690916,-11605.092776428794,-20864.50408273984,-17210.93263756426
-13042.555814094045,-11617.989732979506,-20872.3271932992,-17216.565277166996
-13049.551910108556,-11600.242447881992,-20871.67899271,-17218.97926556817
-13064.862855060444,-11601.382386849213,-20873.467132266414,-17219.828631857472
-13069.10968650695,-11631.601945352788,-20874.964699144926,-17223.49431794814
-13059.96782302473,-11626.036360983417,-20878.56333000223,-17225.774195882583
-13054.625756099913,-11611.999465465482,-20886.609958006145,-17228.009370328113
-13058.693773590778,-11616.335703889812,-20885.93940567248,-17225.953009838227
-13065.689869605289,-11609.764291019952,-20878.675088724507,-17215.26887598859
-13054.96103226674,-11620.426073125134,-20881.737277714885,-17214.419509699288
-13038.48779660318,-11598.186087392103,-20878.94330965797,-17210.575009652974
-13018.326523104492,-11573.86738942473,-20879.636213736085,-17209.949160808224
-13033.548061078556,-11601.71766301604,-20881.826684692704,-17211.446727686733
-13045.86387227343,-11593.112241400748,-20876.23874857888,-17206.797564840028
-13037.683133802788,-11566.468962010022,-20865.711076940428,-17199.533247892054
-13024.6744185298,-11563.943214886573,-20862.80535016124,-17201.142573492834
-13028.988305209674,-11590.966473933038,-20864.70524843994,-17206.909323562304
-13030.374113365902,-11610.546602075889,-20862.26890829431,-17204.093003760936
-13032.966915722718,-11586.831401208809,-20861.307783282733,-17201.097870003923
-13036.923174491309,-11575.834342936796,-20863.364143772626,-17203.17658223827
-13038.443093114269,-11587.166677375635,-20863.610012961628,-17205.232942728155
-13040.320639648517,-11593.380462334211,-20866.2251670629,-17211.089099775447
-13027.870717986909,-11570.916959156628,-20864.63819320657,-17208.205724740714
-13020.271124872104,-11586.965511675538,-20856.94919311395,-17204.1600589943
-13028.876546487398,-11605.785680506908,-20858.67027743701,-17204.763556094596
-13034.844462256964,-11630.663172085664,-20869.063838608723,-17212.676073631774
-13019.175889393797,-11599.303674614868,-20874.98705088938,-17217.392291711843
-13006.725967732187,-11554.980165359995,-20870.76257118733,-17213.279570732066
-13022.126319661897,-11567.00540387695,-20867.253347307844,-17210.820878841983
-13030.843499999464,-11582.495162784477,-20867.052181607745,-17209.479774174666
-13013.833822468976,-11574.917921414128,-20861.307783282733,-17203.087175260447
-13002.546191519046,-11568.234749821991,-20861.59835596065,-17203.668320616285
-13017.588915537468,-11595.190953635092,-20864.1241030841,-17204.003596783114
-13027.021351697607,-11587.211380864546,-20857.30682102523,-17194.59351236743
-13038.443093114269,-11593.425165823122,-20856.90448962504,-17190.100811731914
-13026.619020297412,-11611.887706743206,-20860.23489954888,-17191.64308209933
-13003.395557808348,-11564.72552594251,-20863.58766121717,-17190.525494876565
-13002.300322330037,-11536.09294129526,-20862.782998416784,-17181.651852327806
-13020.919325461307,-11567.743011443974,-20861.82187340521,-17178.410849381788
-13022.841575484465,-11591.324101844324,-20860.279603037787,-17180.243692427124
-13010.503412545137,-11597.001444935971,-20862.134797827577,-17181.36127964989
-12995.103060615427,-11579.120049371726,-20863.09592283916,-17182.54592210602
-12996.086537371462,-11571.453401023557,-20863.85588215064,-17181.808314538994
-13000.623941495887,-11558.087057839282,-20856.166882058013,-17172.331174889943
-13007.128299132384,-11575.454363281056,-20854.69166692396,-17175.326308646956
-13027.557793564534,-11611.641837554198,-20863.58766121717,-17184.132895962346
-13031.067017444018,-11610.926581731628,-20868.862672908625,-17191.508971632597
-13020.874621972398,-11592.53109604491,-20863.922937384003,-17189.027927998057
-13014.14674689135,-11585.892627941685,-20860.972507115905,-17187.753878564105
-12992.130278602872,-11570.313462056334,-20859.586698959676,-17189.631425098352
-12983.033118609565,-11566.692479454576,-20861.196024560457,-17191.508971632597
-12980.306205786015,-11584.86444769674,-20867.141588585568,-17198.750936836117
-13002.032101396571,-11600.644779282187,-20871.14255084307,-17205.478811917164
-13018.639447526866,-11599.706006015063,-20869.354411286644,-17205.747032850628
-13017.879488215389,-11605.092776428794,-20867.74508568586,-17204.674149116774
-13022.059264428528,-11611.261857898458,-20868.08036185269,-17209.859753830406
-13019.444110327258,-11603.282285127912,-20874.450609022453,-17216.341759722443
-13013.409139324323,-11581.087002883793,-20876.328155556697,-17214.39715795483
-13016.694845759255,-11592.262875111446,-20869.197949075457,-17206.35052995092
-13023.310962118028,-11594.073366412327,-20864.50408273984,-17204.674149116774
-13020.785214994576,-11587.948988431572,-20865.442856006965,-17208.809221841006
-13011.933924190274,-11601.136517660205,-20868.79561767526,-17215.917076577793
-13028.764787765122,-11651.36088745128,-20872.215434576923,-17219.336893479456
-13032.00579071114,-11628.673866829142,-20866.962774629927,-17207.02108228458
-13022.662761528822,-11591.838191966795,-20865.62166996261,-17200.27085545908
-13014.057339913528,-11571.34164230128,-20862.04539084976,-17204.07065201648
-12995.125412359885,-11562.088020096782,-20863.922937384003,-17208.541000907542
-13012.827993968487,-11603.908133972662,-20872.37189678811,-17214.39715795483
-13031.446997099758,-11609.361959619757,-20868.79561767526,-17214.084233532456
-13020.069959172006,-11579.52238077192,-20860.16784431551,-17211.200858497723
-13007.351816576936,-11586.160848875148,-20855.83160589118,-17214.17364051028
-12997.449993783235,-11603.014064194447,-20853.931707612483,-17218.2640097456
-13005.89895318734,-11613.787605021907,-20858.111483825625,-17222.555544681018
-13014.01263642462,-11603.639913039198,-20866.62749846309,-17226.064768560504
-13014.414967824814,-11615.06165445586,-20873.355373544146,-17232.144443052344
-13001.741528718654,-11592.464040811545,-20868.907376397536,-17228.41170172831
-12998.925208917286,-11598.364901347746,-20866.649850207552,-17226.623562171884
-13012.984456179674,-11605.5398113179,-20869.063838608723,-17221.54971618053
-13025.076749929996,-11604.623389795232,-20864.50408273984,-17217.54875392303
-13028.183642409283,-11602.812898494352,-20861.352486771644,-17216.475870189177
-13005.89895318734,-11578.069517382326,-20856.144530313555,-17214.151288765825
-12998.567581006,-11580.684671483596,-20860.03373384878,-17216.587628911453
-13005.943656676252,-11602.589381049798,-20864.88406239558,-17218.50987893461
-13015.733720747678,-11636.295811688402,-20865.75578042934,-17220.65564640232
-13005.34015957596,-11611.373616620736,-20860.190196059968,-17211.625541642374
-13008.357645077424,-11603.4387473391,-20864.28056529529,-17212.430204442764
-13015.800775981044,-11617.900326001683,-20868.84032116417,-17214.82184109948
-13023.646238284857,-11592.307578600356,-20874.27179506681,-17217.235829500656
-13025.970819708207,-11578.248331337967,-20870.69551595396,-17213.03370154306
-13022.685113273275,-11617.855622512774,-20875.724658456405,-17214.285399232554
-13014.593781780455,-11586.227904108511,-20876.506969512346,-17209.993864297136
-13003.552020019535,-11571.408697534644,-20876.864597423628,-17211.78200385356
-13016.985418437174,-11594.028662923416,-20885.51472252783,-17219.895687090837
-13036.498491346658,-11616.022779467436,-20881.267891081323,-17219.761576624107
-13032.653991300343,-11653.327840963346,-20879.479751524897,-17221.326198735977
-13015.689017258766,-11609.674884042131,-20881.98314690389,-17220.946219080237
-13016.940714948263,-11594.72156700153,-20884.866521938628,-17220.767405124596
-13020.271124872104,-11590.653549510664,-20885.02298414981,-17217.481698689666
-13022.707465017733,-11592.77696523392,-20878.0268881353,-17208.988035796647
-13031.894031988864,-11617.475642857033,-20879.680917225,-17209.92680906377
-13021.947505706252,-11619.554355091375,-20881.647870737062,-17214.911248077304
-13011.196316623247,-11584.52917152991,-20885.02298414981,-17217.30288473402
-13013.207973624229,-11563.876159653206,-20883.23484459339,-17212.20668699821
-13015.66666551431,-11562.043316607873,-20874.71882995592,-17202.617788626885
-13015.24198236966,-11566.826589921307,-20872.81893167721,-17200.31555894799
-13022.618058039912,-11586.853752953262,-20878.250405579856,-17205.389404939342
-13025.568488308012,-11591.547619288876,-20878.406867791044,-17207.44576542923
-13038.599555325456,-11608.87022124174,-20878.04923987976,-17207.289303218044
-13049.417799641824,-11609.987808464504,-20867.119236841118,-17196.091079245936
-13051.429456642802,-11595.05684316836,-20860.905451882536,-17189.16203846479
-13031.20112791075,-11578.896531927174,-20857.038600091768,-17188.871465786873
-13019.53351730508,-11586.965511675538,-20859.072608837203,-17194.63821585634
-13017.924191704296,-11576.348433059267,-20857.999725103346,-17194.0570705005
-13017.410101581823,-11554.443723493066,-20848.34377149865,-17178.768477293073
-13014.660837013822,-11558.95877587304,-20848.857861621127,-17171.951195234204
-13003.037929897062,-11566.714831199031,-20852.300030267244,-17173.78403827954
-13004.557848520024,-11572.302767312858,-20854.356390757133,-17175.706288302696
-13016.314866103516,-11577.66718598213,-20861.48659723837,-17174.007555724093
-13028.362456364925,-11569.19587483357,-20854.51285296832,-17163.43518059673
-13013.856174213432,-11554.443723493066,-20844.54397494125,-17160.328288117445
-13019.935848705274,-11582.71868022903,-20850.646001177556,-17173.82874176845
-13032.072845944507,-11617.587401579309,-20856.56921345821,-17182.16594245028
-13019.108834160428,-11555.67306943811,-20855.809254146727,-17178.366145892876
-13018.86296497142,-11538.842205863262,-20854.155225057035,-17175.34866039141
-13023.780348751588,-11558.95877587304,-20854.17757680149,-17176.555654591997
-13022.819223740007,-11544.09486581026,-20854.110521568124,-17172.465285356677
-13010.257543356129,-11549.258118779437,-20861.79952166075,-17174.901625502305
-13018.706502760231,-11560.344584029268,-20867.633326963583,-17178.07557321496
-13030.217651154717,-11571.90043591266,-20861.82187340521,-17174.253424913102
-13023.266258629115,-11574.828514436307,-20857.55269021424,-17173.337003390432
-13009.497584044646,-11557.550615972355,-20857.016248347318,-17172.44293361222
-13004.468441542202,-11556.053049093847,-20859.11731232611,-17173.31465164598
-13011.084557900973,-11536.42821746209,-20857.351524514143,-17176.22037842517
