 EXG Channel 0, EXG Channel 1, EXG Channel 2, EXG Channel 3
-79856.16682245336,-10352.545720642296,-30349.109214438107,-32822.68736632912
-77857.54088849317,-10237.277774486278,-30229.706195557857,-32887.663887460694
-76638.29793194508,-10352.61277587566,-30354.473633107384,-32930.0204432035
-78612.85103712691,-10522.17310931362,-30547.927981368062,-32845.59790439581
-80121.2585116933,-10460.63875682816,-30479.039904956808,-32793.27247062593
-79835.55851406557,-10345.23670020541,-30345.197659158428,-32812.11499120176
-77801.37095467698,-10240.049390798737,-30225.951102489365,-32870.341285507835
-76647.52920240513,-10334.95489775597,-30348.058682448707,-32896.89515792074
-78649.2173253557,-10510.25962951894,-30541.445975476025,-32813.232578424526
-80123.1137064831,-10465.891416775155,-30477.58704156721,-32774.89933668367
-79802.96967064973,-10349.304717696275,-30348.57277257118,-32810.30449990088
-77736.17091610086,-10231.891004072548,-30230.84613452508,-32880.198404812625
-76656.67106588735,-10332.540909354797,-30360.620362832597,-32911.714364494605
-78696.71478232322,-10507.488013206485,-30539.94840859752,-32829.39288966571
-80134.87072406658,-10455.520207347896,-30466.657038528567,-32792.534863058914
-79778.53921396009,-10342.688601337506,-30336.256961376308,-32825.01194775247
-77687.15354051036,-10237.367181464098,-30219.714965786337,-32894.07883811937
-76683.78373191164,-10354.892653810102,-30364.82249079019,-32933.686129294176
-78766.92161165734,-10527.202251816065,-30549.85023139122,-32853.21984925507
-80143.43144219297,-10456.347221892742,-30468.40047459608,-32807.6446423107
-79744.13987924336,-10339.291136180298,-30334.692339264435,-32830.95751177758
-77629.24017062667,-10231.332210461163,-30221.74897453177,-32898.48213177707
-76702.67095597637,-10351.338726441709,-30371.8185868047,-32929.30518738094
-78814.7543447917,-10513.724149909514,-30552.15246107012,-32845.64260788472
-80153.53443068676,-10443.472617086483,-30468.758102507367,-32805.09654344279
-79710.23228290466,-10339.96168851396,-30339.363853855597,-32832.63389261173
-77567.01291406309,-10212.713207329894,-30231.762556047743,-32897.051620131926
-76727.8613719775,-10342.085104237212,-30385.319040455703,-32918.08461166437
-78870.20902278532,-10511.064292319334,-30553.001827359418,-32832.097450744805
-80161.69281741296,-10435.247175126931,-30468.53458506281,-32791.618441536244
-79682.7619889691,-10317.76640626984,-30338.04510093273,-32817.09943021529
-77519.4484018622,-10210.701550328917,-30228.85682926856,-32880.62308795728
-76749.85548852153,-10340.632240847615,-30387.77773234579,-32900.203216100126
-78912.18559887238,-10485.203323984542,-30549.939638369044,-32808.0916771998
-80165.93964885946,-10416.225840595464,-30460.26443961435,-32775.39107506169
-79648.13913680782,-10299.37092058312,-30326.66806300498,-32804.47069459804
-77463.79255816848,-10202.54316360273,-30225.50406760026,-32877.24797454452
-76765.9710962738,-10342.53213912632,-30385.56490964472,-32896.93986140965
-78949.87064002403,-10486.0750420183,-30540.61896093118,-32806.68351729912
-80164.97852384788,-10404.401767778609,-30451.055520898764,-32775.189909361594
-79613.60569162437,-10289.446746044963,-30324.09761239262,-32811.01975572345
-77418.73144134658,-10194.273018154268,-30225.30290190016,-32881.89713739123
-76810.80869565114,-10340.676944336528,-30399.40063946255,-32899.51031202201
-79015.6965274449,-10463.030393484878,-30549.961990113497,-32803.80014226439
-80184.75981769084,-10394.745814173915,-30452.17310812153,-32772.2841825824
-79592.37153439183,-10292.1289553796,-30323.47176354787,-32804.80597076487
-77376.24077513705,-10195.032977465748,-30226.532247845204,-32872.59881169782
-76841.98937916629,-10352.456313664474,-30400.518226685315,-32880.64543970173
-79057.38253085405,-10481.582341382784,-30547.32448426777,-32786.946926945086
-80186.99499213636,-10398.098575842212,-30450.809651709755,-32756.459147508045
-79562.66606601073,-10282.115373863624,-30317.99558615632,-32790.76907524694
-77333.88421939424,-10182.91833197097,-30219.02206170822,-32858.6066196688
-76880.97082149635,-10344.677906594028,-30401.613462163627,-32873.917564620686
-79109.59620590165,-10473.736879078971,-30546.005731344907,-32785.69522925559
-80191.55474800525,-10385.022805335857,-30448.909753431053,-32759.029598120404
-79532.91589414071,-10266.804428911735,-30313.949920409912,-32794.05478168187
-77290.79005608441,-10177.598616790609,-30222.620692565524,-32868.03905582894
-76918.2535312478,-10338.061790235255,-30406.17321803251,-32879.57255596788
-79162.05575013826,-10464.080925474278,-30537.690882407533,-32792.35604910327
-80200.49544578737,-10387.86147688168,-30434.336416046197,-32768.73025521401
-79498.42715244618,-10277.712080205927,-30306.90912090649,-32805.029488209424
-77245.41601484013,-10192.082547197646,-30221.54780883167,-32878.16439606719
-76957.12321485559,-10358.804209089782,-30412.141133802077,-32886.50159674902
-79215.00703275288,-10490.813611842825,-30547.95033311252,-32800.64854629619
-80213.83943722719,-10401.496040999418,-30444.79703245128,-32777.7380082295
-79474.1084544788,-10275.186333082478,-30312.11707736457,-32809.87981675623
-77218.68332847158,-10198.609256578597,-30233.595399093083,-32886.70276244912
-77007.99578523586,-10376.730308142938,-30427.29561654277,-32886.25572756001
-79258.19060304054,-10486.052690273846,-30545.737510411444,-32788.15392114567
-80218.89093147409,-10388.979064104446,-30436.482183513905,-32764.662237723143
-79440.93846570712,-10280.707213962938,-30307.311452306683,-32806.1917789211
-77169.30832496981,-10196.39643387752,-30230.64496882498,-32872.82232914237
-77044.20561125346,-10363.520427169851,-30428.90494214356,-32869.40251224071
-79313.46646707851,-10481.671748360604,-30546.96685635649,-32777.089807640295
-80223.89772223208,-10387.682662926038,-30435.72222420242,-32758.470804509023
-79403.9910321225,-10260.590643953165,-30303.91398714948,-32797.25108113898
-77134.99839723091,-10186.271093639269,-30227.873352512524,-32866.58619243934
-77093.87118743315,-10368.571921416751,-30430.760136933342,-32865.513308705486
-79363.5790781473,-10480.21888497101,-30540.55190569781,-32776.329848328816
-80233.39721362558,-10380.753622144894,-30426.02156710882,-32759.655446965156
-79365.65779038165,-10264.83747539967,-30294.973289367357,-32807.979918477526
-77096.3969345566,-10198.92218100097,-30233.32717815962,-32886.836872915854
-77136.33950189824,-10377.713784898971,-30442.31598881674,-32875.92922162166
-79410.8977211592,-10488.89136181967,-30552.89006863714,-32791.95371770307
-80236.68292006051,-10389.716671671473,-30440.14786960457,-32779.235575108
-79334.18653418857,-10270.760687680327,-30308.87607441856,-32818.70875581608
-77063.04813182929,-10211.30504742921,-30246.84998355508,-32894.659983475205
-77185.75920888892,-10395.259904296388,-30457.157547135062,-32879.639611201244
-79455.24358215852,-10482.990501283468,-30551.884240136653,-32784.95762168856
-80240.99680674038,-10374.249264508398,-30434.02349162382,-32771.837147693295
-79309.48785656547,-10269.12901033509,-30307.982004640344,-32820.02750873894
-77041.23282924091,-10205.359483404098,-30246.246486454784,-32887.73094269406
-77240.40922408215,-10388.19675304851,-30452.93306743301,-32870.43069248566
-79507.23373976156,-10479.816553570814,-30543.368225499184,-32782.16365363165
-80246.96472250995,-10373.757526130385,-30420.187761805984,-32768.484386025
-79261.09632981973,-10275.856885416137,-30292.91692887747,-32818.10525871578
-76997.19989266395,-10228.247669726334,-30239.920942773933,-32887.663887460694
-77280.91058503516,-10395.215200807475,-30449.915581931546,-32866.65324767271
-79542.1248128563,-10477.179047725089,-30535.366300984184,-32776.173386117625
-80244.48367887542,-10380.95478784499,-30413.415183236026,-32766.60683949076
-79219.58914036622,-10263.31755677671,-30275.23669901332,-32812.85259876878
-76968.5673080167,-10207.527602616265,-30231.807259536658,-32886.43454151566
-77338.17575432966,-10392.667101939573,-30447.03220689681,-32863.59105868233
-79587.1859296782,-10479.21305647052,-30521.66468163308,-32774.89933668367
-80248.50699287737,-10382.80998263478,-30406.68730815498,-32770.42898779261
-79184.7427707604,-10266.089173089167,-30275.907251346976,-32815.937139503614
-76944.76270017179,-10217.228259709867,-30237.12697471702,-32891.01664912899
-77394.34568814584,-10411.86725042668,-30457.448119812983,-32867.59202093983
-79634.37046222335,-10480.308291948832,-30528.124335780663,-32778.63207800771
-80247.34470216569,-10380.395994233608,-30407.93900584448,-32774.65346749467
-79131.00917708984,-10263.004632354336,-30280.33289674913,-32826.48716288652
-76912.26326373378,-10219.128157988567,-30247.922867288933,-32894.48116951957
-77438.75860437854,-10422.283163342854,-30469.495710074392,-32868.15081455121
-79659.71734043567,-10486.946760052057,-30529.554847425803,-32779.324982085825
-80245.86948703164,-10386.609779192184,-30408.229578522398,-32777.31332508485
-79106.04227853326,-10268.88314114608,-30273.31444899016,-32825.458982641576
-76895.27593794775,-10226.638344125551,-30238.0880997286,-32891.06135261791
-77492.15692188227,-10410.570849248274,-30463.281925115814,-32858.65132315771
-79699.77166649958,-10469.333585421276,-30528.66077764759,-32777.425083807124
-80241.75676605187,-10369.980081317435,-30405.435610465483,-32774.273487838924
-79064.89271699105,-10252.812236882715,-30273.51561469026,-32820.36278490577
-76871.58308882512,-10222.078588256669,-30250.113338245552,-32892.17893984067
-77542.47069865116,-10425.099483144222,-30472.110864175665,-32864.194555782626
-79736.1156029839,-10487.796126341358,-30523.18460025604,-32782.61068852076
-80242.58378059672,-10378.943130844013,-30397.74661037286,-32779.883775697206
-79021.70914670339,-10261.596472453652,-30271.43690245592,-32834.064404256875
-76848.11375714705,-10230.88517557206,-30255.65657087047,-32905.03119290247
-77588.06825734,-10426.597050022729,-30476.290640388805,-32864.194555782626
-79756.41098694933,-10468.014832498411,-30522.26817873337,-32774.54170877239
-80224.79179201029,-10355.272633465844,-30393.58918590417,-32770.47369128152
-78959.75011107327,-10236.49546343034,-30258.964629049857,-32818.86521802726
-76808.10413457204,-10219.441082410942,-30246.29118994369,-32886.278079304466
-77630.11188866042,-10427.82639596777,-30472.55789906477,-32845.30733171789
-79785.15533031886,-10469.937082521568,-30513.394536184616,-32761.55534524385
-80216.56635005074,-10355.518502654852,-30386.369572445103,-32759.18606033159
-78912.18559887238,-10239.535300676263,-30257.26589647125,-32812.58437783532
-76781.28204122568,-10219.865765555593,-30247.65464635547,-32879.79607341243
-77678.4363601728,-10433.839015226247,-30478.25759390087,-32839.294712459414
-79812.1338858764,-10465.846713286248,-30511.18171348354,-32757.95671438655
-80199.95900392045,-10352.836293320215,-30381.00515377583,-32760.705978954556
-78848.7066446193,-10235.668448885495,-30252.683788857918,-32812.2938051574
-76753.67763682338,-10232.606259895118,-30258.9422773054,-32881.40539901321
-77715.13792456841,-10430.240384368944,-30485.23133817093,-32834.64554961271
-79818.37002257945,-10450.222843911988,-30508.52185589336,-32751.8323364058
-80183.68693395698,-10353.372735187142,-30383.329735199182,-32757.844955664277
-78788.93807994582,-10219.530489388764,-30242.960780019854,-32804.38128762022
-76717.7583834837,-10221.430387667464,-30252.907306302463,-32875.571593710374
-77765.74227401523,-10437.907032717114,-30486.013649226865,-32837.59597988081
-79856.90443002038,-10469.244178443454,-30503.470361646458,-32756.839127163785
-80170.924087873,-10358.558339900774,-30378.72527584139,-32763.38818828919
-78736.8361636205,-10233.1650535065,-30244.79362306519,-32815.110124958774
-76703.60972924349,-10248.632460669573,-30261.490376173304,-32887.28390780496
-77821.50987643121,-10451.318079390296,-30488.8970242616,-32842.714529361074
-79880.7090378653,-10465.958472008524,-30501.99514651241,-32765.69041796809
-80155.63549466556,-10357.66427012256,-30374.389037417062,-32766.919763913127
-78688.10936070792,-10242.485730944363,-30243.51957363124,-32818.52994186043
-76692.18798782682,-10243.044524555746,-30265.670152386447,-32884.042904858936
-77871.10839737754,-10439.58341355126,-30486.25951841587,-32826.5989216088
-79906.57000620008,-10465.533788863871,-30494.417905142054,-32754.24632480697
-80145.55485791623,-10353.350383442688,-30368.443473391948,-32767.88088892471
-78635.18042983775,-10234.394399451545,-30238.155154961965,-32827.425936153646
-76670.99853408319,-10250.711172903915,-30260.21632673935,-32892.17893984067
-77922.38329915801,-10456.906015504124,-30486.147759693595,-32841.619293882766
-79924.25023606422,-10466.025527241887,-30486.594794582703,-32768.46203428054
-80125.50534313981,-10367.43198244953,-30361.35797039962,-32785.91874670014
-78575.300106442,-10235.31082097421,-30226.71106180085,-32836.992482780515
-76655.17349900884,-10237.255422741822,-30258.38348369402,-32894.48116951957
-77962.7058461554,-10452.972108479991,-30485.343096893204,-32844.614427639775
-79930.48637276726,-10463.83505628527,-30487.108884705176,-32779.459092552555
-80097.90093873751,-10346.577804872728,-30361.62619133308,-32788.24332812349
-78509.65303297676,-10217.1612044765,-30224.36412863304,-32837.551276391896
-76628.84314404048,-10236.964850063903,-30263.50203317428,-32897.83393118786
-78012.12555314608,-10458.224768426988,-30496.876597032144,-32844.34620670632
-79950.13355614347,-10444.92548047608,-30486.483035860427,-32769.13258661421
-80085.56277579819,-10327.779987785816,-30357.17819418648,-32779.593203019285
-78456.96997129559,-10208.667541583483,-30223.626521066013,-32836.41133742468
-76618.3378241465,-10237.54599541974,-30265.670152386447,-32892.04482937394
-78061.25468745884,-10455.341393392251,-30494.641422586614,-32838.51240140347
-79973.13350118799,-10459.1188382052,-30479.531643334823,-32773.29001108289
-80069.22365060136,-10345.884900794614,-30351.031464461263,-32785.67287751113
-78407.55026430491,-10230.348733705132,-30226.46519261184,-32850.64939864271
-76626.89854227287,-10274.582835982184,-30285.160873551475,-32910.44031506065
-78119.32451955373,-10481.49293440496,-30510.75703033889,-32848.3024654749
-79992.26659444172,-10465.936120264068,-30485.41015212657,-32776.57571751782
-80050.895220148,-10343.873243793636,-30345.890563236542,-32785.35995308876
-78354.8448508793,-10228.046504026235,-30215.91516922893,-32846.8048985964
-76614.76154503365,-10276.683899960984,-30280.51171070477,-32905.07589639138
-78163.06688345276,-10471.92638777809,-30498.08359123273,-32834.37732867924
-80012.80784759615,-10453.620309069194,-30475.8436054997,-32769.49021452549
-80048.7941561692,-10339.894633280592,-30355.77003428579,-32790.47850256902
-78305.3357369108,-10205.44889038192,-30217.524494829715,-32841.10520376029
-76609.19596066428,-10246.97843157988,-30275.08023680213,-32886.16632058219
-78212.75481137692,-10454.760248036417,-30494.417905142054,-32815.42304938115
-80020.85447560006,-10428.228727367965,-30464.31010536076,-32753.82164166232
-80011.22087373983,-10317.207612658454,-30336.324016609677,-32772.2841825824
-78238.8169454118,-10209.516907872783,-30211.377765104506,-32836.76896533596
-76602.19986464977,-10259.204835796934,-30285.85377762959,-32891.91071890721
-78250.37279729519,-10450.625175312183,-30499.670565089054,-32819.02168023845
-80028.16349603696,-10429.189852379544,-30462.298448359783,-32754.15691782915
-79996.31226018813,-10328.159967441556,-30339.38620560005,-32781.828377464815
-78190.96186053299,-10218.144681232534,-30212.29418662717,-32844.1003375173
-76604.59150130648,-10265.396269011051,-30284.177396795443,-32890.16728283969
-78317.58449287231,-10465.198512697045,-30498.754143566388,-32822.732069818034
-80049.62117071405,-10441.192739152044,-30456.06231165675,-32764.14814760067
-79973.11114944353,-10326.952973240968,-30325.416365315483,-32788.757418245965
-78133.4955255384,-10204.1077857146,-30199.30782309864,-32854.896230089216
-76612.8839984994,-10276.013347627324,-30290.927623620944,-32903.91360567971
-78363.0926445833,-10472.686347089571,-30502.86686454617,-32826.30834893088
-80060.41706328596,-10446.288936887851,-30457.895154702088,-32765.77982494591
-79953.46396606731,-10343.403857160076,-30334.02178693077,-32791.05964792486
-78073.50344342036,-10232.829777339672,-30209.70138427036,-32852.92927657715
-76604.45739083974,-10297.09104264868,-30302.70699294889,-32892.9612508966
-78408.80196199441,-10493.294655477364,-30511.80756232829,-32819.11108721627
-80076.42091231595,-10463.678594074085,-30464.06423617175,-32765.15397610116
-79929.21232333331,-10347.985964773414,-30338.134507910552,-32784.80115947738
-78014.1148584026,-10222.056236512211,-30210.59545404857,-32838.33358744784
-76611.0288037096,-10297.89570544907,-30312.653519231502,-32874.85633788781
-78462.13322426478,-10479.861257059723,-30516.36731819717,-32795.239424138
-80087.44032233243,-10430.0615704133,-30461.65024777058,-32738.510696710437
-79905.72063991078,-10321.454444104964,-30333.01595843029,-32760.8847929102
-77966.17036654596,-10210.522736373274,-30212.584759305093,-32826.04012799742
-76618.85191426896,-10296.241676359376,-30318.82260070117,-32865.13332904975
-78508.80366668745,-10478.31898669231,-30522.42464094456,-32790.72437175803
-80094.88345323605,-10439.762227506904,-30467.707570517967,-32745.327978769303
-79875.88106106294,-10330.216327931445,-30335.519353809283,-32773.781749460904
-77904.21133091586,-10209.941591017436,-30206.90741621345,-32839.96526479307
-76629.15606846286,-10299.482679305396,-30316.8556471891,-32880.93601237965
-78569.98039126163,-10490.880667076191,-30518.11075426469,-32809.72335454504
-80120.83382854865,-10447.630041555172,-30456.50934654586,-32763.81287143384
-79857.5526306096,-10319.0851591927,-30321.415403057985,-32785.56111878886
-77854.56810648061,-10199.905657757005,-30204.51577955673,-32851.20819225409
-76644.15408899238,-10291.905437935047,-30322.354176325105,-32885.763989182
-78623.26695004308,-10484.59982688425,-30515.585007141235,-32807.979918477526
-80129.99804377533,-10433.906070459614,-30451.54725927678,-32764.058740622848
-79834.50798207617,-10317.65464754756,-30322.08595539164,-32792.60191829228
-77799.02402150918,-10218.68112309946,-30205.722773757312,-32863.52400344897
-76655.46407168676,-10327.668229063538,-30335.36289159809,-32902.907777179214
-78662.33779935096,-10485.337434451276,-30527.073803791263,-32820.45219188359
-80132.47908740987,-10426.77586397837,-30459.57153553624,-32776.2851448399
-79808.62466199693,-10322.2367551609,-30333.485345063847,-32806.01296496546
-77748.48672729573,-10210.522736373274,-30219.1338204305,-32873.64934368722
-76672.54080445062,-10316.537060324796,-30353.53485984026,-32909.32272783789
-78714.70793660975,-10486.365614696218,-30538.89787660812,-32825.19076170812
-80144.28080848228,-10426.462939555997,-30465.42769258353,-32775.10050238377
-79781.60140295046,-10311.954952711458,-30336.68164452096,-32798.748648017485
-77685.47715967621,-10201.425576379965,-30220.832553009102,-32865.64741917222
-76676.18413879683,-10311.977304455912,-30358.787519787256,-32889.921413650685
-78751.342445772,-10476.195570969054,-30540.66366442009,-32806.48235159902
-80137.37411944558,-10423.624268010171,-30466.43352108401,-32767.00917089095
-79736.22736170619,-10314.525403323818,-30331.33957759614,-32787.52807230092
-77625.86505721392,-10205.314779915188,-30220.206704164357,-32852.862221343785
-76689.81870291456,-10311.351455611164,-30362.34144715565,-32873.04584658692
-78790.05566716858,-10472.418126156108,-30536.774460884862,-32782.20835712056
-80137.41882293449,-10399.551439231807,-30458.141023891098,-32741.081147322795
-79704.33142236846,-10292.106603635146,-30325.52812403776,-32766.115101112737
-77571.1032832984,-10191.076718697155,-30217.59155006308,-32832.92446528965
-76713.93623518184,-10306.925810209012,-30364.844842534643,-32856.32674173436
-78839.2071532258,-10472.507533133929,-30529.554847425803,-32768.842013936286
-80149.15348877353,-10408.760357947393,-30446.69693072998,-32732.252208262948
-79684.12544538087,-10299.0803479052,-30317.99558615632,-32765.55630750136
-77531.83126829044,-10208.444024138931,-30213.232959894296,-32838.64651187021
-76742.16648842889,-10341.749828070382,-30369.11402572561,-32862.8087476264
-78891.86786316251,-10491.439460687574,-30536.014501573387,-32779.324982085825
-80150.78516611876,-10404.11119510069,-30445.42288129603,-32737.30370250985
-79654.88936363332,-10280.260179073832,-30314.1063826211,-32767.187984846594
-77485.7419712236,-10188.48391634034,-30218.59737856357,-32845.3520352068
-76777.9739830463,-10336.653630334573,-30388.671802124,-32871.4588727306
-78954.27393368172,-10490.053652531346,-30541.736548153945,-32784.30942109936
-80177.13787283158,-10414.169480105576,-30449.245029597885,-32750.133603827195
-79640.47248845965,-10296.241676359376,-30314.46401053238,-32779.883775697206
-77445.9782178376,-10196.552896088708,-30211.82479999361,-32852.34813122131
-76804.63961418148,-10345.326107183231,-30383.53090089928,-32873.3587710093
-78994.01533532326,-10486.007986784934,-30538.875524863663,-32786.3881333337
-80183.84339616816,-10398.63501770914,-30444.14883186208,-32751.742929427972
-79609.47061890014,-10284.305844820245,-30310.61951048607,-32782.878909454215
-77402.12409521629,-10195.435308865945,-30213.61293955004,-32853.66688414418
-76844.22455361183,-10354.959709043467,-30390.459941680427,-32870.69891341912
-79054.29799011923,-10491.104184520744,-30544.5081644664,-32779.4367408081
-80193.4769980284,-10399.462032253983,-30448.08273888621,-32746.132641569693
-79581.84386275338,-10289.759670467338,-30316.31920532217,-32778.87794719672
-77356.88416443874,-10202.476108369365,-30221.54780883167,-32845.374386951255
-76876.90280400548,-10352.568072386752,-30401.077020296696,-32853.622180655264
-79102.30953720922,-10479.21305647052,-30546.877449378662,-32765.37749354571
-80203.11059988863,-10411.1072911152,-30449.35678832016,-32740.52235371141
-79558.62040026432,-10303.304827607257,-30320.297815835216,-32778.49796754098
-77322.17190529966,-10198.25162866731,-30231.42727988092,-32850.068253286874
-76913.89494107902,-10349.885863052114,-30411.29176751277,-32856.37144522327
-79143.30263654026,-10479.101297748244,-30541.893010365133,-32763.432891778102
-80209.83847496969,-10396.601008963706,-30438.471488770425,-32743.092804323773
-79526.90327488224,-10295.235847858889,-30310.7536209528,-32781.3366390868
-77283.23516645851,-10212.802614307717,-30230.488506613798,-32859.18776502464
-76960.63243873506,-10360.81586609076,-30413.616348936124,-32866.11680580578
-79211.34134666222,-10475.860294802224,-30541.33421675375,-32772.53005177141
-80224.6353297991,-10391.57186646126,-30438.292674814784,-32747.585504959286
-79500.8187891029,-10273.398193526053,-30309.27840581875,-32778.408560563155
-77248.90288697516,-10184.997044205316,-30226.75576528976,-32847.766023607976
-76995.59056706316,-10343.0909327377,-30411.91761635752,-32848.12365151926
-79256.82714662876,-10472.820457556303,-30540.23898127544,-32761.48829001049
-80230.84911475767,-10388.733194915438,-30435.23048582441,-32740.365891500223
-79464.0501694739,-10268.659623701527,-30301.030612114744,-32774.63111575021
-77206.21105506552,-10186.025224450255,-30220.832553009102,-32843.67565437265
-77032.73916634789,-10362.849874836193,-30421.5288664733,-32849.710625375585
-79287.15846385462,-10481.78350708288,-30543.725853410466,-32762.360008044245
-80230.2903211463,-10384.687529169028,-30436.97392189192,-32742.95869385704
-79433.31652084786,-10258.60133869664,-30301.47764700385,-32777.5368425294
-77163.29570571134,-10181.465468581377,-30225.12408794452,-32846.2014014961
-77076.3921232691,-10362.2463777359,-30428.74847993237,-32845.57555265135
-79353.58784837578,-10478.31898669231,-30542.764728398888,-32759.275467309413
-80242.24850442988,-10377.043232565313,-30426.04391885328,-32739.40476648865
-79402.91814838865,-10271.677109202994,-30295.263862045274,-32783.77297923243
-77134.61841757517,-10215.440120153442,-30229.728547302315,-32861.400587725715
-77121.74381276892,-10385.894523369614,-30437.57741899221,-32859.03130281345
-79389.8870813712,-10492.802917099349,-30547.838574390244,-32772.82062444933
-80241.13091720712,-10395.05873859629,-30427.027395609308,-32751.49706023897
-79367.40122644916,-10274.89576040456,-30296.716725434868,-32790.05381942437
-77100.64376600311,-10203.526640358765,-30230.0861752136,-32864.9098116052
-77164.63681037865,-10388.57673270425,-30435.74457594688,-32860.52886969195
-79418.85494218528,-10477.78254482538,-30539.456670219504,-32762.985856888998
-80238.60517008367,-10372.416421463064,-30427.027395609308,-32743.919818868617
-79333.13600219919,-10260.098905575143,-30288.42422824195,-32779.48144429701
-77070.62537319963,-10204.957152003904,-30223.514762343737,-32853.86804984427
-77210.90492140113,-10390.029596093846,-30436.772756191825,-32848.32481721936
-79472.74499806702,-10478.9224837926,-30534.42752771706,-32760.705978954556
-80248.77521381083,-10376.707956398484,-30421.998253106864,-32750.982970116496
-79303.22936811797,-10265.373917266596,-30290.100609076097,-32791.685496769605
-77042.26100948585,-10204.554820603707,-30229.728547302315,-32859.52304119147
-77252.76973876593,-10396.131622330144,-30443.56768650624,-32847.02841604095
-79505.60206241632,-10483.683405361582,-30529.21957125897,-32755.94505738557
-80248.0376062438,-10384.598122191206,-30411.135305301585,-32747.16082181464
-79272.40631251411,-10268.436106256975,-30285.22792878484,-32800.13445617371
-77018.99284350788,-10207.661713082996,-30231.7849077922,-32872.084721575346
-77301.42948644514,-10395.39401476312,-30445.55699176276,-32855.05269230041
-79550.37260656031,-10480.487105904473,-30533.779327127857,-32763.611705733743
-80257.55944938176,-10377.110287798678,-30410.64356692357,-32749.284237537893
-79240.51037317638,-10274.784001682285,-30278.38829498152,-32797.47459858353
-76999.16684617601,-10253.728658405384,-30235.56235260515,-32876.622125699774
-77363.74614998653,-10420.360913319695,-30446.518116774336,-32852.19166901013
-79604.15090371978,-10477.424916914097,-30519.87654207665,-32762.13649059969
-80270.83638558822,-10391.303645527798,-30402.932215086486,-32761.62240047722
-79216.86222754268,-10277.3768040391,-30269.559355921672,-32809.097505700294
-76981.37485758959,-10234.327344218176,-30229.393271135483,-32884.08760834785
-77425.74988910554,-10430.709771002505,-30451.99429416589,-32861.802919125905
-79657.61627645687,-10508.69500740707,-30523.96691131197,-32773.781749460904
-80279.44180720352,-10404.49117475643,-30399.60180516265,-32765.95863890155
-79182.70876201497,-10288.642083244573,-30264.351399463583,-32809.56689233385
-76964.40988354801,-10235.959021563414,-30230.197933935877,-32878.097340833825
-77485.27258459003,-10431.045047169337,-30454.117709889146,-32853.756291121994
-79703.6161665459,-10496.826231101302,-30518.37897519815,-32770.04900813687
-80289.61185093068,-10384.195790791013,-30391.15284575854,-32762.96350514454
-79154.8808401681,-10272.168847581012,-30261.08804477311,-32804.15777017567
-76950.93178164147,-10232.762722106305,-30235.54000086069,-32876.912698377695
-77546.67282660876,-10429.055741912813,-30453.40245406657,-32846.849602085305
-79751.1806787468,-10499.664902647126,-30514.64623387411,-32764.99751388997
-80305.32512728276,-10404.938209645536,-30394.99734580485,-32763.499947011467
-79133.93725561348,-10278.2261703284,-30255.544812148197,-32802.10140968578
-76944.80740366071,-10237.858919842116,-30228.812125779645,-32866.65324767271
-77610.37529830639,-10438.979916450968,-30455.88349770111,-32834.28792170143
-79796.44296126878,-10501.0283590589,-30506.353736681194,-32749.016016604422
-80315.49517100993,-10410.190869592532,-30383.128569499087,-32750.96061837204
-79105.43878143297,-10282.27183607481,-30253.64491386949,-32801.07322944084
-76933.85504887761,-10245.50321644583,-30238.490431128797,-32871.41416924169
-77682.77259859712,-10432.20733788101,-30466.74644550639,-32837.88655255873
-79861.08420623353,-10487.304387963342,-30515.76382109688,-32756.95088588606
-80331.07433689527,-10389.940189116023,-30391.041087036265,-32758.984894631496
-79076.85090027463,-10268.279644045788,-30257.71293136036,-32805.744744032
-76932.40218548801,-10248.69951590294,-30249.107509745063,-32877.29267803344
-77746.78799471713,-10464.952643508035,-30483.21968116995,-32848.660093386185
-79901.40675323091,-10510.55020219686,-30522.446992689016,-32769.02082789193
-80341.713767256,-10398.031520608843,-30393.20920624843,-32768.59614474728
-79047.79363248273,-10278.092059861669,-30253.46609991385,-32815.601863336786
-76924.3555574841,-10251.940518848958,-30244.16777422044,-32879.95253562362
-77805.03664076766,-10451.54159683485,-30467.37229435114,-32837.08188975834
-79937.8177449486,-10488.64549263066,-30500.02819300034,-32757.55438298636
-80337.28812185385,-10380.887732611624,-30378.9711450304,-32765.176327845616
-79003.93950986142,-10261.93174862048,-30243.854849798063,-32812.4949708575
-76910.27395847726,-10255.18152179498,-30240.39032940749,-32875.37042801028
-77865.92279266391,-10456.347221892742,-30467.79697749579,-32829.48229664353
-79972.64176280997,-10489.338396708776,-30496.094285976207,-32748.189002059586
-80340.8644009667,-10397.24920955291,-30375.64073510656,-32758.984894631496
-78972.11062575706,-10276.639196472071,-30235.160021204952,-32805.00713646497
-76906.6529758755,-10263.809295154726,-30237.864582284044,-32870.69891341912
-77921.2880636797,-10464.907940019124,-30462.27609661533,-32820.98863375052
-80017.56876916514,-10510.505498707951,-30486.46068411597,-32747.853725892757
-80356.33180812978,-10385.782764647338,-30364.77778730128,-32760.19188883208
-78949.133032457,-10243.960946078414,-30224.341776888585,-32805.78944752091
-76910.74334511082,-10236.517815174797,-30230.15323044697,-32865.60271568331
-78000.50264602932,-10441.103332174222,-30455.190593623,-32811.80206677938
-80061.22172608635,-10465.73495456397,-30474.904832232576,-32738.153068799147
-80356.0635871963,-10361.911101569069,-30361.33561865516,-32754.49219399598
-78916.20891287434,-10248.185425780466,-30232.79073629269,-32809.9468719896
-76920.77927837125,-10263.295205032256,-30254.85190807008,-32876.68918093314
-78071.3800276971,-10482.342300694265,-30482.83970151421,-32828.02943325394
-80112.31781391118,-10514.864088876737,-30497.144817965607,-32759.968371387527
-80370.88279377017,-10399.037349109334,-30366.09654022414,-32765.77982494591
-78883.37420026949,-10266.245635300354,-30230.309692658157,-32819.11108721627
-76914.27492073477,-10272.012385369824,-30255.008370281263,-32879.10316933432
-78118.31869105324,-10472.909864534124,-30478.726980534437,-32822.173276206646
-80122.75607857181,-10487.863181574725,-30483.75612303688,-32748.613685204236
-80351.16855516059,-10382.63116867914,-30358.184022686964,-32758.62726672021
-78838.7601183367,-10261.395306753551,-30224.25236991076,-32810.37155513425
-76910.58688289963,-10284.08232737569,-30256.640047626504,-32876.64447744423
-78179.87539528316,-10478.74366983696,-30477.363524122666,-32818.55229360489
-80169.49357622786,-10490.79126009837,-30483.39849512559,-32750.55828697185
-80363.39495937765,-10392.1530118171,-30359.34631339864,-32769.49021452549
-78814.28495815814,-10263.004632354336,-30228.70036705737,-32827.73886057602
-76922.38860397204,-10276.08040286069,-30260.23867848381,-32880.55603272391
-78267.76245448142,-10488.55608565284,-30487.08653296072,-32821.94975876209
-80216.70046051747,-10487.03616702988,-30481.76681778036,-32749.91008638264
-80367.35121814624,-10380.328939000245,-30356.418234874996,-32762.427063277613
-78773.58243150503,-10265.84330390016,-30223.380651877007,-32813.05376446888
-76927.12717379656,-10282.2271325859,-30262.7420738628,-32868.799015140416
-78323.12772549722,-10487.41614668562,-30483.242032914408,-32809.9915754785
-80247.65762658807,-10497.0273968014,-30473.96605896545,-32744.724481669007
-80370.14518620315,-10396.601008963706,-30355.27829590777,-32765.62336273472
-78738.7807653881,-10261.015327097812,-30226.86752401204,-32821.14509596171
-76939.42063324698,-10293.917094936023,-30274.074408301643,-32878.99141061204
-78400.59887177931,-10500.447213703064,-30489.83579752872,-32811.55619759038
-80287.91311835208,-10490.321873464807,-30469.38395135212,-32743.8304118908
-80376.58248860628,-10384.843991380214,-30345.2647143918,-32761.55534524385
-78704.98492777169,-10266.17858006699,-30214.283491883696,-32812.85259876878
-76945.43325250546,-10312.22317364492,-30278.03066707023,-32871.57063145288
-78470.80570111344,-10501.385986970185,-30496.74248656541,-32807.130552188224
-80320.52431351237,-10501.140117781177,-30472.93787872051,-32741.77405140091
-80365.85365126772,-10381.513581456373,-30343.65538879101,-32752.39113001718
-78651.63131375686,-10236.830739597171,-30208.78496274769,-32803.88954924221
-76943.68981643794,-10295.794641470273,-30275.72843739133,-32861.33353249235
-78524.78516397299,-10507.488013206485,-30495.80371329829,-32797.16167416116
-80353.98487496196,-10479.995367526457,-30462.87959371562,-32722.685661636075
-80367.66414256861,-10381.49122971192,-30339.34150211114,-32738.801269388357
-78624.27277854357,-10270.715984191416,-30214.283491883696,-32800.15680791817
-76965.19219460395,-10305.875278219615,-30279.93056534893,-32849.844735842315
-78600.93755733223,-10495.641588645172,-30500.36346916717,-32784.24236586599
-80394.7768085929,-10477.737841336471,-30469.87568973013,-32721.43396394658
-80375.39784615015,-10374.91981684206,-30343.029539946267,-32745.126813069204
-78595.68489738523,-10251.225263026388,-30211.333061615594,-32805.52122658744
-76985.37581984709,-10305.361188097142,-30285.429094484934,-32855.29856148941
-78665.10941566342,-10490.299521720352,-30495.89312027611,-32781.269583853435
-80425.9351403636,-10455.1178759477,-30455.615276767647,-32719.109382523227
-80369.13935770266,-10345.214348460957,-30328.88088570605,-32740.09767056676
-78555.67527481023,-10232.98623955086,-30202.50412255575,-32806.45999985457
-76998.33983163116,-10306.970513697925,-30287.03842008572,-32861.668808659175
-78721.77108785762,-10505.476356205509,-30504.699707591502,-32796.62523229423
-80442.49778300498,-10462.203378940032,-30465.807672239265,-32737.281350765392
-80358.54463083085,-10356.323165455242,-30338.22391488837,-32757.01794111943
-78516.00092840206,-10248.811274625215,-30213.12120117202,-32819.580473849834
-77014.61190159463,-10314.056016690258,-30300.069487103166,-32864.41807322718
-78784.4453793103,-10497.161507268132,-30508.700669849,-32788.24332812349
-80473.32083860885,-10467.456038887029,-30464.578326294224,-32730.754641384443
-80364.53489834486,-10373.310491241276,-30344.325941124676,-32760.281295809906
-78490.43053274519,-10259.763629408317,-30223.939445488388,-32824.56491286337
-77045.47966068742,-10331.110397709655,-30321.43775480244,-32869.04488432943
-78859.86016510251,-10508.65030391816,-30525.732699123942,-32785.80698797786
-80510.62590010476,-10470.853504044237,-30475.17305316604,-32728.18419077208
-80359.75162503144,-10370.00243306189,-30347.38813011505,-32752.704054439557
-78452.54432589344,-10254.734486905872,-30227.001634478765,-32819.446363383104
-77061.52821320631,-10326.19301392949,-30327.875057205565,-32856.25968650099
-78915.44895356285,-10509.589077185285,-30529.823068359263,-32778.09563614078
-80534.92224632767,-10473.066326745313,-30473.38491360961,-32724.69731863705
-80351.30266562733,-10363.989813803411,-30343.700092279923,-32744.277446779903
-78406.16445614869,-10238.50712043132,-30218.485619841293,-32806.48235159902
-77079.14138783711,-10328.025856974824,-30326.913932193987,-32849.33064571985
-78982.14655901749,-10510.79607138587,-30528.48196369195,-32775.10050238377
-80557.05047333843,-10470.87585578869,-30467.864032729158,-32722.99858605845
-80337.89161895415,-10357.86543582266,-30337.553362554718,-32745.10446132475
-78366.31129578488,-10236.674277385984,-30212.428297093906,-32807.80110452189
-77096.26282408986,-10328.495243608386,-30330.1102316511,-32848.92831431965
-79024.83839092712,-10516.98750459999,-30534.18165852805,-32774.67581923912
-80581.12330211679,-10474.720355835005,-30472.93787872051,-32723.959711070027
-80332.8624764517,-10355.831427077226,-30346.874039992577,-32749.172478815613
-78331.19670524559,-10231.600431394629,-30227.873352512524,-32816.02654648144
-77123.44254534753,-10327.04238021879,-30347.633999304056,-32851.23054399855
-79105.59524364416,-10508.27032426242,-30546.34100751174,-32768.30557206936
-80612.70631703215,-10464.907940019124,-30476.17888166653,-32715.935434810573
-80324.30175832531,-10352.43396192002,-30342.40369110152,-32735.113231553227
-78296.2832804064,-10239.468245442897,-30223.15713443245,-32801.20733990757
-77156.54547888583,-10339.939336769505,-30350.740891783345,-32843.07215727236
-79166.2355263514,-10509.812594629837,-30536.9085713516,-32761.175365588115
-80634.85689578735,-10453.329736391275,-30467.394646095592,-32719.846990090253
-80311.62831921916,-10332.697371565982,-30340.39203410054,-32747.272580536915
-78255.58075375328,-10214.389588164042,-30222.687747798893,-32813.38904063571
-77186.56387168932,-10330.193976186987,-30353.66897030699,-32853.44336669962
-79227.65812011459,-10508.717359151526,-30535.47805970646,-32775.122854128225
-80646.85978255986,-10449.418181111596,-30460.666771014545,-32734.643844919665
-80290.57297594225,-10341.392200159098,-30337.0616241767,-32766.942115657585
-78206.5633781628,-10239.02121055379,-30221.0337187092,-32833.19268622311
-77195.25870028243,-10345.48256939442,-30352.30551389522,-32857.66784640167
-79265.79019615534,-10492.758213610436,-30530.27010324837,-32770.89837442617
-80668.7421403816,-10438.868157728692,-30459.28096285832,-32735.53791469788
-80293.14342655461,-10337.659458835062,-30337.843935232635,-32771.4348162931
-78190.22425296596,-10244.050353056236,-30228.633311824004,-32841.70870086059
-77249.88636373119,-10355.943185799502,-30375.014886261808,-32865.26743951648
-79350.45860415204,-10505.521059694418,-30549.157327313107,-32772.9323831716
-80700.01223087458,-10440.701000774026,-30464.913602461056,-32725.300815737348
-80278.45833044748,-10334.932546011514,-30340.034406189254,-32755.81094691884
-78153.3438746147,-10233.992068051348,-30232.433108381407,-32825.57074136385
-77278.9436315231,-10359.698278867994,-30382.748589843344,-32853.73393937754
-79406.0473926124,-10512.561859197838,-30551.28074303636,-32763.74581620048
-80725.89555095382,-10446.266585143398,-30460.84558497019,-32724.71967038151
-80263.90734480707,-10340.945165269992,-30326.37749032706,-32757.733196942
-78108.86390314864,-10230.54989940523,-30215.691651784386,-32824.36374716327
-77302.16709401215,-10357.28429046682,-30372.735008327367,-32846.290808473925
-79454.79654726942,-10519.89323137918,-30539.724891152968,-32762.04708362187
-80734.97035920268,-10460.616405083703,-30449.51325053135,-32725.300815737348
-80242.85200153018,-10344.05205774928,-30310.932434908445,-32750.15595557165
-78073.88342307608,-10236.40605645252,-30211.44482033787,-32825.3472239193
-77338.42162351866,-10375.43390696453,-30379.038200263763,-32847.58720965233
-79517.71670791111,-10529.839757661792,-30548.82205114628,-32761.62240047722
-80756.69625481323,-10450.222843911988,-30460.376198336628,-32729.100612294747
-80224.70238503246,-10323.466101105942,-30320.09665013512,-32748.792499159877
-78037.11480344711,-10226.16895749199,-30209.79079124818,-32818.37347964924
-77371.88218496826,-10365.107401026178,-30377.69709559645,-32843.854468328296
-79565.34827534536,-10520.496728479471,-30539.56842894178,-32756.19092657458
-80768.38621716335,-10429.748645990929,-30445.17701210702,-32719.06467903432
-80210.77724823682,-10318.682827792503,-30309.747792452312,-32750.15595557165
-78003.72129723088,-10223.151471990524,-30207.376802847008,-32820.631005839234
-77404.62749059529,-10369.689508639516,-30382.323906698693,-32839.585285137335
-79610.7446683341,-10512.450100475562,-30534.204010272508,-32752.033502105893
-80779.13740624636,-10433.101407659222,-30441.623084738625,-32724.11617328121
-80185.81034968024,-10322.102644694169,-30312.586463998137,-32758.984894631496
-77964.76220664528,-10247.447818213444,-30214.618768050525,-32830.93516003313
-77438.4233282117,-10387.883828626136,-30387.353049201138,-32840.613465382274
-79660.18672706923,-10512.584210942294,-30537.601475429718,-32753.888696895683
-80788.45808368422,-10433.25786987041,-30435.990445135885,-32721.031632546383
-80163.34684650265,-10325.522461595829,-30303.17637958245,-32755.274505051915
-77932.62039811855,-10231.332210461163,-30212.16007616044,-32831.58336062233
-77483.37268631133,-10382.09472681221,-30391.77869460329,-32841.84281132732
-79725.67733832328,-10502.995312570967,-30534.65104516161,-32749.39599626017
-80805.0207263256,-10409.699131214516,-30425.46277349744,-32718.461181934024
-80140.90569506952,-10303.394234585076,-30295.219158556363,-32764.617534234232
-77896.56703431215,-10215.663637597996,-30205.946291201868,-32837.30540720289
-77522.77881178603,-10376.1491627871,-30396.584319661182,-32848.88361083074
-79760.99309456267,-10480.442402415563,-30528.549018925318,-32754.782766673896
-80811.41332523982,-10397.182154319544,-30425.21690430843,-32732.40867047413
-80110.23910167684,-10299.527382794307,-30290.99467885431,-32770.83131919281
-77860.9830571393,-10224.269059213288,-30206.996823191264,-32847.408395696686
-77559.12274827037,-10375.947997087002,-30394.25973823783,-32853.57747716636
-79808.5352550191,-10500.335454980786,-30522.737565366933,-32763.254077822457
-80818.0294415986,-10420.182099364054,-30421.03712809529,-32746.49026948098
-80083.90874670849,-10313.13959516759,-30293.363963766573,-32786.47754031152
-77834.63035042648,-10238.417713453498,-30211.668337782427,-32853.622180655264
-77615.5161995311,-10409.408558536596,-30405.882645354588,-32849.88943933123
-79878.67502911986,-10515.646399932672,-30529.577199170257,-32751.944095128078
-80834.9273604068,-10428.228727367965,-30421.64062519558,-32733.928589097097
-80057.17606033995,-10304.981208441402,-30286.412571240973,-32772.23947909349
-77799.09107674254,-10222.905602801517,-30203.487599311786,-32836.701910102594
-77655.30230466156,-10388.643787937615,-30397.813665606223,-32828.36470942077
-79910.74978241323,-10508.717359151526,-30516.702594364,-32739.76239439993
-80836.73785170769,-10413.610686494194,-30411.87291286861,-32726.01607155992
-80025.5930454246,-10288.776193711305,-30275.259050757773,-32763.365836544734
-77774.77237877517,-10217.921163787982,-30201.431238821893,-32837.10424150279
-77705.01258433015,-10403.328884044751,-30408.296633755763,-32836.59015138032
-79953.93335270087,-10503.487050948985,-30515.31678620777,-32740.164725800125
-80827.77480218111,-10411.956657404502,-30401.501703441347,-32727.401879716144
-79993.85356829806,-10296.934580437492,-30266.698332631397,-32764.6845894676
-77751.92889594185,-10234.059123284713,-30199.129009143,-32832.41037516718
-77764.42352109237,-10414.549459761318,-30408.475447711404,-32830.130497232734
-79997.49690264427,-10518.0827400783,-30514.735640851934,-32746.736138669985
-80829.20531382624,-10428.899279701624,-30403.20043601995,-32736.029653075893
-79958.49310856976,-10296.71106299294,-30268.75469312128,-32773.82645294982
-77725.41972701786,-10240.272908243289,-30202.70528825585,-32842.11103226078
-77803.04733551113,-10424.987724421946,-30408.40839247804,-32833.19268622311
-80033.81848738414,-10507.845641117769,-30511.51698965037,-32744.32215026881
-80837.45310753025,-10416.069378384278,-30403.468656953417,-32732.4757257075
-79931.04516637864,-10310.882068977604,-30271.235736755814,-32770.496043025974
-77705.12434305243,-10255.047411328247,-30213.16590466093,-32842.379253194245
-77857.51853674871,-10424.719503488484,-30421.819439151222,-32827.60475010929
-80092.26829913477,-10511.645437675172,-30518.535437409337,-32743.159859557138
-80852.31701759303,-10411.39786379312,-30403.647470909054,-32733.39214723017
-79906.41354398889,-10296.576952526208,-30271.213385011364,-32773.62528724972
-77686.6841538768,-10235.176710507478,-30211.82479999361,-32841.23931422702
-77911.16272344145,-10418.01398015189,-30421.9311978735,-32822.866180284764
-80127.919331541,-10504.403472471651,-30509.86296056068,-32736.946074598563
-80845.49973553416,-10402.971256133467,-30391.15284575854,-32725.45727794853
-79874.31643895108,-10294.252371102855,-30258.20466973837,-32764.326961556315
-77661.35962740894,-10237.478940186376,-30206.616843535525,-32829.68346234363
-77947.3949012035,-10416.583468506751,-30416.43266873749,-32810.03627896742
-80154.98729407636,-10498.502611935452,-30501.65987034558,-32731.961635585027
-80844.56096226705,-10409.833241681248,-30386.280165467284,-32729.23472276148
-79837.90544723338,-10302.053129917756,-30253.39904468048,-32772.23947909349
-77632.63763578387,-10255.293280517257,-30209.097887170064,-32842.69217761662
-77990.93609940245,-10430.240384368944,-30418.73489841639,-32813.79137203591
-80190.63832648259,-10501.65420790365,-30494.46260863097,-32727.088955293773
-80839.1294883644,-10413.901259172111,-30379.664049108516,-32723.892655836666
-79796.53236824661,-10299.236810116388,-30247.69934984438,-32769.37845580321
-77596.36075453291,-10252.901643860538,-30206.259215624243,-32840.52405840445
-78025.44719284144,-10455.251986414432,-30431.542447989283,-32824.56491286337
-80210.95606219245,-10512.763024897937,-30504.342079680217,-32736.454336220544
-80829.16061033733,-10406.793404435326,-30383.55325264374,-32726.95484482704
-79741.323559442,-10290.452574545452,-30253.17552723593,-32773.55823201635
-77562.11788202738,-10262.669356187504,-30224.721756544324,-32849.509459675486
-78068.85428057365,-10454.44732361404,-30442.51715451684,-32820.87687502824
-80246.65179808758,-10512.74067315348,-30504.94557678051,-32736.6778536651
-80822.05275560055,-10418.639828996638,-30387.84478757916,-32737.63897867668
-79704.57729155748,-10299.03564441629,-30256.93062030442,-32779.190871619096
-77529.05965197798,-10259.048373585749,-30222.821858265623,-32844.905000317696
-78097.15158905406,-10454.044992213843,-30441.801898694262,-32818.64170058271
-80266.63425763062,-10505.69987365006,-30494.95434700899,-32731.04521406236
-80816.59892995346,-10413.007189393902,-30374.54549962825,-32729.86057160623
-79666.02053237207,-10308.311618365244,-30246.872335299533,-32780.30845884186
-77504.8974162218,-10262.535245720774,-30223.939445488388,-32847.72132011906
-78147.48771756742,-10455.341393392251,-30447.03220689681,-32816.07124997035
-80307.40383951711,-10498.45790844654,-30497.390687154617,-32730.48642045098
-80818.96821486572,-10415.175308606063,-30378.032371763275,-32733.34744374126
-79624.82626734093,-10307.506955564852,-30248.012274266755,-32784.66704901064
-77471.57096523893,-10278.51674300632,-30224.8335152666,-32854.404491711204
-78181.61883135067,-10479.88360880418,-30452.955419177462,-32822.57560760684
-80330.33672932825,-10527.1351965827,-30501.793980812312,-32743.741004912976
-80800.90800534583,-10414.527108016862,-30374.187871716964,-32741.48347872299
-79555.15587987374,-10296.241676359376,-30242.156117219463,-32791.283165369416
-77430.28729322998,-10263.496370732351,-30228.54390484618,-32857.5560876794
-78208.84325609723,-10454.35791663622,-30451.614314510145,-32820.139267461214
-80348.32988361477,-10486.723242607504,-30490.17107369555,-32733.70507165254
-80789.39685695134,-10372.90815984108,-30365.314229168205,-32736.05200482035
-79511.88290260827,-10259.473056730398,-30234.780041549213,-32786.90222345617
-77398.74898180354,-10238.797693109238,-30223.291244899185,-32848.950666064105
-78248.24938157194,-10434.487215815452,-30446.40635805206,-32809.522188844945
-80367.88766001316,-10481.31412044932,-30480.38100962413,-32728.20654251654
-80775.47172015569,-10385.268674524865,-30357.736987797856,-32731.35813848473
-79459.53511709394,-10254.578024694683,-30221.36899487603,-32773.15590061616
-77372.23981287955,-10237.41188495301,-30215.71400352884,-32835.20434322409
-78299.30076590786,-10436.744742005438,-30444.707625473457,-32795.597052049285
-80397.59312839426,-10479.615387870715,-30476.02241945534,-32721.925702324595
-80757.81384203599,-10389.739023415928,-30355.479461607876,-32732.29691175186
-79410.85301767028,-10265.731545177883,-30219.379689619505,-32783.236537365505
-77346.06592012238,-10245.07853330118,-30214.17173316142,-32849.93414282014
-78334.6388738917,-10448.032372955367,-30441.936009161,-32804.64950855369
-80422.49297171748,-10476.799068069347,-30470.948573463986,-32730.5758274288
-80752.71764430018,-10366.582616160227,-30344.035368446755,-32738.19777228806
-79343.14958371516,-10241.1669780215,-30208.1814656474,-32787.6398310232
-77310.79486737191,-10243.55861467822,-30222.84421001008,-32854.44919520011
-78373.9555923886,-10453.329736391275,-30455.8387942122,-32811.265624912456
-80440.30731204836,-10486.209152485031,-30475.865957244157,-32734.934417597586
-80744.91688548529,-10375.612720920171,-30349.35508362712,-32738.86832462172
-79309.59961528773,-10251.78405663777,-30217.2339221518,-32791.886662469704
-77297.85320733229,-10266.916187634017,-30231.02494848072,-32853.39866321071
-78414.99339520853,-10457.285995159864,-30456.46464305695,-32794.3900578487
-80446.76696619594,-10461.711640562016,-30468.936916463008,-32712.739135353462
-80721.73812648513,-10369.95772957298,-30346.069377192187,-32722.775068613897
-79252.49090820443,-10259.204835796934,-30217.0327564517,-32776.48631054
-77286.83379731582,-10277.242693572369,-30238.579838106616,-32835.02552926845
-78469.84457610185,-10466.964300509013,-30463.75131174938,-32775.8381099508
-80479.66873403416,-10479.816553570814,-30468.57928855173,-32694.00837349992
-80716.64192874932,-10369.421287706053,-30339.833240489155,-32701.540911381355
-79214.93997751952,-10242.284565244268,-30206.16980864642,-32761.801214432864
-77266.00197148348,-10254.399210739042,-30236.478774127816,-32830.488125144024
-78510.21182658814,-10455.609614325716,-30465.07006467224,-32781.38134257571
-80504.36741165727,-10471.948739522546,-30465.36063735016,-32717.075373777792
-80712.03746939152,-10373.265787752363,-30335.206429386908,-32733.39214723017
-79174.90800320006,-10251.202911281933,-30201.475942310804,-32791.8419589808
-77270.11469246325,-10271.498295247353,-30234.89180027149,-32857.757253379496
-78571.47795814014,-10463.388021396164,-30463.75131174938,-32805.09654344279
-80533.60349340481,-10463.87975977418,-30461.58319253721,-32731.872228607208
-80705.33194605494,-10367.543741171809,-30338.849763733124,-32751.273542794414
-79127.34349099916,-10253.236920027366,-30207.510913313738,-32809.7457062895
-77263.36446563774,-10265.508027733327,-30245.955913776867,-32865.31214300539
-78621.32234827547,-10468.193646454054,-30477.050599700287,-32805.52122658744
-80558.19041230564,-10468.081887731778,-30472.155567664573,-32736.6778536651
-80704.16965534326,-10364.1462760146,-30343.834202746657,-32749.19483056007
-79098.50974065182,-10242.485730944363,-30210.371936604017,-32800.60384280728
-77273.0874744758,-10277.712080205927,-30259.098739516587,-32860.21594526958
-78675.01123845711,-10467.321928420297,-30486.97477423844,-32795.97703170503
-80589.54990977644,-10462.203378940032,-30478.88344274562,-32726.32899598229
-80702.60503323139,-10350.33289794122,-30349.042159204742,-32739.40476648865
-79060.66823728899,-10230.684009871962,-30210.863674982036,-32790.65731652467
-77281.24586120198,-10274.538132493271,-30261.400969195485,-32845.57555265135
-78748.48142248171,-10471.904036033637,-30484.44902711499,-32787.03633392291
-80618.87539850181,-10460.795219039348,-30467.908736218065,-32721.702184880043
-80700.68278320823,-10357.396049189098,-30339.989702700343,-32732.006339073934
-79029.28638807373,-10248.878329858582,-30211.82479999361,-32793.7418572595
-77289.58306188382,-10290.51962977882,-30266.98890530931,-32847.475450930055
-78814.57553083605,-10483.50459140594,-30489.12054170615,-32783.01301992095
-80657.23099198712,-10451.608652068217,-30463.8407187272,-32713.34263245376
-80693.1949488157,-10345.549624627783,-30333.35123459712,-32725.5243331819
-78983.35355321808,-10231.488672672353,-30205.49925631276,-32784.130607143714
-77298.9484428106,-10277.823838928203,-30269.02291405474,-32834.24321821251
-78866.96801983929,-10472.999271511946,-30484.87371025964,-32763.90227841166
-80675.02298057354,-10454.15675093612,-30458.811576224754,-32695.550643867333
-80683.65075393328,-10334.776083800329,-30334.7593944978,-32710.548664396843
-78941.39932887547,-10214.30018118622,-30210.43899183738,-32773.312362827346
-77299.17196025515,-10251.873463615591,-30276.019010069253,-32818.328776160335
-78921.2827588657,-10441.93034671907,-30487.287698660817,-32742.53401071239
-80702.4485710202,-10418.438663296542,-30456.196422123485,-32680.552623337822
-80682.06378007696,-10311.239696888888,-30331.585446785142,-32703.26199570441
-78908.38580231498,-10201.49263161333,-30207.689727269382,-32769.937249414594
-77322.30601576639,-10258.668393930006,-30287.32899276364,-32821.480372128535
-79005.63824244002,-10446.892433988149,-30492.94269000801,-32746.177345058604
-80744.69336804072,-10419.39978830812,-30449.803823209262,-32688.17456819708
-80685.70711442317,-10315.642990546585,-30323.360004825598,-32711.643899875155
-78873.5170809647,-10206.454718882407,-30199.01725042072,-32776.62042100673
-77334.5994752168,-10258.55663520773,-30278.90238510399,-32820.67570932814
-79052.0628156737,-10446.288936887851,-30485.90189050459,-32744.791536902376
-80764.72053107269,-10415.555288261809,-30441.19840159397,-32684.95591699552
-80682.10848356587,-10309.56331605474,-30318.62143500107,-32716.09189702176
-78842.358749194,-10196.262323410789,-30194.74806722976,-32777.782711718406
-77355.23013534906,-10255.36033575062,-30281.025800827243,-32822.866180284764
-79122.98490083039,-10433.883718715158,-30487.198291682995,-32752.39113001718
-80800.79624662355,-10396.176325819057,-30435.49870675787,-32689.694486820044
-80675.98410558511,-10283.523533764308,-30304.942167394423,-32706.212425972517
-78802.30442313009,-10170.960148687382,-30180.286488567173,-32767.74677845797
-77372.88801346875,-10248.431294969476,-30273.98500132382,-32811.265624912456
-79185.99446844989,-10441.50566357442,-30492.0486202298,-32739.67298742211
-80828.75827893714,-10390.00724434939,-30444.84173594019,-32686.69935306303
-80675.6935329072,-10270.738335935872,-30314.19578959892,-32711.040402774863
-78769.20148959178,-10159.538407270718,-30184.846244436056,-32769.49021452549
-77394.70331605713,-10247.805446124728,-30289.78768465372,-32811.93617724612
-79240.68918713203,-10424.048951154822,-30495.535492364823,-32731.08991755127
-80852.67464550432,-10382.318244256763,-30441.421919038527,-32675.970515724483
-80671.55846018296,-10285.781059954294,-30308.607853485093,-32701.451504403536
-78746.335655014,-10178.336224357632,-30186.142645614465,-32766.182156346105
-77423.69352861567,-10244.340925734154,-30289.295946275703,-32800.93911897411
-79309.46550482101,-10422.864308698692,-30488.80761728378,-32725.546684926358
-80880.70373305127,-10374.91981684206,-30432.12359334512,-32679.07740820377
-80666.35050372488,-10268.100830090145,-30304.584539483138,-32702.88201604868
-78707.9800615287,-10150.374192044044,-30185.06976188061,-32765.95863890155
-77443.36306373634,-10250.88998685956,-30298.549568480204,-32803.46486609756
-79356.2253542215,-10408.782709691848,-30489.47816961744,-32714.214350487517
-80898.67453559334,-10359.251243978888,-30427.69794794297,-32664.41466384109
-80654.07939601892,-10250.822931626191,-30298.28134754674,-32691.348515909736
-78674.25127914564,-10145.546215241697,-30177.35841004353,-32756.52620274141
-77476.01896238554,-10250.88998685956,-30297.02964985724,-32794.81474099335
-79426.96862542255,-10429.30161110182,-30491.333364407223,-32712.56032139782
-80933.92323659937,-10388.308511770789,-30427.474430498416,-32667.968591209483
-80662.50600367857,-10279.209647084434,-30297.27551904625,-32694.23189094447
-78656.54869753703,-10165.618081762565,-30180.241785078262,-32756.19092657458
-77514.1510384263,-10259.964795108412,-30304.96451913888,-32788.91388045715
-79499.4106292022,-10412.895430671624,-30488.874672517144,-32708.067620762304
-80969.0601788831,-10359.742982356904,-30420.813610650734,-32666.538079564343
-80655.4875559196,-10247.179597279975,-30289.98885035382,-32692.153178710127
-78618.37191800737,-10147.110837353568,-30178.9230321554,-32759.29781905387
-77543.94591378521,-10253.326327005188,-30310.172475596963,-32793.518339814946
-79560.85557470984,-10418.72923597446,-30499.22353019995,-32718.75175461194
-80994.89879547343,-10356.949014299991,-30426.334491531197,-32677.781007025365
-80663.31066647895,-10253.572196194196,-30301.83527491513,-32713.454391176037
-78605.40790622329,-10152.765828700762,-30186.54497701466,-32777.089807640295
-77589.63287945186,-10268.74903067935,-30321.46010654689,-32809.27631965594
-79636.13625003533,-10442.980878708468,-30504.498541891404,-32731.380490229192
-81032.65089185844,-10398.76912817587,-30429.9331223885,-32691.639088587654
-80651.62070412883,-10258.467228229909,-30291.933452121437,-32706.79357132835
-78571.67912384024,-10154.10693336808,-30177.179596087888,-32774.273487838924
-77628.83783922647,-10259.987146852867,-30320.722498979867,-32805.25300565398
-79704.44318109074,-10418.438663296542,-30499.201178455496,-32721.769240113408
-81060.16588928293,-10364.213331247964,-30415.896226870565,-32680.95495473802
-80647.95501803816,-10257.84137938516,-30284.959707851376,-32709.878112063187
-78549.41678636275,-10151.804703689182,-30172.977468130288,-32773.71469422754
-77666.25465944466,-10272.280606303288,-30317.0568128892,-32792.668973525644
-79761.39542596287,-10422.417273809586,-30490.483998117925,-32700.75860032542
-81078.06963659164,-10351.741057841904,-30407.78254363329,-32662.04537892883
-80639.50605863406,-10247.201949024433,-30279.88586186002,-32695.75180956743
-78523.53346628351,-10146.95437514238,-30172.26221230772,-32766.226859835013
-77698.70939239376,-10268.436106256975,-30324.745812981822,-32792.959546203565
-79818.1465051349,-10412.403692293608,-30492.76387605237,-32707.46412366201
-81100.10845662457,-10346.62250836164,-30403.11102904213,-32669.04147494334
-80630.94534050768,-10230.639306383053,-30274.834367613123,-32701.29504219235
-78502.36636428433,-10128.96122085586,-30168.328305283583,-32771.36776105974
-77753.53822154262,-10268.860789401626,-30332.926551452467,-32795.194720649095
-79885.69347687882,-10415.711750472994,-30493.725001063944,-32704.491341649456
-81124.96359645887,-10345.303755438776,-30401.34524123016,-32668.907364476607
-80617.86957000132,-10242.93276583347,-30276.37663798054,-32702.47968464848
-78466.80473885594,-10140.695886694895,-30172.44102626336,-32764.617534234232
-77784.47303586877,-10278.94142615097,-30334.938208453445,-32783.236537365505
-79941.30461708363,-10424.428930810564,-30493.635594086125,-32699.23868170246
-81142.397957134,-10348.47770315143,-30401.21113076343,-32668.214460398493
-80607.14073266277,-10223.553803390718,-30272.48743444532,-32699.082219491276
-78444.14006997825,-10123.86502312005,-30173.31274429712,-32771.68068548211
-77831.61286492502,-10272.88410340358,-30343.29776087973,-32789.09269441279
-80002.34723119107,-10402.971256133467,-30494.730829564432,-32695.438885145057
-81166.31432370118,-10327.71293255245,-30397.411334206023,-32664.213498140994
-80595.83074996839,-10227.331248203664,-30268.70998963237,-32700.490379391955
-78426.34808139183,-10134.772674414238,-30172.84335766356,-32771.412464548644
-77885.0335341732,-10273.688766203972,-30340.59319980064,-32779.6379065082
-80055.67849346144,-10415.845860939726,-30487.62297482765,-32693.337821166257
-81182.85461459811,-10346.644860106097,-30393.052744037243,-32666.716893519988
-80594.08731390088,-10243.98329782287,-30268.66528614346,-32708.15702774013
-78414.47930508606,-10142.14875008449,-30172.50808149673,-32777.44743555158
-77933.46976440786,-10281.51187676333,-30343.07424343517,-32785.91874670014
-80114.93296801245,-10416.851689440216,-30484.583137581725,-32696.221196200997
-81202.23357704087,-10325.365999384643,-30384.71554335541,-32663.207669640506
-80573.9707438911,-10220.1116347446,-30256.595344137597,-32696.42236190109
-78389.73592397403,-10145.188587330413,-30166.987200616262,-32771.32305757082
-77981.41425626448,-10292.061900146236,-30345.62234230308,-32777.514490784946
-80162.20690753542,-10404.82645092326,-30478.101131689684,-32678.630373314667
-81222.05957437272,-10329.679886064516,-30387.48715966787,-32661.352474850715
-80571.71321770111,-10225.07372201368,-30262.40679769597,-32700.356268925225
-78384.14798786021,-10150.217729832855,-30168.618877961504,-32766.69624646857
-78039.64055057056,-10300.734376994897,-30341.82254574568,-32768.50673776946
-80228.5915885677,-10409.565020747785,-30470.32272461924,-32681.424341371578
-81245.75242349535,-10329.970458742437,-30372.0197525048,-32656.23392537045
-80558.25746753902,-10229.856995327114,-30242.46904164184,-32691.259108931918
-78364.76902541745,-10146.708505953373,-30155.3195900106,-32761.24242082148
-78093.46355121894,-10288.977359411405,-30338.38037709956,-32761.64475222168
-80285.16385378408,-10402.837145666736,-30471.105035675173,-32677.065751202797
-81260.95160972496,-10339.604060602673,-30370.9692205154,-32661.665399273086
-80544.75701388801,-10239.423541953987,-30245.39712016548,-32701.540911381355
-78355.98478984652,-10154.86689267956,-30161.935706369368,-32772.038313393394
-78153.27681938134,-10304.534173552296,-30349.086862693654,-32774.74287447249
-80345.37945334667,-10415.622343495172,-30472.44614034249,-32694.366001411203
-81275.74846455437,-10334.083179722213,-30367.66116233601,-32672.193070911537
-80519.72306009807,-10208.77930030576,-30231.7849077922,-32700.04334450285
-78329.60973138925,-10140.226500061332,-30159.9687528573,-32775.34637157278
-78199.83550308175,-10313.161946912043,-30360.754473299323,-32779.50379604147
-80392.54163414736,-10424.719503488484,-30480.090436946208,-32694.589518855755
-81292.64638336259,-10338.66528733555,-30376.624211862592,-32676.730475035965
-80510.67060359367,-10229.208794737911,-30249.979227778826,-32717.008318544427
-78321.33958594079,-10158.264357836766,-30183.393381046462,-32794.546520059885
-78260.98987591146,-10326.863566263148,-30383.44149392146,-32791.66314502515
-80456.02058840044,-10413.58833474974,-30492.339192907715,-32699.886882291663
-81311.71242138297,-10313.65368529006,-30374.836072306167,-32677.110454691705
-80484.98844921452,-10208.511079372296,-30239.83153579611,-32714.79549584335
-78293.01992571593,-10142.86400590706,-30173.6703722084,-32786.85751996726
-78297.06559146233,-10303.774214240815,-30366.49887162434,-32771.770092459934
-80495.60552783079,-10400.691378199028,-30476.245936899893,-32687.146387952136
-81316.47334295194,-10318.682827792503,-30369.024618747782,-32675.14350117964
-80461.40735881416,-10212.757910818806,-30235.07061422713,-32714.23670223197
-78267.29306784786,-10156.20799734688,-30165.802558160136,-32781.426046064626
-78340.47267919454,-10336.541871612297,-30364.55426985673,-32769.08788312529
-80532.9105893267,-10418.706884230003,-30464.332457105214,-32679.90442274862
-81313.23234000592,-10302.254295617857,-30350.830298761168,-32658.26793411588
-80418.1790850376,-10187.187515161932,-30219.960834975343,-32697.09291423475
-78234.3689482652,-10139.95827912787,-30168.238898305764,-32771.81479594884
-78382.38220004823,-10331.33391515421,-30378.14413048555,-32764.75164470097
-80573.5684124909,-10418.997456907924,-30467.57346005124,-32679.971477981984
-81315.55692142928,-10318.392255114586,-30349.288028393752,-32670.628448799667
-80392.60868938074,-10203.459585125398,-30223.715928043835,-32715.935434810573
-78207.72566887447,-10149.793046688204,-30170.295258795653,-32783.84003446579
-78415.17220916417,-10319.554545826262,-30377.00419151833,-32767.925592413616
-80608.63829954127,-10402.300703799809,-30472.13321592012,-32689.94035600905
-81329.19148554701,-10320.314505137743,-30362.922592511488,-32683.212480928003
-80367.50768035742,-10212.3108759297,-30229.952064746867,-32727.4242314606
-78184.21163370748,-10154.53161651273,-30174.83266292008,-32794.74768575998
-78468.05643654543,-10349.438828163007,-30381.519243898303,-32777.5368425294
-80656.13575650881,-10434.889547215647,-30465.248878627885,-32688.442789130542
-81339.2497705519,-10336.608926845662,-30352.70784529541,-32679.122111692683
-80346.85466848072,-10226.750102847827,-30218.75384077476,-32720.94222556856
-78167.04549396581,-10187.411032606487,-30169.244726806253,-32785.739932744495
-78517.45379179166,-10388.129697815144,-30386.369572445103,-32765.489252267987
-80687.36114351287,-10446.73597177696,-30463.281925115814,-32678.496262847933
-81336.00876760588,-10331.602136087671,-30346.67287429248,-32668.437977843045
-80304.27459529336,-10217.094149243136,-30212.27183488272,-32708.4699521625
-78148.8958774681,-10168.34499458611,-30174.11740709751,-32779.459092552555
-78560.5926585904,-10347.829502562226,-30388.69415386846,-32751.18413581659
-80720.48642879563,-10409.565020747785,-30459.45977681396,-32661.911268462096
-81339.2497705519,-10315.933563224502,-30341.42021434548,-32657.776195737864
-80285.07444680625,-10199.503326356808,-30209.65668078145,-32706.525350394888
-78123.41488878905,-10156.051535135692,-30172.19515707435,-32778.900298941175
-78593.18150200623,-10350.802284574782,-30392.270432981302,-32754.939228885083
-80746.2579901526,-10404.62528522316,-30460.443253569996,-32669.55556506581
-81334.44414549401,-10306.545830553274,-30341.844897490133,-32666.98511445345
-80245.71302482045,-10195.211791421389,-30214.41760235043,-32717.47770517799
-78099.9902605999,-10169.172009130956,-30189.0260206492,-32794.74768575998
-78636.78975543854,-10353.66330786506,-30410.531808201293,-32766.96446740204
-80779.85266206892,-10417.321076073777,-30476.8941374891,-32683.74892279493
-81331.449011737,-10315.955914968958,-30360.06156922121,-32681.06671346029
-80210.59843428117,-10194.407128620998,-30229.10269845757,-32728.47476345
-78070.35184745216,-10164.276977095244,-30198.34669808706,-32794.52416831543
-78667.05401743103,-10344.879072294125,-30415.60565419265,-32758.29199055338
-80797.15291227734,-10399.462032253983,-30472.42378859804,-32674.27178314588
-81314.12640978413,-10297.627484515606,-30350.58442957216,-32671.366056366693
-80158.40711097802,-10175.29638711171,-30220.810201264645,-32719.824638345795
-78032.13036443357,-10148.831921676629,-30192.870520695516,-32784.89056645519
-78698.74879106865,-10337.95003151298,-30410.82238087921,-32747.09376658127
-80828.33359579249,-10393.807040906791,-30466.567631550748,-32665.75576850841
-81320.0943255537,-10286.451612287952,-30347.701054537425,-32668.348570865222
-80123.9630727724,-10171.273073109756,-30218.50797158575,-32716.29306272186
-78008.66103275551,-10155.850369435591,-30205.49925631276,-32783.32594434333
-78742.66996892334,-10355.742020099404,-30427.228561309406,-32746.065586336328
-80856.586200784,-10402.546572988818,-30471.8426432422,-32665.353437108213
-81310.05839229327,-10277.667376717018,-30351.143223183542,-32664.57112605228
-80074.23044135934,-10171.384831832032,-30224.386480377496,-32714.549626654345
-77974.06053233868,-10153.592843245608,-30212.808276749645,-32782.72244724303
-78777.35987631796,-10349.95291828548,-30437.30919805875,-32744.32215026881
-80882.2460034187,-10387.995587348412,-30477.11765493365,-32658.156175393604
-81304.73867711291,-10293.447708302465,-30358.20637443142,-32665.64400978613
-80025.16836227995,-10183.54418081572,-30227.851000768067,-32717.09772552225
-77942.70103486789,-10162.041802649714,-30218.86559949704,-32780.375514075226
-78809.16640867788,-10343.85089204918,-30433.822325923724,-32724.540856425865
-80901.78142807263,-10383.882866368636,-30467.59581179569,-32644.588666509237
-81298.61429913215,-10282.115373863624,-30351.590258072647,-32655.921000948078
-79981.91773675891,-10159.001965403791,-30211.22130289332,-32703.194940471047
-77912.34736589759,-10149.614232732563,-30211.601282549054,-32768.283220324905
-78847.8125748411,-10350.936395041514,-30439.052634126263,-32718.5729406563
-80922.85912309398,-10386.743889658916,-30464.846547227688,-32636.38557629413
-81274.65322907607,-10270.827742913692,-30336.927513709965,-32639.55952400679
-79924.80902967561,-10150.396543788498,-30208.516741814223,-32693.159007210616
-77888.72157200832,-10136.136130826011,-30208.8296662366,-32754.559249229344
-78889.69974395035,-10325.94714474048,-30432.570628234225,-32706.748867839444
-80949.39064376244,-10361.776991102335,-30456.844622712688,-32632.429317525544
-81280.24116518989,-10266.245635300354,-30337.17338289897,-32640.051262384804
-79889.06859029157,-10135.711447681362,-30202.615881278027,-32686.18526294056
-77874.12588287902,-10138.14778782699,-30209.25434938125,-32750.982970116496
-78933.46445959383,-10337.346534412687,-30437.68917771449,-32704.670155605098
-80984.95226919082,-10355.80907533277,-30458.051616913275,-32632.116393103173
-81282.11871172414,-10257.573158451696,-30330.132583395556,-32642.956989163995
-79852.67995031834,-10149.278956565731,-30201.36418358853,-32699.506902635923
-77862.83825192908,-10149.502474010287,-30213.90351222796,-32763.67876096711
-78987.6897916424,-10346.063714750257,-30442.718320216933,-32720.09285927926
-81015.28358641668,-10351.80811307527,-30462.32080010424,-32648.41081481109
-81277.51425236634,-10251.247614770844,-30338.02274918828,-32660.905439961607
-79815.26313010015,-10138.706581438371,-30208.293224369678,-32715.37664119919
-77849.0695773446,-10147.736686198316,-30227.80629727916,-32773.781749460904
-79020.0551176137,-10355.563206143765,-30453.000122666377,-32723.6244349032
-81025.11835397701,-10371.209427262476,-30461.22556462593,-32646.57797176576
-81266.71835979442,-10249.660640914515,-30334.80409798671,-32646.063881643284
-79772.3254290015,-10125.988438843304,-30197.474980053303,-32691.124998465184
-77840.66532142942,-10157.884378181026,-30225.63817806699,-32754.69335969608
-79074.19104268444,-10357.999546289391,-30453.35775057766,-32694.32129792229
-81056.96958982582,-10372.48347669643,-30456.8893262016,-32614.92790161704
-81275.16731919853,-10276.706251705438,-30328.38914732804,-32626.751974433897
-79750.48777466867,-10156.900901424991,-30193.563424773627,-32680.08323670426
-77847.63906569948,-10177.889189468526,-30223.20183792136,-32744.65742643564
-79133.80314514675,-10375.791534875814,-30450.720244731936,-32693.382524655168
-81092.53121525422,-10385.469840224963,-30450.83200345421,-32626.59551222271
-81272.55216509727,-10268.950196379446,-30323.650577503515,-32638.7548612064
-79711.90866373881,-10143.065171607155,-30189.78597996068,-32691.46027463201
-77846.85675464354,-10163.740535228317,-30228.92388450192,-32751.45235675005
-79186.15093066108,-10370.583578417729,-30456.41993956804,-32696.668231090094
-81122.7507737578,-10380.53010470034,-30452.575439521726,-32632.630483225643
-81268.2829819063,-10267.027946356293,-30324.52229553727,-32646.93559967704
-79684.39366631432,-10150.351840299589,-30194.39043931847,-32704.42428641609
-77859.9772286388,-10178.179762146445,-30237.708120072857,-32764.259906322943
-79254.3013995053,-10387.548552459306,-30463.438387327005,-32705.94420503905
-81159.38528292005,-10384.307549513289,-30452.910715688555,-32637.659625728087
-81272.70862730844,-10263.116391076612,-30324.835219959645,-32649.68486424504
-79642.26062801607,-10143.86983440755,-30196.02211666371,-32705.832446316774
-77854.97043788081,-10175.765773745272,-30246.29118994369,-32760.79538593237
-79307.02916467538,-10362.80517134728,-30468.02049494034,-32696.46706539
-81196.24330952685,-10359.072430023243,-30453.625971511123,-32634.44097452652
-81283.25865069135,-10238.328306475676,-30317.257978589296,-32647.4049863106
-79613.2480637131,-10125.139072554002,-30181.985221145776,-32707.28530970637
-77857.40677802644,-10163.2487968503,-30239.07157648463,-32764.72929295651
-79363.82494733631,-10359.2959474678,-30461.27026811484,-32698.23285320197
-81221.05374587224,-10354.71383985446,-30438.247971325876,-32633.926884404053
-81271.52398485232,-10247.805446124728,-30306.104458106096,-32649.953085178506
-79560.18502237619,-10124.87085162054,-30170.51877624021,-32709.408725429625
-77853.4728710023,-10178.179762146445,-30238.02104449523,-32768.43968253609
-79416.01627063946,-10373.154029030087,-30460.0409221698,-32703.887844549165
-81247.51821130732,-10363.72159286995,-30435.565761991234,-32642.97934090845
-81265.66782780502,-10252.007574082323,-30305.880940661544,-32658.17852713806
-79530.09957433934,-10127.396598743988,-30175.54791874265,-32712.51561790891
-77874.61762125703,-10180.705509269896,-30246.69352134389,-32760.81773767683
-79479.3611144258,-10376.707956398484,-30466.455872828472,-32691.527329865377
-81268.90883075105,-10357.798380589293,-30438.31502655924,-32633.904532659595
-81260.63868530258,-10256.969661351402,-30314.41930704347,-32659.67609401657
-79500.99760305854,-10143.713372196362,-30184.890947924967,-32720.31637672381
-77888.60981328605,-10204.174840947968,-30251.7897190797,-32763.567002244832
-79541.56601924491,-10392.510639728383,-30464.578326294224,-32694.65657408912
-81305.38687770211,-10366.269691737854,-30430.469564255425,-32633.45749777049
-81259.8787259911,-10259.517760219307,-30303.73517319384,-32654.401082325112
-79466.12888170825,-10150.463599021865,-30183.572195002103,-32725.09965003725
-77895.5835575561,-10200.352692646107,-30257.71293136036,-32773.3347145718
-79588.39292387878,-10388.800250148804,-30465.91943096154,-32697.964632268508
-81316.2945289963,-10363.922758570046,-30425.64158745308,-32636.47498327196
-81242.73493799388,-10264.41279225502,-30300.67298420346,-32657.060939915296
-79417.96087240707,-10140.897052394994,-30171.435197762872,-32713.14146675366
-77902.78081927072,-10218.144681232534,-30258.38348369402,-32762.15884234415
-79645.300465262,-10410.704959715003,-30470.61329729716,-32688.12986470817
-81340.0991368412,-10378.406688977086,-30426.759174675844,-32632.02698612535
-81238.28694084728,-10260.992975353358,-30301.7011644484,-32656.03275967035
-79382.68981965659,-10136.896090137494,-30172.06104660762,-32716.40482144413
-77919.94695901239,-10204.264247925788,-30252.46027141336,-32759.36487428724
-79704.77845725758,-10405.944038146024,-30462.7901867378,-32686.989925740952
-81376.66659077008,-10379.501924455397,-30418.9807676054,-32630.46236401348
-81241.14796413756,-10268.88314114608,-30289.13948406452,-32655.98805618144
-79360.87451706821,-10153.078753123136,-30164.617915704,-32722.976234314
-77951.41821520546,-10233.254460484322,-30261.959762806862,-32770.5854500038
-79768.99501907767,-10411.82254693777,-30462.991352437897,-32692.019068243397
-81401.32056490428,-10373.556360430284,-30412.141133802077,-32640.61005599619
-81237.21405711342,-10271.74416443636,-30289.497111975805,-32670.80726275531
-79336.28759816737,-10159.58311075963,-30170.9211076404,-32736.879019365195
-77972.47355848236,-10225.78897783625,-30267.458291942872,-32772.954734916064
-79820.13581039141,-10409.0062271364,-30467.77462575133,-32694.410704900118
-81418.35259417923,-10362.961633558469,-30408.654261667045,-32637.391404794624
-81231.0226238993,-10242.284565244268,-30277.22600426984,-32658.290285860337
-79298.89312969365,-10125.42964523192,-30152.97265684279,-32720.830466846284
-77986.21988132238,-10218.30114344372,-30259.52342266124,-32760.10248185426
-79873.33296219504,-10403.373587533664,-30457.98456167991,-32684.531233850867
-81453.8695161187,-10379.81484887777,-30410.68827041248,-32641.16884960757
-81235.33651057917,-10261.283548031275,-30278.9470885929,-32655.943352692528
-79266.0584170888,-10124.177947542425,-30148.1670317849,-32709.587539385266
-78017.53467530425,-10217.809405065706,-30259.5904778946,-32744.344502013268
-79941.2152101058,-10388.777898404349,-30450.809651709755,-32658.84907947172
-81473.1814233281,-10352.836293320215,-30394.729124871392,-32618.995919107907
-81223.98182439587,-10249.772399636791,-30271.168681522453,-32646.42150955457
-79241.56090516578,-10139.354782027576,-30152.54797369814,-32712.42621093109
-78056.73963507886,-10237.903623331023,-30270.207556510875,-32748.39016775968
-80008.9856992943,-10395.215200807475,-30458.185727380005,-32661.59834403972
-81500.47290330802,-10339.715819324949,-30393.70094462645,-32618.995919107907
-81221.83605692816,-10233.276812228778,-30267.9947338098,-32651.27183810137
-79211.67662282904,-10124.557927198164,-30144.30017999413,-32711.107458008228
-78081.86299584663,-10236.74133261935,-30272.152158278488,-32744.925647369106
-80064.77565345475,-10401.138413088132,-30462.946648948982,-32663.98998069644
-81531.92180775665,-10355.160874743566,-30398.70773538444,-32624.941483133018
-81219.8243999272,-10247.403114724531,-30269.33583847712,-32648.27670434436
-79184.25103238238,-10129.564717956153,-30147.697645151336,-32711.196864986046
-78113.91539739554,-10242.55278617773,-30276.153120535982,-32742.601065945757
-80137.19530548993,-10415.82350919527,-30462.119634404145,-32658.89378296063
-81556.01698827947,-10356.949014299991,-30385.54255790026,-32614.480866727936
-81212.02364111229,-10256.187350295468,-30255.813033081657,-32641.16884960757
-79154.2773430678,-10147.937851898414,-30143.786089871657,-32707.777048084383
-78145.43135707753,-10258.534283463274,-30282.67982991693,-32738.555400199344
-80188.33609680369,-10429.458073313008,-30464.354808849672,-32655.116338147684
-81566.56701166237,-10369.644805150603,-30386.50368291184,-32615.084363828228
-81187.43672221145,-10241.189329765955,-30253.33198944712,-32643.31461707528
-79121.28616825178,-10146.730857697828,-30144.76956662769,-32714.460219676523
-78182.84817729572,-10269.598396968651,-30288.468931730866,-32746.60202820325
-80254.89959179159,-10417.455186540508,-30464.041884427297,-32660.19018413904
-81602.55332023541,-10348.432999662518,-30380.80398807573,-32618.39242200761
-81199.66312642851,-10251.962870593414,-30252.773195835736,-32649.304884589303
-79109.79737160174,-10166.78037247424,-30148.748177140737,-32721.880998835684
-78223.70716616,-10279.589626740171,-30295.397972512004,-32748.189002059586
-80325.82167694828,-10451.921576490591,-30472.960230464963,-32672.461291845
-81638.22670438609,-10391.236590294431,-30391.510473669827,-32635.98324489394
-81201.78654215176,-10272.41471677002,-30266.698332631397,-32665.666361530588
-79088.89849053604,-10171.518942298764,-30159.521717968197,-32735.18028678659
-78254.48551827497,-10295.36995832562,-30305.836237172636,-32755.743891685477
-80368.24528792445,-10440.365724607198,-30472.803768253776,-32670.40493135511
-81652.73298653758,-10370.069488295256,-30384.223804977395,-32636.206762338494
-81184.24042275434,-10260.50123697534,-30250.22509696783,-32663.766463251886
-79054.92383896396,-10159.426648548442,-30143.22729626028,-32733.593312930265
-78296.01505947293,-10288.03858614428,-30301.254129559296,-32756.660313208144
-80426.04689908588,-10436.632983283162,-30463.796015238288,-32665.93458246405
-81671.84372804686,-10366.783781860326,-30377.74179908536,-32630.060032613284
-81174.78563484974,-10265.396269011051,-30251.54384989069,-32666.11339641969
-79025.37483279406,-10153.972822901347,-30142.42263345988,-32729.86057160623
-78328.20157148858,-10278.360280795132,-30297.700202190903,-32741.662292678637
-80487.71536203807,-10428.34048609024,-30460.01857042534,-32654.311675347293
-81693.25669923505,-10367.72255512745,-30375.48427289537,-32626.37199477816
-81163.52035564427,-10272.526475492296,-30250.448614412384,-32660.77132949488
-79003.33601276112,-10173.575302788651,-30153.889078365457,-32730.508772195437
-78362.46679573855,-10284.059975631237,-30310.440696530422,-32738.60010368825
-80527.79203984643,-10416.851689440216,-30462.387855337605,-32649.12607063366
-81714.15558030076,-10360.882921324126,-30376.221880462395,-32629.0542041128
-81155.07139624016,-10249.92886184798,-30244.74891957628,-32660.50310856141
-78978.21265199335,-10159.001965403791,-30141.975598570774,-32728.921798339103
-78409.9642527061,-10306.65758927555,-30307.803190684703,-32744.6797781801
-80595.026087168,-10442.600899052728,-30461.337323348205,-32660.36899809468
-81737.46844976765,-10372.1482005296,-30366.32005766869,-32630.28355005784
-81147.15887870299,-10271.900626647548,-30238.512782873247,-32663.69940801852
-78958.05137849467,-10188.729785529353,-30142.288522993156,-32736.6778536651
-78453.8183753274,-10334.574918100228,-30316.96740591138,-32748.09959508176
-80650.32430295042,-10457.956547493524,-30462.65607627107,-32654.915172447585
-81754.88045869833,-10374.361023230676,-30367.28118268027,-32628.94244539052
-81140.09572745512,-10268.927844634993,-30239.85388754057,-32666.89570747563
-78938.22538116282,-10174.357613844588,-30145.82009861709,-32736.18611528708
-78494.76677116952,-10323.510804594853,-30324.76816472628,-32745.171516558115
-80698.15703608478,-10461.085791717269,-30463.39368383809,-32649.483698544944
-81773.67827578525,-10373.511656941371,-30358.63105757607,-32614.145590561104
-81117.87809346654,-10255.852074128636,-30230.37674789152,-32648.36611132218
-78916.58889253008,-10174.447020822408,-30144.590752672048,-32719.24349298996
-78539.38085310231,-10332.630316332616,-30326.1092693936,-32722.86447559172
-80751.60005707742,-10459.521169605396,-30463.013704182355,-32631.33408204724
-81797.08055222995,-10378.29493025481,-30364.040179734253,-32608.26708176936
-81122.63901503551,-10269.643100457562,-30233.99773049328,-32650.444823556525
-78910.91154943843,-10192.551933831208,-30149.955171341324,-32731.648711162656
-78599.32823173144,-10333.077351221724,-30335.25113287582,-32732.788650129874
-80820.75635442213,-10434.889547215647,-30465.092416416697,-32638.97837865095
-81826.9648345667,-10353.730363098426,-30362.54261285575,-32618.97356736345
-81117.22989287734,-10243.871539100594,-30233.55069560417,-32656.613905026188
-78891.13025559548,-10160.63364274903,-30150.290447508152,-32729.30177799485
-78648.32325557747,-10330.90923200956,-30341.33080736766,-32733.593312930265
-80876.9933434717,-10447.920614233091,-30470.479186830427,-32649.5060502894
-81850.43416624477,-10367.499037682896,-30364.889546023554,-32630.97645413595
-81110.3455555851,-10278.717908706416,-30237.12697471702,-32671.008428455407
-78881.74252292425,-10210.656846840007,-30161.82394764709,-32746.89260088117
-78700.6263376029,-10359.072430023243,-30355.032426718764,-32741.57288570081
-80938.05830932359,-10468.148942965145,-30476.760027022367,-32649.863678200687
-81870.72955021019,-10388.353215259698,-30369.20343270343,-32633.748070448408
-81087.81499717415,-10276.572141238708,-30239.02687299572,-32672.438940100543
-78857.78145286816,-10206.96880900488,-30167.63540120547,-32743.897467124163
-78764.01588487816,-10379.032537821837,-30371.930345526976,-32745.81971714732
-81008.17573167989,-10489.003120541944,-30491.065143473763,-32662.22419288447
-81897.23871913418,-10407.57571549126,-30383.128569499087,-32650.08719564524
-81081.62356396003,-10283.791754697771,-30254.56133539216,-32689.716838564495
-78849.48895567525,-10215.35071317562,-30184.60037524705,-32764.34931330077
-78806.64066155443,-10380.306587255787,-30379.887566553065,-32749.038368348884
-81047.29128447668,-10469.31123367682,-30484.337268392715,-32655.98805618144
-81912.86258850845,-10389.940189116023,-30376.73597058487,-32645.75095722091
-81068.79366264268,-10270.134838835578,-30242.0890619861,-32686.09585596274
-78829.88647578793,-10190.607332063595,-30176.240822820764,-32762.203545833057
-78852.93112432136,-10357.61956663365,-30381.407485176027,-32750.7818044164
-81094.78874144421,-10459.58822483876,-30487.48886436092,-32664.07938767426
-81923.56907410253,-10365.554435915285,-30371.080979237675,-32648.61198051119
-81049.43705194439,-10253.92982410548,-30239.630370096016,-32688.845120530743
-78810.70867904529,-10185.958169216892,-30178.83362517758,-32758.269638808924
-78901.99320340077,-10372.796401118803,-30383.77677008829,-32742.109327567738
-81143.29202691223,-10453.285032902364,-30480.67158230205,-32644.007521153395
-81931.25807419517,-10360.838217835217,-30371.68447633797,-32629.657701213087
-81016.35647015054,-10250.64411767055,-30244.79362306519,-32671.097835433226
-78786.7029055003,-10185.555837816695,-30184.265099080218,-32738.95773159954
-78945.60145683307,-10360.122962012643,-30388.157712001528,-32721.210446502027
-81184.2627744988,-10452.703887546526,-30482.75029453639,-32633.34573904821
-81948.58067614802,-10354.937357299012,-30367.795272802745,-32623.17569532105
-81004.53239733368,-10227.375951692577,-30238.89276252899,-32665.33108536376
-78772.33073381553,-10172.413012076977,-30181.26996532321,-32732.81100187433
-78999.13388480352,-10363.945110314502,-30393.87975858209,-32711.57684464179
-81234.10716463413,-10472.820457556303,-30490.148721951096,-32630.21649482447
-81958.90718208638,-10362.648709136094,-30371.68447633797,-32615.53139871733
-80981.15247263342,-10227.845338326137,-30230.533210102705,-32649.774271222865
-78753.4882132397,-10187.992177962326,-30178.341886799564,-32726.99954831595
-79042.58567602464,-10374.226912763945,-30393.231557992884,-32714.035536531872
-81264.72905453791,-10446.624213054683,-30473.47432058744,-32623.890951143618
-81958.90718208638,-10344.05205774928,-30355.6135720746,-32614.07853532774
-80960.29829505662,-10232.829777339672,-30226.88987575649,-32664.59347779673
-78741.46297472274,-10186.069927939168,-30181.31466881212,-32739.53887695538
-79083.19879569994,-10363.699241125494,-30396.561967916725,-32714.013184787415
-81301.72119161143,-10439.136378662157,-30479.71045729047,-32625.254407555392
-81971.96060084828,-10338.508825124363,-30361.20150818843,-32615.196122550504
-80935.51021045569,-10225.07372201368,-30224.8335152666,-32653.328198591254
-78723.3804134584,-10182.895980226514,-30183.080456624088,-32722.28333023588
-79129.51161021132,-10369.778915617337,-30400.741744129868,-32695.215367700504
-81334.91353212757,-10430.30743960231,-30473.854300243176,-32606.143666046104
-81972.47469097075,-10329.90340350907,-30352.41727261749,-32593.470226939942
-80911.21386423276,-10219.977524277869,-30224.74410828878,-32640.118317618173
-78714.5291226541,-10178.716204013372,-30187.193177603865,-32713.722612109497
-79191.8953289861,-10371.410592962577,-30409.30246225625,-32692.80137929933
-81394.2574136564,-10439.181082151066,-30485.85718701568,-32612.69272717151
-81991.71954294677,-10344.968479271947,-30365.26952567929,-32613.475038227447
-80893.26541343516,-10212.176765462968,-30227.9851112348,-32660.16783239458
-78704.73905858268,-10169.529637042242,-30188.91426192692,-32732.09574605176
-79240.42096619857,-10366.537912671318,-30406.95552908844,-32705.720687594498
-81425.54985589384,-10443.87494848668,-30471.26149788636,-32620.717003430964
-81986.84686265551,-10353.350383442688,-30351.34438888364,-32618.59358770771
-80869.10317767898,-10224.78314933576,-30217.524494829715,-32665.26403013039
-78699.82167480252,-10174.58113128914,-30184.488616524774,-32732.319263496312
-79295.69683023654,-10360.637052135116,-30405.05563080974,-32695.8188648008
-81469.51573723742,-10423.713674987994,-30466.567631550748,-32611.88806437112
-81999.20737733929,-10337.592403601697,-30347.20931615941,-32614.36910800566
-80844.51625877814,-10234.170882006989,-30218.17269541892,-32661.955971951007
-78685.31539265101,-10180.034956936235,-30185.673258980903,-32721.299853479846
-79354.81719432083,-10379.792497133314,-30409.83890412318,-32688.01810598589
-81519.38247911722,-10440.991573451944,-30464.17599489403,-32605.54016894581
-82018.98867118225,-10342.018049003846,-30342.13547016805,-32604.86961661215
-80814.49786597466,-10229.11938776009,-30211.377765104506,-32653.909343947096
-78676.06177044651,-10212.78026256326,-30196.223282363808,-32724.317338981316
-79402.87344489974,-10412.20252659351,-30424.6804624415,-32693.96367001101
-81549.87025855426,-10444.098465931233,-30469.56276530776,-32612.4468579825
-82019.860389216,-10351.986927030914,-30347.20931615941,-32614.525570216847
-80787.85458658393,-10237.814216353205,-30214.685823283893,-32664.213498140994
-78665.6682092748,-10205.046558981723,-30193.339907329075,-32729.704109395043
-79459.46806186058,-10385.58159894724,-30416.07504082621,-32690.476797875977
-81594.5066922315,-10430.039218668846,-30459.59388728069,-32612.69272717151
-82027.14705790843,-10332.540909354797,-30334.848801475626,-32616.201951050996
-80751.62240882187,-10222.391512679043,-30202.05708766664,-32662.872393473677
-78655.319351592,-10215.440120153442,-30195.731543985792,-32728.161839027627
-79524.73515567007,-10422.529032531862,-30428.90494214356,-32693.27076593289
-81638.56198055291,-10447.473579343983,-30463.46073907146,-32608.8482271252
-82034.4113748564,-10335.46898787844,-30334.088842164143,-32609.854055625685
-80734.07628942445,-10224.134948746556,-30198.79373297617,-32659.832556227757
-78659.94616269424,-10219.39637892203,-30192.71405848433,-32725.881961093182
-79559.02273166452,-10410.861421926193,-30414.53277045879,-32677.22221341398
-81640.1713061537,-10439.02461993988,-30449.870878442634,-32597.65000315309
-82016.17235138087,-10327.154138941069,-30321.638920502537,-32598.767590375854
-80694.06666684947,-10225.140777247045,-30190.7247532278,-32654.78106198085
-78641.6624357298,-10209.472204383876,-30186.79084620367,-32714.3708126987
-79617.53959864851,-10396.310436285788,-30414.80099139225,-32666.783948753357
-81692.8320160904,-10431.715599502992,-30440.59490449368,-32585.647116380587
-82040.5134010927,-10334.440807633497,-30313.43583028744,-32593.939613573508
-80677.81694863045,-10217.697646343428,-30179.928860655888,-32646.3544543212
-78649.08321488896,-10224.73844584685,-30188.02019214871,-32710.816885330307
-79661.25961080308,-10426.217070366987,-30410.665918668023,-32663.36413185169
-81727.00783336257,-10457.35305039323,-30438.806764937257,-32593.71609612896
-82046.615427329,-10351.361078186164,-30317.92853092296,-32602.701497399987
-80645.11634649233,-10230.54989940523,-30183.88511942448,-32654.714006747487
-78636.43212752725,-10227.711227859403,-30197.005593419744,-32722.082164535783
-79717.7648207861,-10422.909012187602,-30421.417107751025,-32671.90249823362
-81758.92612444474,-10447.607689810717,-30439.6337794821,-32597.20296826398
-82046.12368895099,-10355.742020099404,-30316.02863264425,-32611.97747134894
-80611.25345364255,-10233.008591295313,-30182.432256034885,-32668.057998187305
-78628.4078512678,-10229.968754049392,-30199.665451009925,-32731.35813848473
-79766.11164404293,-10434.420160582084,-30425.46277349744,-32678.876242503677
-81787.08932245843,-10457.464809115509,-30438.918523659533,-32604.40022997859
-82050.50463086422,-10363.520427169851,-30315.33572856614,-32618.45947724098
-80571.24383106755,-10237.143664019546,-30179.079494366582,-32665.867527230686
-78611.84520862642,-10241.614012910606,-30200.559520788134,-32722.3727372137
-79810.85983644245,-10448.837035755758,-30431.11776484463,-32668.057998187305
-81805.68597384525,-10463.768001051903,-30437.30919805875,-32593.581985662226
-82031.10331667702,-10351.785761330815,-30309.166647096477,-32603.41675322256
-80534.65402539421,-10241.144626277046,-30178.520700755205,-32661.352474850715
-78610.28058651455,-10257.03671658477,-30206.75095400226,-32727.24541750496
-79855.71978756426,-10449.753457278426,-30432.54827648977,-32673.400065112124
-81826.7636688666,-10441.528015318872,-30426.64741595357,-32598.141741531104
-82028.46581083129,-10328.450540119476,-30293.81099865568,-32608.468247469456
-80496.52194935345,-10216.73652133185,-30156.83950863356,-32659.43022482756
-78605.83258936794,-10255.382687495076,-30191.55176777265,-32720.964577313018
-79908.71577366779,-10454.894358503148,-30421.819439151222,-32663.63235278516
-81855.23979130267,-10445.797198509836,-30419.74072691688,-32592.68791588401
-82022.98963343973,-10340.1405024696,-30292.626356199547,-32603.282642755825
-80463.77664372644,-10232.718018617394,-30167.568345972104,-32663.140614407137
-78607.97835683565,-10257.260234029322,-30208.539093558684,-32721.925702324595
-79960.10243417055,-10444.277279886875,-30431.698910200463,-32660.41370158359
-81873.03177988909,-10446.266585143398,-30425.328663030705,-32590.229223993927
-82004.5494442641,-10344.454389149474,-30297.700202190903,-32605.696631157
-80407.80787561035,-10214.50134688632,-30163.075645336587,-32660.57016379478
-78594.07557178444,-10253.616899683107,-30213.16590466093,-32727.96067332753
-79989.04794324016,-10451.54159683485,-30435.49870675787,-32667.096873175728
-81895.67409702232,-10443.919651975591,-30423.40641300755,-32600.93570958802
-82011.9031681899,-10348.05302000678,-30293.63218470004,-32619.93469237503
-80385.5231863884,-10225.610163880609,-30156.72774991128,-32669.77908251037
-78612.96279584919,-10256.969661351402,-30207.086230169087,-32724.652615148145
-80058.51716500726,-10452.50272184643,-30427.630892709603,-32661.330123106258
-81913.9354722423,-10432.475558814474,-30407.78254363329,-32595.325421729736
-81993.17240633637,-10322.415569116542,-30280.13173104903,-32610.323442259247
-80348.57575280378,-10212.3108759297,-30151.855069620025,-32669.354399365715
-78614.08038307195,-10242.619841411097,-30207.756782502747,-32724.071469792307
-80090.36840085607,-10441.125683918675,-30423.764040918835,-32661.955971951007
-81922.51854211313,-10441.2150908965,-30405.279148254296,-32599.818122365254
-81976.76622590616,-10334.150234955578,-30275.147292035497,-32616.939558618014
-80309.63901396263,-10219.083454499658,-30146.0659678061,-32679.32327739278
-78623.84809539892,-10273.97933888189,-30205.96864294632,-32731.46989720701
-80138.13407875707,-10466.114934219711,-30422.15471531805,-32668.236812142943
-81932.2862544401,-10430.262736113398,-30398.30540398424,-32608.55765444728
-81955.73323437372,-10328.629354075118,-30272.33097223413,-32624.963834877475
-80250.943333023,-10222.369160934588,-30147.16120328441,-32685.00062048443
-78601.18342652124,-10259.473056730398,-30211.73539301579,-32731.983987329484
-80162.18455579097,-10446.803027010326,-30429.664901455035,-32658.111471904693
-81933.26973119614,-10434.688381515549,-30402.932215086486,-32594.96779381845
-81931.30277768408,-10327.981153485913,-30273.85089085709,-32611.373974248647
-80201.27775684331,-10203.906620014504,-30142.221467759788,-32664.548774307823
-78598.83649335343,-10265.284510288777,-30214.7305267728,-32716.2707109774
-80203.40117256656,-10461.108143461724,-30429.39668052157,-32647.36028282169
-81945.31732145755,-10442.332678119265,-30392.382191703586,-32582.49552041239
-81918.47287636672,-10342.979174015423,-30272.062751300666,-32611.061049826272
-80167.59367794916,-10230.54989940523,-30149.39637772994,-32673.780044767864
-78603.32919398895,-10291.681920490497,-30226.86752401204,-32722.842123847266
-80240.97445499593,-10464.63971908566,-30437.0856806142,-32653.149384635617
-81947.10546101397,-10433.749608248429,-30398.193645261963,-32590.229223993927
-81886.93456494028,-10328.919926753037,-30272.286268745214,-32607.5965294357
-80101.8571975061,-10212.64615209653,-30143.71903463829,-32672.640105800645
-78587.57121414796,-10279.500219762353,-30228.722718801822,-32727.178362271592
-80273.25037398939,-10467.277224931388,-30436.28101781381,-32653.283495102347
-81954.77210936215,-10442.980878708468,-30397.7242586284,-32600.823950865743
-81871.48950952166,-10348.455351406974,-30273.2473937568,-32624.60620696619
-80055.3432172946,-10226.191309236445,-30143.20494451582,-32678.89859424813
-78573.02022850755,-10288.999711155857,-30226.152268189464,-32720.785763357377
-80282.32518223824,-10463.1198004627,-30435.49870675787,-32651.92003869057
-81941.1375452444,-10423.668971499084,-30393.70094462645,-32600.15339853208
-81836.55373293803,-10323.33199063921,-30263.814957596656,-32620.851113897697
-79998.10039974457,-10209.271038683775,-30134.0630810336,-32676.21638491349
-78569.2427836946,-10285.51283902083,-30228.02981472371,-32723.691490136564
-80321.01605189039,-10465.846713286248,-30428.100279343165,-32641.32531181876
-81951.37464420493,-10434.464864070997,-30381.20631947593,-32587.815235592752
-81822.20391299772,-10328.450540119476,-30259.81399533916,-32617.34189001821
-79957.15200390245,-10216.334189931657,-30132.63256938846,-32675.92581223557
-78570.47212963965,-10295.168792625522,-30229.437974624398,-32719.08703077877
-80353.42608135058,-10464.483256874471,-30432.0341863673,-32644.14163162013
-81949.3406354595,-10431.246212869431,-30384.894357311056,-32595.95127057449
-81781.00964796658,-10332.585612843706,-30253.913134802955,-32618.347718518704
-79893.87421534947,-10224.939611546948,-30124.38477568445,-32680.46321636
-78566.80644354898,-10297.51572579333,-30224.1853146774,-32716.784801099875
-80398.93423306159,-10466.092582475256,-30428.97199737692,-32641.07944262975
-81961.41057746537,-10421.63496275365,-30378.5688136302,-32595.25836649637
-81765.8998687148,-10317.56524056974,-30255.589515637104,-32624.114468588174
-79854.17751719685,-10208.3099136722,-30135.270075234184,-32682.787797783352
-78573.13198722983,-10302.857792718149,-30240.25621894076,-32719.4223069456
-80427.09743107528,-10470.719393577505,-30435.96809339143,-32639.93950366253
-81954.21331575076,-10416.359951062195,-30381.96627878741,-32587.21173849246
-81736.797897434,-10315.598287057674,-30256.818861582145,-32613.45268648299
-79790.65385945486,-10204.35365490361,-30133.81721184459,-32676.59636456923
-78573.35550467439,-10304.310656107744,-30249.15221323397,-32713.36498419821
-80459.1945361131,-10476.508495391428,-30440.12551786012,-32625.813201166777
-81951.06171978256,-10417.34342781823,-30377.987668274363,-32570.760854573356
-81702.35385922836,-10319.509842337353,-30258.20466973837,-32602.41092472207
-79740.85417280844,-10217.07179749868,-30141.34974972603,-32668.97441970997
-78565.30887667048,-10298.968589182923,-30254.22605922533,-32698.054039246326
-80490.33051613934,-10459.454114372027,-30441.220753338428,-32615.754916161888
-81957.02963555213,-10403.418291022575,-30372.44443564945,-32573.73363658591
-81670.99436175756,-10310.345627110675,-30251.25327721277,-32607.373011991145
-79667.31693355048,-10198.385739134044,-30134.331301967064,-32675.456425602013
-78552.45662360867,-10292.732452479891,-30259.18814649441,-32713.499094664945
-80519.74541184252,-10463.544483607351,-30448.97680866442,-32638.710157717487
-81955.10738552897,-10414.214183594488,-30381.698057853948,-32595.97362231894
-81635.768012496,-10312.871374234126,-30252.03558826871,-32624.15917207708
-79607.28014794351,-10209.986294506349,-30134.93479906736,-32690.23092868697
-78548.1874404177,-10312.446691089475,-30270.38637046652,-32723.33386222528
-80555.39644424873,-10472.999271511946,-30457.17989887952,-32639.22424783996
-81958.28133324163,-10426.172366878078,-30387.44245617896,-32604.847264867694
-81604.54262549194,-10325.835386018203,-30260.61865813955,-32632.56342799228
-79550.35025481586,-10208.444024138931,-30146.17772652837,-32697.09291423475
-78550.37791137432,-10307.261086375844,-30280.73522814933,-32720.472838935
-80578.1728718487,-10461.68928881756,-30458.52100354684,-32632.898704159103
-81948.31245521456,-10402.34540728872,-30381.29572645375,-32588.552843159778
-81572.26670649847,-10297.42631881551,-30255.790681337203,-32620.49348598641
-79497.42132394569,-10200.196230434924,-30147.138851539952,-32693.337821166257
-78552.56838233095,-10316.782929513804,-30287.9995450973,-32719.869341834707
-80611.4769710871,-10478.207227970031,-30470.367428108148,-32644.70042523151
-81948.06658602555,-10411.040235881834,-30391.8233980922,-32606.411886979567
-81530.31248215586,-10294.051205402757,-30257.75763484927,-32630.618826224665
-79437.56335229437,-10177.017471434769,-30144.88132534997,-32693.65074558863
-78560.16797544574,-10287.74801346636,-30289.877091631544,-32718.28236797838
-80627.79374453948,-10434.531919304362,-30462.45491057097,-32629.769459935364
-81931.77216431763,-10369.37658421714,-30381.87687180959,-32589.558671660267
-81496.04725790588,-10270.559521980227,-30256.237716226307,-32620.627596453145
-79401.13000883222,-10175.877532467548,-30155.7666248997,-32692.37669615468
-78578.74227508811,-10305.472946819418,-30311.04419363072,-32712.38150744218
-80651.53129715101,-10451.20632066802,-30474.904832232576,-32616.38076500664
-81919.74692580067,-10379.792497133314,-30387.46480792341,-32572.95132552997
-81458.96571385453,-10272.504123747842,-30253.711969102857,-32600.511026443368
-79355.04071176538,-10174.245855122312,-30144.05431080512,-32661.46423357299
-78588.5993943929,-10304.355359596651,-30299.443638258417,-32682.7654460389
-80674.59829742889,-10468.238349942963,-30466.947611206488,-32601.382744477123
-81904.9277192268,-10394.365834518176,-30381.09456075365,-32563.7871103033
-81423.64995761514,-10286.742184965871,-30253.28728595821,-32599.147570031597
-79309.44315307656,-10194.518887343274,-30151.564496942105,-32673.578879067765
-78591.50512117209,-10305.361188097142,-30303.243434815817,-32680.306754148813
-80690.4456842477,-10434.218994881989,-30456.41993956804,-32588.418732693048
-81891.76254174263,-10363.38631670312,-30369.7175228259,-32558.981485245407
-81373.06795991278,-10258.869559630104,-30241.46321314135,-32596.577119419235
-79248.60170466921,-10176.838657479128,-30144.031959060667,-32675.970515724483
-78599.68585964273,-10319.487490592895,-30308.94312965192,-32695.170664211597
-80714.31734732597,-10460.12466670569,-30468.154605407075,-32609.764648647862
-81870.05899787653,-10367.454334193986,-30375.39486591755,-32575.231203464416
-81329.57146520275,-10269.620748713109,-30248.235791711308,-32613.005651593885
-79185.88270972762,-10179.274997624756,-30151.92212485339,-32687.90634726362
-78587.5488624035,-10318.66047604805,-30314.218141343372,-32697.98698401296
-80716.93250142723,-10458.537692849362,-30464.868898972145,-32608.31178525827
-81847.10375632092,-10382.362947745676,-30368.801101303237,-32576.68406685401
-81274.80969128724,-10273.621710970609,-30238.624541595527,-32610.83753238172
-79115.54176992677,-10175.117573156069,-30145.373063727984,-32681.401989627124
-78577.37881867634,-10313.921906223524,-30315.38043205505,-32689.672135075587
-80727.3037108545,-10458.02360272689,-30469.27219262984,-32606.30012825729
-81830.98814856865,-10390.655444938597,-30381.809816576224,-32576.30408719827
-81227.44634478645,-10279.94725465146,-30248.861640556057,-32602.343869488705
-79054.4097488415,-10196.619951322074,-30152.704435909327,-32670.539041821845
-78587.32534495895,-10345.706086838973,-30322.24241760283,-32677.155158180616
-80742.23467615065,-10475.323852935297,-30466.50057631738,-32594.900738585085
-81802.46732264369,-10379.278407010845,-30370.075150737182,-32565.75406381537
-81168.50479465781,-10266.31269053372,-30245.39712016548,-32602.45562821098
-78973.51878565774,-10182.270131381769,-30152.324456253584,-32671.008428455407
-78578.98814427711,-10338.642935591097,-30325.52812403776,-32672.640105800645
-80769.97319101969,-10468.573626109795,-30456.822270968238,-32581.26617446735
-81795.53828186254,-10379.747793644405,-30350.338560383152,-32555.181688688004
-81109.96557592935,-10271.922978392004,-30222.330119887607,-32595.41482870756
-78906.1729796139,-10205.247724681822,-30135.046557789632,-32669.913192977096
-78582.07268501195,-10350.28819445231,-30319.828429201654,-32672.349533122724
-80777.8186533235,-10448.97114622249,-30451.48020404341,-32582.517872156845
-81769.07381642745,-10373.131677285632,-30350.00328421632,-32562.66952308053
-81053.14744152396,-10266.759725422828,-30220.78784952019,-32596.130084530127
-78830.40056591042,-10187.2545703953,-30139.472203191785,-32666.11339641969
-78570.42742615074,-10350.109380496668,-30328.81383047269,-32668.48268133196
-80792.23552849717,-10466.539617364362,-30457.939858191,-32584.48482566891
-81755.37219707634,-10377.937302343524,-30354.63009531857,-32565.75406381537
-80999.39149610896,-10259.853036386135,-30224.07355595512,-32597.27002349735
-78774.63296349443,-10186.226390150356,-30145.39541547244,-32670.382579610658
-78581.15626348928,-10352.009278775367,-30337.32984511016,-32670.919021477584
-80797.8681680999,-10462.78452429587,-30460.085625658707,-32580.327401200226
-81728.77362117454,-10377.043232565313,-30358.49694710934,-32563.11655796964
-80951.8046321636,-10264.949234121948,-30229.99676823578,-32604.89196835661
-78710.19288422976,-10195.770585032771,-30149.172860285387,-32678.295097147835
-78570.71799882865,-10362.33578471372,-30342.180173656965,-32673.93650697905
-80805.19954028125,-10459.476466116485,-30458.141023891098,-32582.94255530149
-81711.69688841068,-10367.230816749432,-30352.819604017688,-32568.97271501693
-80899.25568094918,-10270.26894930231,-30221.391346620483,-32612.670375427053
-78645.97632240967,-10189.467393096376,-30141.88619159296,-32679.63620181516
-78580.552766389,-10340.319316425244,-30339.363853855597,-32668.68384703205
-80818.29766253206,-10457.956547493524,-30454.92237268953,-32586.675296625534
-81679.06334150593,-10371.745869129403,-30344.30358938022,-32575.87940405362
-80838.81656394203,-10257.193178795957,-30217.323329129616,-32616.917206873564
-78605.78788587904,-10182.96303545988,-30152.77149114269,-32694.589518855755
-78592.93563281723,-10345.549624627783,-30350.62913306107,-32679.94912623753
-80824.08676434598,-10455.810780025817,-30460.756177992367,-32591.279755983327
-81654.76699528302,-10365.554435915285,-30344.460051591406,-32571.20788946246
-80800.1703977788,-10258.243710785357,-30213.434125594395,-32612.044526582307
-78574.67425759725,-10182.359538359588,-30144.36723522749,-32680.68673380456
-78612.58281619345,-10358.15600850058,-30344.6612172915,-32674.87528024617
-80822.90212188986,-10464.326794663286,-30448.2392010974,-32589.089285026705
-81637.17617239669,-10378.71961339946,-30339.833240489155,-32576.6393633651
-80754.21521117869,-10258.98131835238,-30207.17563714691,-32615.464343483967
-78533.10001291038,-10199.615085079084,-30144.88132534997,-32687.682829819067
-78635.49335426014,-10372.95286332999,-30347.991627215342,-32673.13184417866
-80845.79030821209,-10459.87879751668,-30443.813555695244,-32582.182595990016
-81620.34530882184,-10362.201674246988,-30325.01403391529,-32563.7871103033
-80714.58556825943,-10261.50706547583,-30202.481770811293,-32614.860846383675
-78484.01558208652,-10186.271093639269,-30139.651017147426,-32684.352419895225
-78636.14155484934,-10354.982060787925,-30341.53197306776,-32661.821861484277
-80852.22761061521,-10455.229634669977,-30438.918523659533,-32581.176767489527
-81609.83998892785,-10363.67688938104,-30326.19867637142,-32576.12527324263
-80674.6430009178,-10252.722829904897,-30197.095000397567,-32623.019233109862
-78458.40048294073,-10192.663692553484,-30141.953246826324,-32692.91313802161
-78675.52532857959,-10363.654537636585,-30349.690359793945,-32669.689675532543
-80880.34610514,-10441.483311829965,-30434.17995383501,-32570.514985384347
-81607.24718657102,-10356.166703244056,-30323.181190869956,-32563.49653762538
-80643.21644821364,-10255.516797961807,-30201.677108010903,-32616.53722721782
-78429.52202910448,-10206.477070626865,-30157.800633645136,-32694.70127757803
-78712.13748599739,-10391.415404250074,-30367.236479191364,-32673.601230812223
-80918.76875385866,-10475.167390724111,-30449.602657509167,-32591.458569938968
-81600.5640149789,-10377.602026176695,-30326.37749032706,-32581.489691911906
-80602.26805237151,-10262.512893976318,-30200.40305857695,-32629.009500623884
-78388.95361291809,-10216.244782953832,-30150.24574401924,-32696.42236190109
-78722.82161984702,-10396.601008963706,-30353.46780460689,-32667.230983642457
-80924.73666962823,-10461.376364395186,-30436.146907347076,-32578.5392616438
-81592.4056282527,-10359.273595723344,-30322.175362369464,-32566.379912660115
-80555.37409250428,-10249.75004789234,-30186.56732875912,-32606.99303233541
-78355.09072006831,-10207.572306105174,-30145.596581172536,-32680.68673380456
-78770.16261460337,-10394.499944984907,-30364.48721462336,-32661.352474850715
-80965.55095500362,-10473.736879078971,-30436.437480024997,-32576.05821800926
-81597.23360505505,-10384.95575010249,-30318.28615883424,-32573.331305185715
-80525.22158923408,-10256.299109017744,-30182.901642668447,-32613.899721372098
-78320.89255105169,-10216.803576565217,-30146.7141683953,-32689.56037635331
-78802.37147836346,-10411.710788215494,-30367.66116233601,-32672.304829633813
-81004.44299035585,-10483.951626295046,-30435.87868641361,-32587.077628025727
-81600.98869812355,-10402.211296821988,-30315.00045239931,-32579.858014566664
-80479.48992007851,-10278.963777895426,-30180.84528217856,-32625.723794188954
-78276.16671039662,-10234.908489574014,-30152.592677187047,-32701.384449170167
-78827.38308040895,-10422.73019823196,-30367.90703152502,-32667.67801853157
-81031.91328429143,-10482.722280350004,-30435.051671868765,-32590.20687224947
-81602.77683767996,-10387.213276292478,-30320.722498979867,-32588.575194904235
-80453.740710466,-10271.677109202994,-30186.96966015931,-32631.088212858227
-78258.19590785455,-10238.0153820533,-30157.845337134047,-32699.4174956581
-78876.04282808815,-10418.148090618624,-30377.562985129716,-32660.346646350223
-81073.3310667671,-10471.278187188887,-30439.566724248736,-32575.92410754253
-81607.29189005995,-10380.038366322324,-30322.01890015828,-32578.87453781063
-80423.14117230668,-10267.922016134504,-30188.422523548907,-32629.23301806844
-78243.15318383613,-10226.526585403277,-30155.72192141079,-32695.01420200041
-78920.16517164292,-10407.843936424726,-30376.73597058487,-32661.196012639528
-81099.92964266893,-10450.245195656444,-30426.558008975742,-32577.10874999866
-81602.37450627977,-10345.549624627783,-30303.57871098265,-32577.041694765296
-80380.98578226398,-10224.40316968002,-30167.523642483196,-32623.30980578778
-78218.4098027241,-10203.034901980747,-30148.792880629648,-32693.695449077542
-78957.91726802794,-10413.364817305186,-30377.607688618624,-32664.302905118813
-81131.11032618408,-10470.004137754937,-30427.519133987327,-32586.876462325632
-81607.94009064915,-10362.134619013625,-30303.243434815817,-32589.335154215714
-80352.24143889445,-10225.297239458232,-30166.62957270498,-32634.70919545999
-78210.85491309821,-10201.045596724223,-30154.693741165847,-32705.832446316774
-79009.08041108614,-10407.1063288577,-30381.765113087316,-32671.07548368877
-81157.86536429707,-10457.30834690432,-30423.6299304521,-32593.80550310677
-81591.60096545231,-10346.264880450355,-30297.499036490804,-32595.9959740634
-80316.70216521052,-10226.54893714773,-30158.225316789787,-32638.48664027293
-78201.02014553787,-10208.511079372296,-30151.184517286365,-32705.720687594498
-79053.49332731884,-10405.765224190382,-30383.97793578839,-32672.77421626737
-81176.28320172825,-10444.366686864698,-30416.92440711551,-32592.710267628467
-81588.67288692867,-10346.108418239168,-30295.8003039122,-32596.375953719136
-80287.1978625295,-10230.371085449588,-30164.55086047064,-32644.94629442052
-78193.59936637871,-10218.055274254712,-30157.554764456127,-32709.766353340907
-79099.78379008577,-10415.957619662002,-30382.234499720875,-32666.38161735316
-81208.15678932153,-10459.1188382052,-30420.813610650734,-32593.78315136232
-81597.88180564425,-10363.743944614404,-30300.158894080985,-32599.773418876342
-80266.92483030855,-10256.07559157319,-30169.17767157289,-32646.98030316595
-78201.28836647134,-10242.664544900006,-30173.20098557484,-32714.147295254148
-79148.17531683152,-10426.932326189555,-30394.50560742684,-32668.885012732157
-81221.27726331679,-10448.07707644428,-30416.41031699304,-32582.85314832368
-81584.78368339344,-10347.114246739657,-30291.32995502114,-32583.367238446142
-80234.31363514825,-10241.055219299224,-30164.148529070444,-32641.63823624113
-78203.34472696122,-10225.386646436054,-30166.24959304924,-32705.743039338955
-79204.948747748,-10404.714692200982,-30386.01194453382,-32653.84228871373
-81249.7310340084,-10441.080980429768,-30407.40256397755,-32575.11944474214
-81574.07719779936,-10346.488397894907,-30285.920832862957,-32583.99308729089
-80204.87638770061,-10217.004742265312,-30157.0183225892,-32634.306864059792
-78201.9142153161,-10206.25355318231,-30161.265154035707,-32694.745981066942
-79248.04291105783,-10398.165631075575,-30387.509511412325,-32647.919076433074
-81273.20036568647,-10419.533898774853,-30403.66982265351,-32567.00576150486
-81575.7535786335,-10332.47385412143,-30278.969440337358,-32574.40418891957
-80169.8735558836,-10233.567384906695,-30153.10676730952,-32629.99297737992
-78191.9006338001,-10223.173823734978,-30167.836566905567,-32691.79555079884
-79283.06809461929,-10412.582506249251,-30387.576566645694,-32640.29713157381
-81289.69595309449,-10443.49496883094,-30403.26749125332,-32571.72197958493
-81568.69042738562,-10328.785816286305,-30282.32220200565,-32582.428465179026
-80135.60833163362,-10209.02516949477,-30146.40124397293,-32633.010462881382
-78190.47012215498,-10222.324457445677,-30166.38370351597,-32693.360172910718
-79347.70933958403,-10424.048951154822,-30393.902110326544,-32641.5041257744
-81323.08945931071,-10433.950773948523,-30399.8253226072,-32566.78224406031
-81565.56118316189,-10332.406798888063,-30278.254184514783,-32580.77443608933
-80102.93008123996,-10218.748178332828,-30147.183555028863,-32634.39627103761
-78185.30686918579,-10224.246707468834,-30172.06104660762,-32691.8179025433
-79381.81810162283,-10419.82447145277,-30397.009002805837,-32634.88800941563
-81345.75412818839,-10440.20926239601,-30399.73591562938,-32563.630648092112
-81561.31435171538,-10339.916985025047,-30272.778007123237,-32576.035866264807
-80063.34514180961,-10210.612143351096,-30148.502307951727,-32634.575084993256
-78183.87635754065,-10232.896832573037,-30177.15724434343,-32690.454446131524
-79438.32331160585,-10419.39978830812,-30395.24321499386,-32622.952177876497
-81380.48873907194,-10432.341448347745,-30396.092581283163,-32553.281790409303
-81569.07040704136,-10334.843139033692,-30272.88976584551,-32567.7880725608
-80041.6415979435,-10213.562573619196,-30137.594656657537,-32618.012442351872
-78188.88314829864,-10224.559631891208,-30166.16018607142,-32669.46615808799
-79495.8119983449,-10423.803081965814,-30389.63292713558,-32608.959985847472
-81410.90946327562,-10431.849709969723,-30389.11883701311,-32539.826040247208
-81565.89645932871,-10333.367923899645,-30264.12788201903,-32559.182650945502
-80004.20242598087,-10207.125271216068,-30131.470278676785,-32618.25831154088
-78187.36322967568,-10218.189384721443,-30169.53529948417,-32673.288306389848
-79536.55922848693,-10418.706884230003,-30390.68345912498,-32616.98426210693
-81424.94635879355,-10428.698114001529,-30380.178139230982,-32555.852241021665
-81550.63021786574,-10333.233813432911,-30259.054036027675,-32580.908546556064
-79953.93335270087,-10203.124308958568,-30125.94939779632,-32637.056128627795
-78177.84138653772,-10219.64224811104,-30176.799616432145,-32697.33878342376
-79581.285069142,-10416.11408187319,-30396.941947572464,-32636.586741994237
-81451.90256260664,-10419.39978830812,-30384.78259858878,-32571.319648184737
-81550.20553472108,-10313.430167845509,-30258.65170462748,-32590.27392748284
-79922.32798604107,-10199.883306012547,-30133.39252869994,-32647.98613166644
-78184.45750289649,-10241.725771632884,-30192.8258172066,-32706.65946086162
-79637.7455756361,-10431.693247758538,-30413.9292733585,-32638.665454228576
-81474.2319553175,-10412.671913227072,-30394.572662660205,-32566.089339982194
-81545.35520617428,-10310.390330599586,-30272.39802746749,-32584.68599136901
-79888.80036935811,-10190.249704152311,-30147.78705212916,-32642.08527113024
-78182.82582555126,-10228.3147249597,-30205.633366779493,-32696.534120623368
-79687.92524193827,-10428.116968645689,-30423.94285487448,-32633.546904748317
-81502.81983647583,-10421.858480198203,-30405.994404076864,-32570.96202027345
-81540.70604332758,-10305.160022397044,-30277.71774264786,-32583.568404146245
-79846.22029617075,-10182.784221504238,-30145.12719453897,-32639.671282729065
-78167.91721199956,-10230.4157889385,-30210.75191625976,-32693.494283377444
-79718.99416673115,-10416.292895828832,-30429.910770644045,-32623.98035812144
-81518.15313317218,-10402.412462522088,-30406.84377036617,-32560.814328290744
-81528.25612166598,-10293.447708302465,-30282.344553750107,-32572.571345874232
-79794.56541473453,-10175.877532467548,-30152.570325442597,-32628.51776224587
-78150.3934443466,-10223.553803390718,-30221.391346620483,-32678.160986681105
-79754.01935029261,-10426.217070366987,-30443.54533476178,-32612.35745100468
-81527.04912746539,-10391.728328672449,-30414.331604758696,-32548.610275818144
-81513.21339764756,-10282.60711224164,-30283.9985828398,-32565.910526026557
-79748.94550430126,-10172.3012533547,-30154.671389421397,-32628.78598317933
-78130.88037143712,-10227.912393559503,-30223.64887281047,-32675.8140535133
-79775.74524590316,-10414.214183594488,-30438.516192259336,-32606.210721279476
-81571.752616376,-10395.259904296388,-30406.463790710422,-32549.01260721834
-81545.69048234112,-10293.291246091276,-30277.762446136767,-32568.30216268327
-79628.55900866498,-10180.169067402969,-30143.517868938197,-32636.87731467215
-77843.28047553069,-10225.677219113972,-30217.368032618528,-32683.99479198394
-79574.75835976105,-10415.73410221745,-30448.2392010974,-32605.45076196799
-81496.15901662815,-10415.264715583888,-30418.176104805007,-32541.45771759245
-81513.48161858102,-10284.305844820245,-30279.28236475973,-32554.77935728781
-79543.55532450145,-10143.825130918638,-30130.978540298765,-32624.941483133018
-77726.69377645181,-10205.493593870831,-30209.768439503725,-32679.65855355961
-79503.00926005951,-10415.599991750716,-30445.84756444068,-32601.06982005475
-81467.481728492,-10405.29583755682,-30417.81847689372,-32535.668615778523
-81498.86357770725,-10279.522571506808,-30277.47187345885,-32552.81240377574
-79438.07744241685,-10131.95635461287,-30118.506266892706,-32620.158209819583
-77558.07221628097,-10209.427500894964,-30204.73929700128,-32687.928699008076
-79396.61495645225,-10437.63881178365,-30454.296523844783,-32614.659680683577
-81392.73749503345,-10411.084939370745,-30419.897189128067,-32545.078700194204
-81409.63541384166,-10295.481717047896,-30277.58363218113,-32564.055331236763
-79319.1214584257,-10157.616157247565,-30121.68021460536,-32631.8034686808
-77505.09858192189,-10231.466320927895,-30216.809239007147,-32691.124998465184
-79406.8967589017,-10422.216108109487,-30455.056483156262,-32602.299165999797
-81378.52178555987,-10396.265732796875,-30409.146000045064,-32531.62295003211
-81354.47130852596,-10280.997786640855,-30265.200765752885,-32552.097147953173
-79241.71736737697,-10135.376171514532,-30117.500438392217,-32624.15917207708
-77487.61951775783,-10209.53925961724,-30215.89281748448,-32676.32814363577
-79433.71885224806,-10423.601916265718,-30454.7882622228,-32588.083456526216
-81377.31479135928,-10391.415404250074,-30409.570683189715,-32525.140944140072
-81336.20993330597,-10258.60133869664,-30257.17648949343,-32542.932932726497
-79182.08291317022,-10131.598726701586,-30107.688022576334,-32619.286491785824
-77467.21237507014,-10213.137890474543,-30209.07553542561,-32667.72272202048
-79468.8557945318,-10430.173329135578,-30445.82521269622,-32585.222433235936
-81386.83663449725,-10407.665122469083,-30397.187816761478,-32526.28088310729
-81312.80765686127,-10284.015272142324,-30253.823727825133,-32553.125328198115
-79122.0237758188,-10129.81058714516,-30103.01650798518,-32627.869561656666
-77459.65748544424,-10215.663637597996,-30215.378727362007,-32678.78683552585
-79506.9208153392,-10424.764206977392,-30451.36844532114,-32589.26809898235
-81399.77829453687,-10391.236590294431,-30402.79810461976,-32534.327511111205
-81289.00304901636,-10274.247559815354,-30259.456367427872,-32566.290505682293
-79054.09682441913,-10142.215805317855,-30106.39162139793,-32640.38653855164
-77456.08120633141,-10230.661658127508,-30225.74993678927,-32688.643954830644
-79563.89541195577,-10440.365724607198,-30460.39855008108,-32602.679145655533
-81429.70728036252,-10404.222953822966,-30407.246101766363,-32546.91154323954
-81273.02155173082,-10276.192161582969,-30257.55646914917,-32569.755026072864
-79007.62754769654,-10139.131264583024,-30109.364403410484,-32644.32044557577
