 EXG Channel 0, EXG Channel 1, EXG Channel 2, EXG Channel 3
12239.368228837042,15975.752887219536,-74342.77377638505,-16884.97714817252
12019.158842463356,15853.868824704748,-74236.31241754442,-16807.640112357156
11978.925702443805,15846.13512112321,-74219.72742315858,-16796.37483315168
12091.578494498552,15907.758880586493,-74263.35802833534,-16809.741176335952
12304.210639501887,16013.370873137816,-74350.64159043331,-16871.6331567327
12234.115568890044,15967.326279559886,-74330.21209600117,-16877.668127735633
12000.718653287728,15844.794016455891,-74220.19680979215,-16797.268902929893
11965.760524959627,15832.053522116366,-74204.81880960689,-16759.047419911316
12085.096488606512,15901.589799116828,-74260.13937713378,-16794.296120917337
12307.29518023672,16013.996721982568,-74360.87868939385,-16877.645775991175
12241.737513749304,15969.092067371854,-74333.58720941392,-16874.091848622782
12017.95184826277,15849.912565936158,-74226.3211877729,-16800.554609364823
11990.70507177175,15847.342115323796,-74217.08991731286,-16781.466219599988
12105.481279549753,15916.118433012776,-74279.4289325987,-16827.957848067028
12312.279619250254,16021.17163195272,-74373.57448024445,-16891.928540698118
12211.160327334444,15951.59065146335,-74324.51240116506,-16871.409639288144
11985.921798458314,15831.338266293797,-74214.58652193386,-16788.99875748143
11978.389260576876,15828.410187770152,-74210.5632079319,-16765.440018825535
12119.54052681214,15902.550924128403,-74267.29193535948,-16809.450603658035
12319.789805387236,16018.131794706798,-74371.54047149903,-16879.880950436705
12213.306094802154,15958.765561433502,-74320.71260460766,-16859.00442111545
11989.252208382157,15844.36933331124,-74218.20750453562,-16791.569208093788
11972.46604829622,15844.794016455891,-74218.00633883552,-16788.88699875915
12107.180012128356,15920.67818888166,-74279.51833957653,-16837.94907783855
12314.671255906973,16018.109442962344,-74373.73094245564,-16907.95474147257
12198.777460906203,15951.59065146335,-74308.0838689904,-16872.750743955465
11991.397975849864,15850.9407461811,-74194.53700715746,-16788.57407433678
11988.067565926023,15856.238109617008,-74203.03067005047,-16780.14746667713
12128.816500761091,15931.049398308922,-74278.04312444248,-16818.078377017784
12310.111500038089,16018.377663895806,-74365.79607317402,-16879.322156825325
12170.03311753668,15936.816148378392,-74300.84190378689,-16845.5263192089
11971.728440729195,15841.485958276506,-74202.29306248344,-16765.46237056999
11975.148257630855,15853.0418101599,-74210.45144920964,-16764.233024624948
12128.72709378327,15932.815186120892,-74290.18012168171,-16825.56621141031
12295.24758997531,16013.482631860094,-74387.14198912884,-16911.039282207406
12131.476358351274,15921.77342435997,-74308.17327596823,-16875.656470734655
11952.930623642282,15831.762949438447,-74226.50000172853,-16813.965656038006
11977.741059987671,15852.013629914956,-74230.41155700822,-16803.95207452203
12139.59004158855,15942.00175309202,-74293.17525543872,-16838.396112727656
12309.709168637894,16022.937419764688,-74377.7542564576,-16919.845869522796
12148.374277159486,15929.842404108334,-74285.37449662382,-16874.85180793426
11986.122964158412,15845.777493211925,-74204.81880960689,-16797.76064130791
12008.586467335996,15869.269176634452,-74217.08991731286,-16792.6644435721
12159.505445898229,15960.240776567553,-74292.10237170487,-16852.90239487915
12300.589656900129,16028.659466345249,-74363.13621558383,-16916.090776454304
12098.19461085732,15911.268104465977,-74283.60870881185,-16873.018964888928
11939.139597313357,15836.03213262941,-74203.2094840061,-16817.161955495114
11994.638978795883,15874.790057514914,-74222.87901912678,-16820.447661930044
12167.954405302336,15958.87732015578,-74311.12370623634,-16873.376592800214
12305.439985446928,16029.352370423365,-74381.12936987035,-16954.379314706246
12103.849602204516,15924.679151139158,-74287.20733966916,-16904.222000148537
11950.874263152393,15848.862033946758,-74211.6137399213,-16841.77122614041
11995.197772407268,15881.115601195766,-74231.23857155307,-16847.71679016552
12182.393632220464,15980.0220704105,-74312.8447905594,-16904.981959460016
12318.895735609023,16039.433007172704,-74375.78730294554,-16965.443428211624
12109.772814485172,15923.136880771744,-74279.25011864306,-16912.827421763828
11969.247397094656,15851.723057237035,-74200.72844037157,-16864.078267106805
12001.053929454558,15877.785191271923,-74221.71672841511,-16876.90816842415
12176.2245507508,15972.288366828963,-74294.56106359496,-16945.97505879105
12286.888037549024,16022.043349986478,-74343.51138395208,-17009.833992699863
12064.510531963177,15899.511086882483,-74246.70597871614,-16942.48818665602
11935.809187389516,15835.383932040208,-74183.67405935217,-16895.795392488886
11996.315359630033,15886.256502420489,-74216.6205306793,-16924.562087602866
12208.388711021986,15992.8743234723,-74313.5376946375,-16979.860303385296
12311.586715172138,16033.107463491851,-74356.6989131807,-17010.79511771144
12083.19659032781,15905.255485207495,-74241.34156004686,-16944.388084934722
11961.245472579656,15845.75514146747,-74189.21729197708,-16913.140346186203
12022.2880866871,15885.496543109006,-74214.3630044893,-16918.035378221917
12208.27695229971,15987.778125736491,-74315.68346210521,-16996.892332660238
12273.655804831482,16015.807213283446,-74362.21979406117,-17036.745493024053
12035.542671149096,15888.75989779948,-74243.12969960329,-16970.2043497806
11924.633315161862,15840.457778031565,-74193.01708853449,-16934.64272435221
11995.04131019608,15891.86679027877,-74213.20071377764,-16942.219965722557
12209.282780800198,15998.663425286226,-74314.3423574379,-17015.913667191704
12275.71216532137,16019.584658096392,-74352.6979509232,-17060.70656308014
12039.454226428776,15897.09709848131,-74237.05002511144,-16985.82821915486
11944.79458866055,15856.863958461758,-74200.57197816038,-16940.320067443856
12019.605877352462,15903.512049139985,-74240.20162107964,-16953.328782716846
12219.385769293996,16009.414614369229,-74352.74265441211,-17034.689132534164
12260.37886862503,16017.103614461854,-74387.2090443622,-17078.163275499737
12019.270601185632,15879.372165128252,-74273.41631334023,-17001.586198995854
11929.751864642129,15841.821234443336,-74222.02965283747,-16947.852605325294
12013.682665071809,15908.608246875794,-74253.29974333046,-16966.69512590112
12240.66463001545,16028.011265756044,-74350.93216311124,-17044.635658816776
12265.81034252767,16028.994742512075,-74383.38689606034,-17086.545179670477
12020.298781430576,15895.62188334726,-74270.08590341639,-17021.166327138704
11938.64785893534,15865.84935973279,-74220.08505106987,-16985.22472205457
12016.297819173076,15915.984322546044,-74250.19285085116,-16986.565826721886
12215.921248903423,16017.662408073236,-74354.82136664646,-17055.878586277795
12207.159365076945,16010.442794614171,-74366.73484644113,-17070.94366204067
11949.108475340425,15883.104906452289,-74250.41636829572,-16996.914684404695
11900.918114294782,15865.692897521603,-74220.46503072561,-16951.54064316042
12018.801214552072,15923.136880771744,-74264.47561555811,-16979.54737896292
12238.317696847642,16028.8829837898,-74374.46855002268,-17068.395563172766
12225.174871107922,16004.206657911142,-74372.00985813259,-17082.29834822397
11978.94805418826,15871.973737713544,-74247.08595837188,-16981.067297585883
11928.053132063524,15861.490769564009,-74223.81779239391,-16940.409474421678
12039.610688639965,15940.213613535598,-74262.88864170178,-16960.146064775716
12260.267109902754,16049.826568344424,-74361.1022068384,-17039.76297852552
12232.975629922825,16027.050140744466,-74346.73003515364,-17048.971897241103
11991.308568872044,15897.991168259525,-74239.84399316835,-16961.151893276205
11941.061847336514,15876.980528471537,-74228.39990000724,-16920.73993930101
12042.404656696875,15931.809357620405,-74282.75934252255,-16950.87009082676
12259.104819191078,16045.69149562019,-74383.09632338241,-17039.584164569875
12219.542231505184,16018.958809251644,-74346.46181422018,-17027.80479524193
11994.437813095788,15890.123354211257,-74230.63507445277,-16945.77389309095
11960.46316152372,15875.170037170654,-74220.33092025887,-16919.845869522796
12072.847732645005,15936.704389656114,-74274.35508660735,-16959.699029886608
12280.674252590448,16039.567117639435,-74380.3023553255,-17054.582185099385
12215.809490181147,15995.668291529217,-74355.02253234656,-17044.680362305684
11998.259961397644,15881.09324945131,-74229.60689420783,-16952.278250727446
11968.643899994362,15876.086458693322,-74209.44562070914,-16924.24916318049
12074.457058245784,15938.738398401549,-74269.46005457164,-16969.802018380407
12278.95316826739,16042.003457785066,-74374.08857036693,-17033.437434844665
12190.21674277982,15982.905445445234,-74339.10809029438,-17018.37235908179
11972.488400040676,15875.974699971046,-74219.30274001393,-16925.612619592266
11961.13371385738,15883.015499474466,-74205.15408577373,-16911.933351985615
12084.604750228496,15952.015334608,-74260.96639167862,-16947.919660558662
12278.841409545112,16049.468940433138,-74361.23631730513,-17041.215841915113
12169.608434392028,15986.079393157888,-74315.90697954976,-17021.680417261174
11959.770257445603,15875.974699971046,-74213.53598994446,-16939.940087788116
11961.84896967995,15883.887217508223,-74214.3630044893,-16924.78560504742
12099.53571552464,15962.744171946548,-74278.35604886485,-16967.253919512503
12283.982310769834,16060.488350449605,-74381.33053557045,-17055.252737433046
12170.591911148062,15983.30777684543,-74328.71452912266,-17036.99136221306
11971.728440729195,15872.71134528057,-74222.9684261046,-16961.084838042836
11973.98596691918,15889.743374555514,-74217.55930394641,-16915.219058420545
12109.594000529529,15968.667384227205,-74286.40267686876,-16959.207291508592
12290.866648062069,16059.303707993471,-74376.52491051255,-17041.059379703926
12161.83002732158,15983.01720416751,-74312.66597660375,-17013.387920068257
11971.728440729195,15881.830857018336,-74216.08408881236,-16931.245259195002
11976.46701055372,15885.183618686631,-74230.16568781922,-16921.634009079222
12122.893288480436,15967.996831893544,-74298.45026713017,-16977.423963239668
12303.875363335055,16065.048106318489,-74389.55597753,-17057.3761531563
12149.31305042661,15974.724706974592,-74313.91767429325,-16997.585236738352
11954.428190520786,15874.074801692344,-74219.01216733601,-16925.120881214247
11963.346536558454,15892.023252489957,-74229.18221106318,-16926.126709714736
12115.83013723256,15983.710108245625,-74297.39973514077,-16965.219910767068
12284.697566592404,16064.042277817998,-74386.62789900636,-17034.4209116007
12128.034189705157,15973.741230218558,-74306.74276432309,-16986.87875114426
11966.65459473784,15889.251636177498,-74215.88292311227,-16919.175317189136
11989.498077571165,15906.775403830456,-74229.60689420783,-16918.63887532221
12147.189634703354,15991.086183915875,-74304.26172068855,-16963.387067721735
12297.303950465195,16060.42129521624,-74381.44229429273,-17034.398559856243
12112.723244753272,15954.295212542442,-74298.47261887463,-16979.815599896385
11949.734324185172,15868.889196978713,-74213.0666033109,-16902.478564081022
11985.586522291484,15891.57621760085,-74208.14921953074,-16904.043186192892
12151.034134749669,15987.956939692134,-74287.5873193249,-16959.296698486414
12279.355499667585,16054.498082935585,-74361.16926207177,-17022.999170184037
12071.238407044222,15941.241793780542,-74273.99745869607,-16983.257768542502
11933.46225422171,15862.295432364395,-74190.33487919986,-16903.372633859235
11983.574865290508,15898.48290663754,-74209.73619338706,-16909.58641881781
12155.616242363008,15996.830582240893,-74308.84382830189,-16965.5551869339
12303.048348790211,16064.355202240373,-74382.78339896005,-17020.138146893758
12096.853506190004,15940.079503068866,-74275.98676395259,-16971.27723351446
11955.679888210285,15864.374144598742,-74199.83437059337,-16912.380386874724
11999.623417809418,15906.797755574911,-74217.53695220196,-16912.335683385812
12176.31395772862,16008.431137613195,-74299.23257818611,-16979.88265512975
12298.555648154694,16057.962603326156,-74365.17022432927,-17034.08563543387
12087.06344211858,15937.620811178782,-74267.02371442602,-16975.278195771956
11953.131789342378,15876.220569160054,-74207.3669084748,-16917.498936354987
12003.400862622364,15914.129127756254,-74226.50000172853,-16905.652511793676
12183.779440376691,16011.202753925652,-74315.41524117175,-16966.02457356746
12286.061023004178,16046.94319330969,-74369.88644240933,-17019.199373626634
12068.3997354984,15921.326389470863,-74260.80992946743,-16945.863300068773
11936.83736763446,15867.346926611295,-74206.24932125203,-16900.39985184668
11996.360063118944,15908.80941257589,-74240.84982166885,-16919.53294510042
12208.880449400003,16009.816945769424,-74331.08381403492,-16987.415193011188
12304.43415694644,16056.152112025276,-74378.4024570468,-17038.533632580475
12078.569779225563,15928.210726763098,-74260.51935678952,-16966.292794500925
11968.733306972184,15871.549054568894,-74200.81784734939,-16910.122860684736
12020.343484919487,15912.251581222008,-74219.70507141412,-16915.219058420545
12207.315827288132,16019.27173367402,-74310.31904343594,-16999.149858850225
12271.308871663676,16047.926670065724,-74355.8495468914,-17045.261507661522
12035.386208937907,15921.549906915416,-74240.49219375756,-16971.657213170198
11931.316486754,15875.572368570847,-74183.29407969642,-16909.653474051174
12005.546630090072,15917.14661325772,-74220.39797549225,-16931.6475905952
12214.46838551383,16031.02875125751,-74313.71650859315,-16995.79709718193
12270.884188519023,16045.445626431185,-74337.25289550459,-17040.634696559275
12042.583470652518,15916.230191735052,-74215.4135364787,-16951.98767804953
11969.269748839111,15890.369223400265,-74169.23483243404,-16907.95474147257
12041.018848540649,15940.97357284708,-74208.90917884221,-16925.545564358898
12252.913385976955,16053.671068390737,-74303.30059567698,-16997.31701580489
12283.267054947264,16060.689516149703,-74331.46379369067,-17027.00013244154
12038.627211883928,15925.528517428462,-74216.12879230127,-16947.673791369652
11961.714859213216,15890.212761189076,-74174.68865808114,-16908.267665894946
12038.358990950464,15944.594555448835,-74218.5651324469,-16931.759349317475
12253.293365632697,16057.448513203684,-74313.26947370404,-17003.84372518584
12266.838522772614,16048.194890999186,-74327.8428110889,-17033.50449007803
12023.539784376597,15925.573220917371,-74218.1180975578,-16956.3015647294
11959.65849872333,15901.545095627916,-74184.47872215256,-16909.16173567316
12048.327868977532,15957.603270721827,-74223.90719937172,-16931.02174175045
12263.37400238204,16066.590376685905,-74320.82436332994,-17006.905914176215
12257.450790101384,16049.379533455318,-74332.26845649106,-17029.570583053897
12006.23953416819,15918.174793502663,-74220.68854817016,-16941.169433733157
11942.917042126304,15895.018386246968,-74189.53021639946,-16908.468831595044
12041.845863085491,15949.0649043399,-74231.1715163197,-16930.194727205602
12255.416781355952,16061.024792316532,-74339.4433664612,-16993.561922736397
12225.621905997028,16038.27071646103,-74343.51138395208,-17010.88452468926
11982.99371993467,15910.619903876772,-74223.66133018272,-16930.97703826154
11939.385466502365,15895.465421136072,-74201.24253049404,-16907.239485650003
12043.790464853104,15960.441942267653,-74249.74581596206,-16935.4473871526
12253.874510988537,16074.726411667636,-74349.41224448827,-17015.42192881369
12213.060225613144,16042.785768841002,-74328.75923261157,-17028.47534757559
11984.245417624166,15915.760805101492,-74216.24055102355,-16954.87105308426
11938.31258276851,15902.707386339593,-74196.72747811407,-16917.610695077266
12045.62330789844,15961.470122512595,-74242.1238711028,-16938.286058698424
12270.638319330015,16070.099600565389,-74345.52304095305,-17028.542402808955
12221.9338681619,16032.772187325025,-74306.29572943399,-17021.85923121682
11970.610853506429,15905.233133463042,-74182.62352736277,-16919.01885497795
11935.853890878429,15898.594665359817,-74169.92773651215,-16895.05778492186
12071.014889599668,15964.644070225248,-74234.68074019918,-16939.671866854653
12281.590674113117,16066.858597619368,-74339.35395948339,-17019.579353282377
12198.553943461651,16017.081262717398,-74304.59699685538,-16992.109059346803
11968.219216849711,15895.24190369152,-74191.89950131172,-16911.709834541063
11948.929661384782,15898.14763047071,-74175.62743134826,-16894.498991310476
12078.592130970015,15982.234893111576,-74238.30172280094,-16940.767102332964
12286.70922359338,16093.546580499004,-74336.78350887103,-17023.334446350866
12189.322673001609,16035.163823981742,-74288.21316816965,-16990.522085490476
11973.360118074432,15921.48285168205,-74180.90244303971,-16898.29878786788
11962.810094691527,15915.29141846793,-74179.5613383724,-16881.400869059667
12089.924465408858,15981.96667217811,-74238.05585361194,-16913.319160141848
12280.80836305718,16089.433859519228,-74332.02258730204,-17005.22953334207
12172.782382104682,16017.729463306605,-74279.00424945405,-16988.73394593405
11969.157990116832,15903.266179950975,-74179.00254476101,-16907.686520539108
11962.56422550252,15907.088328252832,-74186.7138965981,-16885.647700506175
12093.031357888149,15989.186285637175,-74245.09665311535,-16917.901267755184
12274.594578098606,16083.46594374966,-74350.26161077757,-17000.89329491774
12169.094344269555,16012.141527192776,-74305.2899009335,-16997.965216394095
11984.804211235549,15903.892028795724,-74205.01997530699,-16907.10537518327
11988.067565926023,15918.130090013754,-74188.65849836571,-16868.190988086582
12120.658114034906,16000.07158518691,-74254.66319974222,-16921.20932593457
12301.059043533687,16088.763307185567,-74344.4948607081,-16982.296643530924
12145.937937013858,16004.363120122329,-74264.69913300266,-16932.474605140043
11947.141521828356,15909.837592820835,-74168.54192835593,-16859.67497344911
11956.819827177504,15921.393444704228,-74184.45637040811,-16853.461188490535
12114.198459887322,16007.537067834985,-74268.25306037105,-16893.91784595464
12290.017281772767,16086.461077506672,-74369.66292496478,-16982.74367842003
12139.478282866274,15990.259169371033,-74294.31519440594,-16948.411398936678
11962.877149924892,15898.371147915264,-74190.44663792213,-16862.75951418394
11968.867417438916,15911.536325399438,-74182.60117561831,-16848.275583776904
12116.411282588397,15996.674120029704,-74259.49117654457,-16899.997520446483
12280.696604334904,16073.430010489228,-74353.14498581231,-16973.825332382363
12109.705759251803,15972.690698229158,-74271.06938017243,-16904.11024142626
11952.997678875648,15884.513066352973,-74192.23477747856,-16826.661446888622
11995.309531129544,15913.72679635606,-74219.05687082492,-16828.80721435633
12187.690995656372,16008.855820757846,-74300.59603459788,-16881.087944637293
12335.547785228227,16081.968376871157,-74350.1945555442,-16962.02361130996
12135.522024097683,15971.953090662131,-74249.18702235067,-16931.736997573018
11957.758600444628,15878.411040116674,-74165.85971902129,-16862.446589761566
11993.923722973315,15904.562581129385,-74189.70903035511,-16842.218261029513
12180.449030452852,16003.312588132929,-74291.29770890447,-16905.518401326943
12343.594413232138,16073.541769211504,-74380.95055591471,-17008.85051594383
12131.990448473744,15965.761657448014,-74271.51641506153,-16960.906024087195
11969.403859305845,15887.262330920976,-74176.09681798182,-16864.19002582908
11995.555400318552,15913.324464955864,-74202.762449117,-16868.705078209052
12171.150704759444,16008.006454468545,-74289.75543853706,-16928.138366715713
12303.093052279122,16062.120027794845,-74353.92729686825,-16996.646463471232
12100.698006236316,15947.388523505751,-74258.26183059953,-16937.615506364764
11961.714859213216,15879.305109894884,-74202.5612834169,-16876.416430046134
12005.367816134432,15905.81427881888,-74234.34546403235,-16903.327930370324
12181.678376397896,16002.418518354718,-74331.39673845729,-16981.469628986077
12286.932741037936,16048.060780532454,-74411.6618527963,-17040.008847714525
12083.598921728006,15934.178642532665,-74306.16161896725,-16982.207236553102
11972.868379696416,15876.444086604606,-74228.35519651833,-16925.83613703682
12024.053874499068,15897.857057792791,-74261.21226086763,-16937.079064497837
12212.121452346022,15995.109497917832,-74361.52688998306,-17021.61336202781
12309.128023282055,16052.8887573348,-74418.30032089954,-17104.38187174581
12093.2548753327,15945.39921824923,-74311.74955508109,-17046.93788849567
11977.629301265397,15899.309921182386,-74245.58839149337,-16998.993396639038
12048.976069566736,15936.48087221156,-74272.34342960638,-17018.014731170504
12253.628641799529,16039.433007172704,-74351.91563986726,-17087.43924944869
12326.003590345812,16069.22788253163,-74396.41796307778,-17138.647095995795
12095.557105011596,15940.906517613712,-74280.74768552156,-17060.66185959123
11988.358138603942,15888.96106349958,-74218.22985628007,-17009.811640955406
12055.3463167365,15929.305962241408,-74255.3784555648,-17026.910725463717
12260.021240713744,16032.436911158196,-74353.56966895696,-17107.064081080447
12318.560459442197,16050.541824166994,-74392.21583512018,-17141.10578788588
12074.725279179249,15921.616962148782,-74283.4298948562,-17067.23327246109
11978.098687898955,15885.228322175542,-74223.19194354916,-17009.096385132838
12051.926499834835,15934.066883810388,-74242.59325773636,-17023.4685568176
12261.585862825616,16044.350390952874,-74343.66784616325,-17099.91152285475
12314.492441951328,16052.329963723418,-74385.19738736122,-17130.421654036243
12083.665976961373,15919.20297374761,-74280.65827854375,-17051.89997576475
12002.506792844151,15888.134048954733,-74246.14718510475,-17008.626998499276
12079.53090423714,15939.833633879858,-74267.38134233729,-17037.818376757907
12287.71505209387,16055.392152713795,-74358.48705273712,-17129.326418557932
12301.327264467152,16055.638021902803,-74386.4043815618,-17143.229203609135
12044.48336893122,15916.09608126832,-74269.50475806055,-17055.69977232215
11961.826617935494,15878.90277849469,-74222.67785342668,-17002.390861796244
12053.267604502154,15933.798662876923,-74257.94890617716,-17020.875754460783
12286.150429982,16058.27552774853,-74366.48897725213,-17099.66565366574
12306.82579360316,16056.956774825669,-74384.8621111944,-17122.978523132628
12069.29380527661,15927.428415707162,-74270.75645575004,-17033.660952289218
11998.505830586651,15896.627711847748,-74234.3231122879,-16997.540533249445
12085.208247328788,15947.500282228028,-74274.06451392944,-17015.399577069235
12302.042520289722,16053.827530601924,-74375.22850933415,-17086.656938392753
12291.648959118003,16043.74689385258,-74377.26251807959,-17105.208886290657
12046.316211976557,15922.91336332719,-74267.73897024858,-17035.918478479205
11996.024786952114,15902.260351450486,-74247.9800281501,-17003.32963506337
12092.494916021218,15952.998811364034,-74292.50470310506,-17024.56379229591
12305.305874980197,16057.448513203684,-74383.78922746054,-17110.05921483746
12273.409935642474,16029.732350079104,-74362.28684929453,-17113.657845694765
12033.642772870397,15914.263238222986,-74236.4241762667,-17016.181888125167
11997.947036975267,15909.72583409856,-74228.53401047397,-16980.642614441233
12118.9593814563,15973.428305796184,-74284.6815925457,-17011.286856089457
12325.556555456706,16079.867312892356,-74377.44133203523,-17087.37219421532
12259.462447102362,16040.148262995275,-74352.54148871201,-17087.059269792946
12030.111197246457,15905.657816607692,-74229.91981863021,-17004.80485019742
11996.94120847478,15895.62188334726,-74216.91110335721,-16981.760201663998
12104.2072301158,15962.654764968724,-74266.9790109371,-16996.467649515587
12293.90648530799,16067.618556930847,-74369.77468368706,-17072.28476670799
12213.395501779974,16019.539954607482,-74348.62993343234,-17057.24204268957
12014.353217405464,15904.29436019592,-74242.45914726963,-16965.018745066973
12017.214240695745,15909.569371887372,-74225.00243485003,-16942.756407589484
12124.547317570128,15973.96474766311,-74265.50379580304,-16971.12077130327
12313.352502984108,16075.955757612675,-74371.69693371022,-17057.55496711194
12223.073807129122,16021.372797652815,-74340.40449147279,-17045.529728594985
12002.931475988804,15907.62477011976,-74235.86538265532,-16949.596041392808
11973.114248885424,15901.679206094648,-74228.71282442962,-16932.720474329053
12087.264607818675,15960.508997501016,-74289.33075539241,-16963.387067721735
12297.39335744302,16065.9421760967,-74384.10215188291,-17018.037082914958
12198.620998695016,16008.40878586874,-74338.37048272735,-16993.494867503032
11984.64774902436,15900.76278457198,-74234.14429833225,-16904.490221082
11995.063661940536,15914.732624856548,-74238.88286815678,-16894.476639566023
12135.007933975212,15989.476858315094,-74284.4804268456,-16939.6495151102
12320.505061209806,16081.253121048583,-74378.93889891374,-17017.45593755912
12194.754146904248,16008.721710291116,-74319.08092726242,-16994.187771581146
11982.70314725675,15895.845400791814,-74207.4116119637,-16910.569895573844
11981.160876889337,15902.9532555286,-74211.99371957705,-16895.102488410772
12121.64159079094,15984.11243964582,-74286.62619431331,-16935.93912553062
12314.425386717963,16080.582568714926,-74389.7124397412,-17028.944734209148
12171.798905348647,16001.457393343138,-74329.87681983433,-16998.03227162746
11972.13077212939,15896.135973469733,-74230.45626049713,-16915.666093309654
11993.789612506584,15908.921171298169,-74233.40669076523,-16921.701064312587
12136.863128765002,15997.434079341185,-74285.26273790155,-16961.487169443033
12309.172726770965,16086.639891462317,-74372.81452093298,-17013.097347390336
12152.285832439164,15995.802401995948,-74305.9381015227,-16968.527968946455
11983.910141457336,15894.057261235388,-74209.44562070914,-16875.92469166812
12004.004359722658,15906.57423813036,-74216.4640684681,-16879.791543458887
12151.92820452788,16000.898599731756,-74285.66506930174,-16917.87891601073
12319.543936198228,16086.528132740035,-74371.11578835438,-16989.918588390185
12153.246957450743,15988.761602492525,-74290.20247342616,-16945.617430879764
11980.959711189236,15895.308958924888,-74205.82463810738,-16871.968432899528
12003.490269600186,15912.743319600026,-74220.1744580477,-16859.697325193563
12164.176960489389,16002.373814865809,-74300.50662762007,-16918.549468344387
12319.67804666496,16078.749725669591,-74387.49961704011,-16991.259693057502
12151.436466149864,15974.657651741223,-74305.15579046677,-16947.673791369652
11982.792554234573,15889.51985711096,-74209.82560036489,-16881.95966267105
11995.890676485382,15917.906572569202,-74215.99468183455,-16884.10543013876
12148.798960304135,16011.806251025946,-74291.99061298258,-16933.614544107266
12301.371967956064,16079.196760558698,-74367.62891621934,-16998.814582683397
12135.11969269749,15972.176608106687,-74279.8312639989,-16931.714645828564
11978.858647210438,15895.376014158252,-74202.18130376117,-16859.00442111545
12023.316266932045,15921.95223831561,-74229.0704523409,-16847.828548887795
12204.79008016468,16018.824698784912,-74305.3346044224,-16913.49797409749
12322.62847693306,16082.393060015806,-74365.50550049609,-16977.938053362137
12101.703834736803,15964.934642903168,-74275.27150813003,-16913.766195030952
11961.424286535295,15892.827915290349,-74204.2600159955,-16851.114255322726
12002.976179477711,15923.025122049468,-74222.14141155976,-16863.295956050868
12178.705594385336,16022.400977897762,-74317.20338072817,-16929.188898705113
12300.030863288745,16078.90618788078,-74378.76008495809,-16981.156704563702
12086.01291012918,15958.989078878056,-74260.25113585606,-16901.852715236273
11952.036553864067,15889.676319322149,-74195.14050425774,-16848.34263901027
12022.869232042936,15932.05522680941,-74224.77891740548,-16858.87031064872
12214.736606447294,16042.875175818825,-74313.04595625949,-16939.515404643465
12290.91135155098,16083.153019327288,-74353.16733755676,-16973.423000982166
12054.139322535912,15948.506110728516,-74240.82746992439,-16883.993671416483
11929.260126264113,15882.166133185165,-74179.38252441675,-16821.67700787509
11992.22499039471,15921.460499937595,-74208.4621439531,-16824.51567942091
12192.854248625548,16031.878117546812,-74298.04793572998,-16893.40375583217
12266.279729161231,16063.841112117902,-74349.03226483254,-16940.25301221049
12037.196700238788,15938.783101890458,-74245.58839149337,-16884.999499916972
11931.02591407608,15891.755031556491,-74199.67790838217,-16851.114255322726
12003.1326416889,15941.48766296955,-74234.65838845473,-16859.563214726833
12198.553943461651,16049.89362357779,-74318.3880231843,-16925.43380563662
12267.062040217166,16079.80025765899,-74340.35978798388,-16959.810788608884
12045.57860440953,15955.211634065108,-74234.63603671028,-16901.58449430281
11950.047248607549,15911.558677143894,-74185.0151640195,-16842.128854051694
12017.52716511812,15952.171796819186,-74225.29300752796,-16852.634173945688
12230.963972921843,16062.723524895137,-74316.77869758352,-16931.20055570609
12275.421592643452,16079.42027800325,-74343.37727348534,-16963.4541229551
12031.38524668041,15953.02116310849,-74226.65646393973,-16874.650642234166
11942.827635148482,15915.358473701295,-74182.48941689605,-16819.55359215183
12000.293970143077,15953.82582590888,-74218.98981559156,-16836.60797317123
12204.566562720129,16061.583585927916,-74324.28888372051,-16904.601979804276
12255.349726122586,16073.452362233684,-74347.08766306491,-16922.326913157336
12028.166595478844,15947.030895594466,-74227.75169941803,-16835.535089437377
11952.349478286444,15912.67626436666,-74197.97917580357,-16793.7149755615
12029.083017001512,15962.811227179913,-74241.9674088916,-16823.66631313161
12252.399295854486,16072.647699433292,-74347.06531132046,-16901.919770469638
12275.466296132365,16068.17735054223,-74358.7999771595,-16926.372578903745
12035.833243827015,15935.29622975543,-74243.55438274794,-16867.743953197474
11963.905330169837,15906.931866041645,-74204.23766425105,-16829.27660098989
12054.72046789175,15963.615889980303,-74243.86730717031,-16848.677915177097
12275.041612987712,16080.113182081364,-74348.62993343234,-16930.239430694513
12269.721897807349,16058.633155659814,-74352.22856428965,-16952.79234084992
12034.313325204055,15929.10479654131,-74225.65063543923,-16862.53599673939
11969.403859305845,15909.390557931729,-74198.64972813723,-16825.543859665857
12056.48625570372,15966.499265015038,-74249.2764293285,-16852.701229179052
12286.932741037936,16078.034469847022,-74352.4520817342,-16938.01783776496
12286.105726493088,16067.17152204174,-74346.46181422018,-16962.582404921344
12042.76228460816,15944.147520559733,-74226.87998138428,-16863.184197328592
11994.974254962714,15926.020255806478,-74207.27750149698,-16805.829621056273
12105.548334783118,15996.383547351785,-74258.08301664388,-16822.124042764193
12324.796596145225,16108.946932428713,-74365.81842491847,-16884.552465027864
12272.00177574179,16075.955757612675,-74344.91954385275,-16877.846941691274
12034.335676948507,15953.870529397793,-74223.86249588281,-16790.876304015674
11987.665234525828,15938.671343168182,-74215.83821962336,-16775.587710808242
12082.995424627714,16001.971483465612,-74265.19087138068,-16801.202809954026
12304.612970902082,16115.943028443222,-74357.14594806981,-16880.90913068165
12259.797723269192,16081.297824537496,-74326.07702327693,-16879.970357414528
12032.927517047823,15957.424456766184,-74216.68758591266,-16783.79080102334
12002.61855156643,15945.10864557131,-74209.6691381537,-16763.115437402183
12122.088625680046,16012.856783015346,-74269.75062724955,-16793.84908602823
12335.72659918387,16115.80891797649,-74370.22171857617,-16868.973299142515
12255.32737437813,16062.36589698385,-74336.78350887103,-16841.793577884862
12021.058740742055,15941.130035058266,-74227.19290580666,-16726.905611384584
12001.120984687925,15942.694657170136,-74226.70116742863,-16695.948445313985
12127.475396093774,16016.164841194732,-74285.79917976847,-16741.523652258355
12327.0094188463,16120.703950012205,-74383.16337861579,-16825.074473032295
12230.405179310465,16057.716734137148,-74344.293695008,-16812.110461248216
12016.454281384264,15947.05324733892,-74223.88484762727,-16711.169983288048
12001.27744689911,15948.282593283964,-74222.76726040451,-16684.817276575242
12124.815538503592,16018.64588482927,-74285.7321245351,-16733.946410888006
12319.879212365058,16119.653418022805,-74382.71634372669,-16796.33012966277
12200.453841740353,16054.162806768752,-74331.55320066848,-16776.481780586455
11994.124888673412,15938.090197812344,-74223.70603367162,-16688.30414871027
12002.23857191069,15943.186395548151,-74219.30274001393,-16665.77359029932
12147.1672829589,16029.754701823558,-74279.60774655435,-16717.920210113552
12326.696494423926,16126.850679737412,-74374.46855002268,-16791.99389123844
12192.0272340807,16050.273603233529,-74316.8904563058,-16758.153350133103
12003.244400411177,15950.987154363056,-74219.05687082492,-16673.931977025506
12019.583525608006,15965.180512092176,-74221.80613539292,-16669.39457290108
12167.417963435408,16046.116178764843,-74288.2355199141,-16716.109718812673
12342.521529498285,16137.981848476154,-74371.54047149903,-16787.32237664728
12183.622978165506,16047.010248543054,-74296.79623804048,-16763.741286246932
11994.527220073607,15941.688828669649,-74205.13173402927,-16693.64621563509
12020.455243641763,15958.9667271336,-74209.5126759425,-16686.180732987017
12183.242998509766,16051.949984067678,-74283.65341230076,-16764.74711474742
12347.2153958339,16133.131519929351,-74372.5015965106,-16891.749726742473
12173.31882397161,16033.219222214131,-74298.40556364127,-16868.459209020046
11982.524333301108,15937.53140420096,-74204.4611816956,-16792.37387089418
12009.391130136388,15963.481779513571,-74212.79838237744,-16788.149391192128
12175.46459143932,16058.27552774853,-74285.01686871254,-16834.909240592628
12347.975355145378,16140.395836877327,-74372.27807906605,-16885.24536910598
12168.535550658173,16037.331943193907,-74295.54454035098,-16833.56813592531
12000.1822114208,15943.67813392617,-74208.99858582004,-16774.80539975231
12041.063552029556,15979.843256454857,-74225.33771101687,-16781.08623994425
12211.048568612166,16084.717641439158,-74303.1888369547,-16835.646848159653
12355.083209882168,16156.802017307524,-74366.42192201877,-16910.1899159181
12173.765858860716,16050.966507311645,-74260.45230155616,-16839.245479016958
12012.430967382308,15967.706259215624,-74182.73528608505,-16760.83555946774
12040.23653748471,15986.01233792452,-74213.80421087792,-16747.64803023911
12223.632600740506,16078.66031869177,-74316.01873827205,-16815.48557466097
12370.282396111776,16151.884633527356,-74386.82906470646,-16892.979072687518
12155.191559218354,16036.54963213797,-74265.72731324761,-16851.181310556094
11998.61758930893,15954.719895687093,-74171.26884117948,-16786.249492913426
12034.71565660425,15977.116343631307,-74187.89853905422,-16776.682946286553
12209.148670333469,16068.691440664705,-74276.6349645418,-16827.108481777726
12324.327209511664,16121.732130257147,-74346.86414562036,-16873.041316633382
12105.995369672224,16009.682835302692,-74256.4289875542,-16810.635246114165
11968.532141272086,15945.890956627243,-74184.23285296356,-16756.544024532323
12027.406636167363,15988.560436792426,-74216.2181992791,-16752.431303552545
12229.108778132057,16097.122859611853,-74314.11883999335,-16805.18142046707
12338.989953874345,16148.889499770345,-74371.69693371022,-16832.71876963601
12124.748483270228,16024.993780254576,-74253.36679856382,-16752.61011750819
11998.148202675367,15962.67711671318,-74183.51759714099,-16696.909570325563
12045.33273522052,15996.16002990723,-74216.55347544592,-16715.461518223467
12232.0368566557,16092.719565954158,-74312.26364520355,-16799.057042486314
12320.840337376636,16130.538717572535,-74365.01376211808,-16840.832452873285
12091.44438403182,16005.63716955628,-74262.73217949059,-16771.87732122866
11977.294025098568,15954.295212542442,-74211.63609166576,-16732.06886435376
12039.186005495312,15999.69160553117,-74237.273542556,-16748.229175594948
12229.578164765617,16104.074252137454,-74328.96039831167,-16828.42723470059
12307.228125003354,16138.183014176251,-74376.9495936572,-16870.3814590432
12074.635872201428,16009.861649258335,-74269.84003422738,-16805.22612395598
11968.778010461094,15959.458465511618,-74216.8663998683,-16749.525576773354
12036.61555488295,16004.474878844603,-74248.51647001701,-16760.433228067544
12229.220536854333,16102.442574792216,-74354.62020094636,-16879.791543458887
12296.543991153716,16132.013932706588,-74371.94280289923,-16932.83223305133
12074.814686157071,16005.59246606737,-74255.26669684252,-16844.162862797126
11984.312472857531,15964.0182213805,-74211.05494630992,-16764.2553763694
12046.42797069883,16008.028806212998,-74251.80217645195,-16752.274841341357
12238.317696847642,16110.489202796129,-74357.7494451701,-16814.03271127137
12277.56736011116,16116.9041534548,-74386.82906470646,-16849.37081925521
12040.482406673718,15986.034689668975,-74270.08590341639,-16786.361251635703
11968.643899994362,15956.217462565595,-74227.23760929557,-16754.46531229798
12059.52609294964,16006.777108523502,-74261.39107482327,-16765.238853125436
12261.339993636608,16119.76517674508,-74346.68533166473,-16825.74502536595
12283.825848558648,16124.9060779698,-74357.7047416812,-16847.80619714334
12052.1947207683,15990.192114137664,-74245.65544672674,-16764.300079858313
11969.783838961584,15953.691715442148,-74217.20167603513,-16728.291419540816
12043.030505541625,16013.192059182174,-74258.17242362171,-16761.12613214566
12270.057173974175,16139.14413918783,-74350.23925903311,-16826.482632932977
12288.117383494066,16127.208307648696,-74343.33256999643,-16833.14345278066
12042.985802052714,15990.706204260136,-74218.54278070245,-16738.662628968075
11976.824638465005,15962.9676893911,-74183.69641109662,-16698.96593081545
12063.459999973777,16014.376701638306,-74233.25022855404,-16724.916306128063
12270.52656060774,16124.012008191588,-74333.90013383629,-16787.74705979193
12247.437208585408,16106.197667860708,-74338.52694493854,-16786.69652780253
11999.444603853775,15978.50215178754,-74225.2706557835,-16711.08057631023
11945.040457849558,15962.699468457637,-74213.40187947774,-16684.482000408414
12050.831264356526,16022.155108708754,-74267.29193535948,-16720.825936892743
12284.697566592404,16137.154833931309,-74365.01376211808,-16795.74898430693
12260.937662236413,16111.115051640876,-74342.28203800703,-16797.35830990771
12020.52229887513,15988.471029814606,-74215.77116439,-16697.91539882605
11976.019975664614,15975.30585233043,-74193.79939959043,-16661.794979786275
12073.518284978663,16034.493271648083,-74239.26284781253,-16706.11848904115
12280.964825268367,16134.919659485777,-74337.85639260488,-16807.126022234683
12237.714199747348,16097.391080545316,-74315.70581384966,-16833.478728947488
12002.573848077518,15977.205750609131,-74202.22600725008,-16746.79866394981
11974.857684952938,15972.44482904015,-74188.0102977765,-16715.059186823273
12099.580419013551,16048.239594488095,-74243.12969960329,-16737.92502140105
12308.457470948397,16147.995429992132,-74345.27717176404,-16820.38060669668
12226.359513564052,16082.862446649367,-74312.15188648128,-16808.623589113187
11985.60887403594,15965.53814000346,-74206.5175421855,-16728.06790209626
11967.571016260508,15968.622680738294,-74202.27071073899,-16701.20110526098
12100.541544025127,16045.60208864237,-74258.10536838835,-16743.669419726066
12298.600351643605,16150.990563749145,-74357.07889283645,-16825.297990476847
12200.610303951538,16095.692347966711,-74315.05761326046,-16806.5672286233
11989.56513280453,15980.0220704105,-74202.06954503889,-16722.479965982435
11987.50877231464,15975.663480241714,-74194.04526877943,-16712.600494933187
12111.940933697337,16046.272640976027,-74256.40663580975,-16762.89191995763
12310.223258760365,16147.816616036487,-74357.14594806981,-16841.81592962932
12209.886277900492,16085.23173156163,-74310.7884300695,-16827.399054455647
11992.604970050452,15974.747058719047,-74209.28915849795,-16739.46729176847
11975.729402986695,15978.524503531991,-74210.27263525399,-16732.091216098215
12103.82725046006,16051.860577089856,-74269.34829584937,-16797.80534479682
12293.19122948542,16146.296697413529,-74350.21690728866,-16933.547488873897
12174.905797827936,16068.959661598166,-74286.60384256886,-16945.371561690758
11971.929606429292,15960.799570178937,-74187.02682102047,-16869.219168331525
11973.382469818887,15966.745134204048,-74190.71485885559,-16875.947043412572
12113.460852320297,16043.210451985651,-74265.45909231414,-16921.432843379123
12293.392395185518,16142.38514213385,-74365.77372142956,-17002.659082729708
12157.627899363984,16067.8420743754,-74299.59020609739,-16967.74565789052
11956.685716710774,15965.359326047816,-74196.23573973606,-16889.335738341302
11964.195902847756,15968.265052827008,-74210.18322827616,-16882.42904930461
12121.30631462411,16038.248364716574,-74284.07809544541,-16921.96928524605
12305.261171491287,16118.401720333306,-74376.59196574593,-16996.713518704597
12159.326631942587,16036.482576904606,-74301.19953169818,-16959.006125808493
11970.94612967326,15961.559529490416,-74203.29889098393,-16887.4358400626
11977.13756288738,15982.92779718969,-74214.40770797821,-16898.075270423327
12135.343210142042,16057.917899837244,-74300.12664796432,-16958.804960108395
12312.324322739163,16144.9108892573,-74401.11182941339,-17028.43064408668
12164.288719211663,16063.28231850652,-74315.5940551274,-16979.189751051636
12008.251191169167,15974.322375574397,-74222.70020517113,-16910.592247318298
12021.192851208789,15993.522524061504,-74216.10644055682,-16900.288093124404
12169.496675669752,16075.70988842367,-74284.92746173471,-16942.555241889386
12323.813119389191,16143.10039795642,-74364.18674757323,-17017.3665305813
12140.484111366764,16030.537012879491,-74280.59122331039,-16963.387067721735
11970.74496397316,15949.020200850988,-74202.06954503889,-16885.088906894794
12009.838165025492,15979.530332032482,-74224.91302787222,-16877.28814807989
12180.717251386315,16072.044202332998,-74294.00226998357,-16929.434767894123
12316.973485585868,16139.14413918783,-74384.5044832831,-17003.910780419206
12125.575497815073,16028.279486689507,-74286.3356216354,-16959.386105464233
11974.544760530564,15952.507072986016,-74202.3154142279,-16885.647700506175
12015.873136028426,15985.811172224425,-74239.12873734579,-16899.885761724207
12221.240964083789,16092.116068853864,-74343.22081127415,-16975.345251005325
12360.537035529262,16159.238357453152,-74398.96606194568,-17036.521975579497
12127.810672260604,16030.715826835136,-74282.04408669999,-16974.227663782556
11967.950995916248,15948.48375898406,-74200.90725432722,-16902.232694892013
12005.52427834562,15980.267939599507,-74223.48251622707,-16887.234674362502
12179.107925785533,16082.214246060164,-74319.75147959607,-16948.321991958856
12296.611046387085,16134.33851412994,-74384.52683502756,-16999.820411183886
12108.029378417656,16017.729463306605,-74278.66897328723,-16941.750579088995
11981.071469911512,15952.73059043057,-74218.22985628007,-16898.276436123426
12032.48048215872,15990.169762393209,-74239.88869665728,-16902.947950714584
12228.304115331664,16095.46883052216,-74326.92638956623,-16964.392896222223
12317.91225885299,16134.182051918751,-74383.2080821047,-17027.670684775196
12102.664959748385,16011.493326603571,-74275.56208080794,-16960.16841652017
11999.444603853775,15966.722782459592,-74218.02869057997,-16911.598075818787
12039.387171195409,16004.07254744441,-74244.09082461486,-16928.339532415812
12230.60634501056,16101.66026373628,-74328.35690121137,-16980.486152230045
12308.993912815324,16129.443482094228,-74374.98264014514,-17032.923344722192
12086.996386885214,16009.682835302692,-74263.78271147999,-16956.726247874052
11989.431022337798,15971.170779606198,-74197.64389963674,-16895.39306108869
12048.439627699809,16016.164841194732,-74231.75266167553,-16901.182162902613
12247.973650452335,16118.04409242202,-74335.77768037053,-16970.137294547236
12330.384532259051,16143.502729356616,-74382.5598815155,-17009.856344444317
12105.146003382924,16016.008378983544,-74270.06355167193,-16939.78362557693
12007.312417902043,15973.182436607176,-74224.66715868321,-16893.023776176426
12067.080982575537,16021.417501141728,-74257.94890617716,-16915.844907265295
12266.61500532806,16126.76127275959,-74363.85147140641,-16984.46476274309
12336.620668962085,16146.76608404709,-74387.03023040656,-17015.08665264686
12098.753404468704,16016.768338295024,-74254.41733055322,-16957.754428118995
12003.020882966624,15982.056079155933,-74206.09285904084,-16940.07419825485
12077.943930380814,16027.720693078125,-74235.23953381057,-16940.990619777516
12282.931778780436,16135.992543219632,-74332.02258730204,-17002.904951918717
12306.177593013954,16136.43957810874,-74362.44331150572,-17040.053551203437
12070.76902041066,16002.485573588085,-74251.08692062937,-16954.6028321508
12004.496098100675,15969.337936560863,-74213.96067308911,-16903.283226881413
12097.792279457126,16031.296972190974,-74243.97906589259,-16937.906079042685
12301.997816800813,16140.507595599604,-74337.2975989935,-17025.3684550963
12313.665427406482,16142.943935745232,-74347.08766306491,-17057.3761531563
12070.634909943929,16015.673102816714,-74236.15595533323,-16964.772875877963
12012.207449937756,15986.146448391251,-74210.38439397626,-16922.885706768717
12080.402622270898,16025.105538976852,-74243.26381007001,-16956.413323451678
12278.640243845017,16130.091682683433,-74336.26941874855,-17039.427702358687
12285.725746837348,16113.573743530958,-74332.71549138016,-17044.590955327865
12063.750572651694,15983.39718382325,-74212.70897539961,-16949.12665475925
12017.728330818216,15965.359326047816,-74184.79164657494,-16930.462948139066
12110.935105196848,16026.044312243976,-74232.57967622038,-16964.348192733312
12309.686816893438,16133.355037373904,-74338.21402051617,-17038.08659769137
12277.232083944333,16104.56599051547,-74339.35395948339,-17054.55983335493
12040.504758418174,15980.849084955344,-74233.45139425414,-16983.950672620616
12021.2375546977,15979.418573310206,-74210.3620422318,-16944.611602379275
12127.855375749514,16048.865443332845,-74248.78469095049,-16973.288890515436
12325.824776390167,16143.838005523445,-74354.553145713,-17068.28380445049
12283.468220647364,16101.548505014003,-74334.25776174758,-17081.89601682377
12054.496950447196,15982.413707067217,-74222.02965283747,-16990.700899446118
12007.75945279115,15970.053192383431,-74205.75758287401,-16959.676678142154
12116.38893084394,16037.019018771533,-74252.74094971907,-16989.136277334248
12330.898622381525,16146.453159624716,-74353.1002823234,-17069.222577717614
12280.294272934709,16102.464926536672,-74327.1946104997,-17075.32460395391
12055.94981383679,15983.553646034436,-74211.70314689913,-16995.953559393118
12025.61849661094,15979.329166332383,-74210.67496665419,-16971.947785848115
12138.941840999349,16055.101580035876,-74272.4775400731,-16996.780573937962
12350.031715635268,16153.561014361503,-74371.8533959214,-17086.76869711503
12281.344804924109,16098.910999168278,-74329.69800587869,-17082.05247903496
12061.649508672896,15984.984157679575,-74211.94901608814,-16992.93607389165
12033.441607170298,15984.157143134733,-74194.29113796844,-16943.49401515651
12145.155625957925,16051.324135222929,-74253.38915030827,-16978.362736506788
12333.714942182893,16150.252956182116,-74356.67656143625,-17053.799874043452
12236.060170657656,16092.719565954158,-74317.31513945045,-17043.272202405
12033.799235081582,15981.631396011282,-74207.74688813054,-16970.65138466971
12022.735121576205,15981.519637289006,-74205.86934159629,-16966.18103577865
12150.296527182643,16050.899452078278,-74271.51641506153,-17013.522030534987
12350.881081924568,16156.354982418416,-74365.01376211808,-17094.100069296368
12235.434321812909,16088.740955441112,-74314.02943301552,-17085.5840546589
12015.582563350506,15977.272805842496,-74204.63999565125,-17001.09446061784
12006.217182423734,15984.000680923544,-74198.06858278139,-16978.65330918471
12140.439407877851,16060.354239982871,-74265.28027835849,-17003.88842867475
12334.988991616843,16155.371505662384,-74354.91077362427,-17069.982537029093
12205.907667387446,16075.307557023474,-74297.80206654097,-17045.50737685053
12007.781804535603,15969.941433661155,-74196.70512636962,-16973.11007655979
12017.99655175168,15980.82673321089,-74204.79645786244,-16968.371506735268
12160.35481218753,16055.682725391714,-74278.31134537594,-17015.2654666025
12343.505006254318,16144.307392157009,-74365.79607317402,-17087.036918048492
12191.289626513675,16062.075324305932,-74298.91965376373,-17063.500531137055
12003.087938199991,15961.514826001505,-74208.32803348638,-16982.900140631216
12020.991685508692,15978.725669232092,-74219.99564409205,-16976.507541716997
12180.896065341958,16063.639946417805,-74294.20343568367,-17036.924306979694
12346.92482315598,16147.973078247676,-74371.4510645212,-17113.836659650406
12166.859169824023,16048.977202055125,-74299.79137179749,-17059.544272368465
11991.107403171944,15953.356439275318,-74210.9655393321,-16970.27140501397
12021.684589586806,15970.276709827986,-74217.78282139097,-16970.606681180798
12176.202199006344,16054.341620724395,-74297.57854909642,-17028.877678975783
12328.48463398035,16140.9099269998,-74369.93114589824,-17087.707470382153
12145.0662189801,16035.722617593125,-74281.97703146661,-17029.48117607608
11983.396051334865,15954.228157309077,-74197.84506533683,-16956.949765318604
12023.405673909863,15986.392317580265,-74218.43102198017,-16966.53866368993
12190.46261196883,16082.214246060164,-74298.36086015236,-17021.389844583256
12325.265982778788,16147.324877658471,-74365.86312840738,-17082.991252302083
12132.504538596218,16039.36595193934,-74275.94206046368,-17034.063283689415
11979.886827455382,15965.046401625445,-74192.90532981222,-16979.972062107572
12031.564060636052,16000.004529953543,-74205.89169334075,-16974.92056786067
12219.050493127168,16100.453269535694,-74292.75057229407,-17036.767844768507
12337.224166062377,16157.316107429995,-74360.07402659346,-17098.503362954067
12124.882593736958,16039.187137983698,-74263.44743531317,-17031.403426099234
11966.676946482296,15959.30200330043,-74194.49230366854,-16976.686355672642
12016.543688362086,15987.64401526976,-74214.20654227812,-16982.520160975477
12205.84061215408,16082.236597804618,-74301.0877729759,-17037.147824424246
12324.371913000574,16134.763197274591,-74369.64057322033,-17100.067985065936
12112.723244753272,16020.41167264124,-74264.20739462464,-17027.98360919757
11970.879074439892,15950.026029351477,-74204.17060901769,-16969.31028000239
12022.846880298484,15989.722727504102,-74234.07724309889,-16975.680527172153
12214.691902958382,16092.876028165345,-74322.67955811972,-17041.528766337487
12310.737348882836,16141.938107244743,-74377.73190471315,-17096.759926886552
12077.586302469528,16023.07153023142,-74268.70009526017,-17037.639562802266
11940.190129302757,15955.211634065108,-74213.84891436684,-16980.329690018858
11990.570961305018,15989.275692614996,-74244.69432171516,-16985.93997787714
12183.533571187683,16095.871161922356,-74344.18193628573,-17054.626888588296
12280.13781072352,16139.255897910109,-74380.99525940363,-17099.017453076536
12058.184988282324,16014.376701638306,-74272.8798714733,-17031.51518482151
11940.815978147504,15953.557604975416,-74217.78282139097,-16971.27723351446
11997.32118813052,15996.428250840694,-74251.31043807392,-16984.107134831804
12181.588969420072,16096.80993518948,-74349.81457588846,-17068.149693983756
12263.731630293329,16117.686464510736,-74393.42282932077,-17116.58592421841
12035.60972638246,15998.64107354177,-74279.07130468742,-17037.03606570197
11915.223230746178,15959.34670678934,-74222.74490866005,-16978.27332952897
11979.976234433205,15999.915122975724,-74249.70111247315,-16991.08087910186
12197.70457717235,16099.827420690945,-74338.54929668299,-17065.512188138033
12261.071772703144,16124.32493261396,-74372.38983778833,-17120.85510740937
12031.89933680288,15995.243608384564,-74263.53684229098,-17050.491815864065
11942.17943455928,15958.20676782212,-74222.5213912155,-17007.554114765422
12015.224935439222,16007.671178301714,-74260.69817074516,-17014.997245669038
12227.298286831176,16114.937199942731,-74363.56089872848,-17091.283749495
12263.083429704122,16129.599944305415,-74389.89125369684,-17126.219526078647
12028.390112923398,15999.26692238652,-74277.35022036436,-17059.454865390642
11952.394181775357,15959.793741678446,-74237.87703965629,-17016.785385225463
12024.299743688076,16015.203716183152,-74271.69522901718,-17020.249905616034
12224.07963562961,16117.082967410444,-74389.66773625228,-17105.34299675739
12249.89590047549,16113.9537231867,-74403.43641083674,-17142.15631987528
12009.81581328104,15990.996776938056,-74285.7321245351,-17063.008792759036
11953.422362020296,15968.622680738294,-74245.14135660426,-17021.345141094345
12041.57764215203,16020.568134852429,-74281.64175529979,-17035.873774990294
12248.353630108077,16126.627162292858,-74384.4597797942,-17109.411014248253
12255.28267088922,16113.998426675613,-74393.73575374315,-17122.240915565602
12014.084996472002,15981.83256171138,-74284.14515067877,-17042.37813262679
11947.007411361625,15957.670325955192,-74256.71956023212,-17006.525934520476
12046.942060821302,16017.21537318413,-74302.71945032114,-17011.823297956384
12271.644147830504,16130.538717572535,-74400.44127707974,-17085.047612791972
12246.118455662545,16109.818650462468,-74393.80280897651,-17106.259418280057
11993.409632850842,15980.245587855052,-74266.75549349254,-17026.08371091887
11960.977251646193,15967.527445259982,-74241.69918795815,-16988.1080970893
12087.10814560749,16025.954905266157,-74302.04889798748,-17026.664856274707
12299.315607466177,16127.72239777117,-74396.12739039987,-17107.37700550282
12257.540197079206,16106.197667860708,-74370.37818078735,-17118.10584284137
12022.176327964822,15999.222218897608,-74253.14328111926,-17029.436472587167
11978.880998954894,15985.565303035415,-74234.54662973245,-16985.336480776845
12084.224770572757,16039.343600194885,-74301.49010437609,-17029.503527820532
12286.083374748634,16139.837043265945,-74414.90285574233,-17103.57720894542
12234.786121223704,16098.888647423822,-74382.58223325995,-17099.062156565447
12010.84399352598,15971.617814495305,-74266.66608651473,-17022.64154227275
11986.391185091876,15975.551721519438,-74249.7234642176,-16995.350062292822
12111.851526719514,16048.820739843935,-74304.57464511093,-17027.35776035282
12317.755796641804,16151.19172944924,-74413.69586154174,-17104.113650812345
12235.32256309063,16099.402737546294,-74377.1507593573,-17092.1331157843
12002.75266203316,15980.78202972198,-74268.2307086266,-17019.37818758228
11986.637054280884,15983.93362569018,-74250.75164446255,-16998.769879194486
12105.056596405102,16053.60401315737,-74309.31321493545,-17034.6220773008
12305.730558124847,16151.661116082803,-74410.6113208069,-17117.56940097444
12215.138937847489,16094.574760743948,-74369.64057322033,-17107.24289503609
11996.672987541317,15981.899616944746,-74257.16659512122,-17024.116757406802
11984.1783623908,15986.59348328036,-74238.34642628985,-16992.84666691383
12108.342302840032,16059.974260327132,-74294.9857467396,-17016.874792203285
12305.663502891482,16153.248089939128,-74397.17792238927,-17099.978578088114
12195.022367837711,16092.719565954158,-74349.1440235548,-17090.456734950156
11993.007301450649,15985.140619890764,-74229.04810059644,-17006.347120564835
11992.001472950158,15992.270826372009,-74222.47668772658,-16987.146972077724
12122.312143124598,16070.904263365775,-74285.8885867463,-17022.574487039386
12323.276677522264,16168.000241279631,-74380.59292800343,-17090.389679716787
12199.872696384513,16089.635025219326,-74326.00996804357,-17074.832865575896
12001.053929454558,15986.660538513726,-74236.44652801115,-17001.206219340114
12001.27744689911,15996.003567696043,-74236.89356290025,-16986.11879183278
12131.54341358464,16079.397926258796,-74307.07804048993,-17041.059379703926
12319.29806700922,16175.555130905526,-74402.22941663617,-17127.158299345767
12187.400422978451,16092.116068853864,-74336.2470670041,-17104.694796168184
11992.292045628075,15988.739250748067,-74239.91104840173,-17021.948638194637
12011.04515922608,16004.854858500346,-74238.18996407867,-16992.354928535813
12162.277062210687,16083.980033872132,-74310.29669169149,-17038.13130118028
12337.67120095148,16177.075049528486,-74408.309091128,-17116.67533119623
12177.006861806734,16086.349318784396,-74327.30636922197,-17076.933929554692
11979.730365244195,15988.851009470343,-74222.05200458193,-16988.085745344848
12000.718653287728,16011.918009748222,-74228.33284477387,-16978.586253951344
12158.298451697645,16095.8488101779,-74295.25396767307,-17025.659027774218
12316.682912907949,16176.493904172648,-74378.98360240264,-17081.560740656943
12143.278079423677,16077.408621002272,-74311.30252019198,-17037.527804079986
11965.201731348245,15982.9725006786,-74230.59037096387,-16972.417172481677
12003.892601000382,16006.955922479145,-74240.35808329083,-16976.820466139372
12170.256634981231,16094.485353766127,-74309.96141552465,-17032.789234255462
12316.504098952306,16159.216005708697,-74388.34898332942,-17099.799764132473
12133.108035696512,16053.425199201729,-74300.84190378689,-17048.591917585363
11972.51075178513,15967.25922432652,-74220.44267898116,-16980.75437316351
12014.04029298309,15996.718823518611,-74241.36391179133,-16985.358832521302
12194.262408526232,16096.13938285582,-74321.07023251895,-17035.80671975693
12332.977334615867,16163.8651685554,-74383.4539512937,-17085.315833725435
12127.274230393676,16051.525300923027,-74283.80987451195,-17034.242097645056
11974.969443675214,15971.506055773028,-74209.1103445423,-16971.63486142574
12030.2900112021,16008.542896335472,-74227.39407150676,-16971.590157936833
12203.068995841622,16109.215153362176,-74313.98472952661,-17029.28001037598
12318.158128042,16159.439523153247,-74378.82714019145,-17082.566569157432
12109.370483084977,16040.79646358448,-74289.57662458142,-17032.27514413299
11985.631225780397,15973.808285451923,-74214.87709461179,-16964.5046549445
12031.564060636052,16004.921913733711,-74217.8722283688,-16969.377335235757
12205.0806528426,16099.492144524116,-74291.85650251586,-17035.024408700992
12301.371967956064,16145.693200313235,-74356.92243062526,-17096.71522339764
12082.637796716428,16022.69155057568,-74254.19381310866,-17038.26541164701
11948.214405562212,15949.53429097346,-74195.20755949111,-16978.25097778451
12004.80902252305,15992.762564750024,-74224.86832438331,-16963.92350958866
12210.981513378802,16100.453269535694,-74315.75051733859,-17004.849553686327
12318.202831530907,16144.821482279478,-74379.050657636,-17047.027295473494
12095.1547736114,16021.417501141728,-74283.3851913673,-16980.329690018858
11971.79549596256,15962.34184054635,-74218.98981559156,-16921.879878268228
12029.351237934976,15998.842239241869,-74247.48828977207,-16930.038264994415
12232.305077589164,16109.885705695831,-74333.45309894718,-17007.285893831955
12313.352502984108,16146.877842769369,-74371.42871277675,-17051.22942343109
12086.415241529376,16023.31739942043,-74262.37455157931,-16982.676623186664
11979.730365244195,15972.668346484705,-74214.9217981007,-16938.040189509415
12036.52614790513,16013.9296667492,-74240.35808329083,-16944.72336110155
12233.199147367375,16120.659246523292,-74331.53084892403,-17008.02350139898
12298.890924321524,16141.111092699895,-74362.17509057226,-17032.07397843289
12065.985747097224,16016.097785961363,-74251.04221714046,-16960.12371303126
11948.84025440696,15970.25435808353,-74203.63416715075,-16911.19574441859
12014.017941238635,16012.253285915052,-74238.61464722332,-16932.720474329053
12228.684094987404,16127.074197181964,-74336.00119781509,-17004.961312408606
12276.561531610672,16149.20242419272,-74361.5045382386,-17034.443263345154
12058.117933048956,16026.334884921896,-74250.55047876245,-16965.68929740063
11982.122001900912,15987.554608291935,-74204.03649855095,-16919.756462544974
12049.28899398911,16027.519527378026,-74229.80805990793,-16941.817634322364
12247.437208585408,16131.231621650652,-74319.75147959607,-17009.94575142214
12270.124229207544,16140.261726410596,-74340.98563682863,-17030.71052202112
12031.340543191498,16018.556477851447,-74220.57678944788,-16952.41236119418
11962.85479818044,15989.521561804006,-74179.20371046111,-16891.190933131093
12036.593203138496,16036.326114693418,-74221.44850748165,-16897.449421578578
12249.873548731037,16148.0624852255,-74316.46577316115,-16970.31610850288
12263.195188426398,16145.648496824326,-74324.22182848715,-16996.646463471232
12024.81383381055,16018.444719129173,-74205.75758287401,-16911.799241518886
11974.410650063832,15991.01912868251,-74170.37477140126,-16872.19195034408
12063.839979629514,16038.673047861224,-74209.37856547578,-16895.147191899683
12275.421592643452,16148.598927092426,-74314.9458545382,-16971.612509681287
12259.909481991468,16130.739883272636,-74318.92446505124,-16980.88848363024
12012.27450517112,15999.915122975724,-74206.60694916331,-16904.333758870813
11959.837312678972,15981.45258205564,-74179.94131802814,-16875.29884282337
12063.258834273676,16034.9850100261,-74233.0714145984,-16902.746785014486
12282.887075291525,16143.05569446751,-74338.25872400508,-16980.776724907962
12257.294327890198,16128.43765359374,-74322.43368893072,-16992.354928535813
12013.95088600527,16003.290236388477,-74201.73426887205,-16908.15590717267
11964.397068547854,15982.838390211868,-74192.63710887876,-16878.852770191763
12088.62806423045,16053.447550946184,-74245.70015021565,-16900.466907080045
12308.993912815324,16157.472569641182,-74342.28203800703,-16977.64748068422
12270.370098396552,16124.548450058515,-74320.37732844082,-16984.330652276356
12033.2404414702,15998.283445630486,-74209.44562070914,-16916.44840436559
11992.113231672434,15992.092012416366,-74193.08414376786,-16903.19381990359
12101.636779503438,16053.067571290445,-74242.41444378071,-16941.97409653355
12311.519659938773,16156.645555096336,-74340.53860193952,-17004.22370484158
12249.560624308662,16109.66218825128,-74313.67180510424,-16986.92345463317
12014.353217405464,15987.867532714312,-74203.54476017294,-16892.934369198607
11996.47182184122,15988.001643181044,-74195.20755949111,-16879.05393589186
12127.58715481605,16058.476693448629,-74244.09082461486,-16912.11216594126
12331.569174715183,16159.461874897705,-74343.06434906297,-16996.3111873044
12247.66072602996,16106.063557393976,-74310.87783704733,-16988.488076745045
12031.564060636052,15989.767430993012,-74211.6137399213,-16911.665131052152
12012.006284237656,15989.610968781826,-74201.42134444969,-16905.87602923823
12122.848584991523,16058.02965855952,-74260.69817074516,-16949.12665475925
12327.456453735407,16160.490055142647,-74351.04392183351,-17026.150766152237
12228.61703975404,16091.80314443149,-74294.00226998357,-17006.302417075924
12010.84399352598,15978.457448298628,-74195.29696646893,-16926.193764948104
12017.549516862577,15996.629416540793,-74199.23087349307,-16930.127671972237
12147.457855636818,16067.059763319465,-74262.24044111258,-16974.674698671664
12317.554630941706,16156.310278929506,-74349.9486863552,-17030.75522551003
12195.84938238256,16088.025699618544,-74289.24134841458,-16994.634806470254
12004.09376670048,15988.605140281335,-74185.81982681988,-16905.831325749317
12006.37364463492,15996.942340963167,-74184.59048087485,-16903.931427470616
12152.509349883718,16076.51455122406,-74249.32113281741,-16929.837099294316
12332.15032007102,16161.026497009576,-74353.52496546805,-17016.807736969917
12196.877562627502,16078.034469847022,-74295.76805779553,-16988.26455930049
12004.920781245326,15975.596425008349,-74212.10547829932,-16922.55043060189
12024.255040199168,15999.155163664242,-74230.56801921941,-16923.176279446638
12201.45967024084,16092.339586298418,-74304.73110732212,-16978.966233607083
12382.285282884275,16175.443372183248,-74383.6104135049,-17059.253699690547
12218.268182071231,16079.241464047607,-74306.22867420063,-16993.45016401412
12021.57283086453,15978.636262254273,-74212.68662365516,-16908.379424617222
12039.230708984222,15998.484611330585,-74215.5699986899,-16910.145212429194
12195.804678893648,16085.812876917467,-74293.0858484609,-16968.97500383556
12354.144436615044,16160.780627820568,-74391.56763453098,-17068.5296736395
12181.611321164528,16064.42225747374,-74314.43176441571,-17029.03414118697
12020.969333764237,15981.54198903346,-74225.04713833895,-16949.30546871489
12065.672822674853,16007.98410272409,-74236.51358324452,-16929.79239580541
12230.204013610366,16096.966397400663,-74314.20824697116,-16978.809771395896
12378.440782837964,16169.654270369325,-74393.46753280968,-17050.715333308617
12192.004882336243,16057.895548092789,-74309.17910446873,-17017.768861981494
12015.582563350506,15966.409858037216,-74243.71084495913,-16972.573634692864
12069.092639576513,16005.257189900542,-74269.23653712709,-16972.59598643732
12245.872586473535,16103.18018235924,-74343.4443287187,-17021.99334168355
12386.532114330785,16164.53572088906,-74399.77072474608,-17075.414010931734
12206.198240065363,16061.60593767237,-74303.05472648797,-17013.052643901425
12047.322040477044,15985.83352396888,-74220.88971387026,-16951.71945711606
12078.949758881305,16009.63813181378,-74237.4747082561,-16943.941050045618
12238.652973014472,16097.368728800862,-74323.1936482422,-16996.98173963806
12356.49136978285,16154.589194606448,-74400.57538754647,-17065.132208482293
12163.014669777713,16040.438835673194,-74309.67084284674,-16995.908855904207
12028.01013326766,15971.170779606198,-74236.33476928888,-16936.676733097644
12073.115953578468,16001.233875898586,-74254.99847590906,-16922.751596301987
12259.462447102362,16093.725394454646,-74341.72324439565,-16983.146009820226
12379.670128783004,16156.9137760298,-74415.0146144646,-17050.00007748605
12163.193483733356,16044.015114786043,-74320.80201158547,-16986.811695910896
12029.552403635074,15982.346651833852,-74247.86826942781,-16927.82544229334
12095.512401522685,16024.770262810023,-74264.76618823603,-16938.35311393179
12308.837450604136,16132.43861585124,-74346.23829677561,-16993.31605354739
12412.013103009833,16174.68341287177,-74398.49667531213,-17035.22557440109
12182.125411287,16047.859614832356,-74297.66795607423,-16976.932224861648
12054.586357425018,15987.264035614018,-74227.48347848457,-16936.408512164176
12101.882648692448,16023.473861631615,-74251.91393517422,-16947.092646013814
12294.666444619472,16126.76127275959,-74341.4997269511,-17010.817469455895
12391.091870199663,16163.440485410749,-74383.38689606034,-17043.85334776084
12167.46266692432,16037.398998427272,-74277.75255176456,-16977.84864638432
12063.929386607337,15985.9229309467,-74230.23274305258,-16941.616468622266
12130.247012406233,16033.062760002944,-74254.57379276441,-16940.20830872158
12327.05412233521,16133.690313540736,-74344.71837815265,-16999.41807978369
12393.908190001035,16158.85837779741,-74379.6094512474,-17034.4209116007
12160.064239509613,16028.860632045344,-74264.98970568058,-16969.04205906893
12058.184988282324,15976.937529675668,-74224.73421391657,-16926.216116692558
12135.700838053328,16020.07639647441,-74264.16269113573,-16954.938108317627
12335.72659918387,16124.794319247523,-74358.3529422704,-17030.2187836431
12373.836323480167,16136.461929853194,-74382.1575501153,-17063.478179392598
12138.87478576598,16008.274675402008,-74259.84880445586,-16981.000242352515
12060.509569705677,15974.478837785584,-74209.22210326459,-16944.321029701357
12129.822329261582,16020.188155196687,-74250.25990608454,-16954.82634959535
12335.68189569496,16133.9585344742,-74349.92633461075,-17020.831050971872
12370.908244956525,16141.71458980019,-74376.9048901683,-17053.554004854443
12142.272250923188,16013.63909407128,-74260.98874342308,-16979.74854466302
12052.015906812658,15979.44092505466,-74224.64480693876,-16936.453215653088
12132.705704296315,16027.966562267133,-74261.16755737872,-16967.41038172369
12364.895625698044,16131.924525728766,-74362.84564290592,-17042.154615182237
12378.463134582416,16135.187880419242,-74380.01178264759,-17053.017562987516
12139.478282866274,16020.92576276371,-74262.86628995732,-16964.616413666776
12096.786450956635,16000.8762479873,-74223.34840576033,-16913.945008986593
12191.401385235951,16049.424236944227,-74266.88960395928,-16947.092646013814
12401.865411027124,16164.401610422328,-74367.24893656361,-17023.84853647334
12389.929579487987,16157.986659763654,-74369.48411100914,-17037.974838969094
12135.387913630952,16023.049178486966,-74249.38818805077,-16951.31712571587
12078.68153794784,16002.865553243824,-74219.68271966967,-16929.412416149666
12180.069050797112,16060.868330105344,-74271.85169122835,-16984.621224954277
12398.065614469722,16167.8661308129,-74379.0059541471,-17059.05253399045
12368.53896004426,16139.0100287211,-74378.84949193591,-17053.866929276817
12143.009858490212,16007.98410272409,-74274.26567962953,-16962.22477701006
12100.094509136024,15991.220294382609,-74253.43385379718,-16933.167509218158
12179.063222296623,16050.184196255708,-74273.66218252924,-16966.471608456566
12376.630291537082,16153.426903894771,-74368.97002088667,-17036.47727209059
12343.460302765408,16126.738921015136,-74343.73490139663,-17015.354873580323
12100.899171936417,16000.809192753935,-74237.1170803448,-16936.453215653088
12059.347278994,15985.54295129096,-74226.23178079507,-16917.789509032908
12172.178885004389,16047.703152621169,-74279.27247038751,-16954.803997850897
12386.487410841872,16162.412305165804,-74380.2576518366,-17035.158519167726
12322.606125188604,16124.391987847328,-74350.01574158856,-17044.70271405014
12080.067346104068,15997.54583806346,-74238.1229088453,-16973.154780048702
12054.00521206918,15991.242646127064,-74227.75169941803,-16943.561070389875
12177.11862052901,16052.441722445694,-74273.63983078478,-16975.345251005325
12383.626387551592,16151.683467827255,-74377.1507593573,-17058.694906079163
12312.637247161538,16107.76228997258,-74357.32476202546,-17033.50449007803
12105.213058616288,16009.191096924676,-74263.08980740188,-16963.387067721735
12076.267549546666,16008.11821319082,-74238.43583326768,-16955.295736228913
12187.981568334291,16058.253176004077,-74270.30942086094,-16974.384125993744
12375.758573503324,16148.867148025887,-74373.32861105545,-17061.868853791817
12287.893866049511,16101.1014701249,-74333.00606405808,-17044.568603583408
12089.0527473751,16000.58567530938,-74228.04227209596,-16943.4493116676
12083.174238583357,16007.671178301714,-74214.58652193386,-16916.001369476482
12207.740510432785,16080.403754759283,-74270.7788074945,-16958.290869985925
12400.233733681884,16178.818485596,-74372.36748604388,-17033.526841822488
12290.95605503989,16115.652455765305,-74322.0984127639,-17015.958370680615
12082.48133450524,16008.475841102105,-74217.5146004575,-16932.943991773605
12081.117878093468,16013.996721982568,-74229.27161804099,-16919.845869522796
12217.888202415492,16092.831324676434,-74303.39000265479,-16972.819503881874
12399.473774370406,16188.519142689604,-74392.43935256475,-17049.32952515239
12263.351650637584,16106.935275427732,-74316.4434214167,-17011.197449111634
12066.34337500851,16002.776146266002,-74203.52240842849,-16929.367712660758
12066.209264541778,16015.762509794537,-74202.60598690582,-16923.042168979904
12207.896972643968,16096.206438089186,-74269.03537142699,-16976.082858572347
12382.441745095462,16182.39476470885,-74360.87868939385,-17047.60844082933
12226.091292630588,16094.351243299396,-74299.99253749759,-17022.619190528298
12032.994572281192,15997.54583806346,-74215.10061205634,-16956.905061829693
12050.965374823258,16015.561344094438,-74227.39407150676,-16954.2005007506
12197.145783560967,16097.860467178878,-74300.32781366442,-17004.581332752863
12374.104544413633,16179.936072818766,-74389.22070136317,-17067.881473050293
12214.04370236918,16088.316272296464,-74317.87393306184,-17029.61528654281
12041.063552029556,15996.852933985345,-74225.69533892816,-16948.45610242559
12066.544540708606,16014.510812105038,-74232.64673145374,-16942.622297122754
12217.262353570744,16096.497010767103,-74310.1849329692,-16994.478344259067
12373.657509524526,16173.923453560288,-74397.71436425619,-17065.333374182388
12192.787193392182,16075.79929540149,-74318.45507841767,-17019.646408515742
12022.533955876108,15991.175590893698,-74226.72351917309,-16956.279212984948
12049.043124800102,16022.289219175484,-74233.80902216543,-16965.666945656176
12220.07867337211,16126.47070008167,-74318.25391271757,-16996.087669859848
12363.44276230845,16193.034195069577,-74391.99231767563,-17028.810623742418
12171.1730565039,16083.175371071742,-74290.91772924873,-16966.896291601217
12012.006284237656,15997.098803174356,-74215.83821962336,-16907.373596116733
12043.81281659756,16022.9821232536,-74239.12873734579,-16915.73314854302
12216.658856470449,16118.848755222412,-74326.03231978802,-16959.207291508592
12350.098770868632,16183.624110653893,-74401.08947766894,-17042.84751926035
12135.969058986791,16071.440705232706,-74298.36086015236,-16973.870035871274
11980.266807111122,15997.948169463656,-74225.82944939488,-16875.365898056734
12017.370702906932,16020.434024385697,-74255.1772898647,-16868.72742995351
12207.695806943872,16124.347284358417,-74335.66592164827,-16919.376482889234
12350.031715635268,16187.602721166935,-74393.55693978751,-16975.322899260867
12143.725114312783,16069.250234276084,-74298.29380491898,-16917.700102055085
12005.81485102354,15998.26109388603,-74226.67881568418,-16856.724543181008
12039.00719153967,16017.416538884228,-74253.97029566411,-16864.078267106805
12214.155461091455,16114.221944120163,-74340.71741589515,-16934.083930740828
12319.0074943313,16176.136276261364,-74388.97483217416,-16981.894312130727
12093.16546835488,16060.84597836089,-74275.04799068546,-16900.735128013508
11975.70705124224,16005.234838156086,-74207.05398405243,-16854.467016991024
12058.274395260143,16040.751760095569,-74234.9713128771,-16870.940252654585
12252.399295854486,16145.246165424129,-74324.40064244278,-16921.611657334764
12333.223203804877,16180.494866430148,-74367.76302668608,-16964.54935843341
12104.117823137978,16055.190987013695,-74258.23947885507,-16890.34156684179
11991.599141549965,16000.40686135374,-74200.05788803792,-16841.413598229123
12044.259851486666,16033.867422803334,-74228.93634187417,-16842.62059242971
12231.56747002214,16134.942011230232,-74320.80201158547,-16905.697215282587
12302.020168545268,16161.048848754031,-74362.97975337264,-16946.913832058173
12073.093601834013,16034.716789092636,-74253.34444681936,-16872.929557911106
11975.617644264416,15993.656634528235,-74192.43594317866,-16824.873307332196
12044.215147997757,16033.80036756997,-74231.1715163197,-16839.558403439332
12253.650993543984,16148.084836969952,-74341.38796822882,-16909.228790906523
12342.25330856482,16184.62993915438,-74387.29845134002,-16949.88661407073
12116.97007619978,16063.908167351266,-74261.05579865644,-16889.67101450813
12033.352200192476,16020.74694880807,-74208.90917884221,-16845.325153508802
12103.53667778214,16057.381457970318,-74233.42904250968,-16839.848976117253
12297.013377787278,16154.388028906347,-74333.00606405808,-16913.16269793066
12334.787825916746,16159.752447575624,-74355.6036777024,-16947.472625669554
12101.994407414724,16032.325152435918,-74230.79153666396,-16890.11804939724
12036.257926971666,16001.010358454032,-74196.16868450269,-16868.10158110876
12127.698913538326,16057.403809714771,-74239.77693793499,-16895.05778492186
12344.980221388369,16166.86030231241,-74342.66201766278,-16971.433695725646
12369.142457144557,16164.736886589157,-74361.54924172751,-16996.914684404695
12136.460797364807,16035.879079804312,-74256.026656154,-16926.976076004037
12073.071250089555,16011.64978881476,-74232.26675179802,-16913.609732819765
12194.530629459696,16079.42027800325,-74282.15584542225,-16959.83314035334
12409.107376230642,16194.48705845917,-74359.42582600426,-17031.604591799332
12393.908190001035,16176.292738472552,-74340.0468635615,-17013.119699134793
12155.236262707263,16045.89266132029,-74210.9655393321,-16904.378462359724
12094.126593366456,16016.366006894828,-74185.23868146405,-16853.66235419063
12183.354757232042,16069.22788253163,-74228.71282442962,-16867.833360175297
12388.297902142753,16177.589139650958,-74329.47448843413,-16948.2996402144
12358.97241341739,16152.599889349924,-74335.55416292598,-16974.674698671664
12123.139157669444,16024.50204187656,-74224.51069647202,-16901.048052435883
12085.67763396235,16009.794594024968,-74200.05788803792,-16852.030676845396
12185.589931677572,16070.32311800994,-74252.24921134106,-16882.987842915994
12401.373672649106,16180.114886774409,-74350.3510177554,-16958.760256619484
12369.58949203366,16152.130502716363,-74334.59303791441,-16966.31514624538
12126.223698404276,16027.564230866938,-74213.60304517784,-16893.38140408771
12078.68153794784,16015.78486153899,-74186.49037915355,-16863.51947349542
12184.181771776888,16076.402792501784,-74242.21327808063,-16892.174409887124
12393.841134767668,16177.589139650958,-74346.26064852008,-16974.384125993744
12333.357314271609,16134.584383318948,-74331.66495939076,-16967.58919567933
12093.38898579943,16009.526373091505,-74222.67785342668,-16894.543694799388
12076.58047396904,16004.139602677777,-74200.12494327128,-16865.978165385506
12207.36053077704,16073.295900022496,-74254.14910961976,-16893.671976765632
12416.572858878715,16176.24803498364,-74359.78345391553,-16973.333594004347
12342.141549842543,16124.95078145871,-74322.1431162528,-16970.360811991788
12111.382140085952,16001.680910787692,-74212.28429225496,-16893.29199710989
12080.223808315255,15994.416593839718,-74205.9587485741,-16880.417392303632
12198.039853339178,16067.238577275108,-74266.55432779244,-16919.197668933593
12412.661303599038,16172.001203537133,-74360.38695101583,-16983.12365807577
12323.254325777809,16118.111147655389,-74319.97499704064,-16958.98377406404
12120.92633496837,16010.576905080905,-74210.27263525399,-16882.026717904417
12123.608544303006,16010.174573680708,-74209.73619338706,-16856.925708881106
12242.318659105142,16082.840094904912,-74259.69234224467,-16882.898435938172
12433.515481175838,16174.43754368276,-74356.2518782916,-16958.424980452655
12329.646924692026,16108.298731839506,-74312.93419753721,-16941.21413722207
12111.87387846397,15997.322320618909,-74207.52337068599,-16860.122008338214
12099.043977146624,16005.614817811826,-74201.33193747187,-16841.793577884862
12219.005789638257,16085.008214117075,-74264.58737428038,-16883.4348778051
12407.475698885406,16182.193599008751,-74365.52785224056,-16958.961422319582
12293.973540541356,16113.797260975512,-74307.05568874547,-16944.052808767894
12085.945854895814,16010.576905080905,-74204.12590552878,-16886.541770284388
12091.19851484281,16021.26103893054,-74210.45144920964,-16894.76721224394
12250.365287109053,16101.369691058362,-74280.97120296612,-16959.475512442055
12444.065504558745,16195.336424748471,-74386.1585123728,-17055.029219988493
12294.19705798591,16110.846830707413,-74313.71650859315,-17016.114832891803
12097.457003290298,16010.062814958432,-74198.26974848149,-16934.553317374386
12104.721320238272,16027.005437255557,-74184.2105012191,-16919.510593355964
12243.525653305727,16105.013025404576,-74243.26381007001,-16963.789399121928
12407.74391981887,16184.808753110025,-74332.08964253541,-17023.69207426215
12241.67045851594,16086.125801339842,-74262.41925506822,-16953.59700365031
12054.653412658385,15983.196018123152,-74177.6614400937,-16870.783790443398
12077.854523402992,16006.754756779046,-74195.76635310249,-16876.975223657515
12251.907557476468,16110.153926629297,-74278.28899363149,-16964.482303200042
12427.59226889518,16197.549247449548,-74364.14204408432,-17067.300327694455
12257.80841801267,16094.954740399688,-74293.51053160556,-17044.546251838954
12085.945854895814,16014.26494291603,-74202.00248980553,-16997.98756813855
12109.81751797408,16044.953888053167,-74202.33776597235,-17006.59298975384
12264.33512739362,16125.57663030346,-74275.98676395259,-17045.41796987271
12419.07625425771,16185.635767654869,-74352.78735790102,-17103.353691500866
12239.971725937334,16072.692402922205,-74260.0276184115,-17053.732818810084
12074.278244290144,16000.69743403166,-74178.13082672725,-16987.661062200197
12096.473526534262,16028.055969244955,-74196.16868450269,-16982.944844120128
12273.387583898018,16124.52609831406,-74278.51251107604,-17034.17504241169
12425.670018872026,16195.649349170846,-74346.68533166473,-17100.179743788212
12224.750187963273,16085.745821684102,-74255.69137998717,-17047.2731646625
12065.225787785745,16012.767376037524,-74187.29504195393,-16986.632881955255
12088.96334039728,16040.97527754012,-74211.39022247675,-17000.759184451006
12247.817188241148,16134.226755407662,-74291.76709553803,-17057.823188045408
12373.881026969078,16190.77666887959,-74359.71639868217,-17107.77933690302
12177.923283329405,16085.90228389529,-74251.44454854066,-17042.512243093523
12043.634002641917,16021.573963352916,-74176.07446623736,-16980.061469085394
12096.361767811986,16055.325097480429,-74198.35915545931,-16986.141143577235
12273.0970112201,16150.320011415484,-74280.85944424385,-17048.927193752195
12378.083154926677,16198.622131183403,-74336.11295653737,-17088.66859539373
12157.73965808626,16076.84982739089,-74227.05879533992,-17014.617266013298
12015.202583694769,16008.006454468545,-74169.1007219673,-16954.982811806538
12071.752497166694,16039.812986828449,-74204.79645786244,-16960.526044431455
12252.108723176569,16139.658229310302,-74303.07707823243,-17031.604591799332
12346.276622566776,16185.747526377148,-74336.11295653737,-17085.874627336816
12136.25963166471,16070.568987198949,-74226.92468487319,-17021.680417261174
12023.249211698678,16015.762509794537,-74172.52053886898,-16957.039172296427
12083.82243917256,16049.51364392205,-74199.87907408227,-16975.814637638883
12258.90365349098,16145.357924146409,-74291.27535716002,-17059.23134794609
12331.032732848256,16176.426848939283,-74341.70089265119,-17095.977615830616
12091.891418920924,16051.03356254501,-74235.32894078839,-17020.048739915936
11988.581656048496,16000.965654965124,-74171.4029516462,-16966.292794500925
12070.411392499374,16038.40482692776,-74205.19878926263,-16983.12365807577
12273.700508320391,16144.307392157009,-74304.4852381331,-17048.14488269626
12322.315552510689,16168.179055235274,-74333.0954710359,-17083.90767382475
12086.214075829275,16040.908222306756,-74225.91885637271,-17028.095367919846
12004.1831736783,15999.78101250899,-74184.67988785266,-16991.147934335226
12072.937139622823,16048.08313227691,-74217.33578650186,-16995.595931481832
12265.989156483312,16160.020668509089,-74314.789392327,-17078.118572010826
12303.42832844595,16175.801000094534,-74343.08670080743,-17114.887191639806
12068.355032009487,16042.65165837427,-74227.61758895131,-17036.209051157126
11989.319263615522,16003.26788464402,-74174.17456795866,-16993.561922736397
12059.90607260538,16055.347449224884,-74211.2114085211,-17013.70084449063
12259.194226168898,16164.870997055888,-74319.41620342925,-17070.228406218102
12283.1999997139,16170.213063980707,-74334.16835476976,-17091.57432217292
12044.95275556478,16040.304725206464,-74215.77116439,-17009.208143855114
11968.263920338622,16006.084204445388,-74190.40193443322,-16978.854474884807
12063.527055207142,16063.103504550876,-74223.05783308242,-17009.386957810755
12273.298176920198,16169.67662211378,-74334.66009314777,-17096.536409441997
12280.853066546091,16172.001203537133,-74352.74265441211,-17130.488709269608
12060.174293538845,16052.59818465688,-74232.8702488983,-17048.211937929624
11998.103499186456,16025.016131999031,-74188.27851870997,-16988.421021511676
12067.013927342168,16071.328946510428,-74220.95676910362,-17001.51914376249
12271.912368763968,16175.421020438796,-74318.05274701747,-17078.275034222013
12267.889054762014,16160.758276076112,-74315.54935163849,-17094.547104185476
12030.602935624473,16031.229916957607,-74201.82367584988,-17016.785385225463
11978.389260576876,16004.139602677777,-74175.64978309271,-17001.720309462584
12081.408450771389,16069.630213931823,-74220.10740281432,-17032.36455111081
12287.223313715856,16187.982700822677,-74334.45892744767,-17121.413901020755
12251.728743520824,16167.39674417934,-74331.19557275719,-17141.374008819344
12028.01013326766,16049.983030555612,-74211.01024282101,-17047.586089084874
11984.535990302084,16032.146338480276,-74182.08708549585,-17010.035158399958
12084.157715339388,16091.020833375556,-74220.75560340352,-17032.968048211103
12294.778203341748,16195.20231428174,-74319.4385551737,-17103.57720894542
12245.604365540072,16157.696087085737,-74299.00906074156,-17098.458659465156
12005.568981834527,16035.677914104212,-74190.26782396648,-17013.678492746174
11969.046231394555,16025.016131999031,-74175.02393424796,-16994.388937281245
12079.86618040397,16093.390118287816,-74221.44850748165,-17023.110928906313
12279.489610134318,16199.337387005971,-74326.90403782178,-17099.822115876927
12210.914458145437,16154.14215971734,-74300.70779332017,-17081.940720312683
11992.56026656154,16033.532146636504,-74189.21729197708,-17008.26937058799
11962.631280735885,16029.97821926811,-74182.9141000407,-16992.801963424918
12066.365726752963,16094.530057255037,-74243.71084495913,-17019.98168468257
12275.600406599096,16196.16343929332,-74326.52405816603,-17098.503362954067
12200.856173140548,16148.48716837015,-74285.285089646,-17078.833827833394
11993.633150295396,16033.55449838096,-74182.5117686405,-17007.64352174324
11986.2794263696,16038.561289138948,-74176.8567772933,-17010.32573107788
12098.73105272425,16108.343435328416,-74232.51262098702,-17065.825112560407
12282.462392146874,16200.611436439924,-74324.06536627596,-17149.577099034443
12186.014614822225,16140.775816533069,-74277.26081338654,-17121.570363231942
11981.94318794527,16029.195908212176,-74177.14734997122,-17043.361609382824
11976.757583231638,16037.287239704996,-74176.76737031549,-17035.739664523564
12102.910828937393,16108.544601028516,-74239.59812397935,-17068.149693983756
12290.62077887306,16203.695977174755,-74339.06338680547,-17153.64511652531
12186.79692587816,16140.9099269998,-74282.55817682245,-17129.684046469218
11985.407708335842,16033.88977454779,-74189.35140244382,-17047.69784780715
11986.502943814152,16038.22601297212,-74197.77801010347,-17040.65704830373
12128.54827982763,16117.261781366084,-74260.2287841116,-17084.175894758213
12313.419558217474,16207.987512110176,-74348.96520959916,-17169.693669044216
12173.587044905073,16119.049920922507,-74288.90607224776,-17150.06883741246
11978.433964065787,16016.008378983544,-74184.12109424127,-17064.41695265972
11995.443641596275,16033.085111747398,-74199.76731535999,-17067.27797595
12153.82810280658,16116.121842398865,-74261.83810971238,-17109.411014248253
12325.265982778788,16200.834953884478,-74344.047825819,-17172.86761675687
12165.585120390071,16107.8516969504,-74269.77297899402,-17137.082473883926
11986.033557180592,16011.40391962575,-74180.1648354727,-17071.301289951956
12002.350330632966,16029.531184379004,-74193.95586180162,-17063.14290322577
12172.290643726665,16121.843888979423,-74265.36968533632,-17109.500421226076
12349.852901679624,16208.7251196772,-74344.4501572192,-17188.5585413645
12180.426678708396,16112.210287119186,-74277.6854965312,-17157.24374738261
11998.170554419825,16019.025864485013,-74201.7119171276,-17086.99221455958
12012.229801682211,16037.89073680529,-74220.2191615366,-17083.885322080296
12184.74056538827,16130.404607105806,-74292.99644148308,-17134.422616293745
12362.325175085683,16204.880619630889,-74372.32278255497,-17213.2125154987
12188.763879390226,16102.219057347664,-74273.55042380696,-17168.531378332544
12011.223973181724,16016.902448761755,-74190.82661757787,-17098.34690074288
12042.739932863706,16039.701228106169,-74205.82463810738,-17088.445077949178
12204.879487142503,16128.594115804926,-74283.04991520046,-17136.501328528087
12341.560404486703,16196.029328826588,-74371.49576801012,-17219.56041092401
12151.369410916495,16084.628234461336,-74285.66506930174,-17172.197064423213
11999.891638742882,16008.945227735669,-74192.86062632331,-17091.10493553936
12026.423159411332,16034.31445769244,-74205.37760321828,-17087.260435493044
12199.157440561945,16127.498880326615,-74290.56010133745,-17155.88029097084
12332.910279382502,16188.563846178517,-74364.83494816243,-17223.337855736954
12134.06916070809,16073.98880410061,-74267.89543245977,-17150.426465323744
11991.688548527783,16005.614817811826,-74195.22991123557,-17088.020394804527
12039.610688639965,16042.718713607635,-74213.73715564456,-17091.0825837949
12223.587897251597,16143.0109909786,-74296.43861012919,-17149.91237520127
12336.620668962085,16198.644482927855,-74361.28102079403,-17207.69163461824
12144.797998046635,16089.724432197148,-74250.05874038444,-17145.95611643268
12009.860516769948,16021.26103893054,-74178.86843429429,-17075.61517663183
12052.015906812658,16048.574870654926,-74194.35819320181,-17074.51994115352
12233.601478767572,16144.86618576839,-74280.70298203266,-17138.065950639957
12334.229032305364,16193.637692169868,-74333.74367162511,-17198.125087991368
12111.024512174668,16070.166655798754,-74224.6224551943,-17106.95232235817
11989.60983629344,16004.608989311337,-74163.64689632022,-17056.37032465581
12057.559139437572,16043.433969430203,-74195.40872519121,-17083.885322080296
12248.398333596986,16157.494921385638,-74284.32396463442,-17154.718000259163
12311.474956449862,16194.688224159268,-74334.32481698094,-17191.084288487946
12073.67474718985,16063.08115280642,-74235.15012683274,-17121.659770209764
11970.99083316217,16014.421405127216,-74181.014201762,-17065.75805732704
12051.300650990088,16066.143341796798,-74210.27263525399,-17069.356688184344
12263.99985122679,16173.9681570492,-74308.82147655744,-17150.091189156912
12335.547785228227,16196.833991626978,-74346.93120085374,-17187.35154716391
12098.351073068508,16072.915920366757,-74234.41251926572,-17117.457642252164
11997.432946852798,16031.207565213152,-74192.61475713429,-17083.594749402375
12076.826343158047,16079.37557451434,-74214.1171353003,-17083.371231957823
12281.791839813211,16184.294662987551,-74312.77773532603,-17155.969697948658
12333.87140439408,16200.67849167329,-74338.23637226062,-17196.78398332405
12104.542506282629,16077.56508321346,-74218.0733940689,-17125.951305145183
12018.845918040985,16038.65069611677,-74174.62160284778,-17070.027240518004
12091.042052631625,16083.778868172036,-74215.70410915662,-17080.04082203398
12288.206790471888,16192.408346224827,-74314.32000569344,-17145.5984885214
12326.495328723828,16197.817468383011,-74331.28497973502,-17175.661584813784
12092.986654399236,16071.440705232706,-74214.9665015896,-17098.34690074288
12022.2880866871,16041.824643829425,-74173.48166388055,-17062.360592169833
12104.028416160158,16086.595187973404,-74212.23958876605,-17085.248778492067
12316.325284996665,16196.58812243797,-74320.86906681885,-17156.93082296024
12328.462282235896,16193.72709914769,-74337.18584027122,-17190.860771043393
12074.457058245784,16061.471827205638,-74214.22889402257,-17114.082528839415
12002.350330632966,16030.134681479298,-74181.014201762,-17071.636566118785
12110.041035418635,16092.8983799098,-74223.48251622707,-17092.356633228854
12327.657619435504,16205.551171964547,-74333.67661639173,-17173.29229990152
12323.544898455728,16194.509410203626,-74349.41224448827,-17185.228131440657
12087.286959563133,16069.518455209549,-74229.83041165238,-17105.72297641313
12020.052912241568,16037.577812382917,-74194.26878622398,-17079.43732493369
12113.259686620198,16091.624330475848,-74228.84693489634,-17095.66469140824
12320.594468187628,16202.06429982952,-74334.43657570322,-17186.725698319162
12296.320473709164,16180.494866430148,-74336.18001177073,-17206.39523343983
12070.366689010463,16053.738123624102,-74242.30268505844,-17116.876496896326
12066.946872108803,16050.631231144816,-74228.69047268516,-17105.05242407947
12166.54624540165,16115.406586576297,-74258.26183059953,-17150.87350021285
12363.822741964192,16228.618172242424,-74326.41229944376,-17214.128937021367
12304.992950557822,16183.624110653893,-74293.37642113882,-17189.430259398254
12057.894415604404,16051.637059645303,-74177.2591086935,-17081.158409256746
12016.610743595453,16042.584603140904,-74160.67411430767,-17041.394655870754
12116.59009654404,16107.002330661098,-74211.5690364324,-17082.365403457334
12321.846165877125,16214.983608124689,-74322.92542730873,-17165.424485853255
12259.775371524736,16174.281081471574,-74302.29476717649,-17161.64704104031
12031.18408098031,16059.348411482384,-74186.78095183146,-17078.14092375528
12011.112214459446,16048.753684610569,-74181.10360873981,-17051.89997576475
12132.392779873942,16114.24429586462,-74235.3736442773,-17088.80270586046
12347.0142301338,16217.509355248138,-74339.8456978614,-17174.40988712429
12275.443944387907,16168.29081395755,-74309.0896974909,-17147.118407144357
12046.651488143383,16050.363010211351,-74191.11719025578,-17058.739609568074
12027.42898791182,16054.833359102411,-74177.37086741577,-17040.210013414624
12142.629878834472,16122.29092386853,-74238.10055710084,-17093.42951696271
12350.769323202292,16221.063282616533,-74333.78837511402,-17169.24663415511
12254.992098211302,16167.374392434884,-74286.84971175787,-17162.518759074064
12045.37743870943,16061.918862094744,-74178.89078603874,-17087.506304682054
12042.024677041136,16069.65256567628,-74183.1599692297,-17069.736667840083
12173.631748393984,16148.822444536978,-74242.34738854735,-17094.077717551914
12375.624463036593,16247.103064906963,-74331.03911054601,-17159.858901483884
12255.95322322288,16180.561921663517,-74271.65052552825,-17130.287543569513
12045.91388057636,16068.065591819954,-74167.33493415534,-17058.024353745503
12048.037296299612,16077.341565768906,-74164.69742830962,-17038.71244653612
12191.1778677914,16164.870997055888,-74236.17830707769,-17088.86976109383
12375.847980481149,16257.496626078682,-74341.298561251,-17175.371012135867
12236.596612524583,16179.064354785009,-74278.64662154276,-17141.843395452906
12032.90516530337,16078.257987291574,-74172.67700108016,-17060.572452613407
12045.489197431709,16089.65737696378,-74174.08516098085,-17037.48310059108
12200.878524885002,16169.72132560269,-74243.12969960329,-17094.2341797631
12379.938349716467,16255.17204465533,-74333.43074720273,-17171.68297430074
12227.99119090929,16162.34524993244,-74264.05093241346,-17131.494537770097
12028.211298967755,16061.65064116128,-74176.58855635984,-17059.85719679084
12034.46978741524,16083.220074560651,-74193.03944027894,-17054.872757777306
12188.383899734486,16163.57459587748,-74265.66025801424,-17102.86195312285
12362.146361130042,16249.919384708332,-74351.75917765609,-17172.375878378854
12184.360585732533,16152.53283411656,-74264.83324346939,-17130.82398543644
11998.438775353286,16053.000516057076,-74169.0560184784,-17062.47235089211
12027.563098378552,16070.077248820931,-74179.65074535021,-17053.062266476427
12202.756071419248,16165.429790667273,-74255.66902824272,-17107.399357247275
12365.052087909233,16247.55009979607,-74337.3423024824,-17176.957985992194
12178.54913217415,16144.285040412551,-74252.09274912986,-17118.798746919485
11997.61176080844,16055.883891091811,-74156.22611716106,-17043.540423338465
12005.81485102354,16076.246330290596,-74175.87330053726,-17042.065208204414
12159.326631942587,16157.9643080192,-74270.53293830549,-17085.047612791972
12333.781997416258,16225.287762318583,-74349.88163112184,-17160.97648870665
12153.82810280658,16122.179165146252,-74237.49706000055,-17113.97077011714
11993.811964251036,16045.847957831378,-74140.93752395363,-17043.629830316288
12021.863403542447,16071.485408721615,-74157.70133229511,-17042.735760538075
12179.487905441274,16164.513369144604,-74241.43096702469,-17099.66565366574
12304.81413660218,16226.338294307983,-74305.44636314469,-17148.01247692257
12109.81751797408,16118.535830800038,-74209.78089687596,-17093.541275684987
11957.088048110969,16039.053027516966,-74139.12703265274,-17036.43256860168
11995.443641596275,16065.964527841155,-74170.03949523444,-17045.954411739636
12185.321710744109,16164.938052289255,-74259.53588003348,-17119.379892275323
12311.810232616692,16231.054512388053,-74328.96039831167,-17171.86178825638
12111.985637186246,16124.056711680498,-74235.19483032165,-17097.318720497933
11961.84896967995,16054.9898213136,-74163.04339921993,-17039.4724058476
11986.32412985851,16085.23173156163,-74181.8635680513,-17051.251775175544
12173.0729547826,16187.937997333764,-74264.47561555811,-17119.983389375615
12288.76558408327,16238.676457247311,-74313.91767429325,-17171.370049878366
12074.948796623805,16113.506688297592,-74210.67496665419,-17100.403261232765
11944.995754360649,16048.776036355024,-74154.81795726037,-17049.03895247447
11991.219161894222,16082.929501882732,-74189.03847802145,-17083.52769416901
12172.827085593592,16187.714479889211,-74275.91970871923,-17140.703456485684
12253.85215924408,16227.724102464212,-74323.61833138685,-17178.232035426146
12032.52518564763,16098.62042649036,-74214.63122542277,-17109.99215960409
11921.772291871584,16038.069550760933,-74160.36118988528,-17068.08263875039
11978.94805418826,16081.431935004228,-74183.29407969642,-17076.57630164341
12187.1769055339,16188.87677060089,-74272.32107786193,-17144.994991421103
12272.873493775547,16217.7775761816,-74312.30834869246,-17190.79371581003
12052.90997659087,16093.90420841029,-74210.764373632,-17106.05825257996
11953.109437597925,16049.714809622146,-74161.47877710804,-17058.2255194456
12022.623362853928,16092.384289787327,-74199.40968744871,-17087.66276689324
12218.782272193705,16193.168305536308,-74294.47165661713,-17170.63244231134
12268.246682673298,16201.572561451503,-74332.89430533581,-17221.16973652479
12037.95665955027,16072.670051177747,-74221.71672841511,-17127.404168534777
11949.108475340425,16032.235745458096,-74176.253280193,-17077.80564758845
12026.266697200144,16084.98586237262,-74211.30081549894,-17093.027185562514
12236.70837124686,16203.226590541197,-74314.76704058255,-17166.944404476217
12278.394374656007,16219.856288415944,-74339.21984901665,-17196.3593001794
12049.91484283386,16090.953778142188,-74221.8731906263,-17111.467374738142
11975.394126819863,16056.733257381113,-74181.84121630684,-17078.409144688743
12054.988688825211,16106.018853905063,-74216.70993765711,-17079.280862722502
12254.835636000114,16210.35679702244,-74317.62806387282,-17148.3477530894
12269.833656529623,16209.328616777497,-74326.38994769931,-17185.809276796495
12042.516415419152,16078.481504736128,-74216.2181992791,-17105.968845602136
11976.824638465005,16048.485463677103,-74187.22798672057,-17064.66282184873
12057.71560164876,16100.319159068962,-74226.00826335052,-17091.171990772724
12269.610139085073,16205.037081842076,-74322.72426160864,-17164.26219514158
12266.9949849838,16191.715442146711,-74328.28984597801,-17179.1037534599
12029.865328057447,16063.014097573056,-74208.14921953074,-17101.409089733253
11974.522408786108,16044.17157699723,-74182.44471340712,-17071.636566118785
12066.72335466425,16104.744804471113,-74232.35615877583,-17108.3381305144
12270.52656060774,16212.7260819347,-74331.97788381313,-17170.475980100153
12247.884243474511,16190.888427601869,-74325.20530524317,-17171.526512089553
12009.011150480646,16061.404771972271,-74217.6710626687,-17091.90959833975
11952.46123700872,16045.825606086924,-74201.13077177177,-17067.412086416734
12047.009116054667,16110.533906285038,-74255.53491777598,-17099.419784476733
12288.81028757218,16224.036064629086,-74357.7047416812,-17178.58966333743
12286.150429982,16200.16440155082,-74342.43850021822,-17186.189256452235
12051.85944460147,16074.167618056254,-74220.57678944788,-17101.789069388997
12000.986874221191,16058.007306815063,-74192.86062632331,-17074.318775453423
12098.887514935435,16119.519307556073,-74245.85661242684,-17100.269150766035
12318.202831530907,16226.673570474812,-74357.86120389237,-17181.607148838895
12273.365232153565,16189.033232812077,-74337.38700597132,-17173.49346560162
12040.95179330728,16063.550539439982,-74227.84110639586,-17087.595711659877
12005.792499279083,16047.345524709885,-74229.33867327437,-17074.989327787083
12123.094454180537,16115.138365642832,-74278.5795663094,-17112.227334049625
12330.96567761489,16221.577372739002,-74387.58902401794,-17196.78398332405
12250.18647315341,16176.315090217004,-74365.93018364074,-17194.995843767625
12017.594220351484,16053.335792223908,-74246.16953684921,-17107.175839802723
11992.1802869058,16040.41648392874,-74238.1676123342,-17079.459676678143
12121.842756491036,16118.312313355484,-74298.45026713017,-17118.038787608002
12320.01332283179,16223.432567528793,-74384.68329723875,-17200.583779881454
12209.03691161119,16165.34038368945,-74346.57357294245,-17189.296148931524
11998.461127097742,16048.932498566212,-74235.44069951067,-17097.43047922021
12006.32894114601,16059.013135315554,-74225.82944939488,-17080.353746456356
12132.437483362852,16139.635877565846,-74289.06253445895,-17110.215677048647
12325.467148478883,16241.760997982145,-74387.2090443622,-17183.931730262248
12213.574315735616,16171.934148303766,-74340.11391879487,-17168.307860887988
12010.978103992711,16056.50973993656,-74243.39792053675,-17088.065098293435
12017.549516862577,16065.875120863337,-74234.41251926572,-17060.348935168855
12139.813559033104,16140.507595599604,-74284.21220591215,-17100.269150766035
12311.899639594512,16228.685227475791,-74382.71634372669,-17183.39528839532
12192.720138158817,16152.644592838837,-74313.2918254485,-17144.704418743186
12006.150127190367,16051.681763134216,-74205.37760321828,-17066.987403272084
12014.263810427645,16061.248309761086,-74199.87907408227,-17058.873720034804
12143.680410823872,16137.221889164672,-74266.19669988117,-17104.203057790168
12310.893811094023,16227.657047230849,-74359.15760507078,-17180.623672082864
12173.519989671708,16144.508557857103,-74288.66020305875,-17145.889061199316
11992.917894472826,16053.805178857468,-74192.72651585657,-17073.84938881986
12019.315304674545,16076.76042041307,-74191.94420480063,-17055.476254877598
12167.909701813423,16158.567805119492,-74259.82645271141,-17087.394545959778
12334.184328816456,16239.83874795899,-74349.47929972164,-17160.261232884077
12173.519989671708,16142.116921200386,-74273.10338891785,-17119.402244019777
11986.65940602534,16041.690533362693,-74189.77608558847,-17049.061304218925
11996.04713869657,16061.874158605831,-74204.9082165847,-17043.071036704903
12172.894140826958,16162.233491210163,-74280.90414773276,-17094.971787330127
12342.700343453926,16245.449035817272,-74363.89617489532,-17170.364221377877
12180.069050797112,16152.801055050024,-74282.02173495552,-17123.850241166383
12008.787633036094,16062.008269072569,-74191.31835595588,-17032.722179022097
12019.069435485537,16077.073344835442,-74202.06954503889,-17033.012751700015
12177.520951929208,16159.171302219786,-74282.15584542225,-17082.566569157432
12331.971506115378,16228.461710031235,-74359.15760507078,-17137.10482562838
12153.224605706288,16131.589249561936,-74271.87404297282,-17092.62485416232
11993.364929361933,16054.31926897994,-74192.68181236766,-17013.432623557168
12028.658333856862,16080.493161737104,-74215.65940566771,-17016.02542591398
12199.403309750953,16172.9176250598,-74291.70004030467,-17089.42855470521
12338.006477118312,16235.770730468124,-74354.86607013537,-17165.133913175334
12143.367486401496,16121.9556477017,-74265.16851963622,-17107.95815085866
11987.329958359,16051.838225345402,-74199.99083280454,-17043.89805124975
12033.128682747923,16086.863408906867,-74222.5213912155,-17048.524862352
12218.42464428242,16187.11098278892,-74304.6864038332,-17104.180706045714
12330.943325870434,16242.766826482632,-74366.24310806312,-17156.774360749052
12122.1109774245,16121.396854090315,-74263.42508356871,-17093.675386151717
11996.94120847478,16050.787693356002,-74185.48455065305,-17033.258620889024
12042.628174141428,16080.113182081364,-74200.12494327128,-17040.344123881358
12207.673455199416,16173.364659948906,-74292.97408973862,-17101.319682755435
12322.427311232965,16230.987457154688,-74355.58132595794,-17160.82002649546
12119.227602389768,16119.273438367063,-74240.58160073539,-17090.613197161343
11987.262903125633,16056.576795169924,-74174.9121755257,-17026.17311789669
12034.71565660425,16088.875065907843,-74197.46508568109,-17040.679400048186
12237.445978813885,16187.222741511196,-74279.94302272119,-17110.305084026466
12329.423407247474,16223.54432625107,-74330.54737216799,-17157.28845087152
12099.423956802364,16100.699138724702,-74226.43294649517,-17102.101993811368
11992.89554272837,16040.908222306756,-74173.34755341383,-17062.38294391429
12064.801104641094,16081.253121048583,-74211.74785038804,-17085.695813381175
12265.631528572028,16191.58133167998,-74298.74083980809,-17151.991087435614
12337.760607929304,16224.84072742948,-74328.73688086712,-17202.573085137974
12096.831154445548,16101.906132925287,-74217.7157661576,-17135.003761649583
11976.42230706481,16049.737161366602,-74168.09489346683,-17087.215732004133
12037.062589772057,16087.46690600716,-74194.84993157983,-17100.62677867732
12244.509130061762,16195.49288695966,-74288.6378513143,-17167.905529487794
12296.365177198077,16214.000131368652,-74329.9438750677,-17207.490468918142
12064.689345918816,16086.841057162412,-74213.4689347111,-17136.456625039176
11975.930568686792,16042.294030462985,-74169.21248068959,-17102.593732189387
12050.227767256232,16087.51160949607,-74209.0656410534,-17121.123328342837
12261.563511081162,16193.570636936503,-74308.86618004635,-17190.614901854384
12296.72280510936,16205.193544053263,-74323.57362789795,-17228.501108706132
12044.259851486666,16072.692402922205,-74200.54962641593,-17140.3458285744
11950.60604221893,16035.722617593125,-74150.59347755832,-17075.436362676188
12036.280278716122,16083.443592005206,-74185.12692274177,-17096.156429786257
12249.135941164011,16190.10611654593,-74287.60967106935,-17188.91616927578
12271.28651991922,16199.11386956142,-74297.33267990741,-17227.16000403881
12034.268621715144,16079.42027800325,-74183.47289365207,-17152.63928802482
11964.84410343696,16053.045219545987,-74148.09008217932,-17103.085470567403
12047.947889321793,16099.022757890554,-74191.43011467817,-17129.840508680405
12249.717086519848,16204.277122530597,-74293.287014161,-17206.39523343983
12255.215615655854,16198.331558505484,-74299.45609563067,-17239.98990535616
12008.586467335996,16068.534978453516,-74186.15510298671,-17169.15722717729
11948.527329984589,16046.719675865135,-74152.49337583702,-17139.474110540643
12035.274450215633,16103.291941081518,-74195.63224263577,-17161.311764873477
12236.66366775795,16205.484116731182,-74303.65822358827,-17225.30480924902
12232.170967122433,16187.49096244466,-74305.22284570013,-17241.73334142367
12013.90618251636,16060.80127487198,-74191.85479782282,-17153.309840358477
11972.957786674237,16049.871271833334,-74166.39616088822,-17127.001837134583
12064.86815987446,16116.725339499157,-74200.79549560494,-17166.005631209093
12262.90461574848,16221.711483205734,-74300.79720029798,-17240.034608845068
12218.89403091598,16190.754317135135,-74289.0848862034,-17246.360152525922
11977.85281870995,16066.948004597189,-74174.01810574748,-17150.06883741246
11928.41075997481,16050.9888590561,-74157.09783519481,-17121.704473698675
12032.368723436442,16110.109223140387,-74200.79549560494,-17160.194177650712
12238.764731736748,16213.575448224005,-74297.33267990741,-17246.248393803646
12185.03113806619,16177.38797395086,-74277.14905466426,-17260.08412362148
11944.74988517164,16053.84988234638,-74165.77031204347,-17193.475925144663
11905.611980630396,16047.45728343216,-74150.68288453615,-17170.364221377877
12029.507700146163,16118.71464475568,-74208.77506837549,-17210.97734105317
12253.539234821706,16221.73383495019,-74317.91863655075,-17295.645749049872
12188.763879390226,16180.852494341434,-74278.89249073179,-17291.018937947625
11960.396106290356,16067.8420743754,-74167.06671322188,-17229.372826739887
11928.45546346372,16066.009231330068,-74156.15906192768,-17204.271817716577
12045.2433282427,16135.590211819435,-74204.75175437353,-17227.02589357208
12239.792911981693,16235.457806045748,-74296.88564501831,-17307.46982186673
12142.652230578928,16180.718383874702,-74260.89933644526,-17292.248283892666
11924.767425628594,16068.244405775597,-74150.48171883605,-17206.35052995092
11911.669303377785,16066.433914474715,-74145.11730016676,-17192.112468732892
12041.309421218566,16139.747636288124,-74203.1647805172,-17249.265879305112
12241.80456898267,16237.715332235735,-74306.22867420063,-17324.99358951969
12127.45304434932,16167.709668601712,-74265.03440916949,-17291.398917603365
11914.127995267869,16060.242481260597,-74163.91511725368,-17219.336893479456
11911.468137677686,16066.791542386,-74169.39129464523,-17206.752861351117
12058.073229560046,16146.922546258278,-74235.35129253284,-17249.55645198303
12257.875473246037,16248.846500974478,-74322.45604067517,-17327.251115709678
12136.058465964612,16176.046869283542,-74268.29776385997,-17314.398862647875
11933.93164085527,16066.74683889709,-74178.98019301656,-17233.060864575014
11945.465140994207,16075.732240168123,-74180.12013198377,-17210.485602675155
12087.689290963328,16150.476473626672,-74250.66223748472,-17253.51271075162
12275.265130432264,16241.202204370762,-74348.98756134362,-17322.80311856307
12136.416093875898,16169.877787813875,-74282.55817682245,-17298.10444093996
11939.005486846623,16076.179275057231,-74187.87618730977,-17215.850021344428
11945.956879372226,16086.885760651325,-74192.30183271192,-17203.511858405098
12115.293695365632,16172.850569826434,-74273.4833685736,-17246.628373459385
12302.802479601203,16261.050553447076,-74364.23145106214,-17316.723444071227
12136.147872942433,16168.514331402104,-74278.5795663094,-17278.054926163546
11959.74790570115,16068.289109264508,-74173.258146436,-17203.623617127374
11982.725499001206,16083.823571660943,-74185.30573669741,-17206.03760552855
12138.315992154598,16170.168360491796,-74261.99457192357,-17259.547681754553
12308.166898270476,16248.108893407452,-74349.76987239956,-17329.66510411085
12133.622125818983,16158.14312197484,-74266.04023766998,-17281.27357736511
11948.572033473496,16065.539844696505,-74176.92383252666,-17213.257218987612
11968.018051149613,16079.487333236617,-74195.25226298002,-17203.467154916187
12142.562823601109,16176.180979750274,-74266.33081034789,-17249.60115547194
12301.170802255963,16254.45678883276,-74334.50363093658,-17300.496077596676
12113.371445342476,16141.20049967772,-74256.38428406528,-17249.77996942758
11954.070562609502,16061.31536499445,-74173.14638771373,-17183.39528839532
11996.583580563496,16097.726356712146,-74186.758600087,-17184.06584072898
12184.561751432628,16196.990453838163,-74274.04216218498,-17246.293097292557
12323.924878111467,16259.910614479855,-74346.9982560871,-17311.80606029106
12118.221773889278,16147.280174169562,-74258.17242362171,-17250.85285316144
11958.2726905671,16067.126818552832,-74181.17066397317,-17180.333099404943
11996.382414863398,16096.742879956111,-74191.51952165598,-17175.080439457946
12174.637576894473,16188.206218267229,-74282.5805285669,-17237.866489632903
12301.48372667834,16247.527748051614,-74343.46668046316,-17282.793495988073
12100.16156436939,16134.964362974688,-74239.44166176816,-17226.444748216243
11966.073449382002,16067.260929019563,-74173.54871911391,-17163.72575327465
12019.561173863553,16100.47562128015,-74196.05692578042,-17167.905529487794
12207.785213921692,16198.845648627956,-74284.45807510115,-17227.763501139107
12320.639171676536,16253.585070799005,-74346.70768340919,-17279.440734319774
12100.988578914235,16130.739883272636,-74241.60978098033,-17212.050224787024
11967.03457439358,16061.024792316532,-74169.81597778988,-17151.52170080205
12021.706941331262,16098.307502067984,-74196.77218160298,-17163.81516025247
12226.806548453158,16206.15466906484,-74286.7379530356,-17220.946219080237
12319.231011775852,16246.432512573305,-74325.18295349872,-17271.505865038143
12080.11204959298,16115.607752276392,-74218.14044930226,-17216.69938763373
11957.624489977896,16058.297879492984,-74160.69646605212,-17154.06979966996
12016.007246495155,16095.960568900176,-74186.49037915355,-17167.63730855433
12204.924190631413,16196.878695115887,-74287.25204315806,-17234.670190175795
12288.385604427527,16236.9330211798,-74333.14017452481,-17263.74980971215
12068.220921542756,16122.71560701318,-74218.94511210265,-17190.816067554482
11964.151199358845,16068.60203368688,-74157.09783519481,-17135.406093049776
12039.364819450951,16109.796298718013,-74187.42915242066,-17141.418712308256
12244.41972308394,16221.44326227227,-74284.16750242324,-17210.664416630796
12307.205773258898,16248.019486429632,-74322.50074416408,-17258.65361197634
12069.562026210073,16121.039226179031,-74217.82752487987,-17180.377802893854
11973.404821563345,16083.398888516294,-74160.54000384093,-17131.40513079228
12044.081037531025,16134.226755407662,-74197.7109548701,-17141.932802430725
12258.791894768705,16242.699771249268,-74290.20247342616,-17216.766442867094
12298.890924321524,16261.31877438054,-74307.4356684012,-17239.98990535616
12055.033392314124,16130.695179783725,-74190.20076873312,-17158.182520649734
11965.872283681903,16085.23173156163,-74141.6974832651,-17107.645226436285
12043.969278808749,16125.509575070091,-74180.0083732615,-17114.35074977288
12261.250586658787,16227.8805646754,-74287.85554025836,-17185.652814585308
12290.844296317611,16235.83778570149,-74313.82826731543,-17226.69061740525
12057.559139437572,16113.28317085304,-74186.02099251997,-17154.53918630352
11981.98789143418,16085.634062961826,-74145.0055414445,-17113.09905208338
12055.94981383679,16136.52898508656,-74181.57299537337,-17139.34000007391
12258.81424651316,16243.839710216487,-74285.39684836827,-17212.318445720488
12262.926967492936,16238.855271202956,-74303.72527882163,-17239.587573955963
12032.86046181446,16110.489202796129,-74183.83052156336,-17149.375933334344
11974.969443675214,16084.404717016783,-74144.11147166629,-17118.61993296384
12062.76709589566,16142.09456945593,-74193.30766121241,-17151.16407289077
12266.391487883508,16246.052532917563,-74296.97505199612,-17219.828631857472
12266.883226261523,16235.770730468124,-74297.73501130761,-17228.814033128507
12030.602935624473,16111.517383041071,-74178.04141974944,-17135.16022386077
11970.879074439892,16082.437763504717,-74150.72758802505,-17103.4878019676
12075.798162913105,16139.233546165651,-74184.29990819692,-17122.15150858778
12294.71114810838,16253.003925443163,-74284.61453731234,-17199.153268236314
12266.927929750434,16232.395617055372,-74281.23942389959,-17204.696500861228
12029.731217590715,16098.978054401645,-74172.38642840224,-17118.776395175028
11991.397975849864,16086.662243206769,-74155.24264040502,-17093.407165218254
12098.68634923534,16156.869072540889,-74200.97430956058,-17124.230220822123
12302.757776112292,16268.292518650596,-74307.90505503477,-17199.26502695859
12247.683077774416,16233.043817644577,-74275.24915638556,-17185.764573307584
12008.80998478055,16108.47754579515,-74155.64497180522,-17105.991197346593
11987.978158948205,16099.38038580184,-74136.17660238464,-17070.72014459612
12102.575552770562,16162.077028998976,-74191.22894897807,-17098.90569435426
12303.29421797922,16267.018469216642,-74289.9342524927,-17178.67907031525
12243.369191094542,16233.624963000411,-74255.28904858697,-17170.744201033616
12012.430967382308,16114.579572031447,-74144.11147166629,-17091.641377406286
11990.503906071652,16108.81282196198,-74136.93656169613,-17065.534539882487
12107.336474339543,16175.8680553279,-74189.15023674372,-17096.111726297346
12300.410842944484,16271.958204741266,-74295.23161592861,-17185.83162854095
12220.257487327754,16216.615285469925,-74257.77009222152,-17163.546939319007
12001.90329574386,16100.833249191432,-74138.90351520819,-17086.232255248102
11978.121039643413,16097.145211356308,-74145.6984455226,-17071.055420762947
12092.092584621025,16160.9147382873,-74212.84308586635,-17107.868743880837
12289.346729439108,16262.212844158752,-74304.61934859984,-17199.06386125849
12197.861039383535,16200.454974228738,-74263.24626961307,-17186.904512274803
11990.816830494026,16090.909074653278,-74162.23873641953,-17097.318720497933
11992.1802869058,16101.034414891532,-74160.54000384093,-17074.81051383144
12117.618276788984,16171.353002947928,-74220.66619642571,-17123.447909766186
12303.808308101692,16254.21091964375,-74320.15381099627,-17209.50212591912
12183.041832809668,16182.953558320232,-74264.49796730257,-17179.97547149366
11973.762449474629,16080.336699525918,-74160.07061720737,-17106.14765955778
11970.901426184348,16087.13162984033,-74163.13280619774,-17108.896924125784
12115.293695365632,16162.792284821546,-74239.46401351262,-17156.72965726014
12305.931723824946,16254.92617546632,-74339.46571820567,-17233.17262329729
12156.867940052503,16168.894311057844,-74284.59218556789,-17203.35539619391
11957.535083000075,16070.479580221128,-74180.29894593942,-17104.314816512444
11976.019975664614,16087.533961240526,-74169.77127430098,-17089.04857504947
12116.724207010771,16171.129485503376,-74236.98296987808,-17138.78120646253
12291.0007585288,16256.937832467298,-74329.74270936761,-17217.92873357877
12136.0137624757,16164.267499955597,-74261.92751669021,-17191.3078059325
11943.632297948874,16068.914958109255,-74164.22804167605,-17107.980502603114
11964.1735511033,16091.065536864466,-74166.97730624405,-17102.90665661176
12119.473471578774,16173.051735526533,-74241.45331876914,-17158.070761927458
12288.519714894264,16252.668649276337,-74331.06146229047,-17246.203690314735
12140.394704388942,16160.870034798389,-74251.42219679621,-17204.875314816873
11950.494283496651,16064.84694061839,-74165.9044225102,-17139.16118611827
11979.439792566276,16092.272531065051,-74171.04532373493,-17129.460529024665
12146.228509691777,16181.143067019351,-74234.25605705453,-17167.033811454035
12295.024072530756,16255.775541755624,-74307.94975852368,-17223.02493131458
12103.87195394897,16149.38123814836,-74227.1705540622,-17170.87831150035
11927.74020764115,16062.969394084144,-74146.57016355636,-17111.42267124923
11960.016126634611,16089.031528119032,-74161.50112885251,-17120.92216264274
12139.478282866274,16181.098363530442,-74244.91783915971,-17181.36127964989
12285.14460148151,16246.45486431776,-74317.06927026145,-17259.950013154747
12089.119802608468,16137.713627542693,-74225.76239416152,-17189.519666376076
11923.247507005632,16059.124894037832,-74151.84517524781,-17123.134985343815
11968.554493016542,16091.266702564562,-74165.81501553238,-17125.77249118954
12149.290698682154,16185.747526377148,-74244.8284321819,-17180.266044171578
12259.685964546916,16241.515128793137,-74307.34626142339,-17229.372826739887
12054.34048823601,16127.141252415331,-74210.69731839864,-17171.906491745292
11904.628503874364,16052.218205001142,-74139.81993673086,-17115.267171295545
11946.292155539057,16085.768173428558,-74157.14253868372,-17102.01258683355
12134.337381641551,16188.16151477832,-74238.68170245668,-17155.20973863718
12249.448865586384,16239.436416558794,-74302.89826427678,-17212.78783235405
12041.197662496288,16122.089758168431,-74207.50101894153,-17149.86767171236
11915.960838313204,16059.326059737929,-74138.59059078581,-17091.57432217292
11969.001527905648,16089.880894408334,-74167.13376845524,-17108.472240981133
12160.175998231887,16188.787363623069,-74255.40080730926,-17170.766552778074
12263.709278548871,16240.375189825916,-74310.96724402515,-17242.202728057233
12046.785598610117,16122.961476202188,-74206.07050729639,-17177.516779603575
11920.274724993078,16060.60010917188,-74132.51091629398,-17102.079642066914
11971.616682006916,16091.870199664856,-74158.46129160658,-17122.19621207669
12159.438390664864,16193.34711949195,-74251.71276947412,-17189.072631486968
12242.60923178306,16233.602611255958,-74306.27337768953,-17230.669227918297
