 EXG Channel 0, EXG Channel 1, EXG Channel 2, EXG Channel 3
19617.18733515589,18557.20055785186,-10409.54266900333,-12060.978956339237
19552.59079368005,18519.20259227784,-10481.671748360604,-12200.096213829069
19628.07263470562,18568.77876147971,-10409.319151558777,-12101.055634147602
19665.265937479253,18582.569787808632,-10361.486418424418,-12035.587374638008
19653.754789084767,18589.63293905651,-10359.117133512156,-11977.115211142924
19602.658701259938,18549.95859264834,-10421.992590664937,-12077.072212347057
19545.72880813227,18519.068481811104,-10491.282998476388,-12207.092309843578
19623.73639628129,18568.5328922907,-10402.479517755452,-12095.82532594506
19650.111454738555,18572.04211617018,-10362.939281814011,-12036.682610116315
19654.134768740507,18589.52118033423,-10361.106438768678,-11967.056926138035
19595.841419201068,18544.5271187457,-10423.087826143244,-12077.72041293626
19529.41203467989,18508.965493317308,-10486.566780396315,-12204.924190631413
19619.53426832369,18560.5309677757,-10397.11509908618,-12089.745651453217
19658.64982112048,18577.51829356173,-10353.037459020312,-12020.61170585295
19659.16391124295,18590.035270456705,-10347.516578139852,-11956.953937644235
19598.85890470253,18541.353171033046,-10421.63496275365,-12079.776773426149
19552.47903495777,18520.454289967336,-10480.64356811566,-12191.669606169417
19621.34475962457,18567.303546345654,-10396.668064197072,-12085.521171751165
19647.22807970382,18572.980889437305,-10360.167665501556,-12030.804101324571
19655.27470770773,18589.454125100867,-10354.937357299012,-11964.88880692587
19585.20198884034,18539.967362876818,-10434.01782918189,-12096.741747467728
19533.167127748387,18515.872182354,-10485.69506236256,-12196.721100416316
19623.73639628129,18561.112113131538,-10393.024729850857,-12083.017776372168
19647.63041110401,18564.71074398884,-10361.061735279767,-12025.685551844306
19648.94916402688,18579.01586044024,-10356.256110221875,-11962.85479818044
19580.977509138287,18521.169545789904,-10427.357009334208,-12104.698968493816
19543.91831683139,18508.540810172657,-10464.907940019124,-12186.50635320024
19630.39721612897,18562.67673524341,-10369.443639450508,-12064.510531963177
19645.64110584749,18569.96340393584,-10342.912118782058,-12011.827470282016
19634.7334545533,18574.09847666007,-10354.646784621094,-11968.152161616346
19571.83564565607,18520.543696945155,-10435.761265249404,-12117.238297133244
19552.30022100213,18512.541772430155,-10464.997346996946,-12186.104021800043
19633.973495241826,18553.870147928017,-10377.24439826541,-12070.880779132936
19662.181396744418,18565.60481376705,-10351.562243886265,-12012.118042959935
19655.095893752088,18571.86330221454,-10359.564168401264,-11965.045269137056
19577.870616659,18511.91592358541,-10454.201454425032,-12122.937991969347
19548.701590144825,18507.17735376088,-10492.780565354891,-12181.901893842449
19639.44967263337,18554.987735150786,-10395.908104885591,-12059.570796438553
19650.13380648301,18564.040191655185,-10375.255093008887,-11999.109327686943
19639.33791391109,18567.21413936784,-10387.794421648316,-11959.569091745509
19564.88425313047,18505.456269437826,-10476.307329691332,-12128.0118379607
19548.27690700017,18506.417394449403,-10491.573571154306,-12170.100172770044
19627.26797190523,18550.51738625972,-10401.607799721694,-12054.318136491554
19647.02691400372,18560.35215382006,-10385.760412902882,-12001.143336432378
19643.94237326889,18565.090723644586,-10396.399843263607,-11965.380545303888
19559.60924143901,18501.634121135965,-10487.17027749661,-12139.008896232712
19542.44310169734,18499.71187111281,-10506.951571339558,-12171.88831232647
19636.61100108755,18548.885708914484,-10414.705921972503,-12055.77099988115
19653.84419606259,18556.82057819612,-10389.180229804544,-12000.539839332085
19650.78200707221,18564.64368875548,-10395.081090340746,-11967.012222649124
19565.77832290868,18499.10837401252,-10495.306312478342,-12148.731905070772
19556.479997215272,18509.300769484136,-10502.995312570967,-12168.26732972471
19630.307809151152,18548.23750832528,-10413.856555683204,-12058.564967938062
19652.45838790636,18561.76031372074,-10392.06360483928,-11996.382414863398
19644.724684324825,18565.62716551151,-10405.519355001374,-11977.472839054208
19549.4168459674,18496.82849607808,-10505.677521905603,-12156.443256907853
19547.136968032955,18510.03837705116,-10499.307274735842,-12163.953443044837
19638.98028599981,18555.881804928995,-10404.1558985896,-12044.505720675674
19651.005524516764,18566.275366100715,-10384.95575010249,-11984.13365890189
19635.582820842603,18561.939127676385,-10403.48534625594,-11973.404821563345
19544.54416567614,18496.60497863352,-10503.867030604724,-12156.152684229934
19559.184558294364,18519.873144611494,-10487.483201918983,-12142.942803256848
19633.41470163044,18554.317182817125,-10406.949866646512,-12044.215147997757
19642.22128894583,18567.661174256944,-10395.170497318566,-11986.681757769797
19631.15717544045,18565.04602015567,-10412.314285315786,-11985.60887403594
19539.067988284587,18506.8197258496,-10516.205193544054,-12174.36935596101
19557.575232693584,18533.083025584583,-10501.900077092658,-12159.036059264668
19645.64110584749,18574.90313946046,-10407.77688119136,-12056.374496981442
19644.188242457894,18585.05083144317,-10397.830354908749,-11997.947036975267
19625.74805328227,18579.6864127739,-10423.82543371027,-12005.054891712058
19542.66661914189,18520.409586478425,-10519.200327301063,-12192.898952114458
19572.327384034084,18552.86431942753,-10487.50555366344,-12164.467533167308
19635.426358631412,18578.39001159549,-10403.39593927812,-12069.986709354724
19636.09691096508,18586.503694832765,-10393.024729850857,-12008.3853016359
19623.043492203175,18576.37835459451,-10418.617477252184,-12023.584487865506
19540.990238307742,18516.3192172431,-10520.027341845913,-12210.780347678705
19578.40705852593,18551.4785112713,-10479.704794848538,-12166.143914001455
19646.713989581345,18577.85356972856,-10400.467860754474,-12071.417220999863
19649.820882060638,18595.936130992905,-10384.464011724474,-12005.636037067896
19619.73543402379,18579.10526741806,-10418.081035385256,-12034.335676948507
19524.09231949953,18514.8216503646,-10514.75233015446,-12214.803661680658
19570.38278226647,18557.267613085223,-10465.556140608329,-12153.626937106485
19640.79077730069,18590.281139645715,-10388.666139682073,-12056.24038651471
19637.0356842322,18597.478401360324,-10387.593255948215,-11995.42128985182
19611.21941938632,18580.513427318743,-10420.003285408411,-12030.71469434675
19526.43925266734,18524.030569080183,-10507.51036495094,-12206.377054021008
19569.73458167727,18556.842929940573,-10448.97114622249,-12143.054561979125
19640.70137032287,18589.945863478883,-10368.571921416751,-12050.116008533956
19635.918097009435,18599.02067172774,-10362.872226580648,-11983.932493201792
19606.749070495254,18575.81956098313,-10402.479517755452,-12034.648601370884
19545.46058719881,18530.57963020559,-10486.03033852939,-12199.448013239862
19598.74714598026,18568.085857401595,-10416.136433617645,-12126.134291426455
19648.144501226485,18586.86132274405,-10348.432999662518,-12044.52807242013
19639.986114500294,18596.383165882013,-10347.315412439752,-11984.46893506872
19606.436146072883,18569.49401730228,-10386.72153791446,-12046.42797069883
19530.887249813943,18518.129708543984,-10477.536675636373,-12212.389673279486
19584.21851208431,18567.21413936784,-10414.705921972503,-12126.737788526749
19642.89184127949,18589.87880824552,-10348.120075240146,-12039.09659851749
19651.117283239044,18605.34621540859,-10342.95682227097,-11969.2250453502
19612.49346882027,18575.43958132739,-10392.354177517198,-12045.28803173161
19530.57432539157,18522.600057435044,-10474.675652346094,-12207.27112379922
19590.9240354209,18575.57369179412,-10392.421232750565,-12111.1586226414
19641.103701723063,18596.67373855993,-10336.38540940111,-12034.067456015046
19648.43507390441,18614.130450979526,-10334.172586700031,-11964.978213903692
19599.84238145857,18574.411401082445,-10394.477593240452,-12053.178197524334
19528.517964901683,18533.9770953628,-10476.88847504717,-12206.980551121302
19601.65287275945,18586.570750066134,-10396.399843263607,-12104.386044071442
19659.499187409783,18612.09644223409,-10329.143444197589,-12027.339580933998
19669.0433822922,18624.00992202877,-10318.816938259237,-11965.827580192994
19614.326311865607,18579.641709284988,-10387.77206990386,-12066.410430241876
19544.812386609603,18543.52129024521,-10461.30930916182,-12206.198240065363
19619.668378790426,18593.43273561391,-10373.042270307811,-12102.39673881492
19665.109475268066,18612.38701491201,-10324.203708672969,-12030.71469434675
19653.8888995515,18613.929285279428,-10336.273650678831,-11971.616682006916
19599.70827099184,18561.849720698563,-10402.524221244365,-12085.364709539976
19547.80752036661,18528.56797320461,-10468.953605765537,-12215.138937847489
19615.35449211055,18572.757371992757,-10389.515505971374,-12104.430747560353
19653.0395332622,18588.7388692783,-10333.52438611083,-12031.921688547336
19656.41464667495,18603.73688980781,-10329.054037219768,-11967.88394068288
19609.92301820791,18561.380334065,-10398.72442468696,-12085.67763396235
19555.049485570133,18533.753577918244,-10458.805913782826,-12199.716234173327
19624.541059081683,18582.882712231007,-10371.567055173762,-12083.218942072266
19652.190166972898,18593.05275595817,-10331.400970387574,-12020.656409341862
19647.585707615104,18603.893352019,-10331.356266898663,-11960.79843769055
19579.30112830414,18546.85170016905,-10411.084939370745,-12096.048843389612
19540.520851674184,18526.10928131453,-10458.78356203837,-12199.895048128968
19628.27380040572,18581.65336628597,-10362.089915524712,-12081.654319960397
19656.772274586237,18595.086764703603,-10325.053074962269,-12018.242420940687
19650.46908264984,18602.14991595148,-10327.221194174434,-11967.191036604769
19582.11744810551,18548.215156580827,-10405.29583755682,-12114.176108142869
19537.68218012836,18532.36776976201,-10449.418181111596,-12201.727891174303
19629.950181239867,18590.10232569007,-10351.495188652896,-12082.704851949797
19659.81211183216,18600.02650022823,-10313.51957482333,-12026.601973366973
19652.03370476171,18602.66400607396,-10318.2357929034,-11975.304719842045
19583.21268358382,18548.103397858547,-10403.39593927812,-12122.87093673598
19552.76960763569,18541.12965358849,-10445.864253743202,-12198.08455682809
19642.37775115702,18589.29766288968,-10350.556415385774,-12074.814686157071
19660.8402920771,18592.94099723589,-10327.891746508092,-12021.081092486513
19657.53223389772,18606.307340420168,-10327.645877319084,-11968.93447267228
19580.30695680463,18547.11992110252,-10415.599991750716,-12126.536622826652
19554.75891289221,18542.80603442264,-10441.148035663133,-12187.445126467364
19639.784948800203,18589.52118033423,-10336.318354167744,-12063.504703462686
19657.152254241973,18596.29375890419,-10316.604115558162,-12009.793461536585
19649.93264078291,18602.10521246257,-10325.924792996026,-11971.281405840087
19566.7170961758,18531.965438361814,-10419.422140052577,-12146.183806202866
19543.49363368674,18530.66903718341,-10438.756399006415,-12191.446088724862
19637.013332487742,18584.5367413207,-10343.157987971066,-12070.880779132936
19655.43116991892,18596.89725600449,-10328.271726163832,-12012.922705760326
19639.69554182238,18597.478401360324,-10339.626412347128,-11980.333862344489
19571.50036948924,18543.70010420085,-10426.172366878078,-12147.949594014835
19556.39059023745,18543.6777524564,-10438.64464028414,-12185.969911333314
19646.66928609244,18587.44246809989,-10343.023877504334,-12071.081944833037
19658.202786231373,18596.29375890419,-10323.0861214502,-12013.436795882795
19647.988039015298,18596.025537970727,-10332.965592499446,-11983.306644357044
19565.465398486307,18529.685560427377,-10434.73308500446,-12160.868902310003
19563.118465318497,18542.33664778908,-10442.980878708468,-12180.001995563744
19643.070655235133,18587.80009601117,-10334.41845588904,-12063.303537762587
19653.285402451205,18591.309319890657,-10322.035589460802,-12010.95575224826
19639.583783100104,18587.73304077781,-10347.829502562226,-11992.873190983915
19563.900776374438,18535.04997909665,-10440.701000774026,-12168.759068102729
19572.8191224121,18553.691333972376,-10434.554271048815,-12174.570521661106
19660.303850210174,18597.00901472676,-10341.347496670189,-12062.588281940018
19663.142521756,18599.82533452813,-10332.451502376976,-12001.18803992129
19646.40106515897,18599.467706616844,-10348.008316517868,-11975.70705124224
19554.244822769742,18532.323066273104,-10451.474541601485,-12161.517102899206
19569.466360743805,18550.36092404853,-10435.381285593665,-12155.325669685088
19642.087178479094,18585.69903203237,-10344.432037405018,-12053.781694624628
19656.92873679742,18593.7903635252,-10334.351400655676,-11995.555400318552
19649.44090240489,18594.90795074796,-10353.462142164964,-11985.720632758215
19558.089322816053,18529.394987749456,-10453.73206779147,-12166.45683842383
19563.69961067433,18543.72245594531,-10434.509567559906,-12151.615280105503
19642.444806390384,18582.435677341902,-10340.118150725146,-12048.95371782228
19656.70521935287,18596.137296693003,-10322.952010983468,-11984.13365890189
19639.42732088892,18583.374450609022,-10347.494226395396,-11988.671063026315
19550.467377956797,18515.246333509247,-10451.362782879209,-12177.476248440296
19573.55672997913,18541.330819288592,-10425.144186633132,-12148.68720158186
19646.33400992561,18571.25980511425,-10337.52534836833,-12046.964412565758
19661.22027173284,18586.68250878841,-10327.04238021879,-11978.053984410046
19633.30294290816,18565.60481376705,-10359.18418874552,-11995.04131019608
19538.73271211776,18500.62829263548,-10460.661108572616,-12182.393632220464
19580.530474249183,18540.95083963285,-10422.707846487505,-12138.807730532615
19658.694524609396,18576.82538948362,-10334.597269844684,-12039.364819450951
19656.32523969713,18582.30156687517,-10327.779987785816,-11984.312472857531
19628.74318703928,18567.90704344595,-10364.548607414796,-12010.732234803703
19544.76768312069,18512.29590324115,-10466.40550689763,-12188.942693345867
19597.584855268586,18553.91485141693,-10418.237497596445,-12133.108035696512
19669.490417181303,18583.061526186648,-10341.056923992268,-12042.00232529668
19665.265937479253,18590.59406406809,-10336.608926845662,-11985.60887403594
19641.12605346752,18573.025592926217,-10371.455296451486,-12020.254077941669
19553.77543613618,18514.598132920044,-10467.83601854277,-12197.615170194527
19592.8239336996,18549.06452287013,-10420.405616808608,-12128.749445527726
19644.925850024923,18565.805979467157,-10359.05007827879,-12044.840996842504
19656.68286760841,18583.59796805358,-10355.451447421485,-11977.85281870995
19627.089157949587,18561.268575342725,-10399.640846209628,-12019.561173863553
19541.14670051893,18503.19874324784,-10489.092527519766,-12193.681263170394
19588.10771561953,18540.682618699386,-10428.698114001529,-12119.808747745605
19654.246527462787,18571.125694647515,-10354.266804965357,-12026.71373208925
19658.582765887117,18587.91185473345,-10350.064677007756,-11961.267824324112
19622.17177416942,18560.240395097782,-10402.43481426654,-12023.360970420954
19549.68506690086,18501.835286836063,-10487.438498430074,-12188.339196245575
19611.465288575328,18548.61748798102,-10416.24819233992,-12101.502669036709
19664.260108978764,18568.667002757436,-10347.67304035104,-12022.891583787392
19665.020068290243,18582.793305253184,-10348.90238629608,-11958.36209754492
19632.632390574505,18552.797264194163,-10398.97029387597,-12027.272525700631
19548.232203511263,18503.17639150338,-10481.649396616149,-12186.193428777866
19601.2281896148,18543.588345478576,-10417.902221429613,-12098.19461085732
19658.76157984276,18569.51636904673,-10356.81490383326,-12016.878964528914
19669.758638114767,18587.66598554444,-10348.85768280717,-11952.12596084189
19623.46817534783,18549.35509554805,-10402.591276477728,-12033.776883337126
19548.56747967809,18503.19874324784,-10487.684367619082,-12187.802754378648
19609.99007344128,18544.840043168075,-10414.72827371696,-12094.573628255564
19650.2902686942,18557.267613085223,-10357.597214889194,-12020.119967474937
19649.664419849447,18576.356002850054,-10357.597214889194,-11952.684754453274
19591.39342205446,18530.311409272126,-10431.357971591708,-12055.3463167365
19544.991200565244,18507.982016561276,-10496.669768890117,-12189.121507301512
19621.54592532467,18566.67769750091,-10411.464919026484,-12083.1518868389
19646.89280353699,18571.4833225588,-10366.33674697122,-12019.851746541472
19643.56239361315,18576.221892383324,-10372.23760750742,-11956.953937644235
19605.184448383385,18541.46492975532,-10428.87692795717,-12053.111142290967
19550.9144128459,18516.252162009736,-10490.50068742045,-12182.527742687196
19618.908419478943,18563.10141838806,-10413.76714870538,-12079.799125170604
19653.41951291794,18583.039174442198,-10367.119058027156,-12020.09761573048
19659.968574043345,18608.184886954416,-10364.772124859348,-11959.233815578678
19600.8258582146,18559.614546253037,-10434.151939648622,-12079.91088389288
19543.985372064755,18529.32793251609,-10495.306312478342,-12197.212838794332
19620.45068984636,18579.753468007264,-10411.710788215494,-12091.73495670974
19649.30679193816,18590.45995360136,-10367.610796405172,-12034.648601370884
19646.19989945888,18602.529895607226,-10367.610796405172,-11979.462144310732
19586.900721418944,18550.696200215363,-10433.839015226247,-12107.761157484194
19532.027188781165,18521.50482195673,-10487.41614668562,-12219.586934994097
19618.9307712234,18575.305470860658,-10393.270599039864,-12101.435613803342
19644.925850024923,18586.01195645475,-10354.311508454264,-12040.080075273523
19643.69650407988,18606.240285186803,-10362.112267269167,-11986.033557180592
19581.759820194224,18557.334668318592,-10435.582451293762,-12120.278134379165
19540.654962140918,18539.877955898995,-10479.593036126262,-12211.786176179192
19609.92301820791,18581.988642452798,-10395.215200807475,-12097.412299801386
19623.02114045872,18584.223816898324,-10365.174456259543,-12044.66218288686
19620.875372991013,18599.311244405657,-10367.454334193986,-11986.949978703258
19549.32743898957,18544.75063619025,-10442.623250797184,-12125.173166414876
19508.51315361418,18529.126766815996,-10480.800030326847,-12207.427586010408
19623.959913725845,18591.801058268677,-10378.38433723263,-12082.660148460884
19648.36801867104,18604.09451771909,-10336.944203012492,-12020.745816319682
19636.812166787644,18612.58818061211,-10350.467008407952,-11976.42230706481
19570.24867179974,18562.20734860985,-10437.772922250382,-12134.44914036383
19543.20306100882,18555.12184561752,-10469.467695888006,-12200.252676040254
19637.08038772111,18599.95944499486,-10358.647746878594,-12081.0508228601
19652.972478028834,18608.02842474323,-10324.583688328708,-12020.47759538622
19642.89184127949,18612.36466316756,-10332.697371565982,-11977.182266376289
19568.92991887688,18554.697162472865,-10418.505718529908,-12138.02541947668
19546.77934012167,18556.038267140186,-10438.331715861765,-12192.340158503075
19632.8335562746,18601.00997698426,-10344.543796127296,-12077.698061191806
19653.93360304041,18608.94484626589,-10330.216327931445,-12021.014037253146
19649.776178571723,18618.55609638168,-10337.659458835062,-11977.115211142924
19568.14760782094,18556.731171218296,-10427.893451201136,-12140.327649155575
19553.0154768247,18555.032438639693,-10443.517320575396,-12190.127335802
19633.2358876748,18594.72913679232,-10351.897520053091,-12077.094564091512
19644.679980835917,18606.463802631355,-10329.746941297884,-12019.449415141276
19633.19118418589,18610.68828233341,-10341.258089692366,-11989.56513280453
19556.479997215272,18550.182110092894,-10429.413369824097,-12159.84072206506
19543.47128194228,18554.093665372573,-10432.229689625465,-12186.707518900335
19623.60228581456,18592.69512804689,-10337.860624535158,-12075.1499623239
19647.049265748177,18607.559038109663,-10321.23092666041,-12016.208412195256
19633.101777208063,18603.4910206188,-10336.318354167744,-11993.70020552876
19551.383799479463,18543.70010420085,-10425.032427910855,-12171.061297781624
19561.50913971772,18556.798226451665,-10413.409520794095,-12186.327539244598
19641.617791845536,18596.07024145964,-10327.2882494078,-12074.568816968062
19643.718855824336,18599.802982783676,-10314.36894111263,-12019.985857008203
19639.628486589016,18598.640692072,-10330.350438398176,-12001.366853876933
19557.4187704824,18541.084950099583,-10423.937192432546,-12176.716289128815
19556.904680359923,18553.24429908327,-10417.365779562686,-12181.857190353536
19632.87825976351,18593.49979084728,-10327.645877319084,-12073.205360556289
19638.153271454965,18599.44535487239,-10313.407816101051,-12014.889659272392
19628.78789052819,18594.39386062549,-10335.267822178344,-12006.552458590562
19542.35369471952,18532.25601103973,-10429.770997735382,-12187.93686484538
19544.00772380921,18546.96345889133,-10414.705921972503,-12176.805696106638
19621.83649800259,18584.82731399862,-10332.630316332616,-12067.349203508998
19637.32625691012,18596.7407937933,-10320.80624351576,-12008.497060358177
19622.574105569616,18594.326805392124,-10347.203653717475,-12007.647694068874
19536.743406861235,18530.400816249945,-10441.796236252338,-12189.412079979433
19557.26230827121,18552.90902291644,-10417.991628407435,-12159.527797642684
19629.905477750955,18584.939072720896,-10329.344609897687,-12054.00521206918
19625.368073626527,18594.8408955146,-10319.75571152636,-11998.19290616428
19616.047396188664,18591.86811350204,-10345.594328116696,-12007.938266746793
19538.688008628847,18529.462042982825,-10441.93034671907,-12191.84842012506
19574.406096268427,18561.13446487599,-10406.793404435326,-12156.64442260795
19644.389408158,18590.77287802373,-10324.22606041742,-12065.359898252476
19646.155195969965,18605.480325875324,-10316.1347289246,-12001.389205621386
19618.05905318964,18583.217988397835,-10353.462142164964,-12025.752607077671
19534.597639393527,18519.00142657774,-10449.418181111596,-12209.171022077922
19574.96488987981,18562.989659665785,-10403.77591893386,-12157.940823786355
19644.143538968987,18594.4385641144,-10330.775121542829,-12063.951738351792
19637.54977435467,18597.277235660225,-10331.33391515421,-12009.32407490302
19607.061994917636,18579.284081373706,-10371.321185984754,-12038.403694439376
19527.176860234365,18525.706949914333,-10466.316099919808,-12209.46159475584
19581.581006238583,18564.64368875548,-10411.666084726585,-12147.994297503748
19638.153271454965,18584.55909306516,-10330.32808665372,-12059.034354571624
19631.671265562924,18596.89725600449,-10327.46706336344,-11997.70116778626
19601.339948337078,18574.54551154918,-10365.57678765974,-12042.359953207964
19530.976656791765,18524.969342347307,-10458.515341104909,-12211.629713968005
19584.620843484503,18571.23745336979,-10396.10927058569,-12138.718323554796
19640.50020462277,18590.795229768184,-10323.0861214502,-12054.832226614026
19630.39721612897,18595.60085482608,-10322.952010983468,-11993.811964251036
19598.7247942358,18575.260767371747,-10361.1958457465,-12043.611650897465
19535.44700568283,18526.37750224799,-10439.382247851165,-12207.22642031031
19597.674262246404,18569.80694172465,-10377.87024711016,-12129.375294372476
19654.40298967397,18594.885599003508,-10317.699351036472,-12049.132531777925
19647.362190170552,18604.78742179721,-10320.76154002685,-11992.13558341689
19608.76072749624,18573.5843865376,-10362.80517134728,-12050.71950563425
19532.29540971463,18524.254086524736,-10440.835111240758,-12209.50629824475
19593.092154633065,18567.05767715665,-10375.2997964978,-12125.508442581708
19630.97836148481,18576.288947616693,-10321.052112704769,-12053.155845779878
19636.633352832003,18593.43273561391,-10318.928696981511,-11985.742984502673
19601.78698322618,18563.86137769954,-10372.639938907616,-12063.303537762587
19528.00387477921,18512.00533056323,-10458.35887889372,-12221.978571650812
19587.39245979696,18553.177243849903,-10389.984892604934,-12129.330590883565
19638.533251110704,18578.926453462416,-10324.315467395243,-12047.076171288034
19635.18048944241,18587.576578566623,-10331.244508176387,-11991.62149329442
19590.90168367645,18548.505729258744,-10382.944093101512,-12078.279206547644
19517.744424074222,18502.081156025077,-10457.73303004897,-12220.481004772308
19588.86767493101,18552.014953138227,-10393.695282184515,-12123.183861158355
19633.794681286177,18573.47262781532,-10332.876185521623,-12050.67480214534
19633.6829225639,18589.72234603433,-10327.936449997003,-11981.56320828953
19587.235997585776,18549.10922635904,-10390.253113538398,-12077.876875147447
19520.18076421985,18506.70796712732,-10461.64458532865,-12216.27887681471
19608.15723039594,18561.849720698563,-10377.177343032045,-12105.615390016485
19639.89670752248,18570.790418480687,-10337.458293134963,-12041.57764215203
19649.038571004698,18590.884636746006,-10335.826615789723,-11973.740097730171
19603.709233249338,18552.75256070525,-10396.06456709678,-12080.24616005971
19535.379950449464,18511.334778229568,-10463.097448718245,-12210.55683023415
19603.664529760423,18560.5309677757,-10383.547590201806,-12104.698968493816
19642.78008255721,18577.29477611718,-10342.308621681765,-12038.783674095115
19642.154233712463,18587.82244775563,-10345.99665951689,-11975.483533797686
19578.429410270383,18533.23948779577,-10414.884735928146,-12093.903075921902
19526.908639300906,18503.399908947937,-10471.077021488789,-12207.047606354668
19600.26706460322,18552.059656627134,-10382.29589251231,-12097.881686434948
19626.843288760578,18560.799188709163,-10342.42038040404,-12038.962488050758
19622.238829402784,18573.91966270443,-10345.52727288333,-11979.395089077365
19569.82398865509,18533.44065349587,-10412.358988804695,-12101.770889970172
19530.239049224743,18517.772080632694,-10460.817570783804,-12203.516030730729
19619.198992156864,18565.96244167834,-10372.796401118803,-12090.460907275785
19647.87628029302,18579.887578474,-10341.168682714544,-12033.888642059404
19639.673190077923,18589.90115998997,-10350.534063641318,-11979.283330355089
19575.188407324364,18531.4736999838,-10434.73308500446,-12121.708646024304
19537.92804931737,18515.693368398355,-10472.574588367295,-12206.153536576456
19622.17177416942,18564.308412588645,-10379.72544189995,-12086.594055485017
19638.17562319942,18568.7340579908,-10352.81394157576,-12032.48048215872
19627.960875983343,18574.67962201591,-10363.207502747477,-11985.47476356921
19570.44983749984,18526.15398480344,-10439.002268195423,-12123.273268136176
19541.0125900522,18515.31338874261,-10471.032317999878,-12194.195353292866
19630.03958821769,18561.939127676385,-10375.143334286611,-12078.502723992196
19639.784948800203,18566.00714516725,-10353.015107275856,-12027.876022800923
19624.25048640376,18573.47262781532,-10361.75463935788,-11978.143391387868
19557.6646396714,18519.80608937813,-10446.40069561013,-12130.828157762073
19542.64426739744,18517.213287021317,-10470.69704183305,-12183.533571187683
19639.27085867773,18572.511502803743,-10364.995642303902,-12058.900244104892
19648.055094248662,18573.11499990404,-10347.494226395396,-12009.122909202924
19634.956971997854,18578.90410171796,-10364.43684869252,-11966.207559848734
19561.91147111791,18520.96838008981,-10454.02264046939,-12126.737788526749
19549.930936089862,18525.841060381063,-10465.891416775155,-12170.07782102559
19633.973495241826,18569.851645213563,-10370.114191784169,-12053.759342880172
19637.661533076945,18571.59508128108,-10353.1939212315,-12007.37947313541
19630.933657995894,18573.76320049324,-10359.228892234432,-11966.788705204572
19557.843453627047,18511.29007474066,-10455.900187003635,-12138.606564832517
19547.651058155425,18518.599095177546,-10468.774791809892,-12175.866922839514
19630.21840217333,18565.157778877947,-10372.259959251876,-12059.012002827169
19644.322352924628,18577.987680195296,-10355.563206143765,-12003.289103900088
19628.78789052819,18581.13927616349,-10372.841104607714,-11973.695394241262
19555.094189059044,18525.528135958688,-10467.903073776137,-12144.395666646442
19552.791959380145,18532.14425231746,-10473.334547678774,-12168.624957635997
19636.767463298736,18571.751543492264,-10379.189000033022,-12053.580528924527
19644.389408158,18580.60283429657,-10360.949976557493,-11995.309531129544
19630.26310566224,18584.76025876525,-10378.093764554713,-11973.203655863244
19554.222471025285,18526.533964459177,-10468.73008832098,-12144.954460257824
19551.67437215738,18539.11799658752,-10467.79131505386,-12155.415076662908
19629.726663795314,18575.73015400531,-10375.0986307977,-12051.09948528999
19635.82869003161,18583.75443026477,-10371.38824121812,-11995.197772407268
19626.68682654939,18585.363755865543,-10385.872171625158,-11984.13365890189
19540.476148185277,18524.701121413844,-10487.349091452252,-12165.339251201063
19551.92024134639,18548.461025769837,-10475.368556424208,-12159.393687175952
19635.024027231226,18589.208255911857,-10381.759450645382,-12055.323964992043
19646.0881407366,18605.457974130863,-10368.10253478319,-11997.90233348636
19630.79954752917,18604.563904352653,-10390.00724434939,-11996.114193929934
19539.40326445142,18538.29098204267,-10488.377271697196,-12179.063222296623
19557.50817746021,18565.67186900042,-10467.79131505386,-12160.31010869862
19642.578916857117,18603.714538063352,-10370.33770922872,-12058.72143014925
19634.46523361984,18604.183924696918,-10370.2483022509,-12011.022807481624
19609.878314719,18599.57946533912,-10401.138413088132,-12012.85565052696
19538.620953395483,18541.800205922154,-10497.69794913506,-12196.78815564968
19583.79382893966,18576.668927272432,-10454.179102680577,-12159.393687175952
19647.205727959365,18602.06050897366,-10375.366851731163,-12062.655337173384
19644.03178024671,18618.06435800366,-10375.2997964978,-12002.797365522072
19624.339893381584,18611.135317222517,-10396.668064197072,-12012.743891804685
19541.14670051893,18552.037304882684,-10483.83986757277,-12193.100117814556
19575.72484919129,18580.44637208538,-10432.274393114376,-12150.542396371651
19648.591536115597,18617.88554404802,-10341.258089692366,-12047.411447454864
19649.396198915983,18633.889393078018,-10334.865490778147,-11987.978158948205
19620.808317757645,18611.850573045085,-10372.259959251876,-12014.37556914992
19535.42465393837,18553.28900257218,-10465.332623163777,-12187.355719489542
19576.77538118069,18587.6883372889,-10417.075206884769,-12132.504538596218
19641.26016393425,18610.375357911034,-10343.180339715522,-12047.791427110604
19635.51576560924,18618.01965451475,-10337.346534412687,-11988.93928395978
19598.30011109115,18593.67860480292,-10371.142372029111,-12020.298781430576
19526.729825345257,18547.61165948053,-10452.1674456796,-12191.446088724862
19592.93569242188,18598.551285094178,-10391.750680416904,-12124.59202105904
19642.243640690285,18611.91762827845,-10325.254240662363,-12044.90805207587
19636.052207476165,18620.07601500464,-10322.90730749456,-11980.46797281122
19614.281608376696,18608.229590443327,-10355.2949852103,-12021.125795975424
19534.843508582533,18561.49209278728,-10442.153864163622,-12188.875638112502
19597.54015177967,18602.708709562863,-10378.876075610648,-12115.517212810186
19655.051190263177,18617.10323299208,-10318.168737670034,-12038.403694439376
19652.324277439628,18630.536631409723,-10315.598287057674,-11977.674004754306
19613.96868395432,18607.044947987197,-10355.339688699209,-12034.156862992868
19533.927087059867,18553.601926994557,-10438.577585050773,-12199.000978350758
19598.36716632452,18600.540590350694,-10371.81292436277,-12114.757253498705
19650.17850997192,18620.143070238,-10307.819879987226,-12038.940136306304
19642.37775115702,18628.92730580894,-10304.310656107744,-11978.389260576876
19609.096003663064,18599.668872316943,-10354.646784621094,-12044.885700331415
19545.43823545435,18560.91094743144,-10431.268564613889,-12200.967931862824
19601.608169270537,18599.423003127933,-10361.75463935788,-12119.026436689668
19645.79756805868,18613.12462247904,-10310.524441066318,-12047.165578265856
19649.53030938272,18632.749454110795,-10316.22413590242,-11980.110344899937
19609.69950076336,18599.266540916746,-10372.796401118803,-12058.676726660338
19543.560688920104,18555.56888050662,-10435.090712915744,-12205.527687731706
19610.146535652464,18599.62416882803,-10352.344554942198,-12105.548334783118
19650.200861716374,18613.616360857053,-10299.437975816489,-12033.933345548314
19652.41368441745,18626.379206941037,-10304.958856696949,-11971.191998862269
19609.744204252267,18590.16938092344,-10365.755601615385,-12063.258834273676
19543.91831683139,18548.23750832528,-10437.68351527256,-12204.477155742306
19619.06488169013,18594.81854377014,-10352.880996809125,-12104.654265004903
19647.25043144828,18600.652349072978,-10309.540964310285,-12044.639831142404
19655.74409434129,18617.662026603462,-10311.127938166612,-11976.042327409068
19607.26316061773,18579.082915673604,-10372.751697629894,-12078.14509608091
19537.27984872816,18542.135482088983,-10441.103332174222,-12206.93584763239
19620.204820657356,18591.97987222432,-10354.467970665452,-12092.763136954682
19655.252355963275,18607.40257589848,-10311.262048633344,-12031.988743780705
19646.870451792533,18620.38893942701,-10316.984095213902,-11968.710955227729
19585.69372721836,18570.142217891484,-10386.0509855808,-12078.86035190348
19538.44213943984,18548.706894958843,-10438.130550161666,-12195.55880970464
19618.75195726776,18602.038157229206,-10342.889767037605,-12082.034299616134
19645.685809336403,18610.48711663331,-10296.308731592742,-12021.751644820171
19634.711102808847,18614.555134124177,-10314.167775412534,-11973.583635518986
19576.864788158517,18565.828331211607,-10386.520372214363,-12100.988578914235
19543.136005775454,18551.56791824912,-10427.91580294559,-12196.385824249486
19624.49635559277,18605.368567153047,-10332.719723310438,-12078.927407136847
19651.40785591696,18613.102270734584,-10307.641066031583,-12033.218089725744
19648.12214948203,18625.21691622936,-10319.487490592895,-11979.50684779964
19585.425506284893,18571.41626732544,-10389.62726469365,-12115.226640132269
19537.324552217076,18547.81282518063,-10428.429893068063,-12211.808527923647
19621.389463113483,18598.238360671803,-10333.032647732813,-12093.903075921902
19637.102739465565,18603.11104096306,-10305.115318908134,-12037.800197339082
19619.824841001613,18608.900142776984,-10311.172641655525,-11983.597217034963
19564.21370079681,18556.61941249602,-10385.939226858523,-12123.697951280828
19541.32551447457,18545.600002479558,-10423.1101778877,-12205.818260409626
19633.45940511935,18601.25584617327,-10325.187185429,-12085.67763396235
19649.50795763826,18611.53764862271,-10299.326217094207,-12026.400807666876
19640.88018427851,18614.644541102,-10317.632295803109,-11983.261940868131
19571.83564565607,18554.786569450687,-10394.365834518176,-12133.398608374431
19543.605392409016,18547.63401122499,-10421.791424964837,-12198.71040567284
19623.579934070105,18588.64946230048,-10332.630316332616,-12084.91767465087
19646.51282388125,18598.618340327543,-10307.641066031583,-12029.61945886844
19653.710085595856,18618.28787544821,-10311.351455611164,-11980.110344899937
19586.02900338519,18566.72240098982,-10395.326959529752,-12129.308239139107
19547.91927908889,18550.45033102636,-10426.954677934013,-12187.445126467364
19619.467213090327,18586.123715177026,-10333.882014022114,-12074.546465223608
19641.84130929009,18603.20044794088,-10318.638124303596,-12021.304609931063
19642.914193023946,18609.86126778856,-10327.04238021879,-11976.489362298174
19566.270061286697,18546.53877574668,-10410.883773670646,-12140.931146255867
19548.8133488671,18544.0800838566,-10424.943020933037,-12186.79692587816
19623.9822654703,18584.424982598423,-10336.184243701013,-12077.876875147447
19629.92782949541,18590.482305345813,-10320.605077815662,-12023.249211698678
19626.910343993943,18598.88656126101,-10329.098740708678,-11983.150182145857
19555.228299525774,18539.073293098605,-10415.890564428635,-12154.92333828489
19561.71030541781,18557.133502618493,-10414.460052783495,-12175.88927458397
19641.48368137881,18593.70095654737,-10322.840252261192,-12057.00034582619
19637.482719121304,18593.946825736384,-10318.816938259237,-12007.111252201945
19626.21743991583,18596.427869370924,-10332.026819232324,-11981.51850480062
19562.850244385038,18541.5766884776,-10422.752549976416,-12151.861149294517
19566.582985709072,18557.06644738513,-10418.01398015189,-12163.64051862246
19639.092044722085,18591.219912912835,-10325.410702873553,-12053.602880668985
19644.769387813736,18599.601817083578,-10312.491394578385,-11996.04713869657
19637.750940054768,18602.641654329494,-10330.506900609364,-11973.673042496806
19558.49165421625,18538.93918263187,-10421.120872631178,-12152.017611505702
19567.09707583154,18549.5786129926,-10405.027616623356,-12155.54918712964
19640.857832534057,18590.124677434527,-10317.811109758748,-12047.679668388328
19658.56041414266,18607.24611368729,-10312.446691089475,-11987.665234525828
19643.920021524435,18599.6912240614,-10338.218252446444,-11980.020937922114
19558.7151716608,18534.535888974176,-10430.843881469236,-12161.181826732378
19573.78024742368,18552.126711860503,-10405.206430579,-12151.302355683132
19643.271820935228,18588.49300008929,-10321.968534227435,-12047.52320617714
19648.524480882228,18595.176171681425,-10319.040455703793,-11995.42128985182
19631.26893416273,18586.347232621574,-10347.941261284504,-11996.784746263596
19543.091302286542,18523.225906279797,-10441.773884507882,-12175.352832717042
19561.196215295346,18540.61556346602,-10413.186003349543,-12151.615280105503
19635.22519293132,18573.427924326414,-10327.668229063538,-12047.165578265856
19641.2378121898,18589.387069867505,-10321.454444104964,-11990.682720027296
19629.771367284226,18584.268520387235,-10349.729400840926,-11995.533048574096
19546.309953488108,18523.31531325761,-10443.271451386388,-12178.303262985142
19578.228244570284,18550.45033102636,-10407.218087579977,-12144.663887579904
19652.100759995075,18583.843837242584,-10323.510804594853,-12043.254022986175
19643.584745357603,18594.036232714207,-10321.767368527338,-11980.51267630013
19623.065843947632,18581.273386630222,-10358.737153856417,-11998.125850930912
19532.29540971463,18510.46306019581,-10456.570739337294,-12185.209952021833
19573.981413123776,18541.800205922154,-10415.152956861612,-12135.902003753425
19652.905422795466,18580.15579940746,-10333.926717511024,-12039.945964806791
19655.475873407828,18588.64946230048,-10328.182319186011,-11979.573903033008
19631.514803351736,18576.7359825058,-10365.375621959642,-12002.864420755435
19540.409092951908,18509.9713218178,-10462.40454464013,-12183.958254332336
19583.7714771952,18543.52129024521,-10409.989703892436,-12123.027398947168
19642.46715813484,18575.081953416106,-10337.257127434865,-12035.117988004446
19633.72762605281,18579.44054358489,-10337.927679768523,-11983.105478656946
19614.37101535452,18563.079066643604,-10377.043232565313,-12016.94601976228
19536.85516558351,18508.09377528355,-10463.723297562992,-12184.69586189936
19580.35166029354,18540.61556346602,-10412.671913227072,-12120.278134379165
19640.634315089505,18565.31424108913,-10345.99665951689,-12038.068418272544
19636.633352832003,18581.832180241607,-10352.590424131206,-11975.215312864222
19609.051300174156,18557.379371807503,-10397.696244442017,-12027.09371174499
19532.898906814924,18508.719624128295,-10482.677576861091,-12195.26823702672
19583.90558766193,18551.52321476021,-10422.372570320676,-12117.059483177602
19637.862698777044,18569.538720791188,-10357.597214889194,-12036.347333949489
19631.134823696,18574.81373248264,-10366.694374882503,-11976.757583231638
19601.183486125887,18550.29386881517,-10410.101462614712,-12035.453264171276
19527.355674190007,18505.165696759905,-10486.991463540968,-12195.379995748995
19572.327384034084,18538.894479142964,-10425.613573266695,-12118.35588435601
19612.180544397896,18551.41145603793,-10368.124886527645,-12042.471711930242
19634.68875106439,18576.713630761344,-10360.72645911294,-11972.46604829622
19597.40604131294,18545.26472631273,-10418.081035385256,-12049.91484283386
19528.1603369904,18505.90330432693,-10490.567742653817,-12198.643350439472
19594.276797089195,18550.025647881703,-10416.002323150911,-12106.77768072816
19635.627524331518,18564.37546782201,-10371.924683085046,-12037.66608687235
19638.89087902199,18590.59406406809,-10363.922758570046,-11972.80132446305
19595.55084652315,18559.033400897195,-10425.233593610954,-12056.687421403816
19525.276961955664,18514.32991198658,-10508.829117873802,-12201.347911518564
19595.55084652315,18561.693258487376,-10433.660201270604,-12103.424919059864
19635.761634798248,18579.06056392915,-10378.63020642164,-12036.503796160674
19640.07552147812,18597.61251182705,-10373.48930519692,-11974.298891341556
19598.25540760224,18559.793360208678,-10433.839015226247,-12075.753459424192
19528.1603369904,18523.31531325761,-10503.442347460074,-12214.535440747197
19605.29620710566,18578.971156951327,-10418.885698185648,-12107.135308639445
19641.818957545634,18594.8408955146,-10370.181247017534,-12045.086866031512
19637.192146443387,18604.318035163647,-10372.192904018511,-11988.626359537408
19582.9221109059,18560.7321334758,-10440.522186818383,-12104.006064415702
19516.33626417354,18526.645723181453,-10512.338341753286,-12232.238022355798
19590.477000531795,18575.461933071845,-10420.807948208803,-12120.032265190155
19624.719873037324,18590.884636746006,-10374.986872075424,-12049.847787600493
19630.46427136234,18609.01190149926,-10374.137505786122,-11988.067565926023
19576.909491647424,18560.128636375503,-10441.282146129864,-12112.455023819808
19523.53352588815,18532.881859884485,-10498.74848112446,-12230.18166186591
19610.95119845285,18583.44150584239,-10407.933343402548,-12116.523041310673
19638.488547621797,18595.757317037263,-10365.57678765974,-12055.43572371432
19630.01723647323,18609.146011965997,-10363.632185892127,-11992.627321794907
19561.129160061977,18551.836139182586,-10436.945907705534,-12127.095416438036
19524.405243921905,18535.38525526348,-10478.36369018122,-12225.84542344158
19616.00269269976,18595.04206121469,-10379.613683177671,-12097.121727123467
19636.09691096508,18604.85447703057,-10344.81201706076,-12042.650525885883
19631.47009986283,18615.06922424665,-10352.81394157576,-11983.75367924615
19572.237977056266,18563.57080502162,-10431.246212869431,-12120.322837868076
19532.451871925816,18548.14810134746,-10468.081887731778,-12211.1826790789
19606.480849561794,18590.45995360136,-10375.277444753345,-12099.267494591177
19631.961838240844,18596.91960774894,-10346.086066494712,-12043.991630553202
19640.723722067323,18615.06922424665,-10345.504921138874,-11982.904312956847
19576.060125358123,18567.460008556845,-10418.01398015189,-12127.229526904766
19542.37604646397,18552.685505471887,-10449.909919489612,-12208.388711021986
19627.424434116416,18601.836991529108,-10349.10355199618,-12086.72816595175
19643.584745357603,18605.994415997797,-10328.986981986402,-12032.301668203076
19639.87435577802,18618.176116725936,-10330.126920953622,-11982.680795512297
19566.31476477561,18560.128636375503,-10414.102424872211,-12139.098303210534
19535.894040571933,18550.91971765992,-10440.030448440368,-12202.465498741329
19615.868582233023,18593.946825736384,-10342.733304826415,-12083.375404283452
19636.856870276555,18604.005110741276,-10317.632295803109,-12028.814796068047
19634.30877140865,18612.38701491201,-10331.535080854306,-11992.76143226164
19555.20594778132,18551.634973482487,-10425.613573266695,-12158.74548658675
19535.82698533857,18553.91485141693,-10445.417218854096,-12205.147708075969
19627.31267539414,18606.48615437581,-10338.642935591097,-12084.738860695226
19648.613887860047,18614.08574749061,-10309.116281165634,-12025.52908963312
19632.766501041235,18610.68828233341,-10324.024894717324,-11992.582618305996
19559.67629667238,18554.96538340633,-10415.644695239627,-12161.561806388116
19547.136968032955,18561.49209278728,-10423.91484068809,-12198.241019039277
19634.398178386477,18607.849610787584,-10321.119167938134,-12077.765116425173
19641.46132963435,18610.75533756677,-10300.287342105788,-12019.784691308105
19629.14551843948,18607.916666020952,-10317.408778358553,-11993.56609506203
19544.790034865146,18539.56503147662,-10412.604857993703,-12170.50250417024
19531.401339936416,18547.164624591427,-10430.374494835674,-12195.84938238256
19617.54496306717,18591.935168735406,-10335.75956055636,-12080.58143622654
19632.565335341136,18596.003186226277,-10313.251353889866,-12024.769130321638
19624.74222478178,18595.936130992905,-10329.143444197589,-12002.596199821974
19530.663732369398,18527.2715720262,-10423.937192432546,-12186.752222389248
19533.03301728165,18544.16949083441,-10426.619401767184,-12195.692920171372
19627.24562016077,18593.835067014108,-10326.595345329684,-12075.06055534608
19638.488547621797,18602.999282240784,-10308.982170698902,-12013.436795882795
19627.51384109424,18599.15478219447,-10325.522461595829,-11997.209429408244
19541.59373540804,18533.261839540224,-10425.501814544416,-12179.420850207907
19561.844415884545,18555.032438639693,-10406.14520384612,-12172.067126282112
19644.925850024923,18594.885599003508,-10310.435034088498,-12058.632023171427
19645.14936746948,18601.479363617826,-10307.149327653568,-12002.439737610786
19632.07359696312,18596.20435192637,-10320.80624351576,-11994.460164840242
19551.92024134639,18541.71079894433,-10408.648599225116,-12167.663832624416
19565.51010197521,18566.67769750091,-10392.421232750565,-12151.12354172749
19648.94916402688,18608.363700910057,-10303.505993307352,-12046.182101509825
19656.03466701921,18615.78448006922,-10291.793679212771,-11992.1802869058
19632.49828010777,18602.14991595148,-10316.917039980535,-11994.974254962714
19549.30508724512,18542.604868722545,-10410.72731145946,-12173.45293443834
19560.436255983863,18555.099493873066,-10386.34155825872,-12149.60362310453
19634.621695831025,18596.450221115378,-10301.22611537291,-12046.606784654474
19643.9870767578,18615.046872502196,-10292.88891469108,-11986.301778114055
19628.34085563909,18601.21114268436,-10322.594383072184,-12002.41738586633
19546.10878778801,18539.274458798704,-10418.416311552086,-12188.495658456764
19582.85505567253,18575.238415627293,-10376.1491627871,-12142.518120112196
19653.128940240014,18609.771860810743,-10287.479792532897,-12042.248194485688
19650.066751249644,18613.929285279428,-10287.166868110522,-11989.073394426512
19624.563410826137,18596.450221115378,-10320.448615604477,-12013.146223204878
19533.48005217076,18538.045112853662,-10422.976067420968,-12191.55784744714
19565.44304674185,18566.94591843437,-10383.324072757254,-12143.345134657042
19645.0376087472,18598.283064160714,-10300.957894439449,-12052.1947207683
19651.74313208379,18610.643578844494,-10294.52059203632,-11991.1297549164
19631.31363765164,18592.270444902235,-10333.81495878875,-12023.226859954222
19545.840566854546,18533.61946745151,-10431.313268102798,-12198.062205083634
19581.91628240541,18565.560110278144,-10386.162744303076,-12138.58421308806
19639.82965228911,18589.40942161196,-10306.724644508917,-12046.047991043091
19641.662495334447,18602.48519211831,-10306.054092175256,-11985.094783913468
19618.34962586756,18586.25782564376,-10348.298889195788,-12024.1879849658
19536.274020227676,18528.56797320461,-10439.06932342879,-12202.756071419248
19584.01734638421,18570.38808708049,-10391.750680416904,-12129.084721694557
19646.64693434798,18593.522142591733,-10325.768330784838,-12043.209319497266
19656.302887952672,18604.474497374835,-10318.36990337013,-11981.630263522897
19619.73543402379,18572.779723737207,-10373.154029030087,-12044.393961953398
19532.027188781165,18521.795394634653,-10469.937082521568,-12214.9824756363
19581.983337638776,18558.608717752544,-10403.77591893386,-12131.58811707355
19646.17754771442,18582.435677341902,-10326.215365673945,-12044.326906720033
19652.79366407319,18602.14991595148,-10314.078368434712,-11977.338728587476
19614.10279442105,18570.231624869302,-10365.532084170827,-12046.785598610117
19529.05440676861,18518.017949821708,-10454.626137569683,-12205.393577264977
19586.856017930037,18563.23552885479,-10390.454279238496,-12116.612448288495
19645.41758840294,18585.20729365436,-10325.27659240682,-12030.737046091206
19650.49143439429,18600.697052561885,-10320.448615604477,-11962.22894933569
19610.370053097016,18563.883729443995,-10379.032537821837,-12047.880834088426
19535.737578360742,18516.9227143434,-10460.54934985034,-12197.592818450072
19593.62859649999,18558.496959030268,-10384.86634312467,-12098.574590513064
19638.533251110704,18575.618395283032,-10326.550641840771,-12027.451339656274
19652.100759995075,18598.551285094178,-10320.180394671012,-11957.89271091136
19618.12610842301,18568.018802168222,-10369.778915617337,-12045.735066620717
19541.14670051893,18519.537868444662,-10453.217977669,-12195.491754471272
19601.2281896148,18564.330764333103,-10379.501924455397,-12096.76409921218
19652.190166972898,18586.8389709996,-10322.214403416445,-12018.220069196232
19655.677039107926,18592.5386658357,-10327.33295289671,-11956.819827177504
19606.25733211724,18555.61358399553,-10401.0043026214,-12063.214130784769
19538.0621597841,18519.739034144764,-10475.569722124306,-12200.498545229262
19611.398233341963,18567.95174693486,-10390.990721105423,-12094.439517788833
19651.81018731716,18579.172322651422,-10342.2415664484,-12028.747740834682
19646.98221051481,18583.44150584239,-10345.326107183231,-11973.360118074432
19582.11744810551,18528.120938315504,-10417.410483051595,-12092.96430265478
19508.33433965854,18491.41937391989,-10483.996329783957,-12217.999961137768
19594.097983133557,18548.952764147853,-10395.796346163315,-12106.084776650045
19639.963762755844,18565.31424108913,-10343.605022860173,-12036.973182794236
19642.2883441792,18583.77678200922,-10340.721647825438,-11968.42038254981
19583.458552772827,18540.548508232656,-10408.49213701393,-12087.465773518774
19528.76383409069,18512.564124174613,-10471.054669744331,-12206.399405765464
19609.431279829896,18560.50861603125,-10380.91008435608,-12094.841849189026
19643.56239361315,18573.40557258196,-10339.067618735746,-12031.966392036247
19654.134768740507,18585.900197732477,-10336.206595445468,-11970.119115128413
19581.513951005218,18527.450385981847,-10416.561116762296,-12107.090605150534
19531.446043425327,18508.294940983647,-10472.663995345116,-12204.074824342111
19616.427375844407,18564.24135735528,-10381.312415756276,-12082.079003105046
19642.69067557939,18573.91966270443,-10344.007354260368,-12019.561173863553
19636.40983538745,18578.591177295588,-10347.628336862128,-11965.380545303888
19571.29920378914,18524.9246388584,-10433.950773948523,-12108.051730162111
19528.026226523667,18510.32894972908,-10481.112954749222,-12195.983492849293
19608.917189707423,18559.838063697585,-10395.908104885591,-12077.318081536065
19645.46229189185,18575.797209238677,-10363.587482403218,-12015.359045905954
19652.257222206263,18590.616415812543,-10364.705069625985,-11962.675984224796
19577.088305603065,18530.51257497222,-10448.345297377742,-12122.49095708024
19537.257496983708,18517.10152829904,-10485.292730962365,-12195.447050982362
19611.1300124085,18554.36188630604,-10391.34834901671,-12081.587264727028
19636.007503987254,18565.71657248933,-10357.95484280048,-12022.086920987002
19631.44774811837,18578.457066828854,-10365.710898126472,-11975.215312864222
19549.662715156403,18513.23467650827,-10456.682498059572,-12140.372352644486
19536.139909760943,18511.133612529477,-10485.896228062658,-12197.324597516608
19625.345721882077,18558.72047647482,-10384.821639635758,-12078.569779225563
19645.238774447294,18571.125694647515,-10357.641918378104,-12021.282258186611
19648.099797737577,18577.562997050645,-10368.549569672296,-11978.99275767717
19562.939651362856,18512.29590324115,-10461.97986149548,-12141.936974756358
19525.366368933486,18501.67882462488,-10485.78446934038,-12193.569504448118
19611.21941938632,18552.46198802733,-10390.230761793944,-12070.880779132936
19637.0356842322,18569.650479513464,-10363.38631670312,-12004.250228911666
19638.488547621797,18575.283119116204,-10370.67298539555,-11964.106495869935
19554.78126463667,18513.346435230545,-10465.44438188605,-12135.253803164222
19540.96788656329,18523.538830702168,-10474.116858734713,-12168.714364613816
19628.96670448383,18575.931319705407,-10369.95772957298,-12048.372572466442
19639.60613484456,18580.60283429657,-10351.070505508244,-11993.431984595298
19631.112471951543,18579.52995056271,-10367.454334193986,-11967.772181960603
19539.939706318342,18515.00046432024,-10476.26262620242,-12150.564748116109
19537.54806966163,18527.338627259567,-10481.045899515855,-12171.061297781624
19625.904515493457,18578.322956362124,-10379.189000033022,-12052.418238212853
19643.22711744632,18593.320976891635,-10354.937357299012,-11995.935379974291
19635.11343420904,18592.91864549144,-10363.028688791836,-11974.94709193076
19550.266212256694,18530.177298805396,-10462.87393127369,-12160.086591254068
19544.47711044277,18540.213232065827,-10469.847675543748,-12173.83291409408
19626.06097770464,18576.601872039064,-10377.467915709964,-12067.43861048682
19627.469137605327,18580.021688940727,-10362.201674246988,-12014.263810427645
19614.39336709897,18579.217026140337,-10380.418345978063,-12004.026711467111
19534.508232415705,18523.42707197989,-10473.938044779068,-12186.327539244598
19538.419787695384,18534.75940641873,-10469.490047632462,-12190.127335802
19619.780137512706,18576.177188894413,-10377.177343032045,-12077.474543747252
19632.00654172976,18588.381241367013,-10363.118095769656,-12018.845918040985
19612.247599631264,18583.01682269774,-10381.58063668974,-12014.599086594471
19523.26530495469,18520.94602834535,-10474.943873279555,-12201.593780707572
19542.48780518625,18549.66801997042,-10454.849655014235,-12183.958254332336
19615.17567815491,18588.805924511664,-10371.567055173762,-12079.352090281498
19624.719873037324,18602.529895607226,-10358.67009862305,-12016.923668017826
19621.255352646756,18596.561979837654,-10381.468877967463,-12017.594220351484
19544.655924398416,18541.82255766661,-10476.061460502322,-12199.22449579531
19570.65100319993,18570.231624869302,-10432.900241959123,-12168.870826825005
19644.255297691263,18604.698014819387,-10345.884900794614,-12069.763191910171
19642.75773081276,18609.03425324372,-10340.833406547716,-12009.078205714011
19622.015311958232,18597.053718215677,-10369.778915617337,-12025.462034399752
19540.27498248517,18547.723418202808,-10456.056649214825,-12199.73858591778
19565.44304674185,18576.847741228077,-10418.103387129711,-12155.92916678538
19637.32625691012,18603.20044794088,-10326.66240056305,-12058.922595849348
19642.55656511266,18615.516259135755,-10314.99478995738,-11994.75073751816
19611.778212997702,18593.365680380542,-10351.204615974975,-12028.85949955696
19511.91061877139,18524.745824902755,-10453.486198602464,-12215.585972736597
19552.210814024307,18563.32493583261,-10403.373587533664,-12151.280003938677
19632.967666741333,18598.57363683863,-10317.98992371439,-12053.222901013243
19636.96862899883,18610.01772999975,-10311.172641655525,-11992.292045628075
19615.622713044013,18592.315148391142,-10348.61181361816,-12028.837147812505
19523.086490999045,18531.63016219499,-10455.676669559083,-12209.998036622768
19569.98045086628,18573.427924326414,-10404.893506156624,-12140.081779966567
19631.49245160728,18599.177133938927,-10329.210499430956,-12052.686459146316
19638.712065066346,18611.31413117816,-10319.0851591927,-11987.03938568108
19619.06488169013,18594.706785047863,-10345.750790327882,-12029.753569335173
19528.67442711287,18538.022761109205,-10442.64560254164,-12210.80269942316
19577.423581769894,18581.563959308143,-10380.418345978063,-12129.73292228376
19639.49437612228,18608.229590443327,-10310.99382769988,-12043.186967752812
19651.83253906161,18627.519145908256,-10300.488507805883,-11977.249321609655
19608.40309958495,18592.24809315778,-10345.1919967165,-12042.538767163607
19524.56170613309,18538.738016931777,-10437.258832127907,-12210.445071511876
19579.92697714889,18580.91575871894,-10371.790572618314,-12127.430692604865
19639.673190077923,18596.87490426003,-10306.27760961981,-12053.066438802058
19644.389408158,18612.5434771232,-10304.869449719126,-11990.056871182547
19605.676186761404,18578.345308106575,-10359.00537478988,-12064.242311029711
19530.82019458058,18530.356112761037,-10445.238404898457,-12224.236097840798
19599.752974480747,18584.87201748753,-10367.76725861636,-12128.481224594265
19644.434111646904,18596.941959493397,-10307.2834381203,-12055.279261503132
19642.914193023946,18604.005110741276,-10310.18916489949,-11994.258999140144
19596.601378512547,18568.354078335055,-10360.23472073492,-12074.322947779054
19523.600581121515,18528.411510993425,-10438.465826328496,-12221.531536761706
19598.59068376907,18581.34044186359,-10360.882921324126,-12121.172204157378
19648.613887860047,18597.94778799388,-10303.617752029628,-12047.3443922215
19647.853928548568,18611.4929451338,-10302.097833406668,-11975.08120239749
19594.433259300386,18567.839988212585,-10370.024784806346,-12069.360860509976
19527.020398023174,18528.076234826596,-10444.992535709443,-12206.980551121302
19601.78698322618,18580.91575871894,-10357.887787567111,-12098.48518353524
19643.7859110577,18593.96917748084,-10307.037568931291,-12033.642772870397
19646.244602947787,18611.247075944797,-10307.976342198412,-11970.32028082851
19596.579026768093,18573.137351648493,-10372.1482005296,-12072.870084389458
19537.50336617272,18542.604868722545,-10436.945907705534,-12203.1807545639
19611.599399042057,18592.270444902235,-10347.158950228566,-12095.557105011596
19642.444806390384,18598.506581605267,-10307.0822724202,-12031.586412380508
19631.246582418276,18607.559038109663,-10316.626467302618,-11971.08024013999
19579.122314348497,18562.36381082104,-10385.827468136247,-12089.790354942126
19536.29637197213,18543.05190361165,-10449.239367155957,-12208.902801144455
19616.852058989058,18595.84672401509,-10358.960671300969,-12092.897247421412
19644.79173955819,18602.127564207025,-10313.966609712435,-12030.021790268636
19639.963762755844,18604.876828775028,-10318.056978947758,-11973.695394241262
19588.711212719823,18568.15291263496,-10391.035424594334,-12098.552238768609
19539.20209875132,18543.186014078383,-10444.1655211646,-12209.014559866737
19624.6304660595,18594.39386062549,-10346.086066494712,-12089.142154352923
19654.045361762688,18606.57556135363,-10299.885010705591,-12024.500909388174
19648.211556459853,18614.376320168536,-10301.762557239836,-11968.040402894068
19579.994032382256,18559.72630497531,-10376.48443895393,-12106.174183627869
19522.818270065574,18531.406644750437,-10440.07515192928,-12209.171022077922
19611.93467520889,18588.35888962256,-10343.359153671165,-12083.576569983552
19637.54977435467,18594.4385641144,-10305.875278219615,-12029.127720490424
19630.21840217333,18598.4395263719,-10318.459310347953,-11982.70314725675
19561.82206414009,18542.537813489176,-10401.808965421793,-12127.296582138131
19515.933932773343,18522.689464412862,-10440.768056007391,-12204.253638297754
19612.15819265344,18581.5863110526,-10342.2415664484,-12079.262683303676
19645.50699538076,18595.377337381524,-10308.333970109696,-12017.594220351484
19636.700408065368,18598.88656126101,-10317.252316147364,-11965.268786581611
19558.134026304964,18540.61556346602,-10404.29000905633,-12122.759178013705
19531.669560869883,18534.021798851707,-10433.459035570508,-12192.340158503075
19624.13872768149,18587.464819844343,-10333.658496577562,-12069.91965412136
19649.664419849447,18598.88656126101,-10307.931638709502,-12012.118042959935
19648.92681228242,18610.68828233341,-10314.078368434712,-11963.570054003008
19570.092209588554,18546.985810635782,-10404.267657311875,-12124.189689658844
19541.526680174677,18540.794377421666,-10430.128625646666,-12178.102097285046
19626.709178293848,18588.180075666914,-10330.439845375997,-12056.620366170451
19642.333047668108,18596.7407937933,-10307.864583476136,-12002.551496333062
19646.84810004808,18603.2898549187,-10314.435996345996,-11963.257129580634
19568.75110492124,18543.253069311748,-10411.420215537575,-12132.97392522978
19547.53929943315,18547.701066458358,-10434.487215815452,-12175.55399841714
19630.26310566224,18589.52118033423,-10338.575880357728,-12062.00713658418
19651.9890012728,18603.87100027454,-10309.65272303256,-11995.533048574096
19646.0881407366,18606.083822975612,-10320.09098769319,-11961.916024913317
19561.82206414009,18544.013028623227,-10418.639828996638,-12137.712495054306
19552.613145424504,18549.24333682577,-10429.770997735382,-12165.473361667797
19636.09691096508,18591.331671635115,-10331.803301787771,-12048.417275955351
19643.897669779977,18592.65042455797,-10316.268839391332,-11996.13654567439
19625.971570726822,18587.53187507771,-10337.90532802407,-11979.059812910536
19540.297334229628,18522.28713301267,-10437.370590850183,-12159.684259853871
19546.55582267712,18532.747749417755,-10438.82345423978,-12172.067126282112
19631.42539637392,18579.4852470738,-10341.638069348106,-12054.876930102935
19641.953068012368,18592.82923851362,-10328.76346454185,-12003.490269600186
19633.392349885984,18591.041098957197,-10352.18809273101,-11987.776993248104
19545.035904054155,18524.5223074582,-10440.522186818383,-12166.210969234822
19541.14670051893,18533.44065349587,-10429.748645990929,-12170.703669870338
19631.02306497372,18573.69614525988,-10347.918909540049,-12067.86329363147
19641.908364523457,18583.553264564667,-10339.291136180298,-12010.620476081427
19627.200916671864,18586.123715177026,-10357.217235233456,-11992.56026656154
19556.18942453735,18533.86533664052,-10445.461922343007,-12165.808637834623
19561.48678797326,18549.06452287013,-10436.789445494347,-12157.49378889725
19637.14744295448,18584.3355756206,-10351.67400260854,-12054.608709169474
19635.895745264977,18591.53283733521,-10344.364982171654,-11995.465993340733
19618.371977612016,18581.76512500824,-10365.107401026178,-12000.89746724337
19542.35369471952,18524.56701094711,-10461.26460567291,-12185.142896788466
19567.58881420956,18550.204461837347,-10428.049913412324,-12158.276099953187
19640.969591256333,18582.413325597445,-10349.550586885283,-12058.38615398242
19641.99777150128,18591.599892568574,-10353.260976464866,-12001.120984687925
19622.79762301417,18580.20050289637,-10387.123869314655,-12005.32311264552
19526.685121856342,18505.679786882378,-10483.281073961389,-12196.139955060478
19560.436255983863,18541.19670882186,-10444.657259542617,-12153.582233617572
19638.42149238843,18578.971156951327,-10361.307604468777,-12052.619403912951
19641.99777150128,18587.2860058887,-10354.870302065649,-11993.521391573118
19624.00461721476,18574.031421426705,-10384.91104661358,-12012.09569121548
19537.592773150536,18511.29007474066,-10482.610521627728,-12191.93782710288
19566.82885489808,18543.43188326739,-10440.63394554066,-12142.562823601109
19634.12995745301,18574.92549120492,-10361.464066679962,-12044.639831142404
19636.879222021013,18585.989604710296,-10361.57582540224,-11984.334824601989
19615.578009555105,18569.471665557823,-10400.847840410212,-12016.498984873177
19539.29150572914,18516.16275503192,-10484.622178628704,-12191.155516046943
19577.44593351435,18549.153929847947,-10435.984782693957,-12131.364599628998
19640.1872802004,18574.210235382347,-10363.565130658762,-12043.254022986175
19641.59544010108,18591.175209423927,-10352.121037497644,-11975.885865197884
19622.574105569616,18569.024630668715,-10385.760412902882,-12014.84495578348
19546.86874709949,18516.3192172431,-10479.660091359628,-12192.094289314067
19583.70442196184,18548.930412403395,-10427.692285501038,-12127.296582138131
19649.820882060638,18573.15970339295,-10355.0938195102,-12036.749665349684
19650.111454738555,18583.44150584239,-10355.607909632672,-11977.450487309754
19609.16305889643,18552.976078149804,-10402.099538099712,-12031.47465365823
19529.92612480237,18505.992711304752,-10496.669768890117,-12201.526725474208
19586.856017930037,18552.238470582783,-10433.59314603724,-12116.947724455324
19641.2378121898,18571.14804639197,-10363.162799258567,-12036.392037438398
19641.886012779,18580.87105523003,-10361.799342846793,-11973.807152963538
19613.231076387296,18562.900252687963,-10406.480480012951,-12029.641810612897
19536.832813839057,18517.66032191042,-10491.730033365491,-12193.770670148217
19594.00857615573,18562.296755587668,-10422.864308698692,-12114.801956987616
19649.820882060638,18583.665023286943,-10362.38048820263,-12037.733142105715
19652.41368441745,18602.55224735168,-10359.407706190075,-11969.359155816932
19604.87152396101,18565.358944578045,-10416.270544084377,-12050.786560867617
19528.18268873485,18518.24146726626,-10501.095414292266,-12209.349836033563
19600.378823325496,18575.14900864947,-10419.243326096932,-12112.231506375254
19638.22032668833,18585.922549476927,-10365.57678765974,-12048.037296299612
19626.575067827114,18597.12077344904,-10370.71768888446,-11988.76047000414
19594.187390111376,18571.4833225588,-10420.606782508705,-12071.931311122336
19535.268191727184,18532.25601103973,-10487.662015874626,-12219.162251849444
19601.339948337078,18578.658232528956,-10410.168517848077,-12124.50261408122
19644.635277347003,18594.371508881035,-10366.157933015578,-12057.29091850411
19641.55073661217,18610.77768931123,-10370.67298539555,-11998.66229279784
19591.9745674103,18569.56107253565,-10431.87206171418,-12095.892381178426
19532.697741114825,18544.77298793471,-10496.64741714566,-12226.113644375044
19602.792811726667,18590.862285001556,-10417.63400049615,-12129.397646116931
19647.473948892828,18608.900142776984,-10372.572883674253,-12061.090715061511
19653.955954784866,18628.21204998637,-10365.755601615385,-11988.93928395978
19596.26610234572,18583.70972677585,-10427.848747712223,-12096.54058176763
19541.34786621903,18551.97024964932,-10486.812649585325,-12221.84446118408
19617.008521200245,18600.115907206047,-10392.91297112858,-12116.076006421568
19644.41175990245,18613.102270734584,-10348.500054895883,-12056.687421403816
19644.523518624726,18626.8485935746,-10352.746886342393,-11993.90137122886
19588.197122597358,18579.4852470738,-10423.221936609976,-12112.097395908522
19539.738540618247,18555.971211906817,-10481.0235477714,-12225.018408896734
19620.11541367953,18615.06922424665,-10383.324072757254,-12102.195573114825
19645.685809336403,18624.814584829164,-10343.85089204918,-12043.656354386372
19643.60709710206,18635.006980300783,-10346.443694405996,-11986.36883334742
19591.70634647684,18593.43273561391,-10414.840032439237,-12108.230544117754
19544.1641860204,18568.935223690896,-10463.522131862896,-12210.065091856131
19617.20968690034,18612.901105034485,-10367.00729930488,-12095.601808500507
19645.55169886967,18620.03131151573,-10333.546737855284,-12040.638868884906
19653.911251295955,18635.990457056814,-10337.57005185724,-11983.887789712882
19586.74425920776,18584.20146515387,-10417.857517940703,-12127.341285627042
19539.984409807257,18561.425037553912,-10463.92446326309,-12219.676341971915
19623.60228581456,18612.431718400923,-10361.464066679962,-12094.327759066551
19648.591536115597,18623.562887139666,-10331.915060510048,-12039.253060728675
19653.285402451205,18637.957410568884,-10330.529252353816,-11977.495190798663
19577.937671892367,18576.713630761344,-10411.91195391559,-12128.92825948337
19541.750197619225,18562.788493965687,-10448.121779933188,-12210.825051167614
19630.55367834016,18612.185849211917,-10358.0442497783,-12094.216000344277
19652.346629184085,18619.628980115533,-10332.071522721237,-12036.213223482757
19656.48170190832,18629.64256163151,-10334.641973333595,-11982.680795512297
19579.323480048595,18565.269537600227,-10429.34631459073,-12146.161454458412
19552.434331468863,18558.00522065225,-10463.253910929432,-12213.9319436469
19645.998733758777,18608.564866610155,-10358.491284667409,-12094.238352088732
19653.84419606259,18610.91179977796,-10326.528290096318,-12044.773941609135
19644.679980835917,18617.527916136733,-10335.245470433889,-11997.544705575074
19570.338078777564,18559.323973575112,-10416.985799906946,-12161.338288943563
19549.372142478485,18558.11697937453,-10438.085846672757,-12210.89210640098
19641.50603312326,18611.58235211162,-10341.459255392463,-12085.72233745126
19646.69163783689,18611.4929451338,-10326.483586607408,-12033.821586826038
19633.951143497365,18608.63192184352,-10343.895595538092,-12002.216220166234
19568.39347700995,18552.28317407169,-10432.475558814474,-12165.383954689974
19562.82789264058,18560.28509858669,-10439.896337973636,-12196.609341694038
19637.97445749932,18601.50171536228,-10348.678868851528,-12084.001253128205
19648.54683262668,18603.423965385435,-10331.33391515421,-12031.497005402683
19644.65762909146,18609.324825921634,-10338.821749546738,-11993.923722973315
19566.404171753427,18558.89929043046,-10433.146111148131,-12162.142951743956
19557.44112222685,18565.89538644497,-10438.801102495325,-12182.59479792056
19642.914193023946,18611.694110833894,-10345.437865905507,-12067.48331397573
19660.70618161037,18623.98757028432,-10329.724589553429,-12011.80511853756
19653.50891989576,18627.04975927469,-10348.90238629608,-11989.922760715815
19568.8181601546,18565.783627722696,-10442.265622885898,-12166.076858768089
19565.06306708611,18572.019764425728,-10437.68351527256,-12181.387803719976
19650.60319311657,18611.87292478954,-10337.57005185724,-12074.792334412616
19651.83253906161,18614.95746552437,-10327.087083707702,-12022.601011109473
19646.713989581345,18619.07018650415,-10345.974307772436,-12002.730310288704
19565.755971164224,18553.981906650293,-10442.44443684154,-12182.326576987098
19576.887139902967,18575.640747027486,-10425.993552922437,-12174.03407979418
19664.30481246767,18620.92538129394,-10334.373752400132,-12061.805970884085
19662.360210700062,18624.725177851346,-10329.456368619964,-12010.620476081427
19640.902536022968,18618.377282426038,-10355.496150910396,-12008.787633036094
19565.465398486307,18563.86137769954,-10443.316154875298,-12184.74056538827
19583.30209056164,18582.882712231007,-10417.075206884769,-12170.83778033707
19655.90055655248,18613.236381201317,-10330.66336282055,-12070.925482621848
19666.13765551301,18624.47930866233,-10324.203708672969,-12010.128737703411
19647.809225059656,18617.23734345881,-10350.511711896865,-12009.301723158564
19556.05531407062,18552.976078149804,-10445.819550254291,-12194.351815504053
19576.909491647424,18578.457066828854,-10414.77297720587,-12163.394649433452
19648.144501226485,18611.470593389346,-10333.636144833106,-12063.728220907238
19647.764521570745,18617.05852950317,-10333.457330877463,-12007.938266746793
19637.61682958804,18610.978855011326,-10357.15018000009,-12011.46984237073
19552.09905530203,18549.10922635904,-10455.855483514724,-12196.542286460672
19579.368183537503,18579.351136607067,-10415.532936517351,-12155.817408063103
19651.385504172507,18606.799078798187,-10338.464121635452,-12062.76709589566
19659.3427251986,18621.77474758324,-10328.383484886108,-11999.556362576051
19641.72955056781,18610.15184046648,-10351.67400260854,-12015.38139765041
19549.30508724512,18543.81186292313,-10450.871044501191,-12197.346949261064
19588.599453997547,18578.524122062223,-10413.320113816277,-12147.301393425632
19655.07354200763,18607.670796831942,-10329.635182575606,-12053.491121946709
19656.74992284178,18618.35493068158,-10316.022970202324,-11990.079222927
19636.32042840963,18600.80881128416,-10346.600156617184,-12022.04221749809
19558.782226894167,18543.186014078383,-10440.745704262938,-12199.023330095211
19596.10964013453,18581.29573837468,-10396.712767685982,-12141.0652567226
19660.437960676903,18608.721328821342,-10324.583688328708,-12047.009116054667
19654.917079796443,18614.57748586863,-10324.181356928511,-11988.112269414934
19633.817033030635,18602.619302585044,-10362.738116113916,-12024.90324078837
19558.9163373609,18553.266650827725,-10448.814684011304,-12189.523838701709
19601.00467217024,18586.570750066134,-10391.258942038889,-12124.390855358944
19652.547794884184,18606.10617472007,-10328.919926753037,-12042.181139252323
19654.760617585256,18618.4443376594,-10334.306697166763,-11979.104516399446
19623.512878836736,18589.387069867505,-10376.283273253832,-12032.368723436442
19542.10782553051,18532.881859884485,-10471.92638777809,-12205.237115053787
19603.30690184914,18579.932281962905,-10406.324017801764,-12126.983657715757
19658.31454495365,18599.71357580585,-10339.715819324949,-12044.66218288686
19649.396198915983,18608.25194218778,-10332.965592499446,-11979.059812910536
19606.994939684268,18577.384183095,-10380.217180277969,-12049.71367713376
19539.51502317369,18526.556316203634,-10467.858370287226,-12210.042740111678
19610.99590194177,18576.691279016886,-10388.889657126623,-12117.260648877698
19654.7382658408,18596.71844204884,-10330.730418053916,-12042.583470652518
19649.038571004698,18607.715500320854,-10342.442732148496,-11985.2288943802
19612.180544397896,18574.411401082445,-10400.423157265564,-12065.695174419305
19544.09713078703,18531.11607207252,-10472.954568023037,-12213.41785352443
19599.529457036195,18569.40461032446,-10404.692340456528,-12122.043922191137
19648.36801867104,18584.76025876525,-10348.90238629608,-12049.400752711386
19650.156158227463,18603.759241552263,-10346.980136272923,-11975.103554141946
19607.21845712882,18572.82442722612,-10403.597104978217,-12061.046011572602
19547.33813373305,18535.944048874862,-10464.818533041303,-12195.022367837711
19617.813184000635,18583.262691886743,-10380.798325633805,-12089.76800319767
19656.66051586396,18604.429793885924,-10336.161891956555,-12023.71859833224
19649.46325414935,18612.85640154557,-10345.594328116696,-11967.213388349222
19606.86082921753,18572.71266850384,-10408.715654458483,-12069.047936087602
19543.42657845337,18535.42995875239,-10478.520152392406,-12204.857135398048
19617.25439038925,18578.18884589539,-10395.975160118956,-12103.82725046006
19651.966649528345,18589.14120067849,-10352.43396192002,-12041.2423659852
19648.50212913777,18605.72619506433,-10355.38439218812,-11975.729402986695
19593.740355222268,18563.4813980438,-10419.131567374656,-12081.833133916038
19535.62581963847,18523.628237679983,-10488.198457741555,-12210.176850578411
19622.819974758622,18581.09457267458,-10396.82452640826,-12095.11007012249
19662.69548686689,18598.327767649625,-10351.964575286458,-12030.312362946554
19660.259146721262,18607.62609334303,-10357.887787567111,-11968.822713950003
19600.95996868133,18563.59315676608,-10426.418236067086,-12086.661110718383
19548.56747967809,18536.681656441888,-10481.761155338423,-12196.385824249486
19628.519669594727,18587.01778495524,-10393.024729850857,-12083.174238583357
19655.140597241,18594.170343180936,-10351.249319463888,-12025.32792393302
19648.32331518213,18604.58625609711,-10358.312470711764,-11966.36402205992
19587.79479119716,18558.51931077472,-10432.58731753675,-12095.62416024496
19551.36144773501,18542.694275700364,-10474.183913968076,-12190.350853246551
19629.950181239867,18591.71165129085,-10376.931473843037,-12073.652395445397
19656.258184463764,18597.90308450497,-10346.801322317282,-12018.890621529892
19652.637201862,18605.7932502977,-10363.498075425396,-11967.99569940516
19592.95804416633,18556.507653773744,-10439.516358317896,-12105.280113849654
19550.55678493461,18534.33472327408,-10480.911789049123,-12191.401385235951
19624.25048640376,18575.01489818274,-10391.929494372547,-12076.11108733548
19650.402027416472,18584.089706431598,-10362.156970758078,-12019.851746541472
19643.74120756879,18594.036232714207,-10371.075316795745,-11969.31445232802
19578.9211486484,18545.376485035,-10452.21214916851,-12110.488070307742
19547.51694768869,18531.80897615063,-10482.387004183174,-12184.60645492154
19642.2883441792,18591.10815419056,-10384.799287891305,-12067.997404098202
19665.98119330182,18603.33455840761,-10365.710898126472,-12013.660313327351
19657.107550753062,18604.20627644137,-10373.422249963553,-11960.127885356893
19575.34486953555,18535.698179685853,-10464.796181296848,-12119.987561701246
19545.72880813227,18531.831327895085,-10496.513306678928,-12188.2274375233
19633.6829225639,18590.81758151264,-10400.06552935428,-12066.946872108803
19649.105626238063,18600.406479883968,-10374.584540675229,-12010.37460689242
19641.394274400984,18606.083822975612,-10381.781802389838,-11968.50978952763
19569.42165725489,18548.729246703297,-10467.29957667584,-12130.247012406233
19549.975639578777,18547.34343854707,-10483.348129194752,-12181.387803719976
19635.82869003161,18596.271407159737,-10388.353215259698,-12065.62811918594
19645.14936746948,18602.194619440397,-10369.108363283678,-12016.320170917532
19638.89087902199,18607.58138985412,-10379.077241310744,-11984.804211235549
19566.001840353238,18553.19959559436,-10470.205303455032,-12154.78922781816
19549.975639578777,18553.51252001673,-10482.677576861091,-12199.515068473229
19633.50410860826,18597.29958740468,-10388.48732572643,-12086.169372340366
19651.7878355727,18612.72229107884,-10371.142372029111,-12028.635982112406
19646.19989945888,18616.723253336346,-10389.247285037907,-12001.52331608812
19572.43914275636,18560.5309677757,-10478.564855881315,-12176.045736795157
19571.05333460013,18569.5834242801,-10482.766983838914,-12196.832859138593
19639.561431355647,18606.508506120263,-10394.388186262631,-12089.700947964306
19644.255297691263,18613.34813992359,-10380.284235511332,-12037.397865938889
19644.8364430471,18619.696035348898,-10389.806078649292,-12011.76041504865
19556.30118325963,18557.66994448542,-10484.89039956217,-12190.753184646748
19550.221508767787,18568.62229926852,-10476.732012835982,-12200.856173140548
19630.88895450699,18611.895276534,-10378.518447699362,-12087.242256074222
19645.64110584749,18620.433642915923,-10366.895540582604,-12030.312362946554
19625.92686723791,18614.19750621289,-10384.821639635758,-12021.684589586806
19547.80752036661,18559.2792700862,-10475.569722124306,-12200.36443476253
19563.56550020761,18586.660157043952,-10460.035259727869,-12189.590893935072
19640.723722067323,18624.524012151243,-10364.772124859348,-12081.386099026931
19644.702332580368,18630.2460587318,-10357.61956663365,-12025.596144866484
19630.330160895606,18626.53566915222,-10377.646729665605,-12017.2365924402
19550.422674467885,18570.969232436328,-10467.612501098216,-12195.73762366028
19576.39540152495,18600.406479883968,-10444.031410697868,-12180.001995563744
19658.091027509097,18638.4491489469,-10349.304717696275,-12068.57854945404
19655.475873407828,18641.53368968173,-10336.877147779123,-12016.454281384264
19637.817995288133,18631.587163399123,-10369.041308050311,-12022.109272731455
19553.06018031361,18568.175264379413,-10467.50074237594,-12205.259466798245
19586.610148741027,18605.3909188975,-10430.665067513592,-12169.161399502922
19661.42143743294,18637.13039602404,-10342.353325170676,-12072.154828566889
19659.54389089869,18642.628925160043,-10337.681810579516,-12013.794423794085
19636.767463298736,18625.10515750708,-10366.537912671318,-12025.171461721831
19557.06114257111,18567.616470768036,-10460.526998105885,-12209.573353478116
19591.482829032284,18600.339424650603,-10426.239422111445,-12171.061297781624
19660.28149846572,18627.988532541814,-10346.175473472533,-12078.815648414571
19664.640088634504,18640.77373037025,-10332.227984932422,-12014.442624383286
19633.951143497365,18620.09836674909,-10366.537912671318,-12039.85655782897
19551.58496517956,18565.649517255966,-10457.26364341541,-12214.781309936205
19598.434221557884,18601.121735706536,-10409.743834703426,-12164.69105061186
19665.087123523608,18634.604648900586,-10330.216327931445,-12070.143171565913
19666.204710746373,18650.96612584187,-10314.123071923625,-12001.120984687925
19637.63918133249,18629.26258197577,-10348.52240664034,-12034.179214737322
19558.7151716608,18570.34338359158,-10447.741800277448,-12216.435339025897
19596.08728839008,18601.591122340094,-10404.222953822966,-12159.796018576148
19671.814998604656,18634.00115180029,-10319.733359781903,-12063.661165673871
19676.374754473534,18644.148843783005,-10316.201784157967,-12000.070452698525
19642.154233712463,18615.180982968926,-10356.032592777325,-12046.964412565758
19550.713247145803,18555.278307828703,-10452.949756735536,-12224.549022263172
19601.541114037173,18600.83116302862,-10397.383320019642,-12151.481169638771
19669.378658459027,18630.06724477616,-10322.61673481664,-12056.77682838164
19675.927719584437,18644.729989138843,-10316.201784157967,-11988.313435115031
19647.27278319273,18622.422948172447,-10358.938319556511,-12040.325944462533
19562.55967170712,18573.271462115223,-10439.695172273538,-12205.661798198438
19613.78986999868,18610.978855011326,-10374.29396799731,-12126.58132631556
19666.78585610221,18629.173174997948,-10312.558449811751,-12039.968316551249
19668.17166425844,18643.27712574925,-10303.528345051807,-11972.778972718594
19632.8335562746,18609.92832302193,-10357.999546289391,-12044.840996842504
19540.63261039646,18552.014953138227,-10449.328774133775,-12211.137975589989
19604.08921290508,18601.747584551285,-10375.590369175718,-12120.769872757182
19663.65661187847,18625.395730185,-10318.436958603495,-12044.036334042114
19672.910234082967,18635.677532634443,-10316.313542880243,-11977.249321609655
19636.923925509924,18603.714538063352,-10361.888749824617,-12058.676726660338
19549.886232600955,18557.04409564067,-10449.105256689223,-12215.697731458871
19616.27091363322,18610.665930588955,-10366.76143011587,-12116.076006421568
19667.501111924783,18625.21691622936,-10299.348568838665,-12043.902223575382
19668.17166425844,18639.589087914123,-10301.293170606275,-11982.524333301108
19627.446785860877,18604.96623575285,-10366.917892327056,-12072.49010473372
19556.25647977072,18563.369639321525,-10447.920614233091,-12218.782272193705
19630.37486438452,18618.176116725936,-10364.392145203608,-12109.705759251803
19667.635222391516,18636.79511985721,-10309.764481754835,-12037.911956061358
19662.44961767788,18644.3500094831,-10315.687694035494,-11978.635129765884
19618.59549505657,18603.53572410771,-10383.212314034978,-12082.838962416528
19554.066008814098,18564.68839224439,-10458.917672505102,-12220.637466983497
19623.959913725845,18608.184886954416,-10372.170552274056,-12115.628971532462
19657.71104785336,18614.376320168536,-10319.554545826262,-12052.48529344622
19653.84419606259,18629.30728546468,-10317.028798702811,-11984.64774902436
19607.9784164403,18588.783572767206,-10381.200657034,-12094.372462555464
19552.52373844668,18568.063505657137,-10443.003230452923,-12214.356626791552
19619.60132355706,18615.15863122447,-10361.66523238006,-12105.190706871834
19655.74409434129,18627.183869741424,-10319.666304548538,-12041.264717729657
19666.897614824487,18648.798006629702,-10312.290228878288,-11972.46604829622
19612.337006609083,18600.96527349535,-10381.893561112114,-12093.813668944082
19554.46834021429,18573.5843865376,-10448.993497966943,-12208.254600555254
19637.32625691012,18623.07114876165,-10361.017031790858,-12096.87585793446
19671.03268754872,18633.55411691119,-10318.302848136766,-12035.855595571473
19667.769332858246,18641.868965848564,-10322.639086561096,-11977.897522198858
19602.45753555984,18592.69512804689,-10402.166593333077,-12109.884573207448
19544.11948253149,18569.33755509109,-10461.912806262111,-12213.194336079876
19635.895745264977,18623.6969976064,-10365.085049281724,-12091.332625309542
19674.02782130573,18634.895221578507,-10322.594383072184,-12029.462996657252
19675.301870739684,18641.377227470544,-10322.862604005648,-11974.902388441848
19608.87248621851,18584.089706431598,-10406.77105269087,-12113.974942442768
19560.704476917326,18562.67673524341,-10452.614480568704,-12202.241981296776
19644.076483735626,18611.60470385608,-10359.72063061245,-12087.264607818675
19663.723667111837,18619.628980115533,-10326.774159285327,-12031.631115869415
19660.88499556601,18630.93896280992,-10330.797473287284,-11973.98596691918
19592.1757331104,18577.562997050645,-10418.148090618624,-12124.413207103396
19551.31674424609,18560.44156079788,-10456.30251840383,-12203.65014119746
19636.02985573171,18605.927360764428,-10358.401877689586,-12082.906017649892
19657.822806575638,18616.47738414733,-10328.070560463735,-12022.153976220368
19661.84612057759,18636.616305901563,-10335.84896753418,-11972.153123873846
19582.78800043917,18575.19371213838,-10422.193756365032,-12130.135253683957
19550.31091574561,18568.19761612387,-10458.202416682532,-12193.65891142594
19641.97541975682,18618.198468470397,-10358.871264323148,-12076.669880946862
19660.03562927671,18622.95939003937,-10326.684752307505,-12014.33086566101
19660.057981021164,18630.313113965167,-10335.13371171161,-11966.922815671303
19592.8239336996,18574.277290615715,-10427.178195378568,-12127.721265282782
19563.78901765216,18564.889557944483,-10450.692230545548,-12183.153591531944
19646.132844225507,18607.469631131844,-10359.2959474678,-12071.640738444416
19663.74601885629,18619.09253824861,-10330.261031420354,-12009.860516769948
19658.53806239821,18621.12654699404,-10336.273650678831,-11968.219216849711
19572.930881134376,18552.81961593862,-10435.381285593665,-12145.289736424656
19554.066008814098,18552.46198802733,-10454.469675358496,-12184.0253095657
19635.11343420904,18593.522142591733,-10361.464066679962,-12068.82441864305
19661.108513010564,18615.82918355813,-10328.674057564029,-11997.410595108342
19663.50014966728,18627.005055785783,-10336.027781489824,-11961.111362112924
19575.92601489139,18562.34145907658,-10438.510529817406,-12141.109960211512
19563.543148463148,18570.075162658115,-10452.50272184643,-12167.46266692432
19649.865585549545,18611.82822130063,-10358.066601522756,-12055.10044754749
19662.114341511053,18617.840840559107,-10344.85672054967,-12001.255095154656
19657.286364708707,18616.857363803072,-10367.00729930488,-11980.13269664439
19566.67239268689,18546.494072257767,-10464.773829552392,-12160.108942998522
19566.7170961758,18558.85458694155,-10459.744687049948,-12169.563730903115
19641.79660580118,18599.467706616844,-10368.393107461108,-12057.71560164876
19645.64110584749,18605.54738110869,-10358.558339900774,-12002.104461443956
19656.861681564056,18621.752395838783,-10370.471819695453,-11980.46797281122
19588.375936552995,18570.81277022514,-10462.44924812904,-12151.794094061148
19593.963872666824,18585.05083144317,-10450.871044501191,-12145.379143402475
19668.261071236266,18616.99147426981,-10366.314395226766,-12038.604860139474
19674.385449217018,18624.613419129066,-10356.166703244056,-11982.971368190214
19658.7392280983,18617.50556439228,-10377.736136643429,-11976.534065787086
19575.61309046901,18557.5805375076,-10478.095469247755,-12161.338288943563
19591.21460809882,18580.49107557429,-10456.034297470367,-12146.474378880785
19666.67409737993,18610.822392800143,-10365.375621959642,-12043.276374730633
19670.27272823724,18615.02452075774,-10359.072430023243,-11987.687586270284
19650.580841372117,18607.715500320854,-10388.889657126623,-11991.554438061052
19566.404171753427,18544.23654606778,-10485.628007129191,-12177.766821118215
19591.035794143176,18570.321031847125,-10456.034297470367,-12147.480207381272
19660.28149846572,18601.322901406635,-10374.71865114196,-12045.891528831904
19660.8402920771,18608.520163121244,-10363.118095769656,-11981.540856545074
19647.02691400372,18592.5386658357,-10394.388186262631,-11993.253170639657
19557.4187704824,18530.601981950043,-10494.367539211218,-12176.69393738436
19587.168942352408,18562.117941632023,-10459.744687049948,-12134.359733386009
19662.29315546669,18595.578503081622,-10374.584540675229,-12034.2909734596
19664.97536480133,18608.25194218778,-10366.895540582604,-11972.46604829622
19644.389408158,18592.225741413324,-10391.05777633879,-11996.427118352309
19552.25551751322,18533.48535698478,-10490.657149631636,-12175.308129228131
19588.711212719823,18574.836084227096,-10450.692230545548,-12124.189689658844
19659.119207754044,18609.324825921634,-10377.1996947765,-12030.200604224276
19669.55747241467,18624.23343947333,-10364.593310903709,-11966.833408693485
19649.038571004698,18610.86709628905,-10392.823564150758,-12001.210391665743
19559.60924143901,18553.646630483465,-10487.013815285423,-12179.577312419096
19598.434221557884,18590.30349139017,-10440.321021118289,-12124.703779781315
19656.68286760841,18618.39963417049,-10366.001470804393,-12034.223918226233
19657.040495519697,18629.68726512042,-10359.363002701164,-11969.381507561387
19640.43314938941,18613.862230046063,-10400.020825865367,-12015.89548777288
19558.20108153833,18561.53679627619,-10488.89136181967,-12195.000016093258
19603.195143126864,18600.76410779525,-10429.815701224292,-12129.576460072572
19662.58372814461,18628.77084359775,-10354.199749731988,-12048.618441655452
19657.44282691989,18639.43262570293,-10349.438828163007,-11988.55930430404
19624.47400384832,18611.671759089444,-10397.875058397658,-12048.461979444264
19541.81725285259,18560.15098811996,-10488.35491995274,-12212.523783746215
19593.69565173336,18601.99345374029,-10423.758378476905,-12133.219794418788
19652.681905350917,18626.17804124093,-10352.232796219922,-12050.361877722964
19648.03274250421,18635.766939612266,-10345.23670020541,-11988.067565926023
19611.26412287523,18605.01093924176,-10394.499944984907,-12062.811799384572
19544.655924398416,18565.11307538904,-10473.870989545703,-12219.65399022746
19612.15819265344,18617.55026788119,-10397.29391304182,-12124.614372803497
19657.152254241973,18631.609515143577,-10335.111359967155,-12047.23263349922
19653.978306529323,18642.78538737123,-10330.551604098271,-11977.2269698652
19615.01921594372,18614.06339574616,-10389.91783737157,-12057.648546415396
19531.53545040315,18565.381296322503,-10474.40743141263,-12212.300266301663
19597.271930846207,18617.080881247628,-10399.350273531709,-12113.080872664555
19657.286364708707,18645.199375772405,-10330.32808665372,-12030.625287368928
19664.595385145592,18658.990402101328,-10325.254240662363,-11963.74886795865
19620.00365495725,18615.11392773556,-10383.234665779431,-12058.319098749054
19543.650095897927,18574.14318014898,-10458.515341104909,-12203.627789453005
19606.97258793981,18625.574544140643,-10378.965482588468,-12103.670788248872
19652.704257095367,18640.572564670158,-10321.94618248298,-12033.888642059404
19667.7916846027,18658.319849767668,-10319.174566170524,-11967.70512672724
19616.36032061104,18614.39867191299,-10383.324072757254,-12075.10525883499
19546.62287791048,18577.67475577292,-10448.814684011304,-12209.774519178214
19612.180544397896,18627.273276719246,-10364.168627759056,-12107.06825340608
19649.776178571723,18636.616305901563,-10309.160984654543,-12042.896395074891
19648.256259948765,18648.64154441852,-10310.680903277504,-11977.271673354113
19598.434221557884,18610.241247444304,-10376.104459298189,-12088.225732830257
19533.412996937397,18575.059601671648,-10441.997401952434,-12212.99317037978
19597.80837271313,18614.84570680209,-10361.084087024225,-12106.554163283608
19648.03274250421,18633.799986100195,-10308.177507898512,-12035.18504323781
19654.246527462787,18651.480215964344,-10306.858754975648,-11967.74983021615
19587.25834933023,18597.321939149137,-10378.67490991055,-12091.712604965283
19528.227392223765,18567.05767715665,-10436.230651882965,-12207.047606354668
19619.60132355706,18629.463747675865,-10343.873243793636,-12089.700947964306
19652.79366407319,18642.27129724876,-10301.89666770657,-12027.853671056471
19659.16391124295,18652.240175275823,-10296.487545548383,-11967.168684860311
19604.603303027547,18607.760203809765,-10367.677851638538,-12096.898209678917
19552.36727623549,18588.67181404493,-10425.457111055508,-12198.576295206109
19634.68875106439,18638.2479832468,-10331.624487832129,-12081.296692049107
19658.53806239821,18642.718332137865,-10298.253333360355,-12022.623362853928
19657.55458564217,18656.084675322138,-10301.494336306374,-11965.715821470718
19591.102849376544,18600.92057000644,-10381.088898311722,-12113.460852320297
19547.695761644336,18572.891482459483,-10428.96633493499,-12208.768690677723
19625.14455618197,18620.187773726917,-10335.267822178344,-12090.751479953704
19658.53806239821,18637.286858235224,-10297.806298471249,-12031.921688547336
19654.246527462787,18644.32765773865,-10299.259161860844,-11978.56807453252
19589.247654586758,18589.565883823143,-10382.519409956862,-12128.25770714971
19555.474168714783,18580.62518604102,-10425.188890122045,-12203.918362130924
19641.282515678708,18632.48123317733,-10330.28338316481,-12080.357918781989
19660.66147812146,18640.59491641461,-10301.360225839642,-12021.751644820171
19648.47977739332,18642.137186782027,-10312.893725978582,-11977.98692917668
19570.38278226647,18583.39680235348,-10408.022750380367,-12141.177015444877
19545.997029065733,18578.524122062223,-10436.521224560884,-12201.727891174303
19634.12995745301,18628.748491853297,-10335.603098345173,-12079.553255981597
19647.60805935956,18636.035160545725,-10309.295095121275,-12022.109272731455
19645.55169886967,18643.38888447152,-10319.219269659432,-11980.445621066763
19570.271023544195,18587.375412866524,-10413.454224283008,-12148.530739370672
19549.036866311653,18589.52118033423,-10434.263698370898,-12190.127335802
19643.42828314641,18638.762073369275,-10328.3387813972,-12072.646566944906
19662.784893844717,18643.63475366053,-10300.667321761528,-12021.483423886708
19646.46812039234,18641.98072457084,-10323.622563317129,-11993.99077820668
19576.574215480592,18585.25199714327,-10418.103387129711,-12160.712440098816
19564.39251475245,18591.01874721274,-10430.77682623587,-12196.877562627502
19642.26599243474,18636.16927101246,-10338.151197213076,-12083.084831605534
19653.240698962298,18643.299477493703,-10311.552621311264,-12023.785653565605
19643.763559313247,18647.523957195757,-10324.717798795438,-11999.399900364864
19563.073761829583,18579.30643311816,-10422.81960520978,-12181.946597331358
19562.224395540285,18590.638767557,-10424.719503488484,-12197.79398415017
19641.08134997861,18629.463747675865,-10331.780950043316,-12081.922540893858
19644.41175990245,18628.457919175376,-10318.548717325772,-12028.61363036795
19640.50020462277,18633.93409656693,-10328.159967441556,-11999.109327686943
19553.127235546977,18571.81859872563,-10429.659239013105,-12180.381975219489
19555.80944488161,18585.67668028792,-10422.73019823196,-12182.304225242642
19634.062902219644,18621.81945107215,-10336.1395402121,-12075.19466581281
19635.60517258706,18629.35198895359,-10325.388351129095,-12022.690418087295
19626.0833294491,18623.607590628577,-10344.655554849573,-12008.072377213524
19552.25551751322,18568.175264379413,-10441.528015318872,-12185.880504355491
19559.989221094755,18589.92351173443,-10430.150977391122,-12182.393632220464
19636.78981504319,18623.45112841739,-10338.598232102184,-12074.34529952351
19652.65955360646,18636.10221577909,-10320.716836537938,-12007.714749302238
19640.902536022968,18630.715445365364,-10336.921851268036,-12003.46791785573
19547.047561055133,18560.26274684224,-10441.170387407588,-12193.927132359402
19561.285622273164,18581.943938963883,-10430.128625646666,-12180.292568241664
19650.714951838847,18623.808756328675,-10340.47577863643,-12075.57464546855
19658.98509728731,18633.151785510992,-10331.42332213203,-12013.70501681626
19642.914193023946,18622.82527957264,-10358.781857345326,-12018.510641874152
19550.757950634717,18556.48530202929,-10458.73885854946,-12203.538382475184
19573.0202881122,18585.542569821187,-10426.529994789362,-12169.541379158662
19652.436036161904,18621.35006443859,-10338.262955935354,-12061.761267395172
19653.777140829225,18629.35198895359,-10332.607964588162,-11999.265789898132
19632.87825976351,18616.343273680603,-10364.749773114894,-12019.784691308105
19534.44117718234,18550.24916532626,-10465.422030141595,-12208.612228466538
19570.02515435519,18585.45316284337,-10430.10627390221,-12166.926225057392
19648.50212913777,18615.382148669025,-10341.660421092562,-12068.600901198495
19653.777140829225,18624.322846451145,-10335.714857067447,-12004.47374635622
19634.956971997854,18611.939980022908,-10362.358136458177,-12021.014037253146
19546.35465697702,18549.824482181608,-10460.079963216778,-12203.94071387538
19583.369145795008,18589.230607656315,-10415.48823302844,-12149.201291704332
19647.362190170552,18617.72908183683,-10343.76148507136,-12055.94981383679
19659.70035310988,18631.87773607704,-10331.646839576584,-11987.955807203747
19630.97836148481,18608.341349165603,-10370.38241271763,-12024.1879849658
19542.979543564263,18550.40562753745,-10467.456038887029,-12204.857135398048
19587.01248014122,18592.56101758016,-10416.292895828832,-12139.813559033104
19647.51865238174,18618.466689403856,-10342.889767037605,-12050.71950563425
19649.46325414935,18624.322846451145,-10343.38150541562,-11991.599141549965
19623.44582360337,18600.07120371714,-10387.01211059238,-12039.320115962044
19540.20792725181,18543.96832513432,-10477.648434358647,-12215.384807036497
19584.53143650668,18579.52995056271,-10417.656352240603,-12144.283907924166
19633.6829225639,18599.288892661203,-10351.539892141807,-12058.475560960242
19631.134823696,18607.62609334303,-10346.466046150452,-11990.950940960758
19600.714099492325,18584.134409920505,-10387.794421648316,-12046.67383988784
19534.17295624888,18543.81186292313,-10471.255835444432,-12207.315827288132
19590.9240354209,18587.86715124454,-10409.922648659069,-12128.123596682975
19647.31748668164,18611.09061373361,-10340.85575829217,-12040.996496796191
19643.40593140196,18623.048797017196,-10344.409685660565,-11979.37273733291
19603.396308826963,18589.29766288968,-10398.411500264585,-12050.63009865643
19516.29156068463,18532.457176739837,-10495.015739800425,-12211.205030823354
19580.709288204824,18588.805924511664,-10425.658276755605,-12121.038093690646
19642.668323834936,18612.610532356564,-10354.356211943175,-12040.124778762434
19643.56239361315,18625.954523796383,-10348.05302000678,-11973.784801219084
19601.00467217024,18592.471610602333,-10400.803136921304,-12056.106276047978
19524.941685788835,18545.62235422401,-10479.704794848538,-12211.89793490147
19590.432297042884,18589.52118033423,-10405.497003256918,-12118.110015167
19650.51378613875,18617.147936480997,-10349.304717696275,-12039.655392128872
19654.782969329717,18631.92243956595,-10346.063714750257,-11972.354289573945
19600.088250647572,18588.7388692783,-10410.280276570356,-12064.398773240897
19529.34497944653,18551.85849092704,-10485.739765851473,-12206.779385421203
19602.54694253766,18600.697052561885,-10406.68164571305,-12104.453099304808
19648.27861169322,18620.433642915923,-10355.227929976933,-12031.407598424865
19656.68286760841,18639.25381174729,-10356.658441622072,-11962.899501669348
19601.094079148064,18590.504657090267,-10417.499890029418,-12072.311290778076
19533.547107404127,18549.936240903884,-10492.89232407717,-12205.75120517626
19608.671320518413,18601.546418851187,-10409.67677947006,-12095.937084667336
19649.843233805088,18615.337445180117,-10358.826560834235,-12027.920726289836
19649.73147508281,18626.49096566331,-10357.999546289391,-11967.88394068288
19591.34871856555,18574.500808060267,-10426.552346533816,-12088.762174697182
19519.91254328639,18533.328894773596,-10504.22465851601,-12215.921248903423
19593.673299988903,18582.614491297543,-10423.892488943637,-12104.743671982727
19651.74313208379,18618.31022719267,-10367.342575471708,-12026.244345455689
19656.03466701921,18631.721273865853,-10365.017994048358,-11962.296004569054
19590.611110998525,18575.75250574976,-10439.426951340074,-12088.96334039728
19539.000933051226,18550.025647881703,-10492.69115837707,-12201.660835940938
19607.64314027347,18591.622244313032,-10402.859497411191,-12091.48908752073
19629.61490507304,18601.63582582901,-10369.890674339616,-12034.603897881974
19641.84130929009,18622.110023750072,-10366.157933015578,-11969.85089419495
19582.56448299461,18566.431828311903,-10450.044029956343,-12105.883610949948
19533.32358995957,18549.10922635904,-10499.575495669304,-12203.13605107499
19623.579934070105,18610.68828233341,-10403.1053666002,-12078.301558292098
19652.36898092854,18625.328674951637,-10364.660366137072,-12017.705979073762
19642.668323834936,18634.15761401148,-10365.196808004,-11966.36402205992
19573.087343345564,18580.759296507757,-10456.414277126109,-12117.998256444724
19531.20017423632,18571.751543492264,-10507.398606228662,-12209.327484289108
19615.60036129956,18623.093500506104,-10408.939171903035,-12089.432727030842
19636.8345185321,18625.328674951637,-10374.159857530578,-12033.821586826038
19624.764576526235,18630.156651753983,-10382.541761701315,-11989.431022337798
19566.82885489808,18587.397764610974,-10458.537692849362,-12135.07498920858
19535.849337083026,18582.614491297543,-10482.40935592763,-12204.901838886955
19609.364224596527,18622.668817361453,-10392.309474028289,-12095.780622456148
19633.369998141527,18631.743625610303,-10364.548607414796,-12044.505720675674
19631.961838240844,18637.957410568884,-10368.169590016556,-11996.1812491633
19551.808482624117,18578.68058427341,-10458.44828587154,-12149.581271360074
19518.10205198551,18571.43861906989,-10493.294655477364,-12214.9824756363
19612.605227542543,18619.249000459797,-10399.082052598244,-12099.24514284672
19628.139689938987,18625.887468563014,-10375.72447964245,-12043.276374730633
19620.204820657356,18636.124567523548,-10379.658386666582,-11997.410595108342
19545.41588370989,18577.00420343926,-10463.566835351809,-12163.864036067014
19519.733729330743,18575.32782260511,-10486.253855973942,-12211.205030823354
19610.034776930188,18625.97687554084,-10386.833296636736,-12089.96916889777
19630.933657995894,18639.365570469567,-10358.133656756125,-12027.965429778747
19626.373902127016,18648.30626825169,-10363.140447514112,-11986.949978703258
19536.899869072426,18581.25103488577,-10455.721373047993,-12164.221663978298
19531.33428470305,18589.52118033423,-10461.97986149548,-12197.726928916803
19622.507050336248,18640.818433859164,-10358.200711989488,-12074.993500112712
19627.022102716222,18644.37236122756,-10342.576842615228,-12022.37749366492
19618.95312296785,18644.01473331627,-10351.361078186164,-11993.364929361933
19530.417863180384,18575.75250574976,-10446.624213054683,-12167.216797735313
19517.09622348502,18581.5863110526,-10450.669878801094,-12192.250751525256
19612.06878567562,18629.866079076062,-10344.655554849573,-12074.211189056778
19620.36128286854,18632.19066049941,-10326.99767672988,-12021.796348309084
19611.88997171998,18633.06237853317,-10343.828540304728,-12004.361987633943
19527.936819545845,18569.851645213563,-10435.291878615844,-12179.26438799672
19524.651113110915,18577.80886623965,-10435.716561760491,-12191.580199191594
19608.44780307386,18618.35493068158,-10338.95586001347,-12079.776773426149
19628.22909691681,18631.6989221214,-10314.70421727946,-12017.124833717924
19612.180544397896,18625.418081929456,-10336.1395402121,-12006.597162079472
19520.29252294213,18559.189863108382,-10430.77682623587,-12193.45774572584
19532.362464948,18588.001261711277,-10416.62817199566,-12182.617149665017
19616.27091363322,18629.799023842697,-10329.210499430956,-12076.044032102112
19622.998788714267,18637.376265213046,-10314.927734724011,-12021.416368653345
19613.90162872096,18639.20910825838,-10327.981153485913,-12008.787633036094
19529.52379340217,18578.457066828854,-10426.68645700055,-12190.440260224374
19539.067988284587,18595.15381993697,-10405.318189301275,-12177.476248440296
19620.56244856864,18633.04002678872,-10314.547755068274,-12070.254930288187
19625.07750094861,18640.214936758868,-10305.808222986248,-12016.431929639808
19608.559561796137,18627.40738718598,-10331.579784343216,-12022.556307620564
19520.47133689777,18564.37546782201,-10432.184986136555,-12209.014559866737
19548.992162822746,18595.377337381524,-10406.72634920196,-12176.805696106638
19621.568277069127,18628.97200929785,-10320.89565049358,-12074.568816968062
19623.490527092283,18636.750416368297,-10310.345627110675,-12009.458185369753
19595.170866867407,18616.11975623605,-10337.927679768523,-12025.931421033314
19506.568551846573,18556.66411598493,-10440.20926239601,-12209.126318589011
19545.68410464336,18594.572674581133,-10394.276427540352,-12162.232358721776
19627.916172494435,18627.31798020816,-10309.719778265928,-12061.470694717253
19633.30294290816,18635.610477401075,-10305.13767065259,-11999.779880020606
19609.78890774118,18621.864154561063,-10342.219214703944,-12025.66320009985
19520.694854342324,18559.793360208678,-10433.928422204068,-12202.644312696972
19547.136968032955,18586.928377977416,-10393.807040906791,-12150.40828590492
19608.470154818315,18614.108099235076,-10316.917039980535,-12056.553310937084
19612.49346882027,18633.375302955545,-10310.412682344042,-11990.146278160368
19591.751049965747,18620.63480861602,-10344.029706004823,-12018.46593838524
19502.76875528917,18559.323973575112,-10435.604803038215,-12198.50923997274
19548.63453491146,18597.232532171314,-10380.708918655982,-12136.796073531636
19621.36711136903,18626.625076130043,-10304.757690996848,-12045.824473598535
19622.17177416942,18640.661971647976,-10302.097833406668,-11979.573903033008
19593.11450637752,18618.26552370376,-10342.129807726122,-12024.970296021736
19502.99227273372,18561.737961976287,-10438.0634949283,-12198.106908572545
19549.215680267294,18602.619302585044,-10379.256055266387,-12126.313105382098
19600.98232042579,18621.9982650278,-10312.960781211948,-12045.176273009334
19603.64217801597,18633.10708202208,-10313.966609712435,-11981.630263522897
19570.44983749984,18600.67470081743,-10362.447543435996,-12041.28706947411
19488.57539756005,18547.29873505816,-10445.39486710964,-12211.383844778997
19544.655924398416,18591.421078612933,-10383.167610546066,-12131.87868975147
19600.57998902559,18615.963294024863,-10313.497223078874,-12051.1441887789
19600.088250647572,18631.63186688803,-10308.781004998804,-11983.574865290508
19548.790997122647,18588.627110556023,-10362.492246924909,-12057.2462150152
19477.95831894378,18544.303601301148,-10452.726239290982,-12212.32261804612
19552.032000068662,18597.52310484923,-10376.886770354124,-12116.768910499684
19605.430317572394,18616.142107980504,-10307.506955564852,-12040.348296206988
19603.73158499379,18628.41321568647,-10307.886935220591,-11977.182266376289
19556.278831515174,18592.58336932461,-10359.76533410136,-12054.85457835848
19476.70662125428,18549.802130437158,-10436.49887281643,-12210.288609300687
19541.37021796349,18593.723308291832,-10362.402839947086,-12115.91954421038
19590.991090654265,18608.564866610155,-10307.685769520494,-12045.489197431709
19589.560579009125,18621.9982650278,-10314.525403323818,-11978.322205343513
19539.090340029044,18576.87009297253,-10379.032537821837,-12072.668918689362
19473.37621133044,18542.738979189275,-10447.048896199334,-12210.22155406732
19547.852223855523,18596.696090304387,-10365.040345792811,-12109.079910407056
19597.45074480185,18617.773785325742,-10311.843193989182,-12032.748703092182
19595.126163378496,18632.95061981089,-10309.608019543652,-11963.257129580634
19549.081569800564,18596.11494494855,-10370.270653995354,-12059.459037716277
19483.61331029097,18557.22290959632,-10444.1655211646,-12195.894085871469
19560.615069939504,18606.508506120263,-10354.646784621094,-12089.58918924203
19600.49058204777,18617.662026603462,-10305.51765030833,-12029.083017001512
19588.420640041903,18623.339369695117,-10308.892763721082,-11970.163818617322
19531.401339936416,18576.78068599471,-10374.048098808302,-12081.63196821594
19463.027353647634,18537.441615753367,-10443.718486275491,-12209.551001733662
19549.77447387868,18597.053718215677,-10359.117133512156,-12097.568762012574
19584.911416162424,18610.91179977796,-10310.770310255326,-12026.46786290024
19591.259311587728,18623.607590628577,-10306.590534042183,-11961.625452235396
19534.66469462689,18575.14900864947,-10374.472781952953,-12086.616407229472
19471.096333396,18541.889612899973,-10437.147073405633,-12204.611266209038
19553.97660183628,18595.24322691479,-10351.495188652896,-12091.82436368756
19586.788962696668,18607.80490729868,-10313.13959516759,-12029.61945886844
19580.86575041601,18618.31022719267,-10314.525403323818,-11966.408725548832
19515.77747056216,18566.76710447873,-10391.57186646126,-12097.30054107911
19472.549196785592,18547.61165948053,-10443.49496883094,-12196.721100416316
19552.948421591333,18597.00901472676,-10348.455351406974,-12080.760250182182
19569.041677599154,18598.84185777209,-10326.28242090731,-12027.47369140073
19566.44887524234,18609.48128813282,-10333.256165177365,-11972.063716896024
19505.47331636826,18556.887633429484,-10404.759395689893,-12108.543468540129
19461.686248980317,18529.23852553827,-10443.83024499777,-12197.682225427894
19547.58400292206,18573.47262781532,-10349.550586885283,-12077.787468169628
19571.3215555336,18587.040136699696,-10317.162909169543,-12017.102481973468
19567.63351769847,18600.339424650603,-10322.147348183078,-11962.74303945816
19501.0029674772,18547.835176925084,-10402.166593333077,-12109.2587243627
19473.018583419154,18537.70983668683,-10438.689343773049,-12185.16524853292
19557.843453627047,18583.64267154249,-10342.286269937307,-12070.925482621848
19573.0202881122,18589.856456501064,-10315.732397524403,-12018.510641874152
19569.645174699446,18602.216971184847,-10324.114301695145,-11966.94516741576
19495.81736276357,18541.3755227775,-10413.275410327366,-12126.983657715757
19475.969013687256,18538.983886120783,-10438.979916450968,-12184.874675855002
19559.519834461196,18585.564921565645,-10343.694429837997,-12068.690308176316
19568.572290965592,18590.59406406809,-10320.247449904376,-12011.536897604095
19562.716133918304,18597.67956706042,-10333.52438611083,-11966.520484271108
19492.799877262103,18536.56989771961,-10419.533898774853,-12128.771797272182
19471.409257818374,18533.61946745151,-10439.1140269177,-12176.202199006344
19563.9678316078,18583.44150584239,-10347.024839761834,-12058.00617432668
19579.59170098206,18592.672776302432,-10323.242583661387,-12001.56801957703
19567.208834553818,18596.517276348743,-10334.887842522605,-11966.98987090467
19481.73576375673,18537.128691330992,-10431.916765203092,-12135.231451419766
19463.250871092187,18532.01014185073,-10444.836073498258,-12172.849437338047
19548.522776189184,18577.49594181728,-10347.449522906483,-12059.615499927462
19571.232148555773,18596.003186226277,-10330.752769798371,-12000.204563165256
19557.30701176012,18592.605721069067,-10344.85672054967,-11974.835333208484
19480.17114164485,18534.267668040717,-10441.885643230158,-12143.099265468034
19473.532673541627,18543.29777280066,-10449.239367155957,-12167.082687268578
19557.217604782298,18586.973081466327,-10349.550586885283,-12051.792389368104
19571.723886933796,18593.43273561391,-10331.624487832129,-11994.75073751816
19560.413904239405,18589.744697778788,-10355.71966835495,-11977.383432076387
19482.294557368103,18534.982923863285,-10453.285032902364,-12157.605547619529
19480.975804445246,18546.96345889133,-10446.557157821317,-12165.719230856805
19552.993125080244,18580.24520638528,-10354.15504624308,-12054.742819636203
19568.438180498862,18594.662081558952,-10342.398028659589,-11990.347443860466
19565.06306708611,18597.29958740468,-10358.737153856417,-11970.297929084056
19476.170179387354,18526.891592370463,-10456.704849804026,-12157.672602852894
19478.96414744427,18542.962496633827,-10444.366686864698,-12156.30914644112
19562.73848566276,18585.7884390102,-10355.026764276834,-12049.311345733566
19569.242843299253,18598.59598858309,-10344.633203105115,-11992.806135750548
19562.246747284746,18595.980834481816,-10364.928587070535,-11985.295949613566
19471.72218224075,18536.14521457496,-10464.684422574572,-12166.9709285463
19477.37717358794,18551.791435693674,-10444.791370009349,-12150.274175438188
19546.44406395484,18579.284081373706,-10357.485456166918,-12050.697153889794
19559.855110628025,18602.66400607396,-10337.435941390508,-11990.593313049474
19549.05921805611,18601.05468047317,-10360.346479457196,-11992.381452605898
19454.62309773244,18532.278362784196,-10468.439515643062,-12184.137068287975
19471.096333396,18557.938165418884,-10439.963393207,-12161.271233710198
19547.62870641097,18595.2879304037,-10357.597214889194,-12060.48721796122
19558.983392594266,18609.72715732183,-10350.28819445231,-11999.04227245358
19545.90762208791,18598.908913005464,-10377.847895365703,-12010.553420848062
19448.38696102941,18533.530060473688,-10473.513361634416,-12196.117603316025
19472.72801074124,18563.30258408816,-10435.694210016038,-12158.991355775755
19554.669505914397,18603.98275899681,-10342.33097342622,-12055.212206269767
19565.68891593086,18616.790308569707,-10338.173548957531,-11998.818755009026
19530.7084358583,18594.460915858857,-10370.784744117826,-12022.086920987002
19454.75720819917,18541.24141231077,-10459.029431227378,-12194.262408526232
19491.9505109728,18574.92549120492,-10415.264715583888,-12144.507425368718
19548.85805235601,18598.4395263719,-10342.353325170676,-12055.569834181051
19550.288564001152,18611.96233176736,-10333.412627388552,-11994.057833440049
19521.92420028737,18592.87394200253,-10370.404764462086,-12030.871156557938
19433.45599573326,18534.982923863285,-10465.131457463678,-12208.120490088522
19474.314984597564,18576.288947616693,-10406.994570135425,-12139.83591077756
19541.59373540804,18605.30151191968,-10336.921851268036,-12047.970241066248
19541.951363319324,18622.333541194625,-10328.85287151967,-11981.585560033986
19506.568551846573,18597.187828682403,-10363.2969097253,-12028.01013326766
19435.55705971206,18547.05286586915,-10454.290861402853,-12198.062205083634
19487.23429289273,18586.280177388213,-10396.265732796875,-12126.044884448636
19546.39936046593,18611.671759089444,-10320.403912115564,-12039.677743873328
19546.600526166025,18626.55802089668,-10311.999656200367,-11970.94612967326
19509.653092581404,18597.29958740468,-10362.71576436946,-12031.497005402683
19429.633847431403,18549.84683392606,-10451.1169136902,-12194.08359457059
19479.299423611097,18586.660157043952,-10383.569941946262,-12118.713512267292
19537.41395919489,18605.7932502977,-10306.769347997826,-12037.688438616806
19542.10782553051,18623.048797017196,-10299.70619674995,-11974.65651925284
19503.752232045204,18591.912816990956,-10344.09676123819,-12039.1413020064
19422.66010316135,18540.57085997711,-10430.933288447057,-12203.85130689756
19485.021470191656,18587.44246809989,-10360.324127712742,-12119.831099490058
19541.504328430216,18610.822392800143,-10288.597379755662,-12039.901261317882
19544.34299997604,18625.12750925154,-10280.774269196305,-11972.46604829622
19500.46652561027,18586.88367448851,-10340.47577863643,-12054.832226614026
19425.677588662817,18542.403703022446,-10426.239422111445,-12209.50629824475
19492.1516766729,18591.756354779765,-10349.729400840926,-12118.892326222936
19539.91735457389,18604.809773541663,-10291.950141423958,-12048.394924210896
19545.05825579861,18620.187773726917,-10288.41856580002,-11976.154086131346
19497.538447086627,18584.96142446535,-10348.18713047351,-12064.778752896638
19422.99537932818,18544.303601301148,-10429.770997735382,-12211.629713968005
19491.123496427957,18588.783572767206,-10353.082162509225,-12112.097395908522
19538.9115260734,18603.60277934108,-10300.443804316976,-12043.1422642639
19546.287601743654,18624.367549940056,-10288.709138477938,-11971.41551630682
19488.016603948665,18579.976985451816,-10351.18226423052,-12072.601863455997
19423.531821195105,18547.969287391817,-10429.234555868454,-12206.980551121302
19503.32754890055,18596.96431123785,-10348.790627573804,-12104.050767904611
19540.31968597409,18606.82143054264,-10295.0793856477,-12038.604860139474
19541.63843889695,18616.902067291983,-10288.575028011206,-11973.181304118789
19485.244987636208,18568.667002757436,-10353.819770076248,-12089.812706686582
19423.26360026164,18537.95570587584,-10427.9605064345,-12215.921248903423
19495.169162174363,18585.43081109891,-10341.861586792658,-12109.549297040618
19518.750252574715,18600.138258950505,-10302.99190318488,-12038.426046183831
19520.42663340886,18612.20820095637,-10300.153231639057,-11970.186170361778
19502.209961677785,18581.072220930128,-10360.681755624028,-12075.261721046178
19451.247984319685,18560.061581142138,-10413.722445216472,-12185.701690399848
19519.890191541934,18606.95554100937,-10329.769293042338,-12081.587264727028
19556.01061058171,18618.511392892768,-10292.285417590789,-12018.354179662963
19556.56940419309,18634.49289017831,-10292.754804224349,-11957.400972533344
19497.18081917534,18589.96821522334,-10364.772124859348,-12086.102317107
19449.415141274352,18568.44348531288,-10408.53684050284,-12185.41111772193
19529.0097032797,18615.22568645784,-10317.431130103008,-12070.947834366303
19545.41588370989,18617.080881247628,-10290.385519312087,-12020.410540152854
19532.474223670277,18617.617323114555,-10293.447708302465,-11971.348461073454
19474.80672297558,18571.30450860316,-10362.536950413818,-12102.128517881456
19433.07601607752,18549.39979903696,-10406.0557968683,-12195.111774815534
19519.57726711956,18599.043023472197,-10312.022007944825,-12077.228674558244
19535.379950449464,18605.502677619777,-10281.958911652437,-12020.410540152854
19523.421767165877,18611.247075944797,-10289.89378093407,-11974.008318663637
19457.886452422918,18558.65342124145,-10373.690470897016,-12122.87093673598
19421.430757216305,18547.25403156925,-10414.77297720587,-12195.715271915828
19513.22937169425,18596.85255251557,-10320.672133049027,-12079.039165859123
19535.335246960552,18610.15184046648,-10286.697481476962,-12017.840089540494
19532.31776145909,18621.372416183047,-10294.073557147212,-11967.727478471694
19466.55892927157,18560.039229397684,-10374.897465097603,-12121.596887302028
19437.054626590565,18548.975115892303,-10406.167555590577,-12191.982530591791
19512.93879901633,18590.45995360136,-10321.968534227435,-12075.507590235184
19530.797842836124,18603.87100027454,-10297.582781026696,-12016.677798828818
19536.45283418332,18611.11296547806,-10300.913190950536,-11970.141466872868
19459.406371045872,18546.114092602027,-10398.947942131514,-12139.29946891063
19437.255792290664,18550.182110092894,-10418.975105163468,-12188.719175901317
19525.500479400216,18599.758279294765,-10322.79554877228,-12069.025584343146
19541.39256970794,18607.290817176203,-10296.867525204128,-12010.262848170143
19536.47518592777,18613.5940091126,-10303.573048540718,-11967.191036604769
19457.528824511628,18554.76421770623,-10395.818697907773,-12135.07498920858
19442.12847258192,18558.273441585712,-10405.988741634936,-12173.564693160615
19522.706511343305,18597.500753104778,-10311.0832346777,-12061.604805183984
19528.786185835143,18600.406479883968,-10293.447708302465,-12009.301723158564
19526.327493945064,18610.464764888857,-10306.322313108722,-11976.55641753154
19440.25092604768,18546.650534468958,-10403.06066311129,-12152.621108605994
19440.27327779213,18559.30162183066,-10406.480480012951,-12170.591911148062
19517.31974092957,18594.282101903213,-10311.194993399977,-12057.313270248564
19537.52571791717,18603.893352019,-10297.22515311541,-11997.99174046418
19525.969866033774,18601.99345374029,-10315.71004577995,-11976.08703089798
19439.781539414114,18534.75940641873,-10411.241401581932,-12159.013707520213
19440.74266442569,18545.868223413017,-10417.052855140311,-12172.469457682308
19525.947514289324,18591.64459605749,-10324.024894717324,-12059.369630738454
19533.904735315413,18601.21114268436,-10314.79362425728,-12001.120984687925
19523.175897976864,18597.34429089359,-10338.553528613273,-11984.312472857531
19441.30145803708,18532.457176739837,-10436.945907705534,-12165.763934345716
19441.50262373717,18543.744807689764,-10432.833186725758,-12170.211931492322
19523.04178751013,18586.079011688114,-10339.537005369308,-12058.587319682518
19536.47518592777,18601.88169501802,-10320.180394671012,-11995.823621252017
19534.038845782143,18604.16157295246,-10330.037513975802,-11981.004414678147
19445.10125459448,18539.833252410084,-10436.364762349696,-12168.26732972471
