 EXG Channel 0, EXG Channel 1, EXG Channel 2, EXG Channel 3
23772.019001486184,59947.400980878,14360.191149734395,135992.12598706794
23766.14049269444,59973.7089841019,14350.512844385248,136014.34362105653
23760.12787343596,59984.23665574034,14346.824806550125,136021.18325485985
23753.914088477384,59958.86742578357,14361.956937546363,135995.0093621027
23760.105521691505,59936.80625400618,14351.943356030388,135976.52446943815
23776.95873701081,59942.10361744209,14350.043457751688,135980.9948183292
23782.770190569187,59967.58460612114,14350.132864729509,136002.13956858392
23757.713885034787,59978.805181837706,14353.64208860899,136011.88492916644
23745.398073839915,59958.28628042773,14357.710106099858,135991.2989725231
23772.488388119746,59945.21050992138,14355.899614798978,135977.0385595606
23775.684687576853,59949.16676868997,14351.429265907916,135979.92193459536
23780.669126590383,59970.08800150013,14343.673210581925,135998.6526964489
23768.554481095613,59980.325100460665,14342.756789059256,136005.13470234093
23750.203698897803,59955.44760888191,14343.226175692818,135977.30678049408
23754.98697221124,59939.8013877632,14344.433169893406,135961.25822797517
23758.697361790822,59950.150245446,14337.92881225691,135968.70135887878
23780.93734752385,59978.089926015135,14337.459425623349,135988.7508736552
23803.84788559054,59994.384347723055,14350.781065318712,135999.36795227145
23787.70992609381,59972.77021083477,14353.686792097902,135976.4350624603
23778.545710867133,59953.838283281126,14343.941431515388,135960.36415819696
23776.95873701081,59961.102600229104,14342.913251270444,135967.24849548918
23776.28818467715,59983.36493770659,14341.393332647483,135989.73435041122
23770.476731118768,59991.27745524376,14343.874376282023,135994.2046993023
23757.17744316786,59967.4504956544,14355.899614798978,135968.7907658566
23757.199794912314,59954.01709723677,14355.184358976408,135955.67029186134
23759.636135057943,59957.90630077199,14349.663478095948,135959.15716399637
23772.734257308755,59984.30371097371,14349.641126351493,135978.46907120576
23779.32802192307,59994.20553376741,14351.652783352469,135981.3524462405
23752.751797765708,59966.73523983184,14352.345687430585,135952.54104763758
23748.661428530388,59954.598242592605,14355.385524676503,135942.79568705507
23766.252251416718,59959.090943228126,14338.286440168196,135947.73542257972
23780.535016123657,59980.23569348284,14331.066826709131,135967.9861030562
23757.043332701127,59988.52819067576,14334.12901569951,135972.61291415847
23734.51277429018,59963.24836769681,14336.252431422765,135947.46720164624
23758.02680945716,59955.2017396929,14345.260184438252,135939.2417596867
23775.37176315448,59960.52145487326,14346.22130944983,135943.53329462212
23768.398018884425,59984.23665574034,14346.154254216464,135964.02984428764
23771.661373574894,59992.66326339999,14351.40691416346,135971.20475425778
23795.533036653167,59973.79839107971,14355.430228165416,135952.89867554887
23795.510684908717,59962.62251885206,14354.066771753643,135939.21940794223
23785.13947548145,59964.09773398611,14343.539100115191,135939.7334980647
23773.740085809244,59985.7118708744,14336.431245378406,135958.71012910726
23750.606030298,59993.82555411167,14332.519690098728,135963.2922367206
23747.253268629705,59969.082172999646,14341.281573925207,135937.9453585083
23757.13273967895,59952.58658559163,14344.857853038056,135925.0260502131
23763.4582833598,59959.35916416159,14344.388466404494,135934.57024509553
23762.295992648127,59985.46600168539,14354.804379320669,135959.76066109666
23753.71292277729,59989.3105017317,14355.69844909888,135961.61585588646
23749.86842273097,59963.04720199671,14351.563376374648,135934.838466029
23770.6108415855,59952.94421350292,14347.7859315617,135923.81905601252
23757.400960612413,59957.90630077199,14332.609097076547,135928.82584677052
23738.51373654768,59979.18516149344,14327.110567940545,135950.95407378126
23734.490422545725,59982.78379235075,14321.030893448698,135953.03278601562
23741.106538904496,59958.91212927248,14314.906515467945,135929.094067704
23739.363102836985,59946.55161458869,14326.12709118451,135918.0746576875
23748.102634919007,59953.77122804776,14331.178585431408,135927.3953351254
23755.81398675609,59979.58749289364,14327.490547596282,135954.2397802162
23769.828530529565,59988.28232148675,14332.02795172071,135962.75579485367
23765.22407117177,59964.76828631977,14340.49926286927,135942.77333531063
23733.819870212064,59948.67503031195,14329.032817963698,135926.30009964708
23720.207657838782,59953.7488763033,14323.176660916408,135929.60815782644
23758.98793446874,59979.073402771166,14329.859832508546,135954.82092557204
23779.976222512272,59989.17639126497,14338.84523377958,135959.9394750523
23785.5641586261,59966.24350145382,14348.098855984075,135936.80541954105
23776.95873701081,59950.19494893491,14338.375847146017,135923.4390763568
23755.52341407817,59954.84411178161,14331.066826709131,135930.92691074932
23762.63126881496,59982.359109206096,14325.21066966184,135955.78205058363
23755.210489655798,59985.35424296311,14315.510012568238,135954.44094591629
23738.87136445896,59959.31446067268,14334.151367443965,135926.76948628062
23752.28241113215,59948.2503471673,14331.02212322022,135914.34191636348
23752.41652159888,59954.50883561478,14319.779195759202,135917.8734919874
23754.338771622035,59977.93346380394,14325.814166762137,135937.25245443016
23743.542879050125,59981.55444640571,14326.819995262624,135942.72863182172
23743.02878892765,59960.96848976237,14329.435149363891,135923.7296490347
23747.36502735198,59952.38541989153,14323.69075103888,135915.21363439722
23747.02975118515,59962.980146763344,14314.50418406775,135924.333146135
23762.161882181397,59991.45626919941,14313.0289689337,135950.77525982563
23757.646829801422,59994.33964423414,14310.54792529916,135954.35153893847
23735.60800976849,59967.51755088777,14308.871544465012,135927.46239035873
23729.438928298823,59955.55936760418,14305.809355474634,135913.31373611852
23703.086221586014,59960.96848976237,14299.036776904675,135915.4818553307
23741.84414647152,59990.09281278763,14303.864753707025,135937.6324340859
23772.734257308755,59998.362958236095,14312.73839625578,135938.2359311862
23759.390265868937,59975.0053852803,14325.143614428474,135914.00664019666
23764.37470488247,59963.136608974535,14326.663533051436,135902.29432610207
23765.268774660683,59973.84309456863,14321.366169615529,135906.74232324868
23771.50491136371,59999.72641464787,14310.100890410054,135926.00952696914
23748.057931430096,59997.58064718016,14318.63925679198,135921.1368466779
23748.97435295276,59972.72550734586,14323.511937083238,135896.05818939905
23728.567210265068,59961.795504307214,14316.247620135264,135881.86483166993
23735.630361512944,59970.3562224336,14315.21943989032,135886.40223579435
23798.70698436582,59999.81582162569,14317.476966080303,135909.4245325833
23816.700138652344,60005.69433041744,14317.186393402386,135910.9220994618
23774.72356256528,59974.87127481357,14308.11158515353,135880.18845083576
23749.30962911959,59960.29793742871,14289.78315470018,135867.2244390517
23750.762492509188,59973.26194921279,14283.368204041506,135879.40613977984
23742.157070893893,60001.1122228041,14283.7705354417,135903.814244725
23743.74404475022,60003.77208039428,14288.68791922187,135902.4731400577
23747.6556000299,59980.906245816506,14297.472154792806,135877.68505545676
23745.912163962385,59973.7089841019,14307.373977586509,135871.96300887622
23743.16289939438,59982.96260630639,14308.40215783145,135882.80360493704
23749.13081516395,60005.58257169516,14308.715082253824,135900.46148305674
23751.70126577631,60008.68946417445,14305.250561863251,135900.39442782337
23747.52148956317,59979.18516149344,14304.512954296228,135875.2263635667
23748.5049663192,59967.78577182124,14297.74037572627,135867.0232733516
23756.79746351212,59978.84988532661,14307.776308986702,135884.10000611545
23780.15503646792,60010.879935131066,14318.728663769802,135915.7724280086
23761.200757169816,60008.19772579643,14304.468250807317,135912.44201808478
23737.28439060264,59980.41450743849,14307.530439797692,135886.58104974998
23725.92970441934,59970.51268464478,14304.468250807317,135880.30020955805
23738.51373654768,59980.07923127166,14296.131050125488,135891.7219509747
23773.740085809244,60010.388196753054,14297.226285603796,135918.9240239768
23776.89168177744,60013.182164809965,14302.233076361785,135920.46629434422
23766.45341711681,59985.35424296311,14303.68593975138,135894.98530566518
23753.668219288375,59977.955815548405,14297.092175137064,135884.25646832664
23741.710036004788,59989.9587023209,14292.30890182363,135891.78900620807
23758.093864690527,60013.56214446571,14287.547980254649,135909.1786633943
23736.41267256888,60009.87410663058,14280.149552839945,135898.09219814447
23714.55266649159,59982.24735048382,14278.20495107233,135868.49848848564
23739.22899237025,59978.76047834879,14288.866733177512,135863.04466283854
23749.22022214177,59994.60786516761,14302.322483339609,135876.76863393412
23756.529242578657,60020.93822013596,14300.31082633863,135901.55671853505
23749.13081516395,60018.8148044127,14297.0251199037,135898.9192126893
23748.683780274845,59995.12195529008,14295.058166391633,135878.51207000163
23749.354332608506,59987.410603453,14293.73941346877,135876.56746823402
23711.06579435656,59996.73128089086,14285.31280580912,135889.84440444046
23712.42925076833,60019.30654279072,14262.178750297877,135912.8219977405
23745.50983256219,60021.67582770298,14281.423602273897,135915.4371518418
23755.92574547836,59997.29007450224,14294.678186735891,135895.9240789323
23748.594373297023,59988.2599697423,14284.195218586352,135889.66559048483
23773.18129219786,60003.660321672,14278.9202068949,135903.45661681375
23789.85569356152,60031.13061560758,14275.947424882344,135930.21165492674
23771.259042174705,60028.38135103958,14273.77930567018,135927.99883222568
23778.36689691149,60007.32600776268,14278.495523750247,135911.078561673
23794.437801174856,60005.18024029497,14290.118430867007,135911.9726314512
23797.99172854325,60019.39594976854,14289.671395977904,135926.76948628062
23798.43876343236,60044.9216419365,14291.146611111952,135949.47885864723
23786.25706270421,60040.31718257871,14292.845343690557,135942.95214926626
23774.500045120723,60012.44455724294,14290.856038434034,135918.0746576875
23770.543786352133,60004.73320540586,14284.68695696437,135914.36426810792
23766.56517583909,60017.27253404529,14281.73652669627,135931.21748342723
23779.730353323263,60045.30162159224,14285.603378487038,135959.82771633004
23774.120065464984,60043.60288901364,14293.560599513126,135962.4875739202
23759.099693191016,60014.67973168847,14291.817163445612,135945.07556498953
23767.302783406118,60010.388196753054,14300.221419360809,135952.76456508215
23781.540844624145,60027.82255742819,14302.948332184356,135980.07839680652
23796.98590004276,60056.03045893079,14302.903628695443,136017.56227225807
23790.615652873,60048.87790070509,14294.231151846783,136022.12202812696
23764.75468453821,60018.30071429023,14288.039718632666,136005.78290293014
23755.612821055987,60014.90324913302,14288.151477354942,136015.97529840175
23785.18417897036,60028.53781325076,14282.720003452305,136040.49516206924
23819.985845087274,60055.471665319405,14305.474079307804,136076.92850553137
23803.736126868265,60052.56593854022,14302.680111250893,136083.65638061243
23770.253213674216,60027.19670858344,14293.135916368476,136067.20549669332
23777.986917255752,60022.01110386981,14293.40413730194,136071.7205490733
23802.216208245303,60034.77394995379,14297.472154792806,136093.93818306187
23790.10156275053,60057.28215662029,14295.438146047372,136122.41430549792
23766.02873397216,60048.20734837144,14291.370128556506,136120.69322117488
23765.492292105235,60019.910039891016,14286.050413376142,136102.09656978806
23766.96750723929,60014.92560087748,14290.319596567108,136103.124750033
23741.285352860137,60026.86143241661,14286.765669198712,136121.45318048637
23724.007454396185,60055.29285136377,14280.77540168469,136150.19752385587
23753.02001869917,60053.63882227407,14282.474134263291,136150.42104130043
23777.65164108892,60028.24724057284,14287.659738976923,136130.6844509464
23784.491274892247,60025.22975507138,14290.811334945123,136129.61156721253
23786.480580148767,60039.15489186703,14291.68305297888,136146.0400993872
23784.29010919215,60065.41819160202,14285.983358142776,136173.8456694896
23768.867405517987,60059.673793277005,14282.943520896855,136175.65616079047
23734.37866382345,60029.65540047353,14277.467343505305,136155.83016345862
23718.97831189374,60023.75453993733,14272.080573091576,136155.29372159168
23772.15311195292,60039.668981989504,14277.333233038573,136173.15276541148
23801.38919370046,60065.01586020182,14278.048488861145,136199.32665816863
23785.541806881643,60055.6281275306,14280.037794117665,136193.55990809918
23774.83532128755,60025.90030740504,14276.327404538084,136171.05170143268
23776.019963743685,60019.418301513,14270.135971323964,136169.82235548765
23775.79644629913,60034.75159820934,14264.816256143602,136188.0837307076
23775.125893965476,60061.014897944326,14269.465418990305,136216.38103918804
23765.42523687187,60056.41043858653,14281.960044140822,136215.66578336546
23759.144396679927,60032.58347899717,14278.9202068949,136198.7455128128
23763.972373482276,60027.95666789493,14274.986299870769,136199.37136165754
23780.06562949009,60043.78170296928,14277.534398738671,136216.24692872132
23778.635117844955,60068.41332535903,14279.25548306173,136241.48204821136
23769.806178785107,60062.91479622303,14286.408041287428,136238.1069347986
23757.3562571235,60039.043133144754,14286.676262220892,136215.68813510993
23757.9597542238,60030.951801651936,14278.428468516884,136209.67551585144
23759.546728080124,60044.58636576968,14270.784171913168,136225.38879220354
23748.37085585247,60068.614491059125,14270.717116679803,136251.07094658268
23748.259097130194,60064.010031701335,14285.268102320208,136245.7959348912
23780.646774845933,60042.909984935526,14284.26227381972,136228.36157421608
23787.10642899352,60037.45615928843,14276.975605127289,136228.60744340508
23785.18417897036,60052.38712458457,14265.0174218437,136245.7959348912
23767.571004339577,60076.4823051074,14258.82598862958,136269.7570049473
23758.093864690527,60069.70972653744,14275.746259182246,136265.2643043118
23772.62249858648,60049.52610129429,14282.295320307652,136247.13703955855
23777.741048066742,60046.75448498184,14283.457611019328,136244.655995924
23774.611803843,60063.60770030114,14275.321576037595,136260.03399610927
23764.75468453821,60081.980834243404,14257.48488396226,136277.40130155103
23767.638059572942,60072.21312191643,14263.564558454103,136269.1758595915
23770.07439971857,60050.39781932805,14262.62578518698,136245.147734302
23775.550577110123,60049.41434257202,14258.937747351856,136241.28088251126
23781.42908590187,60067.27338639181,14264.34686951004,136254.98250186237
23780.42325740138,60088.82046804672,14257.551939195626,136273.5791532492
23776.46699863279,60077.51048535234,14254.601508927526,136261.68802519894
23790.05685926162,60057.148046153554,14260.189445041353,136241.99613833384
23787.911091793907,60057.237453131376,14261.351735753027,136241.37028948907
23777.405771899917,60073.50952309484,14258.691878162846,136256.3012547852
23771.035524730152,60095.99537801688,14253.618032171493,136274.7637957053
23774.79061779864,60083.36664239963,14244.252651244718,136256.07773734067
23778.925690522872,60063.07125843421,14257.14960779543,136233.94951032993
23784.670088847888,60063.875921234605,14269.755991668224,136233.63658590754
23781.89847253543,60076.43760161848,14264.793904399146,136243.58311219016
23802.462077434317,60103.79613683178,14277.243826060752,136264.28082755578
23800.27160647769,60092.7320233264,14271.499427735738,136250.5568564602
23765.447588616324,60063.67475553451,14257.931918851367,136223.28772822474
23730.64592249941,60058.757371754335,14251.718133892791,136219.91261481197
23740.32422784856,60075.0294417178,14253.685087404858,136240.54327494424
23795.4659814198,60102.5891426312,14254.936785094356,136270.0699293697
23800.785696600164,60091.54738087027,14261.262328775209,136257.32943503017
23780.84794054603,60062.62422354511,14250.801712370125,136230.44028645044
23780.15503646792,60063.56299681223,14249.77353212518,136236.31879524217
23779.93151902336,60082.71844181043,14253.618032171493,136257.97763561938
23767.526300850663,60104.80196533227,14253.930956593867,136282.18457486446
23770.49908286322,60097.627055362114,14258.311898507109,136275.25553408332
23768.755646795707,60075.2306074179,14254.132122293964,136253.77550766178
23754.115254177483,60068.36862187012,14240.363447709497,136249.39456574852
23782.077286491072,60087.59112210169,14254.623860671982,136270.49461251433
23791.174446484383,60115.0390642928,14265.419753243894,136299.12719716158
23771.50491136371,60103.77378508732,14262.782247398169,136290.18649937946
23774.544748609635,60074.6271103176,14259.943575852343,136266.6054089791
23763.01124847069,60068.50273233685,14259.988279341254,136263.9679031334
23770.36497239649,60084.75245055586,14259.9659275968,136281.670484742
23792.828475574075,60108.7358723564,14263.67631717638,136299.6189355396
23775.97526025477,60098.31995944023,14265.643270688448,136286.09613014414
23759.323210635568,60077.37637488561,14267.073782333588,136267.45477526842
23761.42427461437,60077.10815395215,14260.770590397193,136267.7676996908
23770.90141426342,60092.59791285968,14254.0650670606,136284.50915628782
23778.76922831169,60115.75432011537,14254.780322883167,136307.26323214333
23756.529242578657,60099.48225015191,14249.10297979152,136290.5217755463
23759.07734144656,60076.61641557413,14252.411037970904,136267.14185084603
23803.534961168167,60079.65625282005,14253.416866471394,136267.03009212378
23805.18899025786,60100.42102341903,14261.597604942035,136285.29146734375
23787.59816737153,60121.49871844039,14264.05629683212,136305.25157514235
23760.84312925853,60102.52208739783,14251.852244359525,136285.17970862146
23749.711960519788,60077.37637488561,14253.282756004664,136259.38579552007
23758.473844346267,60076.54936034076,14251.226395514776,136254.2001908064
23768.934460751352,60095.66010185005,14248.253613502218,136268.79587993573
23797.67880412088,60125.387921975605,14267.319651522595,136293.18163313647
23797.41058318741,60115.59785790418,14278.272006305697,136278.78710970725
23786.972318526783,60092.97789251541,14272.885235891968,136252.47910648337
23787.508760393717,60091.27915993681,14272.72877368078,136246.8464668806
23785.452399903825,60109.36172120115,14271.34296552455,136260.3022170427
23772.04135323064,60128.89714585509,14267.274948033686,136273.28858057124
23759.6584868024,60112.51331716935,14272.34879402504,136253.28376928376
23753.556460566106,60085.75827905635,14272.862884147513,136225.83582709264
23750.404864597906,60082.71844181043,14263.363392754009,136220.78433284574
23764.7099810493,60106.56775314424,14270.53830272416,136240.99030983337
23779.260966689704,60127.17606153203,14274.472209748294,136258.5140774863
23758.02680945716,60109.89816306808,14270.270081790695,136239.78331563275
23750.762492509188,60085.15478195606,14263.162227053908,136215.7998938322
23756.395132111924,60084.57363660022,14247.67246814638,136213.63177462004
23759.636135057943,60106.165421744045,14257.753104895724,136230.82026610617
23771.840187530543,60127.39957897658,14261.418790986394,136247.47231572538
23777.47282713328,60112.51331716935,14271.11944808,136230.12736202806
23791.576777884577,60094.02842450481,14286.408041287428,136212.24596646382
23783.641908602945,60093.80490706026,14285.245750575752,136212.22361471935
23761.670143803374,60109.11585201215,14272.751125425237,136225.52290267026
23760.79842576962,60128.941849344,14271.477075991284,136240.2079987774
23761.71484729229,60110.76988110184,14274.807485915124,136216.58220488814
23760.753722280708,60087.27819767931,14275.925073137889,136191.88352726502
23762.11717869248,60090.3850901586,14278.83079991708,136192.01763773177
23774.83532128755,60107.59593338918,14279.009613872722,136208.4014664175
23776.578757355062,60124.4938521974,14268.25842478972,136222.99715554682
23752.59533555452,60104.936075799,14272.72877368078,136201.53948086972
23742.335884849537,60083.52310461082,14276.506218493729,136178.85246024758
23758.496196090724,60084.97596800041,14270.873578890987,136178.42777710292
23772.82366428657,60106.61245663315,14280.551884240138,136195.16923369997
23774.634155587453,60125.32086674224,14291.615997745515,136209.67551585144
23763.4582833598,60106.50069791087,14301.40606181694,136190.31890515317
23753.668219288375,60083.32193891072,14296.980416414788,136169.53178280973
23751.254230887203,60080.97500574291,14289.78315470018,136164.12266065154
23746.917992462877,60100.73394784141,14287.88325642148,136179.1430329255
23737.26203885818,60125.03029406432,14292.30890182363,136195.86213777808
23733.37283532296,60110.72517761293,14297.53921002617,136178.96421896986
23731.160012621884,60083.38899414409,14282.943520896855,136153.0361954017
23729.237762598725,60079.36568014213,14268.63840444546,136148.61054999955
23758.96558272429,60101.94094204199,14278.137895838963,136167.40836708646
23758.250326901714,60121.11873878464,14275.567445226605,136183.3451608831
23746.51566106268,60107.41711943354,14278.003785372232,136168.68241652043
23729.48363178773,60084.0818982222,14277.087363849563,136148.8340674441
23728.298989331604,60084.37247090012,14265.844436388546,136146.5318377652
23732.165841122373,60102.85736356466,14271.365317269006,136161.48515480582
23744.571059295067,60128.22659352143,14276.886198149468,136182.5404980827
23760.64196355843,60110.41225319055,14275.29922429314,136162.64744551748
23766.073437461077,60088.552247113264,14274.069878348098,136140.51921850673
23751.03071344265,60084.9312645115,14266.53734046666,136136.76412543823
23738.53608829213,60104.46668916544,14262.134046808964,136152.87973319052
23748.147338407915,60126.77373013184,14273.600491714536,136171.16346015496
23742.492347060725,60109.719349112434,14278.339061539062,136152.7903262127
23746.98504769624,60090.42979364751,14279.59075922856,136130.2821195462
23758.071512946077,60099.102270496165,14280.68599470687,136135.60183472655
23760.66431530289,60127.10900629867,14275.165113826408,136156.79128847018
23749.60020179751,60142.08467508372,14261.508197964216,136166.40253858597
23743.02878892765,60123.21980276344,14257.0154973287,136144.7436982088
23751.16482390938,60105.45016592147,14258.53541595166,136123.10720957603
23753.623515799467,60111.686302624505,14252.768665882191,136123.50954097623
23752.684742532343,60136.45203548099,14261.709363664311,136139.4910382618
23733.93162893434,60153.64052696712,14260.792942141648,136149.97400641133
23728.008416653684,60132.78634939031,14263.00576484272,136129.8350846571
23733.17166962286,60112.669779380536,14262.514026464703,136108.28800300218
23758.093864690527,60120.85051785118,14263.273985776184,136110.59023268108
23766.743989794733,60138.15076805959,14254.780322883167,136128.49397998978
23761.334867636542,60156.70271595749,14255.316764750096,136146.2859685762
23743.02878892765,60141.86115763917,14277.020308616198,136129.32099453462
23725.57207650805,60120.69405563999,14268.884273634469,136105.94106983437
23752.99766695472,60122.01280856285,14262.58108169807,136102.9682878218
23768.04039097314,60143.53753847332,14262.49167472025,136121.29671827517
23771.616670085987,60164.05643988329,14263.609261943016,136137.5911399831
23755.50106233371,60145.39273326311,14265.084477077064,136117.20634903986
23731.31647483307,60125.36557023115,14265.82208464409,136096.75450286324
23740.190117381822,60129.05360806628,14268.459590489816,136100.12961627598
23740.771262737664,60150.354820532186,14268.079610834076,136118.50275021826
23762.430103114857,60169.42085855256,14268.97368061229,136132.80786666964
23776.13172246596,60148.2984600423,14269.82304690159,136108.0197820687
23761.08899844754,60128.18189003252,14272.214683558308,136087.54558414765
23760.08316994705,60130.12649180013,14270.672413190892,136087.54558414765
23761.93836473684,60151.15948333258,14269.934805623869,136104.3764477225
23749.421387841867,60165.464599783976,14271.767648669202,136116.7816658952
23730.4000533104,60144.56571871826,14275.567445226605,136096.93331681888
23732.992855667217,60124.35974173067,14269.376012012484,136079.90128754394
23736.569134780068,60129.52299469984,14258.691878162846,136086.15977599143
23726.26498058617,60154.66870721206,14262.15639855342,136108.89150010247
23718.017186882164,60168.01269865188,14256.032020572666,136118.2345292848
23723.31455031807,60144.4986634849,14258.893043862943,136093.37938945048
23721.816983439563,60126.10317779818,14259.20596828532,136076.615581109
23750.65073378691,60135.870890125145,14262.938709609356,136085.31040970213
23753.93644022184,60157.44032352452,14256.479055461772,136102.9235843329
23750.94130646483,60172.70656498749,14258.758933396211,136114.30062226066
23736.61383826898,60154.266375811865,14264.391572998951,136096.06159878513
23724.722710218757,60137.30140177029,14259.451837474327,136078.2249067098
23725.952056163795,60139.51422447136,14254.623860671982,136078.15785147643
23761.93836473684,60166.224559095455,14268.034907345163,136103.03534305518
23758.4067891129,60179.30032960181,14267.364355011508,136113.98769783828
23736.99381792472,60152.54529148881,14264.68214567687,136088.01497078122
23744.392245339423,60134.93211685802,14269.890102134956,136073.70985432982
23780.42325740138,60144.699829185,14272.125276580487,136083.65638061243
23782.05493474662,60166.49278002892,14269.331308523571,136101.85070059905
23758.295030390625,60175.925216189054,14259.027154329677,136107.1257122905
23743.207602883293,60153.01467812237,14260.100038063532,136086.40564518044
23742.42529182736,60137.971954103945,14261.10586656402,136070.379444406
23744.45930057279,60139.71539017146,14259.809465385611,136068.94893276083
23747.27562037416,60162.06713462677,14249.72882863627,136084.41633992392
23734.37866382345,60174.539408032826,14240.564613409591,136093.35703770604
23726.35438756399,60152.85821591118,14253.238052515751,136071.5640868621
23738.87136445896,60133.47925346843,14248.655944902415,136051.29105464113
23742.201774382804,60133.52395695734,14236.787168596646,136046.2172086498
23730.82473645505,60155.182797334535,14233.210889483797,136061.0140634792
23721.52641076165,60173.824152210254,14248.365372224496,136074.78273806366
23714.55266649159,60152.54529148881,14247.359543724007,136050.106412185
23715.156163591884,60131.42289297854,14239.759950609205,136026.63708050695
23711.13284958993,60138.75426515988,14238.977639553266,136027.3523363295
23717.57015199305,60162.24594858241,14246.510177434706,136047.49125808376
23744.347541850515,60179.92617844656,14256.63551767296,136062.8245547801
23758.36208562399,60159.161407847576,14257.797808384636,136042.5068190702
23756.283373389648,60138.91072737107,14252.321630993085,136020.95973741528
23757.08803619004,60141.12355007215,14247.068971046088,136019.95390891482
23766.006382227708,60168.81736145227,14254.735619394258,136042.12683941447
23770.834359030054,60185.29059711583,14256.926090350878,136052.855676753
23749.22022214177,60159.58609099223,14258.848340374034,136029.34164158604
23734.37866382345,60135.8932418696,14253.0145350712,136009.98503088774
23734.333960334538,60142.24113729491,14245.236128000752,136018.76926645866
23736.189155124328,60165.174027106055,14239.335267464552,136040.78573474716
23736.97146618026,60179.2556261129,14243.24682274423,136052.43099360837
23725.68383523033,60153.26054731137,14246.510177434706,136027.3523363295
23727.74019572022,60136.83201513672,14244.92320357838,136010.09678961002
23733.953980678794,60140.38594250512,14239.24586048673,136014.2542140787
23713.50213450219,60158.58026249174,14229.969886537778,136029.22988286376
23699.241721539704,60169.55496901929,14233.43440692835,136035.22015037778
23704.11440183096,60149.90778564308,14240.788130854144,136013.67306872286
23714.93264614733,60136.69790466999,14248.834758858056,136003.12304533995
23720.23000958324,60141.63764019462,14251.047581559133,136010.23090007674
23736.81500396908,60166.06809688426,14248.141854779942,136032.67205150987
23736.859707457985,60177.8027627233,14242.933898321857,136040.2492928802
23721.995797395208,60152.232367066434,14234.350828451015,136013.11427511147
23704.74025067571,60133.70277091298,14220.939781777834,135991.7907109011
23712.36219553497,60139.447169238,14220.71626433328,135992.1036353235
23716.050233370093,60165.06226838378,14235.021380784678,136012.17550184435
23692.20092203628,60178.518018545874,14240.8104825986,136022.12202812696
23702.32626227453,60156.14392234611,14245.0126105562,135995.88108013643
23745.04044592863,60142.91168962857,14240.274040731674,135978.75964388368
23741.37475983796,60146.26445129686,14244.610279156004,135983.3864549859
23751.723617520765,60170.33728007523,14252.165168781898,136002.09486509502
23742.201774382804,60177.66865225657,14242.665677388391,136000.48553949423
23732.814041711576,60151.87473915514,14243.224470999774,135971.8306031025
23742.447643571813,60136.787311647815,14245.0126105562,135954.68681510532
23742.760567994188,60144.99040186291,14239.37997095346,135955.84910581695
23738.69255050332,60168.57149226326,14229.344037693028,135972.2999897361
23728.96954166526,60173.71239348798,14218.9057730324,135969.50602167918
23716.296102559103,60149.57250947625,14213.04961598511,135941.07460273203
23694.45844822627,60140.14007331611,14225.0077992687,135928.3788118814
23694.9948900932,60144.02927685133,14228.517023148182,135930.9939659827
23730.310646332586,60168.66089924109,14228.874651059468,135952.74221333768
23729.707149232287,60177.37807957865,14227.354732436506,135956.60906512846
23703.421497752846,60150.623041465646,14223.800805068113,135929.339936893
23701.70041342979,60134.976820346936,14225.410130668895,135914.54308206358
23729.908314932385,60144.051628595786,14233.38970343944,135921.71799203372
23749.22022214177,60169.59967250821,14236.586002896547,135945.94728302327
23746.783881996143,60176.57341677826,14235.647229629423,135953.77039358264
23728.298989331604,60150.39952402109,14233.05442727261,135932.580939839
23712.652768212887,60135.53561395832,14223.353770179006,135920.06396294403
23702.013337852164,60142.06232333927,14217.989351509734,135927.9764804812
23734.155146378893,60173.53357953234,14226.572421380572,135959.00070178515
23740.32422784856,60185.89409421612,14229.72401734877,135969.55072516808
23725.348559063503,60159.18375959203,14224.739578335237,135944.78499231162
23738.245515614217,60145.32567802974,14218.72695907676,135932.6479950724
23752.438873343333,60157.46267526897,14218.346979421018,135944.7402888227
23742.872326716464,60181.91548370308,14218.838717799035,135969.9307048238
23725.616779996966,60188.62100703967,14215.128328219454,135976.8373938605
23725.214448596773,60164.45877128349,14217.631723598448,135954.66446336085
23744.12402440596,60152.05355311079,14217.47526138726,135945.41084115635
23764.55351883811,60161.28482357083,14219.844546299524,135955.11149824996
23771.616670085987,60184.01654768188,14223.62199111247,135977.2173735163
23768.84505377353,60190.8561814852,14231.57921213856,135985.2416497757
23760.306687391603,60169.68907948602,14236.116616262989,135970.8471263465
23774.79061779864,60160.77073344836,14235.826043585068,135970.91418157986
23765.335829894047,60169.66672774157,14229.656962115405,135989.0414463331
23748.54966980811,60189.20215239551,14216.29061893113,136018.65750773638
23762.45245485931,60191.9067134746,14220.895078288922,136032.38147883196
23755.12108267797,60169.778486463845,14228.517023148182,136022.36789731597
23749.153166908403,60157.976765391446,14230.998066782722,136025.09481013953
23774.343582909536,60168.07975388524,14234.10495926201,136049.79348776262
23787.79933307163,60196.5111728324,14236.742465107736,136085.98096203577
23789.788638328155,60200.91446649009,14240.117578520489,136098.20736625284
23775.684687576853,60172.237178353935,14237.43536918585,136079.2307352103
23748.683780274845,60155.026335123344,14223.66669460138,136071.2735141842
23754.003495455207,60164.257605583385,14225.38777892444,136084.99748527975
23785.407696414917,60194.05248094231,14232.115654005487,136117.2287007843
23781.98787951325,60201.47326010147,14239.49172967574,136127.95753812284
23756.93157397885,60176.05932665579,14237.904755819412,136109.98673558078
23753.735274521743,60160.45780902598,14227.824119070068,136099.61552615353
23750.42721634236,60168.43738179653,14225.432482413353,136109.98673558078
23755.836338500543,60192.84548674173,14228.67348535937,136140.65332897345
23754.13760592194,60200.48978334544,14236.518947663182,136150.53280002272
23741.88884996043,60174.62881501065,14242.464511688297,136130.81856141312
23753.534108821645,60160.5025125149,14237.927107563866,136124.15774156543
23769.47090261828,60167.99034690742,14234.350828451015,136138.7310789503
23768.95681249581,60193.02430069737,14237.34596220803,136168.52595430924
23756.08220768955,60200.64624555663,14237.368313952484,136178.47248059185
23735.093919646017,60173.28771034333,14231.176880738363,136155.98662566982
23748.013227941185,60163.76586720537,14240.765779109692,136155.49488729177
23759.07734144656,60176.66282375608,14249.214738513798,136171.25286713275
23779.238614945247,60203.14964093562,14249.371200724983,136199.9972105023
23793.051993018627,60209.02814972737,14253.238052515751,136211.68717285243
23769.71677180729,60179.41208832408,14242.285697732652,136188.57546908563
23758.63030655745,60166.06809688426,14236.273078474174,136182.92047773846
23758.94323097983,60174.38294582164,14229.142871992932,136195.72802731133
23781.585548113057,60199.68512054505,14231.445101671829,136219.97967004534
23785.631213859466,60207.88821076015,14241.145758765431,136231.44611495093
23769.31444040709,60184.329472104255,14248.231261757765,136214.57054788715
23766.16284443889,60171.92425393156,14246.219604756789,136208.98261177333
23762.586565326044,60177.02045166737,14240.609316898504,136220.38200144554
23765.157015938406,60200.69094904554,14238.307087219608,136247.89699887
23755.50106233371,60204.15546943611,14237.077741274565,136252.0097198498
23741.21829762677,60178.16039063458,14237.971811052776,136229.43445794994
23738.84901271451,60168.21386435198,14236.898927318924,136219.33146945614
23731.56234402208,60178.54037029033,14226.460662658295,136226.39462070403
23748.86259423049,60203.21669616899,14229.209927226297,136247.8299436367
23765.335829894047,60208.804632282816,14246.286659990152,136253.37317626158
23749.264925630683,60178.741535990426,14245.459645445306,136225.0535160367
23755.14343442243,60166.17985560654,14239.268212231183,136209.76492282926
23771.191986941336,60176.081678400245,14243.716209377792,136220.62787063455
23753.89173673293,60199.52865833386,14241.145758765431,136248.14286805905
23722.308721817582,60197.82992575526,14231.534508649647,136249.9533593599
23742.53705054964,60172.48304754294,14228.472319659271,136227.60161490462
23761.7595507812,60163.38588754963,14228.24880221472,136218.39269618902
23767.19102468384,60171.879550442645,14227.175918480863,136225.67936488145
23769.157978195904,60194.454812342505,14228.315857448086,136248.36638550358
23757.780940268152,60193.58309430875,14233.0097237837,136246.66765292498
23750.89660297592,60172.14777137611,14237.748293608223,136226.79695210425
23749.57785005305,60164.21290209448,14239.49172967574,136219.10795201157
23740.92772494885,60172.48304754294,14233.322648206076,136224.89705382552
23734.93745743483,60194.4101088536,14219.553973621603,136245.0583273242
23757.93740247934,60197.1593734216,14225.655999857903,136249.88630412656
23765.13466419395,60176.416954567074,14227.466491158784,136232.72016438487
23760.88783274744,60168.79500970781,14230.305162704608,136226.86400733757
23750.337809364537,60176.372251078166,14227.846470814524,136239.51509469928
23767.526300850663,60205.78714678135,14228.852299315013,136270.919295659
23756.46218734529,60205.04953921432,14226.72888359176,136269.84641192513
23750.606030298,60177.42278306756,14227.66765685888,136246.28767326925
23764.97820198276,60173.28771034333,14237.144796507931,136245.7065279134
23777.159902710904,60191.57143730777,14244.319706478083,136266.58305723467
23773.695382320333,60218.81821379879,14244.252651244718,136291.66171451352
23759.94905948032,60214.88430677466,14245.280831489665,136288.33130458966
23760.865481002988,60189.62683554016,14249.259442002707,136265.2196008229
23754.36112336649,60185.782335493845,14245.951383823322,136259.89988564252
23738.87136445896,60191.43732684104,14240.43050294286,136267.99121713534
23736.41267256888,60214.99606549693,14236.116616262989,136291.63936276906
23748.147338407915,60216.58303935326,14240.519909920682,136294.56744129272
23767.481597361755,60193.82896349776,14248.253613502218,136280.35173181913
23742.872326716464,60181.73666974744,14244.118540777989,136276.9766184064
23715.60319848099,60189.224504139966,14234.551994151116,136288.84539471217
23732.7022829893,60218.505289376415,14238.15062500842,136321.7248108059
23749.73431226424,60219.04173124334,14236.00485754071,136327.6256713421
23769.02386772917,60192.66667278608,14235.982505796255,136308.17965366598
23793.543731396643,60185.98350119394,14233.568517395082,136305.3186303757
23783.32898418057,60199.81923101178,14232.272116216674,136318.90849100455
23758.4067891129,60221.67923708907,14231.422749927371,136342.5789883827
23737.954942936296,60216.44892888653,14241.883366332457,136341.86373256013
23750.203698897803,60194.70068153152,14247.62776465747,136319.422581127
23751.813024498588,60182.921312203565,14248.92416583588,136313.45466535745
23749.86842273097,60188.71041401749,14241.257517487707,136326.3739736526
23758.607954813,60209.07285321628,14239.022343042176,136348.43514543
23741.531222049147,60207.57528633777,14245.52670067867,136349.06099427474
23733.104614389493,60183.211884881486,14248.365372224496,136327.35745040863
23747.633248285445,60175.455829555496,14246.9125088349,136320.85309277216
23753.489405332733,60188.06221342829,14243.447988444328,136327.06687773071
23772.488388119746,60214.34786490773,14243.403284955417,136347.47402041842
23756.261021645198,60207.754100293416,14234.462587173295,136341.30493894874
23734.333960334538,60176.88634120063,14231.936840049844,136310.75010427836
23724.83446894103,60170.58314926424,14229.902831304413,136304.53631931977
23723.135736362427,60184.038899426334,14229.29933420412,136319.176711938
23755.67987628936,60211.15156545062,14232.965020294789,136341.86373256013
23748.03557968564,60207.9105625046,14234.216717984284,136334.5323603788
23732.36700682247,60180.03793716883,14232.450930172316,136307.68791528797
23750.404864597906,60173.1535998766,14230.573383638071,136298.56840355022
23771.303745663616,60189.29155937333,14236.787168596646,136312.24767115686
23789.252196461224,60216.42657714208,14232.160357494398,136336.1863894685
23778.74687656723,60211.2633241729,14224.58311612405,136327.2233399419
23765.291126405136,60189.58213205125,14228.092340003532,136301.60824079614
23750.65073378691,60183.43540232604,14230.796901082624,136295.97560119338
23733.395187067414,60196.08648968775,14229.031113270656,136309.49840658886
23746.560364551588,60226.52956563587,14233.456758672806,136336.2310929574
23747.90146921891,60224.22733595697,14235.222546484774,136331.55957836623
23753.824681499565,60196.57822806576,14232.33917145004,136303.08345593017
23776.33288816606,60188.33043436175,14230.23810747124,136294.99212443735
23786.05589700412,60204.26722815839,14230.52868014916,136305.94447922046
23769.426199129368,60229.21177497051,14225.745406835726,136322.8647497731
23755.76928326717,60224.942591779545,14222.504403889703,136313.85699675765
23764.35235313801,60200.73565253445,14224.1584329794,136286.69962724444
23761.826606014565,60193.40428035311,14215.754177064202,136270.33815030314
23763.614745570987,60208.33524564925,14212.088490973532,136275.6131619946
23754.07055068857,60233.14568199464,14209.316874661074,136291.1699761355
23730.869439943963,60222.6627138451,14206.075871715057,136273.80267069372
23739.005474925696,60202.30027464632,14221.990313767234,136249.68513842646
23755.74693152272,60197.3605391217,14223.219659712277,136242.9572633454
23760.485501347244,60213.74436780744,14222.772624823168,136255.78716466276
23752.640039043432,60244.23214724448,14224.851337057513,136278.60829575162
23772.9130712644,60240.7676268539,14225.790110324637,136268.28178981328
23751.99183845423,60212.60442884022,14224.449005657318,136237.39167897604
23751.6565622874,60206.50240260392,14219.397511410418,136227.26633873777
23772.019001486184,60221.14279522214,14211.61910433997,136237.52578944276
23774.343582909536,60249.86478684721,14210.52386886166,136261.68802519894
23754.182309410848,60248.702496135535,14218.302275932108,136255.63070245157
23759.8596525025,60229.50234764843,14227.801767325613,136234.41889696347
23762.22893741476,60222.908583034114,14224.069026001576,136228.51803642727
23744.66046627289,60233.95034479504,14218.324627676562,136237.61519642058
23769.537957851644,60257.15145553964,14213.362540407485,136258.22350480838
23782.4125626579,60252.904624093135,14209.67450257236,136248.83577213716
23771.95194625282,60229.770568581895,14212.155546206895,136222.46071367987
23760.46314960279,60223.66854234559,14206.455851370794,136212.22361471935
23769.5603095961,60237.45956867452,14202.656054813391,136223.75711485828
23776.198777699326,60262.895853864655,14204.399490880907,136244.96892034638
23758.831472257552,60251.9211473371,14203.773642036158,136230.9543765729
23752.7070942768,60222.64036210065,14203.259551913688,136198.52199536824
23749.622553541965,60217.52181262038,14207.305217660096,136190.9894574868
23750.15899540889,60235.24674597344,14209.518040361172,136203.5511378707
23753.89173673293,60262.40411548664,14202.276075157652,136222.03603053524
23745.286315117635,60257.35262123974,14204.91358100338,136211.9553937859
23734.021035912163,60231.78222558287,14205.517078103672,136187.1449574405
23733.216373111773,60222.68506558956,14202.209019924288,136176.41612010196
23728.276637587147,60233.056275016825,14199.124479189451,136183.16634692746
23716.854896170487,60255.40801947213,14194.721185531758,136201.3606669141
23705.92489313184,60247.45079844604,14192.530714575138,136189.51424235277
23735.853878957496,60226.06017900232,14189.915560473868,136162.98272168433
23764.08413220455,60225.38962666865,14191.770755263658,136156.63482625902
23780.199739956828,60244.9697548115,14201.38200537944,136171.4316810884
23766.878100261463,60269.84724639026,14202.544296091117,136192.41996913197
23747.253268629705,60258.80548462934,14200.599694323504,136177.66781779146
23753.556460566106,60232.54218489435,14204.42184262536,136151.65038724546
23759.36791412448,60231.6704668606,14208.400453138407,136153.4385268019
23750.606030298,60245.97558331199,14205.04769147011,136167.00603568627
23738.17846038085,60265.44395273256,14200.53263909014,136183.47927134982
23741.57592553805,60251.54116768136,14196.844601255012,136166.67075951945
23744.146376150416,60225.3672749242,14192.731880275236,136136.11592484903
23730.69062598832,60224.383798168165,14193.558894820082,136129.2762910457
23707.891846643903,60239.04654253084,14190.273188385152,136136.0935731046
23728.7013207318,60264.996917843455,14188.775621506647,136149.90695117795
23737.530259791645,60257.97847008449,14186.004005194189,136133.0313841142
23738.245515614217,60234.19621398404,14188.887380228924,136106.2763460012
23733.350483578502,60231.11167324921,14185.892246471913,136099.92845057588
23732.858745200487,60248.36721996871,14190.80963025208,136112.64659317097
23768.91210900689,60278.96675812802,14201.583171079536,136135.22185507082
23768.934460751352,60268.66260393413,14198.409223366883,136117.00518333976
23751.008361698197,60238.15247275264,14192.24014189722,136087.16560449192
23742.55940229409,60236.36433319621,14196.174048921352,136084.77396783518
23734.93745743483,60255.2739090054,14197.604560566491,136101.13544477648
23739.296047603613,60280.48667675098,14201.38200537944,136120.76027640823
23732.009378911185,60265.913339366125,14198.789203022625,136100.46489244283
23738.290219103124,60236.766664596405,14194.721185531758,136070.89353452844
23737.46320455828,60236.40903668512,14190.384947107428,136066.7137583153
23731.048253899608,60257.35262123974,14188.015662195166,136079.38719742146
23726.332035819534,60281.85013316276,14190.742575018714,136098.5202906752
23735.853878957496,60272.752973169445,14198.364519877974,136085.89155505795
23750.89660297592,60251.54116768136,14201.873743757456,136061.8634297685
23762.31834439258,60251.47411244799,14203.058386213588,136062.08694721304
23767.8615770175,60268.41673474512,14193.536543075626,136077.15202297593
23758.63030655745,60285.85109542026,14183.455906326284,136090.25014522675
23729.41657655437,60271.56833071332,14170.737763731217,136071.0276449952
23702.05804134107,60245.03681004487,14158.42195253634,136043.8032202486
23706.953073376782,60241.14760650964,14172.481199798727,136043.13266791496
23714.5973699805,60263.49935096495,14181.153676647387,136063.20453443582
23707.60127396599,60288.71211871054,14174.470505055251,136083.07523525658
23727.628436997944,60278.36326102773,14182.986519692722,136071.6758455844
23733.32813183405,60257.19615902855,14187.680386028336,136052.22982790828
23731.87526844445,60253.66458340461,14184.28292087113,136050.77696451868
23738.33492259204,60266.40507774414,14179.700813257792,136068.65836008292
23733.596352767512,60285.918150653626,14164.434571794818,136088.10437775904
23725.88500093043,60267.81323764483,14163.004060149678,136070.55825836162
23717.63720722642,60243.69570537755,14169.530769530627,136049.614673807
23717.994835137702,60243.87451933319,14172.481199798727,136051.69338604133
23735.16097487938,60266.4274294886,14170.71541198676,136072.83813629605
23737.530259791645,60288.08626986579,14162.735839216211,136092.10534001654
23731.160012621884,60271.34481326876,14161.864121182458,136074.64862759694
23729.5506870211,60248.36721996871,14168.793161963602,136053.12389768648
23732.545820778112,60245.97558331199,14163.920481672343,136053.48152559777
23747.007399440696,60264.974566099,14152.029353622122,136072.30169442913
23744.973390695264,60287.32631055431,14157.32671705803,136092.73118886127
23723.113384617973,60272.10477258024,14172.548255032094,136076.54852587564
23713.256265313183,60246.0202868009,14161.685307226817,136050.19581916282
23715.670253714357,60248.3225164798,14152.9904786337,136050.44168835183
23702.661538441367,60269.66843243461,14160.455961281772,136071.09470022854
23705.053175098084,60287.50512450995,14158.109028113966,136083.67873235687
23721.88403867293,60270.67426093511,14162.579377005028,136063.53981060264
23727.74019572022,60255.40801947213,14176.795086478602,136046.19485690532
23717.614855481967,60257.39732472865,14167.51911252965,136042.7526882592
23731.964675422278,60269.35550801224,14156.90203391338,136050.8216680076
23753.556460566106,60288.04156637688,14157.28201356912,136064.1209559585
23736.07739640205,60273.69174643657,14164.166350861356,136046.7536505167
23717.57015199305,60253.30695549333,14168.591996263503,136025.27362409516
23723.493364273712,60254.73746713847,14167.13913287391,136025.31832758407
23736.97146618026,60271.81419990232,14156.812626935558,136037.56708354558
23727.69549223131,60291.75195595646,14154.532749001117,136048.8100110066
23720.36412004997,60273.69174643657,14159.070153125544,136026.14534212893
23726.376739308445,60253.597528171245,14162.825246194036,136003.0112866177
23732.5011172892,60252.56934792631,14157.57258624704,135999.6138214605
23730.355349821493,60270.83072314629,14142.37340001743,136014.0530483786
23716.720785703757,60292.333101312295,14144.250946551676,136030.48158055326
23709.054137355582,60277.75976392744,14162.355859560474,136013.31544081157
23718.911256660376,60256.03386831688,14160.52301651514,135989.6002399445
23734.602181268,60259.09605730725,14158.17608334733,135990.27079227814
23725.952056163795,60279.54790348386,14152.968126889244,136006.92284189735
23735.585658024032,60300.82676420531,14156.589109491004,136022.14437987143
23735.22803011275,60285.15819134214,14159.405429292374,136004.24063256272
23730.22123935476,60262.04648757535,14152.52109200014,135981.21833577377
23717.056061870582,60260.28069976339,14141.03229535011,135974.06577754806
23718.196000837805,60277.089211593775,14143.915670384846,135988.52735621063
23717.70426245979,60297.161078114645,14147.268432053144,136005.51468199666
23690.770410391146,60279.81612441733,14144.27329829613,135986.02396083163
23682.701430642777,60256.34679273925,14140.585260461005,135963.44869893178
23713.36802403546,60260.43716197457,14151.738780944204,135969.10369027898
23735.496251046214,60279.95023488405,14150.978821632723,135986.6945131653
23718.777146193643,60299.06097639335,14145.70380994127,136002.6536587064
23680.846235852987,60283.21358957453,14143.759208173658,135988.840280633
23701.767468663154,60263.34288875376,14146.46376925275,135971.36121646897
23744.16872789487,60266.58389169978,14146.55317623057,135975.339826982
23733.88692544543,60281.73837444048,14140.31703952754,135989.71199866678
23729.88596318793,60302.92782818411,14146.486120997206,136008.1521878424
23727.76254746468,60289.89676116667,14149.995344876688,135995.0540655916
23724.83446894103,60272.73062142499,14149.36949603194,135978.9384578393
23739.474861559254,60276.66452844912,14153.124589100433,135986.35923699848
23733.059910900585,60294.32240656882,14140.115873827444,136005.73819944123
23731.361178321986,60314.282514367405,14137.992458104189,136023.64194674994
23730.757681221687,60297.49635428147,14153.549272245084,136007.7051529533
23716.184343836827,60281.69367095157,14159.248967081186,135991.4554347343
23710.149372833894,60286.25342682045,14156.365592046452,135996.01519060318
23725.16974510786,60307.867563708736,14160.187740348309,136015.86353967947
23724.588599752024,60326.93360172911,14157.214958335751,136030.3027665976
23726.26498058617,60307.778156730914,14154.219824578742,136006.94519364182
23741.151242393404,60290.90258966716,14158.13137985842,135986.6498096764
23756.61864955648,60296.19995310307,14160.94769965979,135989.1979085443
23755.14343442243,60314.39427308968,14152.409333277865,136002.98893487322
23742.98408543874,60330.12990118622,14143.826263407023,136010.0520861211
23717.301931059592,60309.43218582061,14144.161539573854,135985.2416497757
23693.09499181449,60286.52164775392,14142.932193628812,135960.5429721526
23716.854896170487,60288.55565649935,14145.27912679662,135957.23491397325
23741.441815071325,60313.79077598939,14151.13528384391,135980.48072820672
23752.21535589878,60334.26497391045,14142.239289550698,135998.71975168225
23723.58277125153,60312.71789225554,14124.22378351972,135977.2397252607
23707.735384432723,60295.39529030267,14138.8865278824,135960.94530355278
23708.40593676638,60297.20578160355,14137.456016237262,135964.11925126545
23730.087128888023,60316.29417136838,14135.064379580544,135984.6381526754
23751.99183845423,60340.009372235465,14138.12656857092,136005.17940582984
23737.77612898065,60321.03274119291,14141.434626750306,135988.81792888857
23726.019111397163,60299.329197326806,14140.786426161105,135972.76937636966
23731.69645448881,60304.78302297391,14141.479330239215,135980.48072820672
23739.07253015906,60329.8393285083,14143.915670384846,136003.5477284846
23744.23578312824,60343.11626471475,14141.792254661592,136018.63515599194
23747.74500700772,60319.06578768084,14137.724237170723,135995.612859203
23749.98018145325,60295.88702868069,14142.79808316208,135976.5915246715
23758.94323097983,60298.65864499315,14142.976897117722,135981.66537066287
23779.484484134256,60321.770348759936,14146.12849308592,136002.1619203284
23777.02579224417,60341.59634609179,14142.865138395446,136020.49035078174
23768.755646795707,60323.714950527545,14143.759208173658,136005.29116455212
23766.632231072454,60304.425395062615,14152.632850722415,135993.66825743538
23766.609879328,60307.442880564085,14147.51430124215,136002.27367905065
23755.165786166883,60329.74992153048,14142.820434906536,136027.15117062943
23750.695437275823,60347.22898569453,14136.785463903603,136046.53013307217
23761.42427461437,60326.71008428456,14139.221804049232,136033.36495558798
23757.80329201261,60309.678055009615,14143.736856429205,136027.68761249635
23749.86842273097,60313.6343137782,14145.65910645236,136041.5009905697
23774.65650733191,60337.32716290083,14143.26746979564,136073.50868862972
23793.27551046318,60359.43303816712,14146.776693675123,136101.0683895431
23774.947080009828,60345.887881027214,14156.387943790907,136093.37938945048
23775.170597454384,60328.81114826336,14161.126513615432,136084.55045039064
23780.37855391247,60335.47196811104,14161.394734548896,136095.48045342928
23786.19000747085,60362.60698587978,14153.973955389734,136122.54841596467
23761.5583850811,60377.94028257612,14146.508472741662,136141.74856445176
23734.37866382345,60350.782913062925,14140.629963949916,136126.25880554423
23759.479672846755,60328.07354069633,14141.74755117268,136115.66407867242
23779.260966689704,60327.0900639403,14142.75337967317,136124.89534913248
23785.31828943709,60350.358229918274,14151.694077455291,136154.71257623585
23794.393097685945,60364.75275334749,14147.715466942249,136174.1362421675
23773.89654802043,60339.36117164626,14136.651353436871,136152.8350297016
23760.977239725264,60321.770348759936,14147.46959775324,136143.44729703036
23769.381495640457,60328.3864651187,14152.31992630004,136156.72423323683
23757.020980956677,60348.056000239376,14143.98272561821,136179.29949513669
23752.59533555452,60365.95974754808,14142.976897117722,136198.7008093239
23759.479672846755,60347.11722697225,14151.045876866088,136185.2897626507
23758.764417024187,60331.694523298094,14154.778618190125,136178.67364629195
23748.86259423049,60335.539023344405,14148.833054165014,136189.87187026406
23734.26690510117,60354.78387532043,14138.215975548745,136214.32467869815
23748.88494597494,60367.63612838223,14140.071170338531,136233.0554405517
23754.182309410848,60345.03851473791,14145.256775052165,136218.48210316684
23758.71971353528,60327.55945057386,14145.972030874736,136208.37911467304
23757.84799550152,60331.44865410908,14139.333562771508,136217.40921943297
23759.323210635568,60358.11428524426,14142.082827339513,136249.48397272636
23761.26781240318,60372.79938135141,14148.27426055363,136269.89111541404
23758.518547835178,60358.270747455455,14162.534673516117,136264.10201360012
23760.865481002988,60343.22802343704,14161.439438037807,136259.38579552007
23770.789655541143,60348.10070372829,14160.746533959693,136269.44408052493
23770.14145495194,60371.34651796181,14156.544406002096,136295.48386281537
23750.382512853448,60387.99856758101,14150.42002802134,136315.3769153806
23717.36898629296,60362.80815157988,14142.485158739706,136296.26617387132
23742.872326716464,60343.45154088159,14122.636809663392,136282.85512719813
23776.46699863279,60349.01712525095,14130.616382433938,136292.86870871412
23782.881949291463,60371.123000517255,14149.525958243128,136317.85795901515
23758.607954813,60381.404802966696,14145.882623896912,136330.50904637683
23735.004512668194,60351.967555519055,14143.535690729106,136306.10094143165
23752.99766695472,60336.32133440034,14150.352972787974,136294.85801397063
23745.66629477338,60339.47293036854,14141.591088961492,136301.7199995184
23736.36796907997,60360.081238756335,14136.69605692578,136325.39049689658
23742.961733694287,60376.82269535336,14143.423932006828,136345.931750051
23740.25717261519,60357.220215466055,14143.535690729106,136332.29718593328
23734.043387656617,60333.41560762115,14130.70578941176,136314.95223223596
23735.004512668194,60337.12599720073,14122.07801605201,136319.31082240472
23742.26882961617,60361.958785290575,14124.804928875556,136343.56246513873
23754.785806511143,60379.84018085482,14137.791292404092,136361.04152930278
23748.594373297023,60355.879110798734,14143.55804247356,136336.36520342412
23748.08028317455,60338.84708152379,14140.495853483184,136321.680107317
23751.924783220864,60344.65853508217,14133.812681891046,136331.00078475487
23753.399998354915,60366.160913248175,14123.575582930516,136353.687805377
23755.03167570015,60382.63414891173,14138.171272059832,136369.13286079562
23740.63715227093,60360.64003236772,14138.998286604678,136347.2281512294
23738.06670165857,60348.190110706106,14140.473501738728,136336.0746307462
23741.26300111568,60352.74986657499,14133.74562665768,136341.34964243765
23731.60704751099,60370.497151672505,14131.018713834132,136360.92977058052
23735.451547557303,60382.67885240065,14142.574565717528,136376.62069518815
23745.17455639536,60361.35528819029,14148.050743109075,136361.01917755834
23738.17846038085,60344.85970078227,14147.51430124215,136353.44193618797
23744.325190106058,60348.27951768393,14141.36757151694,136361.06388104724
23749.68960877533,60373.69345112961,14139.288859282597,136384.42145400305
23743.76639649468,60386.38924198023,14141.993420361689,136394.97147738593
23730.98119866624,60362.98696553552,14145.65910645236,136373.44674747548
23713.815058924563,60349.50886362897,14152.856368166968,136367.09885205017
23729.997721910207,60356.43790441012,14156.164426346351,136379.66053243406
23761.64779205892,60377.47089594256,14151.47056001074,136400.67117222204
23776.08701897705,60387.37271873626,14148.9895163762,136412.18232061653
23773.695382320333,60368.23962548252,14139.735894171705,136394.88207040812
23776.176425954876,60350.53704387392,14150.487083254706,136384.15323306958
23774.90237652092,60358.047230010896,14159.047801381088,136394.9491256415
23783.08311499156,60381.874189600254,14154.353935045474,136421.1006666542
23776.08701897705,60392.08893681633,14155.717391457249,136433.03649819334
23751.433044842845,60366.920872559655,14158.399600791883,136412.47289329444
23750.047236686616,60353.95686077558,14160.701830470782,136405.27563157983
23751.120120420477,60359.12011374476,14155.627984479426,136414.28338459533
23769.828530529565,60383.5505704344,14150.397676276883,136439.58555931874
23787.08407724906,60398.749756664016,14154.8903769124,136452.32605365827
23754.204661155305,60374.252244740994,14146.776693675123,136430.77897200335
23743.632286027943,60358.36015443327,14142.194586061789,136420.4077625761
23765.715809549787,60369.49132317201,14143.535690729106,136432.52240807086
23778.90333877842,60394.391166495225,14139.445321493784,136455.47764962647
23774.27652767617,60406.32699803436,14145.592051218991,136465.2677136979
23761.71484729229,60384.44464021262,14148.028391364622,136444.36883263217
23774.075361976076,60372.82173309586,14152.94577514479,136435.45048659452
23760.64196355843,60381.38245122224,14148.855405909468,136443.98885297644
23750.89660297592,60407.10930909029,14142.820434906536,136466.29589394282
23747.49913781871,60414.03834987144,14139.735894171705,136470.14039398913
23735.38449232393,60390.52431470446,14139.534728471606,136444.63705356565
23742.090015660528,60375.83921859732,14126.995399832178,136428.14146615763
23753.064722188083,60387.88680885873,14139.46767323824,136439.451448852
23760.26198390269,60416.206469083605,14137.098388325978,136462.0490624963
23778.76922831169,60431.51741403549,14137.65718193736,136471.30268470082
23767.19102468384,60408.56217247989,14144.429760507315,136444.3017773988
23758.13856817944,60396.20165779611,14136.003152847668,136430.24253013643
23761.401922869914,60403.26480904398,14127.777710888116,136434.75758251638
23758.98793446874,60424.00722789851,14123.307361997053,136451.2978734133
23744.436948828334,60426.95765816661,14118.479385194709,136450.4038036351
23731.38353006644,60396.55928570739,14117.786481116593,136421.2571288654
23741.598277282512,60388.19973328111,14134.0361993356,136414.70806774
23762.720675792774,60398.168611308174,14135.712580169748,136424.20755913347
23766.632231072454,60420.14037610774,14136.137263314398,136443.11713494267
23764.35235313801,60428.70109423412,14139.89235638289,136450.26969316835
23759.59143156903,60402.77307066597,14141.121702327931,136424.63224227814
23772.264870675197,60392.87124787227,14142.596917461982,136409.18718685952
23765.201719427318,60397.38630025224,14126.950696343269,136413.81399796176
23767.548652595124,60417.614628984295,14119.373454972918,136432.18713190404
23755.344600122524,60421.10150111932,14121.720388140726,136430.84602723672
23741.33005634905,60400.269675286974,14133.186833046298,136407.8013787033
23726.89082943092,60387.260960013984,14137.791292404092,136397.1395965981
23727.40491955339,60394.94996010661,14137.61247844845,136407.42139904754
23730.489460288223,60414.77595743847,14125.36372248694,136427.71678301296
23694.68196567082,60415.379454538765,14116.825356105011,136431.44952433702
23698.258244783672,60389.294968759415,14132.56098420155,136409.23189034843
23750.002533197705,60381.2036372666,14144.9885541187,136402.57107050074
23764.03942871564,60393.72061416157,14145.27912679662,136415.69154449602
23760.41844611388,60423.44843428713,14141.36757151694,136442.20071342
23756.484539089743,60422.777881953465,14130.79519638958,136436.25514939488
23742.55940229409,60390.81488738238,14131.0857690675,136404.4933205239
23726.667311986366,60381.18128552214,14131.532803956605,136394.9938291304
23730.04242539912,60387.88680885873,14127.956524843756,136400.02297163283
23752.26005938769,60411.42319577017,14129.834071378002,136423.93933820003
23764.486463604742,60423.73900696504,14130.772844645126,136432.94709121552
23747.74500700772,60398.61564619728,14124.536707942094,136407.5555095143
23740.771262737664,60385.45046871311,14119.75343462866,136394.21151807447
23744.302838361604,60394.52527696196,14134.438530735795,136401.0511518778
23746.917992462877,60420.07332087438,14128.627077177416,136423.71582075546
23760.865481002988,60427.471748289085,14130.951658600768,136429.66138478057
23745.84510872902,60402.39309101023,14124.380245730908,136402.48166352292
23733.66340800088,60392.155992049695,14117.674722394317,136393.07157910726
23743.6546377724,60399.21914329757,14112.802042103058,136401.87816642263
23744.16872789487,60424.11898662079,14108.532858912096,136423.91698645556
23751.522451820667,60447.07422817639,14137.880699381913,136443.11713494267
23826.87018237951,60478.76900181401,14225.521889391171,136476.44358592553
23883.15187491797,60504.16058351525,14271.745296924746,136505.70201941754
23898.57457859213,60531.11678732834,14283.614073230514,136534.0216796424
23900.16155244846,60565.672584256245,14286.765669198712,136566.61052305825
23885.543511574688,60575.39559309431,14293.985282657775,136573.56191558385
23910.86803804255,60558.0953428859,14303.64123626247,136555.4346508306
23918.02059626825,60556.865996940855,14292.577122757091,136550.986653684
23903.938997261408,60569.58413953592,14273.846360903546,136562.47545033402
23921.082785258623,60601.413023640285,14288.956140155333,136592.1362152262
23903.089630972103,60610.621942355865,14295.639311747467,136599.06525600736
23893.32191864513,60586.1020786884,14290.788983200668,136575.8864970072
23905.436564139916,60571.90872095928,14283.34585229705,136566.31995038033
23920.36752943606,60584.693918787714,14281.20008482934,136581.76500579895
23943.97097158086,60620.52376514957,14296.153401869942,136614.4432561926
23948.418968727467,60626.93871580824,14301.83074496159,136617.5501486719
23907.96231126336,60599.55782885049,14292.979454157288,136588.5822878578
23895.78061053522,60587.82316301145,14288.218532588307,136576.9370289966
23916.165401478454,60601.92711376275,14291.660701234425,136587.41999714615
23935.61141915457,60631.96785831069,14291.548942512149,136614.53266317042
23922.37918643704,60633.778349611566,14289.20200934434,136613.81740734784
23898.619282081043,60604.58697135294,14283.457611019328,136583.2849244219
23914.176096221938,60597.41206138278,14284.619901731005,136572.51138359445
23924.390843438014,60609.7055208332,14287.704442465836,136579.32866565333
23914.73488983332,60631.52082342158,14280.59658772905,136592.7844158154
23901.703822815874,60630.85027108792,14278.964910383813,136586.7941483014
23900.96621524885,60605.65985508679,14277.959081883322,136559.45796483257
23901.748526304786,60594.81925902597,14273.734602181268,136547.16450538213
23902.709651316363,60606.03983474253,14282.675299963392,136553.5794560408
23902.597892594087,60632.32548622197,14286.072765120598,136574.76890978444
23875.641688780983,60627.72102686418,14273.511084736716,136566.00702595795
23881.16256966145,60602.9552940077,14279.54605573965,136538.49202853348
23908.25288394128,60599.96016025069,14284.910474408922,136532.30059531936
23901.07797397113,60609.41494815528,14280.887160406966,136540.54838902337
23906.82237229614,60634.09127403394,14275.701555693337,136561.96136021154
23917.61826486805,60635.722951379175,14274.226340559286,136560.46379333304
23889.09743894308,60610.912515033786,14281.11067785152,136535.00515639843
23876.982793448307,60599.513125361584,14275.34392778205,136524.9245196491
23894.48420935681,60611.31484643398,14273.466381247805,136536.05568838783
23909.906913030973,60636.2593932461,14268.660756189916,136556.39577584216
23933.5997621536,60638.114588035896,14274.405154514929,136556.95456945355
23926.000169038794,60614.30998019099,14274.695727192848,136534.736935465
23900.742697804297,60602.46355562968,14271.030041102176,136523.4269527706
23900.00509023727,60614.42173891327,14270.24773004624,136533.2840720754
23910.197485708894,60641.64616365983,14268.593700956548,136554.47352581902
23909.37047116405,60644.596593927934,14264.101000321032,136551.8807234622
23890.684412799408,60618.15448023731,14261.038811330654,136523.49400800397
23873.87590096902,60611.538363878535,14269.219549801295,136514.53095847738
23878.547415560177,60623.25067797312,14258.9153956074,136523.20343532605
23906.53179961822,60652.933794609766,14257.820160129091,136548.3938513272
23907.045889740693,60654.00667834362,14263.29633752064,136544.59405476978
23885.051773196672,60626.60343964141,14259.407133985416,136514.70977243304
23887.957499975862,60619.56264013799,14258.334250251562,136505.32203976178
23896.67468031343,60632.68311413326,14253.77449438268,136518.2636998014
23902.46378212736,60660.91336738031,14263.229282287277,136546.0245664149
23885.610566808056,60660.62279470239,14267.72198292279,136543.65528150264
23875.507578314257,60634.247736245125,14262.82695088708,136517.54844397886
23894.752430290275,60630.17971875426,14269.420715501396,136516.25204280045
23894.417154123446,60643.34489623844,14269.353660268029,136529.55133075136
23878.72622951582,60665.94250988276,14262.290509020151,136548.1926856271
23843.85750816554,60658.81230340151,14247.806578613112,136536.4803715325
23846.71853145582,60631.92315482178,14244.967907067288,136508.87596713018
23879.73205801631,60629.308000720506,14242.86684308849,136505.34439150625
23865.583403776094,60644.55189043903,14245.660811145402,136520.00713586895
23853.15583385895,60668.28944305056,14256.277889761674,136542.7835634689
23873.87590096902,60663.6179284594,14255.875558361478,136537.7767727109
23867.885633455,60641.13207353736,14256.367296739496,136516.09558058926
23869.42790382241,60632.437244944245,14241.838662843546,136505.970240351
23878.659174282453,60641.19912877073,14231.042770271632,136509.43476074157
23902.642596083,60668.44590526175,14234.172014495376,136531.2724150744
23895.087706457103,60666.68011744978,14239.424674442373,136526.55619699435
23860.218985106825,60636.348800223925,14233.277944717163,136497.1189495467
23850.227755335305,60629.33035246496,14228.33820919254,136490.43577795455
23868.28796485519,60647.122341051385,14234.172014495376,136505.94788860655
23879.44148533839,60672.44686751925,14231.221584227274,136529.68544121808
23870.523139300723,60668.20003607274,14226.61712486948,136520.78944692487
23860.598964762565,60643.23313751616,14227.690008603337,136492.53684193335
23872.49009281279,60638.00282931362,14230.349866193515,136486.25600174142
23878.569767304634,60649.513977708106,14227.734712092248,136496.73896989095
23867.57270903262,60672.89390240835,14218.883421287945,136515.73795267797
23855.63687749349,60669.83171341797,14214.837755541535,136505.74672290645
23834.49212723877,60645.98240208416,14196.084641943531,136475.30364695832
23839.05188310765,60643.14373053834,14194.274150642652,136467.97227477698
23838.046054607163,60658.70054467923,14206.634665326435,136480.6233621387
23845.53388899969,60683.265111835615,14203.550124591606,136497.49892920244
23876.513406814745,60681.365213556914,14209.585095594535,136491.84393785524
23855.659229237943,60659.39344875735,14207.796956038112,136469.13456548867
23836.794356917664,60655.54894871104,14205.897057759412,136463.68073984157
23849.892479168477,60671.44103901876,14205.494726359217,136475.7730335919
23876.62516553702,60698.24078062068,14199.057423956088,136494.8167198678
23887.01872670874,60692.20580961774,14193.871819242457,136480.0645685273
23862.074179896616,60663.99790811514,14186.071060427555,136449.44267862354
23844.86333666603,60659.75107666863,14183.724127259748,136443.29594889833
23842.762272687232,60674.614986731416,14184.506438315682,136456.1034984712
23843.991618632277,60696.94437944226,14182.897112714902,136471.9061818011
23832.078138837594,60687.176667115295,14175.118705644454,136455.03061473736
23827.71954866881,60661.24864354714,14172.056516654076,136428.32028011326
23829.08300508058,60653.693753921245,14169.396659063896,136417.23381486343
23821.5728189436,60669.9211203958,14169.75428697518,136429.21434989147
23817.683615408376,60698.91133295433,14167.56381601856,136451.0520042243
23804.36197571301,60689.79182121657,14162.17704560483,136439.0044139629
23796.22594073128,60662.88032089238,14165.552159017583,136414.5516055288
23813.28032175068,60660.26516679111,14165.46275203976,136409.9918496599
23828.211287046823,60679.39826004485,14164.300461328086,136425.63807077863
23846.986752389283,60704.78984174608,14163.13817061641,136446.13462044415
23831.34053127057,60697.90550445384,14169.061382897064,136433.72940227145
23791.50972265121,60664.44494300425,14154.197472834288,136397.8995559096
23808.89937983744,60655.794817900045,14155.493874012696,136388.60123021618
23836.77200517321,60671.463390763216,14164.769847961648,136400.8946896666
23839.94595288586,60694.57509453,14162.13234211592,136418.61962301965
23829.61944694751,60682.54985601304,14162.981708405225,136405.83442519122
23806.977129814284,60654.94545161074,14156.790275191102,136378.96762835595
23821.23754277677,60648.95518409672,14147.782522175614,136372.79854688628
23821.505763710236,60657.85117838993,14133.74562665768,136379.97345685645
23819.42705147589,60676.6266437324,14123.240306763686,136394.16681458557
23809.838153104563,60661.2709952916,14115.21603050423,136375.01136958736
23803.937292568364,60632.83957634444,14123.75439688616,136345.440011673
23813.973225828795,60627.676323375264,14129.27527776662,136341.4837529044
23798.394059943446,60643.30019274953,14128.314152755042,136357.06291878974
23782.23374870226,60665.361364526914,14126.280144009608,136377.2912475218
23795.644795375443,60657.96293711221,14129.387036488895,136368.01527357285
23807.021833303195,60629.44211118724,14130.70578941176,136339.8744273036
23822.399833488445,60626.60343964141,14132.672742923824,136337.34868018018
23831.6758074374,60642.920213093785,14137.23249879271,136354.1348402661
23824.120917811502,60660.37692551338,14128.962353344245,136373.11147130866
23776.914033521894,60642.3614194824,14113.36083571444,136353.41958444353
23765.313478149597,60618.243887215125,14113.316132225533,136331.15724696603
23793.856655819018,60618.69092210424,14120.423986962318,136333.41477315602
23799.109315766014,60636.2146897572,14131.13047255641,136355.20772399995
23811.358071727525,60661.33805052496,14132.829205135013,136381.3816167571
23824.791470145163,60649.24575677464,14135.332600514008,136369.71400615145
23830.044130092163,60621.17196573877,14130.191699289287,136347.11639250713
23821.081080565586,60615.382863924846,14119.664027650835,136346.6917093625
23796.203588986828,60627.38575069735,14104.42013793232,136357.80052635676
23789.69923135033,60643.6131171719,14113.874925836912,136374.51963120935
23809.90520833793,60631.34200946594,14131.644562678885,136363.85784910416
23825.48437422328,60605.2575236866,14129.387036488895,136342.4895814049
23812.90034209494,60596.89797126031,14122.010960818645,136341.2378837154
23818.84590612005,60608.56558186598,14113.07026303652,136355.90062807806
23825.14909805645,60632.77252111108,14112.623228147417,136377.2912475218
23811.4698304498,60618.13212849285,14117.160632271843,136365.75774738286
23800.986862300266,60585.09625018791,14105.627132132904,136340.00853777034
23827.6748451799,60579.59772105191,14104.621303632415,136339.7403168369
23838.783662174184,60591.3547386354,14107.817603089525,136355.92297982253
23832.413415004423,60611.65012260081,14108.823431590014,136378.49824172238
23818.37651948649,60600.22838118415,14110.522164168617,136371.54684919678
23808.89937983744,60574.99326169411,14111.55034441356,136354.49246817737
23818.510629953224,60567.37131683485,14109.203411245751,136354.31365422174
23831.49699348176,60582.07876468644,14108.063472278533,136376.57599169924
23824.836173634078,60603.6034945969,14107.035292033588,136403.5545472568
23785.631213859466,60577.67547102874,14084.460030133729,136385.15906157007
23764.9111467494,60537.77760717602,14062.10828567842,136353.8889710771
23750.22605064226,60520.05267382297,14051.647669273338,136345.0376802728
23738.62549526996,60529.060426838456,14040.82942495697,136360.92977058052
23761.536033336644,60552.3956480498,14045.903270948324,136390.1435005836
23753.02001869917,60534.40249376327,14039.957706923213,136380.10756732317
23754.07055068857,60503.9817695596,14033.945087664735,136362.91907583704
23759.256155402203,60500.8301735914,14036.962573166202,136371.8374218747
23764.35235313801,60515.51526969854,14053.905195463323,136398.32423905423
23768.82270202908,60538.917546143246,14052.45233207373,136428.29792836882
23743.78874823913,60527.31699077094,14046.193843626244,136426.64389927912
23740.346579593013,60498.7291096126,14040.91883193479,136410.21536710445
23756.439835600835,60494.30346421045,14033.319238819986,136415.49037879592
23765.13466419395,60507.20042076116,14026.054921872012,136438.35621337369
23763.592393826533,60526.19940354818,14029.765311451592,136466.74292883193
23753.489405332733,60513.458909208646,14025.183203838254,136462.13846947413
23739.74308249272,60487.3744234293,14022.836270670448,136444.97232973247
23738.64784701441,60484.021661761006,14022.970381137178,136451.4543356245
23744.436948828334,60498.30442646795,14022.456291014709,136473.20258297952
23748.393207596924,60519.806804633954,14021.517517747585,136498.70592340303
23741.911201704886,60503.11005152584,14013.046206599023,136485.3619319632
23737.97729468075,60476.39971690175,14015.460195000196,136462.47374564098
23744.77222499517,60473.98572850058,14018.254163057109,136466.6535218541
23746.62741978496,60487.307368195936,14005.692482673228,136486.92655407506
23751.36598960948,60508.31800798393,14022.545697992527,136513.6145369547
23737.46320455828,60495.93514155569,14044.070427902989,136507.0207723404
23724.83446894103,60473.85161803384,14046.037381415055,136491.1733855216
23715.82671592554,60467.74959179755,14038.817767955992,136492.78271112236
23735.83152721304,60487.01679551802,14037.096683632932,136514.75447592197
23768.01803922869,60511.44725220767,14035.129730120869,136538.6261390002
23759.4573211023,60492.53767639848,14034.503881276118,136526.4220865276
23752.59533555452,60469.76124879853,14038.77306446708,136509.14418806366
23745.64394302892,60466.87787376379,14033.609811497903,136510.32883051978
23728.03076839814,60480.44538264816,14022.053959614512,136523.6281184707
23725.594428252512,60498.34912995686,14010.49810773112,136541.44245880158
23741.017131926677,60484.28988269447,14007.63708444084,136530.69126971858
23760.21728041378,60463.86038826232,14011.861564142891,136511.82639739828
23751.36598960948,60462.09460045036,14012.375654265365,136511.714638676
23751.03071344265,60482.68055709369,14004.999578595112,136532.479409275
23770.789655541143,60506.99925506106,14004.887819872836,136554.56293279683
23765.157015938406,60492.29180720948,14016.801299667515,136542.1353628797
23767.74981829522,60472.68932732217,14025.004389882612,136524.7680574379
23764.62057407148,60470.878836021286,14016.57778222296,136524.9245196491
23747.253268629705,60486.30153969545,14007.190049551731,136542.1800663686
23746.672123273867,60507.15571727225,14020.891668902836,136564.42005210163
23765.84992001652,60494.16935374372,14031.06171263,136552.4842205625
23763.77120778217,60471.99642324405,14026.479605016662,136532.25589183043
23761.08899844754,60472.06347847742,14024.736168949148,136530.51245576292
23754.852861744508,60487.79910657396,14020.668151458283,136545.19755187005
23727.583733509036,60508.04978705046,14024.512651504596,136561.983711956
23730.757681221687,60489.69900485266,14027.083102116956,136541.7330314795
23762.966544981784,60473.11401046682,14030.547622507527,136523.40460102615
23776.981088755263,60474.231597689584,14025.071445115978,136525.9750516385
23775.863501532494,60489.72135659711,14013.783814166049,136541.50951403493
23763.10065544852,60504.47350793762,14003.166735549778,136558.22861888752
23750.8071959981,60487.21796121812,14014.230849055151,136541.7777349684
23753.02001869917,60470.476504621096,14010.72162517567,136526.3326795498
23758.31738213508,60474.0751354784,14003.926694861257,136533.55229300886
23756.79746351212,60491.17421998671,13999.277532014554,136552.77479324042
23746.359198851493,60509.94968532917,13993.019043567068,136572.95841848355
23705.41080300937,60494.79520258847,13983.2513312401,136559.56972355483
23706.461334998767,60471.39292614376,13978.24454048211,136539.96724366752
23751.723617520765,60471.75055405505,13985.575912663451,136542.11301113522
23774.298879420625,60494.21405723263,13998.316407002976,136565.82821200232
23768.599184584524,60516.07406330992,14000.81980238197,136584.76013955596
23736.79265222462,60495.19753398866,13993.354319733897,136564.97884571302
23734.646884756912,60473.94102501166,13996.572970935462,136547.61154027123
23756.059855945092,60480.11010648133,14003.077328571955,136554.71939500803
23764.46411186029,60508.92150508423,14008.53115421905,136579.21690693105
23757.80329201261,60526.69114192619,14003.502011716606,136597.45593040658
23735.6527132574,60502.05951953645,13992.504953444595,136575.10418595126
23738.424329569854,60481.361804170825,13992.594360422418,136552.14894439565
23750.829547742556,60485.854504806346,14004.1055088169,136553.87002871872
23754.76345476669,60504.76408061553,14002.898514616314,136572.53373533892
23763.055951959606,60529.50746172756,14002.786755894036,136593.1867472156
23747.052102929607,60510.39672021827,13996.349453490908,136572.15375568316
23744.436948828334,60489.028452519,13992.504953444595,136551.232522873
23746.135681406937,60493.40939443224,13979.876217827346,136554.36176709674
23763.4582833598,60513.6824266532,13975.00353753609,136571.70672079406
23773.15894045341,60534.31308678545,13978.378650948842,136588.24701169098
23757.13273967895,60511.93899058569,13973.28245321303,136564.55416256835
23748.683780274845,60486.882685051285,13965.19112172021,136540.99542391248
23744.906335461896,60486.81562981792,13969.57206363345,136539.0731738893
23740.726559248757,60505.4793364381,13964.878197297836,136553.9370839521
23733.84222195652,60521.93022035721,13952.920014014247,136567.01285445844
23749.443739586324,60502.05951953645,13964.207644964175,136546.67276700411
23769.202681684816,60487.48618215158,13984.167752762763,136528.05376387286
23760.21728041378,60491.39773743126,13982.469020184162,136526.31032780532
23749.30962911959,60507.714510883634,13979.987976549624,136539.0731738893
23743.073492416563,60526.37821750381,13981.016156794569,136555.2334851305
23730.17653586585,60509.70381614016,13986.469982441662,136538.40262155564
23738.31257084758,60495.01872003302,13995.276569757054,136521.34824053626
23734.26690510117,60494.05759502144,13995.991825579624,136519.224824813
23730.198887610302,60512.94481908617,13999.568104692473,136533.66405173112
23746.62741978496,60531.02738035052,14002.540886705028,136546.40454607064
23766.542824094635,60512.140156285786,14007.905305374305,136524.54453999337
23761.87130950348,60495.421051433215,14006.743014662628,136506.99842059595
23745.353370351004,60494.75049909956,13996.505915702097,136506.84195838476
23744.548707550613,60510.88845859629,13982.401964950795,136517.68255444558
23739.02782667015,60527.67461868223,13977.752802104093,136530.44540052957
23733.93162893434,60511.62606616331,13980.435011438729,136512.85457764324
23748.437911085835,60498.25972297904,13972.924825301749,136497.36481873572
23733.775166723157,60495.66692062222,13958.127970472333,136496.24723151294
23719.76062294968,60510.68729289619,13942.325287142432,136511.04408634236
23726.242628841715,60527.7863774045,13956.116313471355,136528.1655225951
23746.672123273867,60509.614409162336,13963.090057741412,136511.6699351871
23747.85676573,60491.59890313136,13964.341755430907,136493.74383613394
23739.251344114706,60494.72814735511,13958.28443268352,136495.35316173473
23756.3057251341,60517.6833889107,13963.090057741412,136517.7719614234
23751.634210542943,60530.89326988379,13967.403944421285,136530.0654208738
23740.57009703757,60512.56483943044,13963.090057741412,136507.44545548505
23734.155146378893,60491.04010951998,13954.596394848397,136485.58544940775
23733.998684167706,60493.16352524323,13960.296089684498,136487.28418198635
23736.323265591054,60515.64938016527,13970.332022944933,136506.90901361813
23721.951093906297,60528.65809543826,13968.700345599693,136515.93911837807
23715.40203278089,60506.68633063869,13964.878197297836,136490.34637097674
23722.487535773223,60490.7271850976,13963.42533390824,136472.1073475012
23716.005529881186,60494.12465025481,13973.438915424218,136471.48149865647
23739.787785981636,60517.75044414407,13986.045299297011,136491.55336517733
23735.96563767977,60532.23437455111,13974.33298520243,136501.07520831528
23707.22129431025,60505.38992946028,13953.881139025823,136469.89452480013
23710.68581470082,60488.8272868189,13961.413676907265,136453.73421355896
23727.38256780893,60493.65526362125,13972.47779041264,136455.2541321819
23720.98996889472,60510.039092306986,13953.188234947713,136469.42513816658
23711.713994945767,60520.25383952306,13943.66639180975,136477.33765570374
23708.249474555192,60501.94776081417,13945.678048810729,136456.23760893795
23702.63918669691,60487.1285542403,13943.308763898463,136436.65748079508
23712.98804437972,60489.98957753058,13938.905470240768,136431.94126271503
23722.442832284312,60511.715473141136,13926.723769512626,136442.49128609794
23719.335939805027,60525.43944423669,13918.252458364066,136446.08991695524
23704.4943814867,60496.13630725579,13911.591638516384,136413.18814911702
23700.26990178465,60475.75151631254,13900.885152922292,136390.3893697726
23715.78201243663,60483.954606527645,13902.203905845156,136394.435035519
23730.6012190105,60507.62510390581,13904.819059946423,136411.02002990484
23719.31358806057,60519.87385986732,13904.03674889049,136414.9092334401
23693.989061592707,60496.24806597806,13908.060062892446,136388.1318435826
23701.342785518504,60479.03722274747,13924.04156017799,136368.84228811768
23726.488498030725,60489.4307839192,13939.79954001898,136373.67026492005
23723.87334392945,60518.420996477726,13943.42052262074,136395.0385326193
23697.520637216647,60534.11192108535,13957.010383249568,136406.16970135804
23689.36225049046,60513.10128129736,13963.268871697052,136382.11922432415
23692.871474369946,60497.25389447855,13953.94819425919,136365.28836074928
23699.37583200644,60503.91471432623,13950.126045957331,136371.16686954105
23691.30685225807,60526.35586575936,13947.935575000713,136394.12211109663
23691.329204002526,60540.68333395521,13941.319458641943,136403.1522158566
23674.25247123867,60516.99048483259,13930.23299339211,136374.22905853143
23677.58288116251,60499.17614450171,13921.001722932067,136356.2359042449
23691.619776680443,60505.21111550464,13913.200964117166,136360.8850670916
23692.245625525196,60531.02738035052,13911.725748983115,136378.67705567804
23690.569244691043,60539.49869149908,13911.837507705392,136379.7946429008
23694.88313137092,60513.97299933112,13919.347693842376,136350.02211928632
23698.77233490614,60498.23737123459,13918.788900230991,136331.55957836623
23682.50026494268,60504.07117653742,13902.539182011984,136331.69368883298
23671.16793050384,60524.567726202935,13900.728690711105,136348.7927733413
23685.964785333254,60537.53173798702,13909.334112326398,136356.16884901153
23705.56726522056,60514.64355166478,13902.47212677862,136330.3302324212
23713.97152113575,60497.83503983439,13885.954187626146,136311.0183252118
23716.07258511455,60505.94872307166,13880.0756788344,136314.0805142022
23700.001680851183,60531.40736000626,13884.031937602991,136334.75587782334
23702.102744829983,60544.03609562351,13879.002795100549,136341.01436627083
23722.64399798441,60517.32576099942,13872.878417119791,136308.24670889936
23720.02884388314,60497.74563285657,13870.84440837436,136284.8220807102
23725.50502127469,60502.64066489228,13880.008623601036,136285.11265338812
23712.675119957345,60524.1877465472,13890.84921966186,136302.79288325226
23701.476895985237,60533.374313518325,13904.282618079498,136308.60433681065
23695.17370404884,60512.22956326361,13913.268019350531,136286.69962724444
23686.478875455723,60499.51142066854,13916.196097874175,136274.40616779402
23685.562453933057,60507.714510883634,13918.587734530896,136278.83181319616
23683.059058554063,60527.60756344886,13910.47405129362,136291.72876974687
23678.18637826281,60539.00695312106,13917.872478708325,136295.59562153765
23676.286479984105,60524.94770585868,13936.200909161676,136276.68604572845
23687.86468361195,60512.94481908617,13931.887022481802,136262.29152229923
23697.051250583085,60515.47056620962,13921.314647354442,136263.9231996445
23703.93558787532,60533.95545887417,13918.632438019806,136281.89400218654
23705.008471609173,60544.57253749044,13914.65382750676,136286.18553712196
23679.795703863587,60519.82915637841,13909.870554193323,136261.88919089903
23678.29813698508,60501.63483639179,13912.329246083407,136247.89699887
23712.02691936814,60509.94968532917,13921.314647354442,136258.2011530639
23720.677044472344,60535.81065366395,13918.163051386244,136281.916353931
23681.7403056312,60540.88449965531,13903.008568645546,136284.08447314316
23665.49058741219,60515.9846563321,13904.506135524052,136261.84448741013
23711.49047750121,60507.55804867245,13915.838469962891,136254.62487395108
23745.84510872902,60519.3821214893,13912.798632716973,136266.29248455673
23752.640039043432,60544.77370319053,13903.589714001384,136291.79582498025
23744.81692848408,60551.50157827158,13881.908521879735,136299.68599077297
23733.238724856223,60526.84760413738,13877.08054507739,136278.3177230737
23725.39326255241,60514.95647608715,13883.383737013786,136265.44311826743
23730.8023847106,60517.2810575105,13875.381812498788,136264.83962116714
23751.388341353937,60542.62793572283,13868.877454862291,136283.9727144209
23742.73821624973,60555.88252018482,13872.431382230689,136291.50525230233
23726.13087011944,60531.00502860607,13880.343899767864,136265.666635712
23717.97248339325,60514.509441198046,13876.119420065812,136247.38290874756
23713.099803101995,60522.04197907949,13881.014452101525,136251.5626849607
23713.16685833536,60551.32276431594,13892.860876662837,136279.90469693005
23700.06873608455,60563.75033423309,13898.26999882102,136290.07474065718
23683.30492774307,60536.816482164446,13894.783126685994,136263.34205428863
23680.421552708336,60519.11390055584,13897.308873809445,136247.89699887
23695.55368370458,60527.87578438232,13904.237914590589,136256.3012547852
23697.006547094174,60550.96513640465,13907.568324514428,136277.75892946232
23695.330166260024,60561.09047664291,13909.624685004315,136283.5703830207
23695.26311102666,60536.97294437563,13906.003702402557,136257.7541181748
23705.83548615402,60521.86316512385,13903.32149306792,136241.48204821136
23712.250436812694,60532.50259548457,13904.595542501873,136248.18757154795
23707.22129431025,60558.9447091752,13897.934722654192,136269.04174912474
23696.894788371897,60566.61135752337,13918.90065895327,136274.58498174965
23700.471067484745,60540.97390663313,13928.243688135588,136249.0145860928
23709.27765480014,60523.11486281334,13921.80638573246,136231.96020507338
23727.18140210884,60531.899098384274,13918.118347897334,136239.87272261057
23753.60116405501,60561.51515978756,13917.716016497136,136262.78326067727
23738.111405147483,60569.4947325581,13909.445871048674,136266.09131885663
23730.109480632484,60547.45591252517,13907.300103580965,136241.01266157778
23751.433044842845,60538.9398978877,13911.144603627276,136228.40627770498
23746.739178507232,60544.59488923489,13906.94247566968,136233.12249578506
23751.500100076213,60569.315918602464,13910.675216993715,136254.84839139562
23759.27850714666,60580.82706699694,13918.855955464358,136260.23516180937
23750.91895472037,60555.30137482898,13911.882211194305,136233.97186207437
23744.682818017343,60538.80578742097,13913.938571684192,136218.39269618902
23740.056006915096,60546.07010436894,13910.027016404512,136225.67936488145
23741.285352860137,60566.14197088981,13903.075623878913,136242.5102284563
23730.087128888023,60569.293566858,13906.786013458492,136242.66669066748
23701.141619818405,60539.72220894363,13895.297216808463,136213.54236764222
23685.9424335888,60524.97005760313,13886.736498682085,136199.66193433548
23682.96965157624,60533.32961002942,13886.356519026342,136207.66385885046
23681.628546908923,60559.9952411646,13894.47020226362,136231.78139111775
23670.49737817018,60564.353831333385,13893.643187718772,136236.34114698664
23657.68982859729,60538.15758683176,13893.710242952138,136213.52001589775
23664.596517633978,60526.64643843728,13895.587789486384,136201.2936116807
23672.01729679314,60537.4423310092,13896.660673220238,136210.48017865184
23685.964785333254,60564.51029354457,13894.447850519164,136236.98934757584
23679.39337246339,60570.500561058594,13913.1339088838,136241.9514348449
23669.78212234761,60543.70081945668,13915.391435073789,136218.19153048893
23695.911311615862,60535.11774958584,13907.769490214529,136209.36259142906
23717.346634548503,60544.55018574598,13902.338016311887,136213.6988298534
23725.795593952607,60570.25469186958,13899.119365110322,136232.94368182943
23731.919971933363,60577.429601839736,13903.075623878913,136236.2517400088
23710.618759467456,60548.6405549813,13905.534315768997,136205.67455359394
23713.30096880209,60532.48024374012,13911.099900138368,136191.36943714257
23725.214448596773,60543.00791537856,13911.971618172123,136200.82422504714
23714.26209381367,60568.01951742405,13914.922048440225,136221.92427181295
23732.7022829893,60573.6968605157,13922.52164155503,136225.61230964807
23719.961788649773,60545.64542122429,13922.208717132657,136201.405370403
23687.618814422945,60529.41805474974,13911.2340106051,136186.6979225514
23685.853026610974,60539.521043243534,13907.769490214529,136196.97972500083
23685.338936488504,60564.71145924467,13906.316626824932,136219.89026306753
23692.22327378074,60568.66771801325,13910.205830360155,136218.86208282257
23685.87537835543,60541.86797641135,13913.37977807281,136188.2848964077
23693.139695303405,60533.53077572952,13914.765586229038,136180.30532363718
23699.08525932852,60541.57740373343,13907.858897192347,136190.02833247522
23684.914253343853,60565.85139821189,13899.566399999429,136212.26831820823
23664.283593211603,60569.07004941345,13894.537257496984,136212.06715250816
23670.92206131483,60545.690124713205,13909.021187904023,136186.6532190625
23693.5420267036,60539.3422292879,13928.914240469248,136177.4443003469
23696.380698249424,60549.93695615971,13935.2397841501,136186.47440510683
23694.480799970723,60569.874712213845,13926.835528234904,136204.9592977714
23698.459410483767,60571.1487616478,13928.17663290222,136205.2051669604
23697.16300930536,60543.96904039014,13929.80831024746,136181.22174515986
23704.092050086507,60535.29656354148,13927.75194975757,136176.97491371335
23713.03274786863,60550.7416189601,13929.964772458648,136195.52686161123
23719.000663638195,60577.02727043954,13929.920068969735,136223.08656252464
23706.3942797654,60576.51318031707,13922.253420621566,136224.13709451404
23693.519674959145,60548.99818289259,13912.75392922806,136200.98068725833
23704.42732625333,60537.97877287612,13910.98814141609,136193.26933542127
23739.49721330371,60551.25570908257,13919.302990353464,136207.97678327284
23749.264925630683,60574.210950638175,13916.956057185658,136228.8533125941
23722.82281194005,60569.6958982582,13905.288446579989,136223.24302473583
23701.92393087434,60540.12454034383,13906.27192333602,136193.6940185659
23711.98221587923,60530.82621465042,13924.533298556007,136185.11094869507
23722.88986717342,60539.00695312106,13929.651848036272,136194.3422191551
23743.94521045032,60562.78920922151,13933.71986552714,136218.21388223337
23746.69447501832,60562.78920922151,13940.783016775014,136221.6560508795
23740.525393548654,60535.87770889732,13949.366086645852,136200.28778318022
23731.83056495554,60523.96422910265,13941.1406446863,136195.3480476556
23729.66244574337,60530.60269720587,13937.542013828996,136210.5025303963
23739.40780632589,60558.11769463035,13945.096903454889,136244.8124581352
23722.152259606395,60554.206139350674,13944.33694414341,136251.09329832712
23682.72378238723,60524.1877465472,13943.867557509848,136232.67546089596
23665.84821532348,60516.85637436585,13944.47105461014,136234.57535917466
23727.47197478676,60531.899098384274,13945.610993577362,136254.24489429532
23748.61672504148,60560.12935163133,13941.364162130852,136285.13500513256
23701.38748900741,60550.83102593792,13921.336999098898,136282.9668859204
23696.850084882983,60527.65226693777,13934.435121349708,136267.34301654613
23741.642980771423,60524.74654015858,13949.388438390308,136276.10490037262
23796.47180992029,60544.12550260133,13958.060915238968,136303.48578733037
23795.30951920861,60569.8970639583,13951.556557602473,136332.6324621001
23772.242518930736,60565.2479011116,13947.71205755616,136333.8394563007
23754.56228906659,60539.45398801017,13950.48367386862,136317.90266250406
23761.491329847733,60534.0895693409,13956.04925823799,136321.61305208362
23756.730408278752,60546.22656658013,13953.702325070182,136344.25536921684
23743.69934126131,60572.042831426006,13947.086208711413,136377.89474462208
23727.628436997944,60570.47820931414,13949.52254885704,136384.51086098087
23725.817945697065,60546.22656658013,13960.027868751034,136372.66443641955
23741.531222049147,60543.07497061193,13975.607034636383,136379.0793870782
23747.02975118515,60557.782418463525,13972.38838343482,136395.9996576309
23746.8062337406,60585.297415888,13968.610938621872,136428.58850104673
23746.69447501832,60584.358642620886,13977.506932915085,136431.76244875937
23753.93644022184,60558.832950452925,13976.76932534806,136412.38348631663
23752.550632065613,60548.908775914766,13961.748953074091,136409.47775953743
23745.84510872902,60560.95636617618,13948.628479078829,136428.27557662435
23741.598277282512,60583.48692458712,13951.467150624652,136454.94120775955
23731.539992277623,60579.37420360735,13953.52351111454,136458.49513512792
23717.100765359493,60556.01663065155,13943.33111564292,136441.59721631973
23713.010396124173,60544.93016540172,13942.481749353616,136439.51850408537
23724.4991927742,60557.76006671907,13948.740237801105,136459.79153630632
23729.01424515417,60583.68809028722,13940.693609797194,136490.68164714356
23741.37475983796,60581.92230247526,13937.273792895532,136494.59320242325
23773.024829986676,60558.31886033045,13942.593508075895,136478.3211324598
23776.13172246596,60553.42382829474,13943.465226109653,136479.5281266604
23757.065684445584,60567.50542730158,13935.977391717124,136498.81768212531
23754.83051000005,60593.54520959201,13927.439025335196,136529.66308947362
23740.74891099321,60588.35960487838,13926.790824745993,136530.0654208738
23722.152259606395,60565.09143890041,13944.828682521424,136516.3414497783
23751.61185879849,60561.33634583192,13953.009420992068,136522.30936554782
23785.452399903825,60578.390726851314,13967.113371743366,136546.0916216483
23761.06664670308,60597.41206138278,13957.613880349862,136572.10905219425
23740.301876104106,60594.97572123716,13958.61970885035,136574.76890978444
23733.998684167706,60569.047697669,13966.331060687431,136556.99927294246
23738.4019778254,60557.51419753006,13970.130857244832,136555.36759559723
23752.930611721356,60572.35575584838,13980.14443876081,136578.16637494165
23746.292143618124,60593.81343052548,13982.424316695253,136606.6872008666
23741.08418716004,60586.57146532196,13977.417525937264,136604.742599099
23742.98408543874,60563.19154062171,13970.220264222657,136585.94478201208
23745.241611628728,60554.98845040661,13963.157112974775,136579.59688658678
23753.623515799467,60564.51029354457,13954.708153570671,136586.05654073437
23764.33000139356,60589.34308163442,13950.86365352436,136608.07300902283
23752.774149510165,60583.75514552059,13946.102731955378,136598.3947036737
23742.53705054964,60554.98845040661,13939.844243507892,136568.75629052595
23751.522451820667,60548.975831148135,13936.066798694945,136563.39187185667
23765.22407117177,60567.214854623664,13938.413731862753,136577.16054644116
23772.82366428657,60595.33334914844,13938.346676629386,136599.35582868528
23756.97627746776,60587.10790718889,13921.024074676525,136587.26353493496
23735.518602790668,60559.34704057539,13913.1339088838,136559.70383402155
23737.50790804719,60556.44131379621,13919.75002524257,136556.5298863089
23731.87526844445,60573.920377960254,13913.737405984091,136570.79029927138
23730.53416377713,60604.18463995274,13931.641153292794,136601.0322095194
23718.330111304535,60596.62975032684,13937.921993484735,136595.95836352807
23705.813134409564,60569.67354651375,13930.769435259035,136578.4345958751
23708.02595711064,60566.61135752337,13941.073589452932,136582.6367238327
23710.43994551181,60577.49665707311,13946.23684242211,136598.3500001848
23711.713994945767,60603.93877076373,13950.796598290992,136625.88734935372
23707.02012861015,60596.76386079358,13958.306784427976,136621.1934830181
23708.763564677665,60568.93593894672,13960.653717595784,136599.17701472962
23715.89377115891,60562.67745049924,13963.492389141607,136591.6891803371
23721.48170727273,60577.80958149548,13972.723659601648,136605.21198573257
23718.21835258226,60604.94459926422,13974.221226480156,136630.6035674338
23725.39326255241,60600.18367769524,13968.253310710588,136624.9038725977
23709.67998620033,60577.78722975103,13965.414639164765,136603.2003287316
23718.12894560444,60569.33827034692,13963.805313563982,136594.95253502758
23733.5516492786,60579.46361058517,13963.604147863884,136603.22268047603
23715.513791503166,60602.88823877433,13957.725639072138,136623.31689874135
23737.26203885818,60601.390671895824,13964.073534497446,136622.5569394299
23767.816873528587,60578.65894778478,13965.369935675852,136604.92141305463
23730.42240505486,60570.56761629196,13953.881139025823,136598.97584902952
23718.397166537903,60584.0010147096,13937.318496384443,136608.56474740087
23746.76153025169,60608.14089872133,13937.720827784638,136631.54234070092
23761.916012992384,60602.5529626075,13937.631420806816,136627.22845402104
23764.06178046009,60581.18469490823,13936.80440626197,136605.3013927104
23760.977239725264,60574.92620646075,13926.924935212724,136597.61239261777
23751.500100076213,60591.64531131331,13927.439025335196,136608.20711948958
23744.436948828334,60610.845459800425,13914.98910367359,136620.92526208464
23736.97146618026,60601.81535504048,13916.0843391519,136608.96707880104
23722.82281194005,60577.56371230647,13911.569286771928,136581.22856393203
23721.302893317094,60573.51804656006,13918.587734530896,136574.12070919524
23725.795593952607,60592.91936074726,13925.315609611942,136590.75040706998
23749.019056441677,60625.105872762906,13935.2397841501,136618.3995149612
23714.53031474713,60608.47617488816,13934.815101005448,136597.70179959558
23702.102744829983,60582.86107574237,13939.084284196411,136570.70089229356
23708.182419321827,60576.42377333925,13932.66933353774,136562.54250556737
23714.440907769316,60593.74637529211,13932.646981793285,136576.46764236304
23713.52448624665,60619.85321281591,13937.89964174028,136596.85243330628
23730.82473645505,60610.33136967795,13945.968621488646,136582.41320638816
23742.31353310508,60592.87465725836,13960.251386195589,136563.97301721253
23735.138623134928,60591.42179386876,13954.037601237012,136563.0342439454
23757.691533290334,60603.26821843007,13940.313630141454,136571.14792718267
23763.435931615342,60624.70354136271,13936.312667883954,136586.32476166784
23749.17551865286,60617.059244759,13944.873386010337,136577.987560986
23749.80136749761,60592.53938109153,13942.101769697878,136555.99344444196
23758.585603068543,60587.33142463344,13938.011400462558,136548.6844240051
23747.253268629705,60599.513125361584,13924.980333445114,136555.21113338604
23730.131832376937,60619.4061779268,13908.149469870266,136567.99633121447
23704.762602420164,60607.67151208777,13907.27775183651,136550.20434262804
23697.40887849437,60584.80567750999,13917.671313008228,136524.05280161535
23698.526465717136,60579.46361058517,13909.915257682236,136513.92746137708
23720.92291366135,60600.09427071742,13905.46726053563,136523.89633940416
23717.793669437608,60620.412006427294,13901.958036656146,136538.3802698112
23702.48272448572,60607.00095975411,13903.120327367822,136522.0187928699
23694.83842788201,60585.07389844345,13912.172783872222,136497.27541175787
23694.83842788201,60587.13025893334,13920.04059792049,136496.98483907996
23688.6916981568,60603.35762540789,13914.27384785102,136508.89831887465
23710.93168388983,60629.86679433189,13919.124176397823,136530.35599355173
23726.287332330627,60617.79685232602,13925.047388678478,136512.1169700762
23710.998739123195,60590.79594502401,13909.51292628204,136481.0256935389
23709.38941352241,60589.43248861224,13908.060062892446,136479.3269609603
23707.713032688265,60605.43633764224,13916.821946718926,136495.53197569036
23716.229047325734,60632.660762388805,13926.61201079035,136521.90703414765
23709.41176526687,60623.98828554015,13924.46624332264,136513.3239642768
23705.656672198376,60594.77455553706,13910.697568738173,136484.4231586961
23733.953980678794,60594.5510380925,13914.89969669577,136482.45620518402
23726.62260849745,60607.6044568544,13902.1815541007,136492.29097274435
23724.968579407763,60631.00673329911,13897.063004620435,136508.29482177435
23722.84516368451,60620.23319247165,13902.47212677862,136491.35219947723
23725.236800341227,60599.736642806136,13915.056158906957,136469.64865561112
23743.83345172804,60601.122450962364,13915.547897284974,136472.0626440123
23752.863556487984,60619.74145409364,13913.536240283996,136490.43577795455
23739.206640625795,60639.992134570144,13916.017283918534,136506.64079268466
23710.32818678953,60626.44697743023,13908.104766381355,136490.43577795455
23696.44775348279,60601.189506195726,13912.239839105589,136464.88773404213
23710.26113155617,60603.022349241066,13923.371007844333,136462.29493168532
23714.68677695832,60620.07673026047,13925.784996245504,136476.0189027809
23700.42636399584,60635.67824789027,13915.257324607055,136488.53587967585
23686.07654405553,60625.41879718528,13919.772376987026,136478.3211324598
23681.5391399311,60602.53061086305,13926.701417768172,136456.61758859368
23681.44973295328,60600.921285262266,13925.874403223324,136451.43198388006
23676.286479984105,60618.84738431542,13921.80638573246,136468.12873698818
23657.26514545264,60640.14859678133,13917.716016497136,136487.75356861993
23659.90265129837,60625.15057625182,13921.292295609986,136470.49802190042
23698.660576183865,60604.36345390838,13929.338923613896,136444.88292275465
23706.34957627649,60604.78813705303,13931.32822887042,136438.46797209597
23722.196963095303,60617.12629999237,13919.459452564652,136446.49224835544
23720.18530609433,60635.27591649007,13915.70435949616,136457.3104926718
23684.57897717702,60625.597611140925,13933.384589360308,136441.86543725315
23652.817148306032,60607.38093940985,13932.334057370908,136421.43594282103
23702.527427974637,60607.71621557668,13928.981295702612,136418.1502363861
23755.858690245,60623.697712862224,13922.722807255126,136423.8052277333
23745.26396337318,60638.06988454699,13917.984237430604,136427.31445161276
23725.214448596773,60626.5587361525,13927.193156146188,136407.93548917002
23702.192151807805,60604.11758471937,13917.47014730813,136378.85586963367
23721.325245061547,60606.26335218708,13928.71307476915,136373.64791317558
23760.26198390269,60626.29051521904,13929.115406169343,136382.36509351316
23749.08611167504,60646.89882360683,13919.32534209792,136391.9986953734
23726.51084977518,60622.84834657292,13891.340958039877,136356.01238680034
23721.5487625061,60602.91059051879,13901.533353511497,136328.60914809813
23713.92681764684,60602.17298295176,13906.003702402557,136328.05035448677
23723.89569567391,60617.01454127009,13899.074661621413,136340.25440695934
23734.22220161226,60649.066942818994,13912.709225739149,136364.75191888236
23717.994835137702,60636.37115196839,13911.211658860644,136344.09890700565
23712.02691936814,60615.91930579177,13926.1873276457,136320.5178166053
23712.02691936814,60620.47906166066,13942.079417953422,136323.1329707066
23702.14744831889,60635.18650951225,13932.155243415267,136334.8229330567
23686.322413244536,60648.15052129633,13921.940496199191,136342.5342848938
23689.40695397937,60635.05239904552,13933.18342366021,136330.84432254368
23691.15039004688,60615.09229124693,13936.89381323979,136315.53337759178
23670.87735782592,60606.17394520926,13928.109577668856,136310.68304904498
23668.284555469105,60623.94358205123,13929.070702680434,136324.8764067741
23702.70624193028,60648.48579746316,13930.52356607003,136340.85790405964
23713.63624496892,60637.064056046496,13949.589604090406,136326.75395330836
23730.02007365466,60621.127262249865,13958.686764083715,136303.70930477494
23737.239687113728,60623.27302971757,13941.922955742237,136300.15537740654
23732.92580043385,60643.6131171719,13936.558537072962,136314.54990083576
23715.334977547525,60660.68984993576,13926.455548579162,136326.3739736526
23717.5478002486,60643.41195147181,13918.766548486536,136307.15147342105
23734.088091145528,60625.17292799628,13921.85108922137,136287.21371736692
23745.84510872902,60632.99603855563,13915.391435073789,136293.20398488094
23760.440797858337,60652.57616669848,13914.60912401785,136311.4653601009
23744.191079639328,60667.395373272346,13907.344807069876,136327.71507831992
23730.69062598832,60646.20591952872,13921.694627010183,136305.83272049818
23732.36700682247,60628.16806175328,13937.22908940662,136284.30799058772
23734.66923650137,60631.29730597703,13927.439025335196,136280.35173181913
23720.74409970571,60655.23602428866,13927.394321846286,136306.1232931761
23709.45646875578,60678.05715537753,13936.625592306327,136334.64411910108
23695.01724183765,60656.33125976697,13922.298124110475,136317.9250142485
23699.97932910673,60641.78027412657,13935.66446729475,136307.8220257547
23698.50411397268,60643.30019274953,13937.787883018003,136314.0805142022
23698.191189550304,60661.5168644806,13940.872423752837,136332.16307546652
23686.903558600374,60679.30885306703,13935.463301594653,136347.1834477405
23676.17472126183,60664.42259125979,13948.80729303447,136334.26413944532
23699.01820409515,60651.77150389809,13962.598319363397,136325.83753178568
23704.717898931256,60654.92309986629,13950.461322124163,136332.5207033778
23691.59742493599,60671.88807390787,13941.766493531048,136350.0891745197
23703.421497752846,60691.088222394974,13951.489502369108,136368.86463986215
23710.909332145373,60674.70439370923,13958.083266983424,136356.682939134
23700.739288418208,60654.67723067728,13953.1435314588,136334.75587782334
23692.26797726965,60658.49937897913,13944.627516821329,136334.64411910108
23719.402995038392,60679.68883272277,13919.2359351201,136351.25146523135
23729.01424515417,60701.63824577788,13938.905470240768,136371.88212536363
23737.329094091547,60687.891922937866,13962.687726341215,136361.37680546963
23732.724634733757,60667.28361455007,13950.550729101984,136343.3389476942
23720.40882353888,60667.73064943918,13942.705266798172,136345.55177039525
23732.79168996712,60688.76364097162,13939.173691174234,136369.19991602897
23724.78976545212,60704.09693766797,13924.935629956202,136385.44963424798
23706.52839023213,60684.89678918086,13924.622705533828,136365.0871950492
23697.811209894564,60664.51199823761,13943.778150532024,136347.8316483297
23707.489515243717,60669.54114074006,13951.735371558116,136360.28156999132
23716.78784093712,60696.18442013078,13944.2922406545,136389.2494308054
23717.592503737516,60717.7315017857,13949.075513967931,136406.9967159029
23702.88505588592,60694.44098406327,13952.76355180306,136382.20863130197
23685.115419043952,60676.38077454338,13940.984182475113,136363.14259328158
23677.515825929146,60676.894864665854,13928.444853835685,136362.02500605883
23692.6926604143,60699.51483005463,13941.252403408576,136387.2377738044
23695.218407537748,60718.04442620807,13959.781999562028,136411.71293398298
23682.522616687136,60699.24660912116,13958.95498501718,136396.0890646087
23679.616889907946,60676.0231466321,13941.252403408576,136373.55850619776
23670.13975025889,60681.47697227919,13954.819912292947,136384.51086098087
23669.335087458505,60702.30879811154,13954.931671015223,136408.91896592604
23679.95216607477,60714.24462965068,13927.32726661292,136420.0501346648
23688.334070245517,60696.698510253256,13943.37581913183,136406.5049775249
23681.047401553085,60675.68787046527,13936.89381323979,136389.62941046112
23685.696564399783,60675.10672510943,13936.938516728702,136393.67507620752
23686.970613833742,60695.84914396396,13935.440949850195,136417.457332308
23681.025049808628,60713.12704242791,13934.166900416243,136435.15991391658
23678.23108175172,60686.9755014152,13920.889964209791,136413.9928119174
23693.609081936967,60668.69177445076,13908.66355999274,136401.699352467
23705.20963730927,60673.22917857518,13915.100862395868,136406.5049775249
23702.05804134107,60696.00560617514,13913.04450190598,136430.55545455878
23686.14359928889,60712.94822847226,13916.777243230015,136448.2580361674
23663.724799600222,60693.3233968405,13918.967714186636,136428.20852139097
23669.335087458505,60679.46531527821,13913.1339088838,136413.72459098394
23675.481817183718,60684.29329208056,13924.354484600364,136417.41262881906
23690.41278247986,60707.76262375863,13929.674199780728,136437.70801278448
23709.50117224469,60725.01817047813,13933.317534126942,136451.7449083024
23700.35930876247,60705.34863535746,13930.992952703593,136432.88003598215
23681.092105042,60682.92983566879,13913.89386819528,136412.98698341692
23679.86275909695,60690.44002180577,13930.031827692012,136420.92185269855
23675.191244505797,60711.00362670465,13927.908411968758,136440.83725700824
23667.435189179803,60723.14062394389,13925.673237523228,136451.32022515775
23677.001735806676,60699.53718179908,13946.706229055671,136426.64389927912
23673.15723576036,60683.22040834671,13939.196042918687,136415.53508228483
23651.67720933881,60685.03089964759,13926.097920667878,136425.48160856744
23639.674322566312,60707.315588869526,13918.23010661961,136447.98981523394
23669.96093630325,60728.21446993524,13918.967714186636,136464.57480961978
23693.78789589261,60709.26019063714,13916.553725785465,136445.7546407884
23686.724744644733,60691.06587065052,13923.728635755617,136435.33872787224
23679.773352119133,60687.467239793215,13910.1834786157,136434.66817553857
23686.16595103335,60706.80149874705,13916.397263574276,136454.06948972578
23670.16210200335,60719.13966168639,13922.789862488493,136471.8167748233
23641.574220845014,60696.83262071999,13932.46816783764,136454.6059315927
23634.376959130404,60676.40312628784,13926.299086367975,136437.66330929557
23664.328296700514,60681.43226879028,13925.762644501048,136451.83431528026
23678.745171874187,60707.13677491388,13925.42736833422,136483.03735053985
23664.26124146715,60716.07747269601,13923.460414822152,136493.9673535785
23642.20006968976,60691.84818170645,13910.27288559352,136472.8226033238
23658.472139653222,60675.509056509625,13919.302990353464,136457.53401011636
23692.938529603307,60683.66744323581,13915.99493217408,136463.63603635266
23700.113439573463,60706.9803127027,13916.441967063183,136490.39107446565
23698.77233490614,60721.77716753211,13920.979371187614,136506.55138570684
23677.44877069578,60699.15720214334,13914.47501355112,136485.98778080795
23674.72185787223,60681.320510068006,13916.777243230015,136473.20258297952
23683.461389954256,60685.63439674788,13917.403092074765,136481.58448715025
23678.63341315191,60710.19896390426,13915.570249029428,136504.0703420723
23704.4943814867,60727.05217922356,13923.572173544428,136518.0178306124
23726.287332330627,60709.79663250407,13930.769435259035,136505.54555720635
23702.14744831889,60686.282597337085,13928.064874179943,136487.75356861993
23694.905483115373,60691.93758868428,13928.109577668856,136493.69913264504
23708.562398977567,60719.407882619846,13928.891888724793,136522.1752550811
23719.13477410493,60728.41563563533,13923.371007844333,136532.5688162528
23716.586675237024,60703.13581265639,13925.89675496778,136512.78752240987
23698.28059652813,60682.03576589058,13903.366196556832,136502.48336821597
23700.985157607214,60692.6751962513,13922.387531088298,136522.13055159218
23718.285407815627,60718.37970237491,13916.620781018828,136551.45604031754
23729.7518527212,60729.15324320236,13923.99685668908,136572.62314231673
23713.703300202287,60703.71695801222,13921.784033988004,136554.94291245256
23719.91708516086,60691.55760902853,13926.410845090251,136548.6397205162
23724.946227663306,60697.79374573157,13921.962847943649,136562.31898812283
23722.04050088412,60717.06094945204,13911.010493160546,136589.9457442696
23725.057986385586,60730.27083042513,13918.498327553074,136611.76104685798
23699.01820409515,60704.163992901325,13918.163051386244,136590.75040706998
23687.23883476721,60687.891922937866,13913.022150161523,136579.90981100916
23716.117288603466,60690.75294622815,13928.131929413312,136589.8339855473
23739.94424819282,60711.56242031603,13915.99493217408,136613.97386955903
23732.992855667217,60724.07939721101,13908.618856503828,136628.41309647716
23714.016224624665,60709.99779820417,13924.332132855909,136622.37812547424
23703.73442217522,60693.5245625406,13928.46720558014,136615.002049804
23711.155201334383,60701.14650739986,13931.149414914778,136626.31203249836
23728.34369282052,60724.2805629111,13933.362237615853,136654.51993400097
23731.987027166728,60736.93165027281,13933.876327738326,136673.78713772143
23727.56138176458,60715.58573431799,13932.71403702665,136660.04081488145
23720.36412004997,60701.14650739986,13937.564365573451,136651.39068977724
23753.623515799467,60714.11051918394,13942.392342375795,136668.24390509652
23779.10450447852,60741.26788869714,13940.537147586008,136700.25160315653
23765.782864783152,60747.95106028928,13950.729543057629,136708.63350732726
23760.73137053625,60725.3310949005,13969.840284566912,136688.4722338286
23759.70319029131,60709.10372842595,13954.99872624859,136679.84446046883
23769.87323401848,60713.462318594735,13971.71783110116,136690.72976001856
23769.31444040709,60734.91999327183,13967.2474822101,136716.41191439773
23759.70319029131,60748.0404672671,13958.329136172431,136731.38758318278
23745.912163962385,60725.95694374525,13976.67991837024,136712.47800737355
23737.954942936296,60714.93753372879,13980.14443876081,136705.83953927035
23737.84318421402,60718.91614424183,13965.325232186942,136712.85798702933
23747.4544343298,60740.77615031912,13969.728525844635,136742.20582749913
23750.94130646483,60750.05212426808,13966.487522898618,136757.00268232854
23746.672123273867,60731.14254845888,13981.418488194764,136745.6256444008
23744.83928022853,60721.06191170954,13989.465116198671,136740.283577476
23750.494271575724,60725.95694374525,13983.273682984554,136748.66548164672
23773.00247824222,60750.45445566827,13972.924825301749,136772.73831042508
23776.377591654968,60758.25521448317,13971.33785144542,136778.84033666138
23739.363102836985,60730.33788565849,13952.160054702768,136754.8792666053
23734.825698712557,60719.49728959767,13952.920014014247,136746.45265894564
23772.98012649776,60733.55653686006,13971.494313656607,136762.70237716465
23770.543786352133,60755.908281315365,13955.33400241542,136787.11048210986
23744.682818017343,60765.43012445333,13968.834456066425,136795.91706942525
23724.298027074103,60743.056028253566,13963.961775775168,136774.92878138172
23740.659504015388,60729.82379553602,13955.110484970866,136770.52548772402
23769.828530529565,60741.37964741942,13967.158075232275,136789.4797670221
23771.817835786085,60766.592415165,13958.507950128074,136815.02781093452
23749.041408186127,60774.81785712455,13960.586662362415,136823.9908604611
23732.992855667217,60750.90149055738,13952.964717503157,136802.26496485056
23733.5516492786,60736.37285666142,13946.102731955378,136790.41854028925
23739.631323770445,60740.954964274766,13942.414694120253,136793.74895021308
23757.535071079143,60766.34654597599,13953.05412448098,136820.43693309271
23760.865481002988,60779.37761299344,13956.205720449178,136831.67986055373
23739.206640625795,60747.45932191126,13929.71890326964,136801.01326716106
23705.321396031548,60723.40884487735,13911.301065838465,136782.9307058967
23700.44871574029,60733.86946128243,13937.564365573451,136799.4262933047
23722.57694275105,60761.4962174292,13932.982257960111,136830.36110763086
23728.43309979833,60771.39804022289,13933.295182382488,136839.0112327351
23755.27754488916,60752.197891735785,13956.295127426998,136821.12983717085
23750.851899487006,60741.89373754189,13955.691630326704,136819.3416976144
23734.848050457007,60747.74989458918,13947.577947089429,136833.33388964343
23726.55555326409,60773.36499373496,13944.359295887863,136860.58066613445
23744.951038950807,60785.81491539656,13944.04637146549,136869.72252961667
23757.825643757064,60766.97239482074,13943.28641215401,136849.18127646224
23759.546728080124,60762.16676976285,13953.031772736524,136844.48741012663
23753.22118439927,60777.164790292365,13957.300955927489,136859.82070682297
23768.330963651057,60805.37269179496,13956.026906493536,136883.73707339013
23786.54763538213,60815.60979075549,13958.172673961244,136889.59323043743
23762.161882181397,60795.80614516808,13958.95498501718,136869.6554743833
23739.89954470391,60781.79160139461,13943.37581913183,136859.21720972267
23742.469995316267,60791.67107244385,13956.071609982446,136870.7060063727
23792.113219751503,60823.432901314845,13974.847075324902,136901.32789627646
23812.00627231673,60834.31820086458,13970.555540389483,136912.8166929265
23795.644795375443,60812.458194787294,13974.176522991243,136894.33180026195
23779.439780645345,60801.81876442656,13973.550674146496,136886.2181170247
23779.037449245152,60810.6029999975,13974.221226480156,136895.98582935164
23792.76142034071,60836.39691309893,13969.05797351098,136916.92941390627
23791.777943584675,60845.9634597258,13969.125028744344,136925.6689459883
23784.781847570164,60826.27157286067,13974.400040435798,136908.18988182425
23778.590414356044,60813.32991282105,13968.56623513296,136895.7176084182
23792.739068596253,60825.51161354919,13954.775208804038,136904.45714050022
23794.013118030205,60851.260823161705,13966.085191498423,136923.85845468743
23776.26583293269,60856.5134831087,13992.19202902222,136926.58536751097
23774.90237652092,60832.32889560806,13978.378650948842,136899.2715357866
23787.12878073797,60828.03736067264,13990.716813888172,136891.00139033812
23799.89162682195,60839.34734336702,13984.19010450722,136897.3716375079
23803.780830357176,60867.555244869625,13978.177485248743,136918.13640810686
