 EXG Channel 0, EXG Channel 1, EXG Channel 2, EXG Channel 3
9978.01989054917,43022.74948629731,-19046.30143002289,-10527.22460356052
9971.269663723668,43005.24807038881,-19051.30822078088,-10526.866975649236
9973.102506769004,43003.32582036565,-19042.166357298654,-10520.541431968384
9978.712794627285,43009.67371579096,-19038.36656074125,-10521.346094768774
9989.195762776824,43019.57553858466,-19036.4443107181,-10524.698856437071
9986.334739486543,43020.49196010733,-19041.80872938737,-10525.07883609281
9983.607826662996,43012.26651814777,-19049.609488202277,-10517.166318555632
9984.032509807648,43008.936108223934,-19047.620182945757,-10512.27128651992
9983.294902240625,43011.5512623252,-19046.23437478952,-10518.976809856513
9990.290998255134,43026.348117154615,-19040.28881076441,-10525.41411225964
9984.2560272522,43023.956480497895,-19047.73194166803,-10531.382028029208
9980.031547550148,43014.52404433776,-19049.58713645782,-10523.760083169947
9982.266721995678,43011.730076280845,-19042.233412532023,-10518.015684844931
9985.26185575269,43019.57553858466,-19037.18191828512,-10521.681370935605
9983.317253985078,43034.88648353655,-19034.611467672763,-10521.41315000214
9987.049995309117,43043.60366387411,-19038.05363631888,-10521.74842616897
9986.804126120109,43037.47928589336,-19039.41709273065,-10521.99429535798
9989.888666854938,43030.9078730235,-19034.27619150593,-10520.809652901848
9985.26185575269,43032.49484687983,-19033.20330777208,-10530.17503382862
9991.11801279998,43049.16924824348,-19029.40351121468,-10530.063275106344
9988.50285869871,43049.52687615477,-19037.070159562845,-10530.599716973273
9981.93144582885,43037.88161729356,-19044.17801429964,-10529.41507451714
9981.26089349519,43030.550245112216,-19035.95257234008,-10527.17990007161
9980.858562094994,43033.88065503605,-19031.12459553773,-10533.0360571189
9989.061652310093,43047.89519880953,-19024.66494139015,-10534.55597574186
9988.16758253188,43050.55505639971,-19024.821403601338,-10535.695914709082
9980.07625103906,43034.61826260308,-19032.845679860795,-10535.695914709082
9973.482486424744,43023.822370031165,-19037.24897351849,-10533.728961197015
9973.706003869296,43025.99048924333,-19033.449176961087,-10536.187653087098
9977.21522774878,43032.45014339092,-19029.98465657052,-10542.55790025686
9979.852733594504,43034.66296609199,-19034.94674383959,-10541.775589200925
9978.891608582928,43025.40934388749,-19041.249935775988,-10534.55597574186
9972.096678268514,43016.02161121626,-19051.934069625622,-10539.585118244306
9975.538846914633,43020.42490487396,-19049.31891552436,-10538.981621144012
9986.82647786456,43033.70184108041,-19043.37335149924,-10540.61329848925
9984.367785974478,43034.99824225882,-19047.68723817912,-10544.27898457992
9967.894550310915,43015.46281760488,-19057.16437782817,-10542.736714212504
9965.860541565484,43002.40939884298,-19064.071066864857,-10550.023382904934
9973.147210257914,43003.03524768773,-19061.00887787448,-10549.732810227017
9977.997538804717,43012.49003559232,-19057.030267361435,-10549.33047882682
9980.009195805693,43016.53570133873,-19058.52783423994,-10550.157493371666
9973.549541658109,43005.22571864435,-19063.15464534219,-10550.425714305127
9973.080155024549,42997.38025634054,-19062.55114824189,-10547.765856714948
9974.26479748068,43001.56003255368,-19058.840758662314,-10545.195406102588
9969.392117189422,43011.68537279194,-19056.180901072134,-10546.9388421701
9979.45040219431,43017.72034379487,-19059.690124951616,-10548.32465032633
9980.143306272425,43008.46672159037,-19062.998183131003,-10546.64826949218
9980.031547550148,43000.26363137528,-19060.07010460736,-10541.954403156567
9980.009195805693,43003.616393043565,-19058.19255807311,-10543.630783990717
9987.005291820204,43017.74269553933,-19057.365543528264,-10545.41892354714
9994.224905279269,43030.99728000132,-19057.834930161825,-10545.351868313774
9987.720547642772,43023.26357641978,-19062.037058119426,-10535.22652807552
9976.768192859674,43011.3500966251,-19069.122561111755,-10535.762969942449
9974.667128880874,43011.394800114016,-19072.20710184659,-10544.70366772457
9974.443611436322,43023.73296305334,-19067.87086342226,-10550.157493371666
9987.11705054248,43044.49773365232,-19061.210043574574,-10549.218720104542
9990.469812210777,43044.6094923746,-19064.875729665247,-10539.60746998876
9979.83038185005,43033.70184108041,-19072.65413673569,-10541.954403156567
9979.4056987054,43037.79221031573,-19070.70953496808,-10542.803769445867
9989.151059287911,43055.07010877968,-19063.042886619914,-10541.909699667656
9995.387195990945,43075.90193461203,-19062.126465097244,-10541.32855431182
9989.26281801019,43073.21972527739,-19073.168226858168,-10540.345077555785
9982.154963273402,43062.692053638944,-19077.01272690448,-10544.949536913578
9985.038338308135,43067.587085674655,-19068.966098900568,-10545.41892354714
9991.140364544435,43080.39463524755,-19062.55114824189,-10543.630783990717
9995.543658202132,43093.00101912034,-19061.23239531903,-10545.977717158525
9993.733166901253,43089.84942315214,-19066.932090155136,-10541.283850822909
9990.40275697741,43079.58997244716,-19062.841720919816,-10537.484054265506
9982.043204551126,43072.75033864383,-19060.96417438557,-10547.363525314751
9991.922675600372,43078.83001313568,-19054.41511326017,-10548.145836370688
9992.973207589772,43088.10598708463,-19052.42580800364,-10550.068086393843
9981.283245239643,43077.31009451272,-19064.875729665247,-10551.297432338886
9973.102506769004,43064.77076587329,-19067.133255855235,-10545.530682269417
9977.125820770958,43062.222667005386,-19060.83006391884,-10543.94370841309
9986.491201697732,43069.8669636091,-19060.71830519656,-10544.860129935758
9986.222980764269,43082.04866433724,-19060.472436007552,-10550.313955582851
9979.36099521649,43075.36549274511,-19065.278061065444,-10542.893176423691
9977.39404170442,43062.33442572766,-19070.843645434816,-10537.171129843133
9972.588416646531,43060.25571349332,-19067.982622144536,-10540.725057211526
9979.629216149951,43066.87182985208,-19063.06523836437,-10538.0875513658
9988.569913932077,43081.31105677022,-19061.05358136339,-10542.289679323398
9984.188972018836,43081.10989107012,-19066.82033143286,-10545.173054358133
9979.45040219431,43067.7658996303,-19067.937918655625,-10544.591909002294
9979.182181260849,43060.88156233807,-19061.522967996956,-10544.502502024472
9984.770117374674,43063.83199260617,-19056.15854932768,-10551.47624629453
9986.357091231,43071.74451014334,-19055.890328394216,-10553.84553120679
9973.236617235734,43062.93792282795,-19062.260575563974,-10554.672545751637
9969.16859974487,43043.38014642956,-19062.998183131003,-10556.728906241526
9973.415431191375,43037.97102427138,-19056.58323247233,-10558.874673709235
9978.44457369382,43040.04973650572,-19055.175072571645,-10559.209949876064
9983.049033051617,43043.80482957421,-19058.63959296222,-10570.408173848173
9981.819687106572,43036.56286437069,-19064.11577035377,-10575.660833795171
9971.78375384614,43016.73686703883,-19064.74161919852,-10567.480095324529
9968.967434044773,43007.77381751226,-19059.01957261796,-10568.128295913732
9967.961605544282,43006.11978842256,-19062.394686030708,-10575.258502394976
9965.569968887565,43010.59013731362,-19071.11186636828,-10582.0981361983
9959.69146009582,43004.68927677743,-19079.382011816742,-10577.158400673676
9961.233730463236,42989.914773692464,-19076.36452631528,-10562.115676655254
9962.373669430455,42982.2481253443,-19071.983584402034,-10562.361545844264
9960.11614324047,42985.26561084576,-19071.380087301743,-10569.983490703522
9967.514570655176,42996.82146272915,-19071.313032068378,-10573.962101216568
9970.017966034173,42994.76510223927,-19075.69397398162,-10571.838685493312
9964.87706480945,42979.07417763164,-19080.83487520634,-10566.720136013048
9956.606919360986,42972.68157871742,-19078.46559029408,-10569.156476158676
9967.2016462328,42978.0907008756,-19069.77076170096,-10574.230322150031
9978.109297526991,42990.18299462593,-19060.80771217438,-10578.723022785549
9975.11416376998,42989.423035314445,-19064.048715120403,-10577.985415218523
9971.31436721258,42977.73307296432,-19064.71926745406,-10572.66570003816
9969.503875911698,42972.63687522851,-19061.455912763588,-10573.179790160631
9969.97326254526,42975.00616014077,-19062.43938951962,-10579.32651988584
9971.87316082396,42984.50565153428,-19062.193520330613,-10581.0476042089
9969.97326254526,42979.99059915431,-19065.99331688801,-10581.673453053649
9963.334794442031,42968.43474727091,-19065.188654087626,-10575.549075072897
9974.220093991767,42969.82055542714,-19055.845624905305,-10568.75414475848
9981.864390595483,42976.995465397296,-19049.855357391283,-10564.909644712168
9981.573817917564,42985.82440445714,-19046.41318874517,-10568.508275569471
9977.103469026502,42989.46773880336,-19052.42580800364,-10571.793982004405
9962.820704319562,42978.40362529798,-19064.071066864857,-10570.363470359263
9962.59718687501,42976.97311365284,-19060.42773251864,-10565.200217390087
9970.241483478723,42982.78456721122,-19054.795092915905,-10567.413040091162
9981.864390595483,42998.2966778632,-19051.30822078088,-10569.648214536694
9979.696271383318,43007.01385820077,-19056.896156894705,-10568.262406380463
9968.945082300315,42994.87686096154,-19066.3509447993,-10564.529665056429
9962.798352575106,42985.35501782358,-19066.596813988308,-10558.874673709235
9966.82166657706,42991.72526499334,-19061.61237497477,-10560.95338594358
9975.87412308146,43010.52308208026,-19054.45981674908,-10563.590891789305
9978.869256838472,43022.95065199741,-19060.87476740775,-10562.160380144163
9972.856637579996,43016.49099784983,-19066.50740701049,-10555.1419323852
9975.203570747804,43015.59692807161,-19058.52783423994,-10552.66088875066
9969.68268986734,43014.74756178231,-19059.66777320716,-10558.919377198146
9976.321157970568,43025.74462005432,-19057.253784805987,-10563.680298767124
9976.745841115218,43035.02059400328,-19059.66777320716,-10565.982528446022
9968.520399155665,43022.92830025296,-19066.485055266032,-10565.088458667811
9956.785733316628,43007.90792797899,-19071.380087301743,-10570.005842447978
9958.73033508424,43009.159625668486,-19068.36260180028,-10576.733717529023
9969.526227656152,43021.31897465217,-19063.86990116476,-10572.28572038242
9972.409602690888,43033.545378869225,-19064.182825587133,-10574.14091517221
9971.515532912676,43029.52206486727,-19068.519064011463,-10571.548112815395
9971.426125934857,43026.54928285472,-19065.16630234317,-10564.552016800882
9974.711832369783,43033.053640491205,-19062.394686030708,-10566.362508101764
9983.11608828498,43048.38693718755,-19062.17116858616,-10571.90574072668
9984.636006907942,43063.49671643934,-19062.86407266427,-10574.923226228146
9979.003367305204,43063.74258562834,-19072.229453591044,-10573.269197138454
9975.605902147998,43060.36747221559,-19079.002032161003,-10570.028194192431
9983.49606794072,43065.0613385512,-19072.54237801342,-10568.888255225213
9984.2560272522,43076.6171904346,-19063.556976742384,-10566.653080779684
9979.74097487223,43081.28870502576,-19064.78632268743,-10569.961138959068
9980.724451628264,43071.1186612986,-19065.00984013198,-10563.076801666832
9979.696271383318,43061.82033560519,-19064.71926745406,-10559.835798720813
9974.980053303248,43060.590989660144,-19067.736752955527,-10563.032098177922
9984.92657958586,43072.10213805463,-19059.06427610687,-10560.729868499026
9988.391099976434,43082.00396084833,-19055.10801733828,-10562.76387724446
9979.271588238667,43077.08657706816,-19057.365543528264,-10557.242996363995
9973.415431191375,43072.19154503245,-19059.55601448489,-10554.493731795996
9974.778887603152,43067.81060311921,-19059.31014529588,-10558.829970220324
9984.703062141309,43082.02631259279,-19056.53852898342,-10554.918414940646
9986.73707088674,43093.0233708648,-19061.65707846369,-10559.90285395418
9979.182181260849,43085.08850158316,-19071.178921601644,-10563.881464467224
9974.041280036126,43076.751300901335,-19076.20806410409,-10565.311976112363
9980.299768483612,43077.33244625717,-19071.71536346857,-10564.306147611876
9988.949893587816,43082.898030626544,-19063.445218020108,-10559.545226042894
9991.699158155818,43087.52484172879,-19059.265441806965,-10560.014612676456
9983.36195747399,43069.8669636091,-19069.54724425641,-10559.768743487448
9972.074326524058,43044.65419586351,-19072.117694868768,-10556.080705652324
9973.080155024549,43039.08861149414,-19062.327630797343,-10552.37031607274
9971.716698612774,43042.39666967352,-19057.16437782817,-10556.37127833024
9986.93823658684,43048.34223369864,-19056.73969468352,-10560.349888843286
9982.132611528948,43039.26742544978,-19063.176997086644,-10556.70655449707
9975.225922492256,43025.61050958759,-19063.22170057556,-10551.029211405425
9978.712794627285,43026.14695145452,-19058.1478545842,-10545.195406102588
9980.746803372718,43030.01380324529,-19055.845624905305,-10546.13417936971
9979.584512661042,43033.67948933596,-19058.1478545842,-10555.208987618566
9978.131649271449,43029.90204452301,-19062.05940986388,-10550.604528260772
9976.611730648488,43017.51917809477,-19061.43356101913,-10542.312031067851
9979.293939983125,43014.00995421529,-19053.230470804032,-10543.854301435267
9984.032509807648,43020.76018104079,-19051.844662647803,-10553.376144573229
9985.440669708332,43027.13042821055,-19056.024438860943,-10558.76291498696
9978.22105624927,43016.64746006101,-19068.183787844635,-10562.875635966737
9973.750707358207,43002.67761977645,-19072.38591580223,-10556.483037052518
9975.561198659088,43001.15770115348,-19065.45687502109,-10553.689068995604
9971.537884657131,43005.65040178901,-19063.24405232001,-10560.439295821106
9981.104431284002,43018.14502693952,-19058.304316795387,-10559.098191153787
9986.088870297535,43015.90985249398,-19057.030267361435,-10553.84553120679
9975.11416376998,42998.47549181885,-19060.87476740775,-10557.198292875088
9971.247311979212,42992.28405860472,-19067.58029074434,-10564.060278422869
9976.87995158195,42998.34138135212,-19064.96513664307,-10564.596720289794
9982.31142548459,43010.18780591343,-19060.42773251864,-10561.735696999514
9978.869256838472,43006.74563726731,-19063.825197675847,-10561.623938277238
9973.706003869296,42995.9497446954,-19067.222662833057,-10554.024345162434
9983.987806318735,42995.99444818431,-19065.926261654648,-10553.599662017785
9980.992672561726,43002.163529653975,-19068.697877967104,-10556.147760885688
9986.044166808626,43016.31218389418,-19064.875729665247,-10558.807618475868
9989.01694882118,43017.69799205041,-19069.1002093673,-10563.009746433469
9977.014062048682,43005.60569830009,-19073.01176464698,-10560.863978965755
9971.44847767931,43001.94001220942,-19069.524892511952,-10562.450952822084
9977.058765537591,43005.80686400019,-19067.960270400083,-10566.27310112394
9982.378480717956,43019.44142811793,-19068.67552622265,-10573.023327949444
9985.999463319717,43023.42003863097,-19067.49088376652,-10568.441220336106
9978.958663816293,43016.87097750557,-19071.33538381283,-10566.407211590673
9969.414468933875,43015.79809377171,-19077.41505830468,-10578.611264063273
9977.125820770958,43024.44821887592,-19071.33538381283,-10579.32651988584
9989.776908132662,43047.1128877536,-19064.00401163149,-10585.51795309996
9987.675844153864,43057.01471054729,-19069.144912856213,-10591.128240958244
9975.82941959255,43048.85632382111,-19080.14197112822,-10591.016482235967
9976.142344014925,43048.431640676456,-19077.213892604577,-10593.274008425951
9978.846905094017,43053.43843143445,-19071.134218112733,-10597.163211961177
9986.02181506417,43068.8164316197,-19065.188654087626,-10598.839592795324
9985.105393541502,43067.49767869683,-19067.87086342226,-10596.872639283258
9982.579646418051,43053.0137482898,-19075.0010699035,-10594.078671226343
9977.483448682244,43045.32474819717,-19073.883482680736,-10594.212781693075
9978.511628927186,43049.88450406605,-19071.223625090555,-10591.57527584735
9995.387195990945,43065.37426297358,-19064.831026176336,-10592.156421203188
9993.93433260135,43068.212934519404,-19066.61916573276,-10596.783232305435
9984.524248185666,43057.729966369865,-19070.575424501352,-10590.792964791412
9977.39404170442,43046.79996333122,-19069.1002093673,-10589.47421186855
9982.02085280667,43049.19159998794,-19063.802845931397,-10590.412985135674
9988.435803465343,43058.69109138144,-19060.67360170765,-10590.52474385795
9990.31334999959,43063.74258562834,-19061.210043574574,-10586.032043222433
9982.93727432934,43052.343195956135,-19062.260575563974,-10581.852267009292
9981.752631873209,43042.7095940959,-19061.165340085667,-10578.231284407531
9982.244370251225,43040.83204756166,-19060.695953452105,-10579.393575119208
9986.670015653375,43051.04679477773,-19056.829101661337,-10581.740508287014
9982.44553595132,43053.23726573435,-19061.5006162525,-10587.171982189651
9969.615634633976,43036.74167832633,-19072.20710184659,-10584.802697277391
9969.68268986734,43028.67269857797,-19070.843645434816,-10578.432450107628
9971.426125934857,43029.67852707845,-19068.92139541166,-10586.032043222433
9978.131649271449,43041.32378593967,-19063.1993488311,-10588.446031623607
9981.640873150933,43048.58810288765,-19063.132293597733,-10591.463517125072
9973.035451535638,43034.394745158526,-19069.43548553413,-10589.451860124096
9973.706003869296,43028.78445730024,-19068.183787844635,-10589.8988950132
9978.69044288283,43035.17705621446,-19062.70761045308,-10592.826973536849
9985.038338308135,43047.314053453694,-19052.71638068156,-10596.492659627516
9989.21811452128,43059.696919881935,-19052.604621959286,-10603.57816261985
9983.898399340917,43056.23239949136,-19058.706648195584,-10600.270104440464
9976.388213203933,43045.637672619545,-19059.690124951616,-10602.795851563911
9975.82941959255,43046.3082249532,-19060.87476740775,-10611.24481096802
9984.434841207843,43060.54628617124,-19055.622107460757,-10610.462499912084
9996.013044835692,43079.32175151369,-19050.972944614048,-10609.322560944864
9985.574780175064,43069.37522523108,-19062.1488168417,-10610.104872000798
9977.349338215512,43055.58419890216,-19065.836854676825,-10610.395444678716
9984.568951674575,43054.33250121266,-19060.53949124092,-10609.479023156053
9991.475640711264,43064.70371063992,-19054.37040977125,-10606.707406843592
9992.973207589772,43069.03994906425,-19060.763008685477,-10608.38378767774
9983.183143518349,43058.35581521461,-19067.80380818889,-10612.34004644633
9973.706003869296,43047.00112903132,-19065.45687502109,-10612.407101679695
9974.82359109206,43043.15662898501,-19062.43938951962,-10617.257430226497
9980.478582439257,43048.18577148745,-19060.740656941016,-10625.0581890414
9985.351262730512,43054.95835005741,-19061.61237497477,-10620.29726747242
9973.862466080484,43038.73098358286,-19067.848511677803,-10614.57522089186
9968.4533439223,43024.89525376502,-19067.62499423325,-10609.590781878327
9968.92273055586,43024.22470143136,-19064.40634303169,-10611.647142368216
9972.16373350188,43034.19357945843,-19059.01957261796,-10613.748206347014
9979.49510568322,43043.35779468511,-19058.05844760638,-10614.396406936215
9967.939253799826,43027.73392531085,-19066.39564828821,-10611.602438879305
9963.580663631044,43014.97107922687,-19070.48601752353,-10608.070863255363
9961.524303141154,43011.48420709184,-19072.63178499124,-10609.791947578424
9967.44751542181,43022.28009966375,-19070.620127990263,-10611.356569690295
9977.68461438234,43036.94284402643,-19069.994279145518,-10609.300209200408
9965.838189821028,43038.7086318384,-19074.308165825387,-10604.159307975688
9962.06074500808,43031.66783233498,-19073.659965236184,-10602.415871908172
9971.694346868318,43036.27229169277,-19064.62986047624,-10602.751148075004
9982.534942929142,43049.77274534378,-19057.45495050609,-10606.170964976664
9979.74097487223,43057.8640768366,-19059.44425576261,-10611.267162712476
9973.638948635931,43053.37137620108,-19065.903909910197,-10605.165136476176
9970.979091045749,43045.16828598599,-19065.121598854257,-10599.443089895618
9974.957701558793,43042.82135281817,-19059.935994140626,-10602.19235446362
9976.209399248291,43050.13037325506,-19055.823273160848,-10609.34491268932
9986.334739486543,43062.08855653865,-19049.52008122445,-10607.355607432795
9983.384309218443,43055.204219246414,-19054.95155512709,-10605.589819620827
9968.2521782222,43039.24507370533,-19062.260575563974,-10612.742377846524
9965.458210165289,43033.94771026942,-19060.941822641114,-10617.615058137782
9977.796373104617,43043.22368421837,-19051.889366136715,-10615.782215092448
9985.775945875164,43055.986530302354,-19047.843700390305,-10621.683075628647
9980.188009761336,43051.3150157112,-19055.018610360457,-10620.29726747242
9965.927596798849,43037.03225100425,-19060.986526130026,-10618.643238382729
9968.565102644576,43030.99728000132,-19061.65707846369,-10624.030008796455
9980.612692905986,43039.66975684998,-19059.6007179738,-10623.694732629623
9983.294902240625,43048.431640676456,-19061.947651141603,-10628.567412920882
9972.588416646531,43036.51816088178,-19074.375221058755,-10632.635430411749
9972.74487885772,43018.32384089516,-19079.2031978611,-10632.97070657858
9960.898454296404,43008.35496286809,-19081.460724051085,-10635.608212424304
9978.466925438275,43013.71938153737,-19072.38591580223,-10635.563508935396
9987.49703019822,43027.73392531085,-19068.139084355724,-10635.161177535198
9979.293939983125,43019.642593818025,-19074.73284897004,-10637.016372324988
9968.54275090012,43000.71066626438,-19077.571520515863,-10638.737456648048
9968.654509622396,42996.30737260668,-19072.564729757876,-10635.92113684668
9972.901341068906,42998.52019530776,-19069.033154133936,-10639.63152642626
9985.3065592416,43011.57361406966,-19065.70274421009,-10642.313735760896
9982.154963273402,43008.75729426829,-19070.754238456997,-10644.347744506327
9971.515532912676,42994.92156445045,-19074.57638675885,-10643.587785194848
9974.30950096959,42992.149948138,-19073.68231698064,-10640.704410160117
9982.043204551126,42998.58725054112,-19069.368430300765,-10639.810340381902
9988.055823809604,43010.5007303358,-19067.78145644444,-10643.096046816832
9981.59616966202,43008.42201810146,-19080.432543806142,-10648.572224208385
9973.750707358207,42992.12759639354,-19089.39559333272,-10648.30400327492
9970.174428245358,42986.562012024166,-19087.96508168758,-10655.836541156355
9975.44943993681,42993.71457024987,-19081.01368916198,-10659.904558647224
9976.49997192621,43002.96819245436,-19075.69397398162,-10660.06102085841
9971.694346868318,43004.13048316604,-19081.170151373168,-10660.373945280784
9968.430992177844,42993.89338420551,-19083.941767685625,-10658.094067346345
9974.220093991767,42994.20630862789,-19077.86209319378,-10653.467256244096
9975.158867258891,42999.928355208445,-19077.43741004913,-10657.959956879611
9980.858562094994,43013.98760247083,-19074.19640710311,-10656.127113834276
9982.266721995678,43019.82140777366,-19081.080744395345,-10654.718953933592
9974.130687013949,43009.8525297466,-19088.032136920945,-10653.087276588354
9970.509704412189,43005.51629132227,-19082.44420080712,-10651.924985876678
9979.45040219431,43012.93707048143,-19071.670659979663,-10650.516825975994
9983.183143518349,43025.63286133205,-19064.74161919852,-10650.762695165002
9983.652530151909,43025.96813749887,-19070.93305241264,-10653.601366710827
9971.82845733505,43008.69023903492,-19082.421849062663,-10658.027012112978
9963.804181075597,42998.6990092634,-19086.802790975904,-10659.524578991482
9966.39698343241,43006.27625063375,-19082.1536281292,-10659.30106154693
9981.819687106572,43023.621204331066,-19073.123523369257,-10666.028936627978
9981.059727795093,43025.722268309866,-19076.811561204384,-10671.527465763982
9972.767230602174,43015.015782715775,-19082.77947697395,-10673.092087875852
9964.295919453612,43014.14406468202,-19083.6064915188,-10673.270901831496
9974.510666669688,43017.74269553933,-19079.180846116644,-10675.43902104366
9979.07042253857,43026.79515204372,-19080.70076473961,-10682.479820547083
9978.712794627285,43034.17122771397,-19088.65798576569,-10689.051233416943
9969.34741370051,43029.075029978165,-19094.84941897981,-10687.844239216356
9971.381422445944,43022.63772757504,-19087.87567470976,-10681.9210269357
9981.462059195288,43025.8563787766,-19081.617186262272,-10679.127058878788
9985.552428430608,43033.478323635856,-19079.002032161003,-10684.536181036972
9985.5077249417,43038.9097975385,-19085.081706652847,-10685.16202988172
9971.917864312873,43026.86220727709,-19094.93882595764,-10677.629492000282
9968.855675322497,43022.81654153068,-19093.329500356853,-10677.58478851137
9981.149134772912,43031.7572393128,-19089.082668910345,-10679.842314701356
9989.620445921477,43049.32571045467,-19086.758087486996,-10686.369024082309
9992.704986656308,43061.99914956083,-19083.427677563155,-10684.849105459343
9984.211323763291,43057.6629111365,-19088.233302621044,-10678.031823400475
9984.703062141309,43054.33250121266,-19087.96508168758,-10673.695584976149
9982.713756884785,43053.23726573435,-19086.176942131155,-10668.465276773606
9982.803163862607,43062.46853619439,-19080.83487520634,-10666.386564539262
9971.761402101683,43067.00594031882,-19087.4062880762,-10674.321433820896
9972.051974779604,43052.76787910079,-19092.167209645177,-10669.292291318452
9977.237579493234,43043.67071910748,-19089.283834610444,-10663.950224393631
9975.605902147998,43040.49677139483,-19087.24982586501,-10671.080430874876
9974.577721903051,43049.57157964368,-19084.411154319187,-10674.835523943368
9973.482486424744,43054.10898376811,-19079.76199147248,-10674.991986154557
9964.787657831628,43042.508428395806,-19088.501523554507,-10676.198980355142
9958.97620427325,43029.656175334,-19094.871770724272,-10672.555646008926
9970.509704412189,43032.94188176893,-19086.802790975904,-10669.35934655182
9977.461096937788,43041.36848942858,-19082.10892464029,-10672.153314608731
9980.92561732836,43053.95252155692,-19080.074915894857,-10668.375869795784
9979.852733594504,43049.4598209214,-19082.48890429603,-10666.565378494905
9975.762364359183,43037.16636147098,-19079.82904670585,-10664.77723893848
9970.241483478723,43035.9593672704,-19072.16239835768,-10659.63633771376
9990.3580534885,43047.85049532062,-19063.020534875457,-10659.748096436037
9993.97903609026,43055.11481226859,-19070.93305241264,-10668.130000606776
9986.088870297535,43047.26934996478,-19078.175017616155,-10668.957015151622
9984.300730741112,43040.65323360601,-19072.78824720243,-10663.8161139269
9988.011120320692,43042.95546328491,-19063.78049418694,-10659.234006313563
9996.616541935986,43051.717347111386,-19057.67846795064,-10662.989099382055
10005.244315295737,43065.6648356515,-19055.935031883124,-10664.956052894122
9992.392062233934,43058.020539047786,-19066.19448258811,-10667.884131417768
9986.960588331292,43047.00112903132,-19065.63568897673,-10664.285500560463
9989.5086871992,43050.398594188526,-19061.701781952597,-10663.503189504529
9992.056786067104,43060.94861757144,-19061.72413369705,-10665.358384294315
9994.940161101838,43073.10796655512,-19061.2994505524,-10663.994927882544
9992.190896533835,43068.12352754158,-19064.942784898616,-10663.480837760071
9980.523285928164,43052.3655477006,-19071.313032068378,-10662.139733092754
9985.105393541502,43043.64836736302,-19073.369392558267,-10665.514846505504
9987.83230636505,43046.21881797539,-19070.59777624581,-10669.292291318452
9989.173411032369,43055.69595762443,-19071.82712219085,-10676.713070477614
9983.920751085372,43048.52104765428,-19080.16432287268,-10677.808305955925
9973.147210257914,43036.51816088178,-19086.53457004244,-10679.417631556706
9972.11903001297,43030.37143115657,-19084.455857808098,-10681.272826346496
9978.73514637174,43037.18871321544,-19084.00882291899,-10683.508000792028
9986.535905186642,43046.1070592531,-19083.382974074244,-10687.240742116064
9979.74097487223,43039.13331498305,-19087.316881098377,-10684.267960103509
9972.700175368807,43026.03519273224,-19088.143895643225,-10680.311701334918
9974.82359109206,43024.76114329829,-19082.891235696225,-10677.78595421147
9975.762364359183,43029.74558231182,-19079.091439138825,-10677.048346644444
9979.07042253857,43040.16149522799,-19077.14683737121,-10677.383622811274
9974.912998069884,43034.93118702545,-19079.98550891704,-10675.796648954947
9968.341585200023,43023.44239037543,-19079.314956583377,-10675.617834999304
9968.229826477746,43024.38116364255,-19074.01759314747,-10675.8190006994
9968.967434044773,43032.003108501805,-19076.07395363736,-10668.062945373413
9985.59713191952,43049.52687615477,-19067.51323551097,-10662.072677859387
9991.252123266711,43050.68916686645,-19065.903909910197,-10656.238872556552
9983.093736540524,43038.03807950474,-19072.832950691336,-10653.86958764429
9980.567989417075,43036.78638181524,-19071.424790790654,-10653.958994622111
9983.607826662996,43044.47538190787,-19069.189616345124,-10651.63441319876
9985.530076686153,43057.41704194749,-19069.703706467597,-10655.568320222894
9979.87508533896,43056.34415821364,-19077.638575749228,-10651.63441319876
9969.548579400607,43041.92728303997,-19082.24303510702,-10650.181549809164
9967.425163677355,43037.23341670435,-19082.958290929597,-10651.522654476485
9972.096678268514,43045.28004470826,-19077.14683737121,-10645.375924751272
9975.091812025525,43055.360681457605,-19072.877654180247,-10651.746171921037
9971.917864312873,43056.23239949136,-19072.29650882441,-10652.036744598956
9962.887759552928,43042.26255920679,-19073.279985580444,-10634.378866479265
9965.994652032216,43037.21106495989,-19073.302337324894,-10636.122302546775
9971.984919546238,43046.33057669766,-19069.524892511952,-10638.849215370325
9975.181219003349,43057.19352450294,-19069.92722391215,-10644.928889862167
9972.633120135442,43060.83685884916,-19074.86695943677,-10644.034820083954
9969.235654978234,43051.9632163004,-19078.30912808289,-10639.095084559332
9973.951873058304,43052.38789944505,-19078.64440424972,-10641.687886916148
9973.437782935833,43058.04289079224,-19077.68327923814,-10641.39731423823
9984.993634819226,43075.83487937866,-19073.99524140301,-10639.29625025943
9984.92657958586,43079.81348989171,-19081.885407195736,-10646.717029418593
9976.052937037104,43066.5142019408,-19087.83097122085,-10649.309831775408
9974.980053303248,43058.42287044798,-19084.209988619088,-10647.05230558542
9976.611730648488,43059.42869894847,-19082.1536281292,-10648.236948041553
9983.764288874185,43070.96219908741,-19080.879578695247,-10652.863759143802
9979.78567836114,43070.29164675375,-19085.79696247541,-10657.982308624069
9969.459172422788,43054.35485295711,-19088.97091018807,-10657.937605135156
9965.54761714311,43044.83300981915,-19086.91454969818,-10661.647994714736
9969.16859974487,43048.14106799854,-19082.041869406923,-10662.16208483721
9971.87316082396,43059.02636754827,-19076.342174570826,-10664.888997660755
9977.729317871252,43061.0156728048,-19081.371317073263,-10666.475971517084
9970.040317778628,43046.17411448647,-19092.34602360082,-10667.124172106289
9964.49708515371,43037.658099849,-19089.19442763262,-10662.720878448592
9963.893588053415,43038.68628009394,-19087.294529353923,-10664.39725928274
9974.577721903051,43051.09149826664,-19079.471418794565,-10666.16304709471
9978.489277182733,43058.489925681344,-19082.667718251672,-10668.509980262515
9971.73905035723,43038.52981788276,-19089.23913112153,-10669.180532596176
9981.909094084394,43033.90300678051,-19078.10796238279,-10656.551796978929
9986.222980764269,43045.503562152815,-19075.24693909251,-10659.859855158313
9986.178277275358,43047.09053600914,-19076.185712359635,-10658.719916191092
9975.44943993681,43029.41030614499,-19079.60552926129,-10658.943433635644
9963.714774097774,43020.02257347376,-19078.577349016352,-10657.043535356945
9971.962567801782,43020.58136708515,-19083.51708454097,-10663.436134271162
9981.819687106572,43028.98562300034,-19081.39366881772,-10660.955090636622
9985.88770459744,43038.88744579404,-19077.90679668269,-10656.842369656846
9982.31142548459,43030.34907941212,-19077.14683737121,-10653.24373879954
9976.83524809304,43020.38020138505,-19078.800866460904,-10656.797666167937
9975.225922492256,43020.06727696268,-19081.036040906434,-10656.618852212294
9977.326986471056,43029.90204452301,-19078.130314127244,-10659.144599335745
9984.859524352494,43037.36752717108,-19077.370354815765,-10658.474047002084
9979.07042253857,43027.599814844114,-19081.81835196237,-10655.72478243408
9972.2531404797,43018.03326821724,-19083.85236070781,-10657.781142923968
9971.761402101683,43017.58623332813,-19087.428639820653,-10664.531369749471
9983.518419685175,43031.42196314597,-19084.187636874634,-10665.805419183424
9989.128707543456,43038.9097975385,-19084.74643048601,-10667.39239303975
9982.244370251225,43029.11973346707,-19092.6589480232,-10661.402125525728
9977.282282982143,43020.78253278524,-19093.06127942339,-10659.971613880589
9973.996576547215,43018.94968973991,-19089.86497996628,-10667.370041295297
9977.371689959966,43027.37629739956,-19085.01465141948,-10678.188285611664
9982.82551560706,43037.23341670435,-19083.427677563155,-10682.993910669556
9971.06849802357,43025.07406772066,-19092.167209645177,-10680.669329246204
9965.413506676376,43016.78157052775,-19091.04962242241,-10677.115401877809
9974.242445736225,43023.956480497895,-19083.762953729984,-10673.53912276496
9978.39987020491,43033.344213169126,-19087.62980552075,-10689.230047372586
9983.02668130716,43043.71542259639,-19090.75904974449,-10688.537143294472
9980.724451628264,43041.010861517294,-19094.178866646154,-10678.50121003404
9972.87898932445,43030.125561967565,-19096.414041091688,-10678.009471656022
9971.917864312873,43028.53858811124,-19095.2070468911,-10678.277692589483
9987.83230636505,43041.8602278066,-19091.653119522707,-10677.562436766915
9989.866315110485,43052.54436165623,-19091.139029400238,-10683.083317647375
9980.88091383945,43042.48607665135,-19099.655044037707,-10682.725689736091
9976.83524809304,43035.06529749218,-19101.73375627205,-10680.49051529056
9985.150097030411,43044.18480922995,-19093.173038145665,-10679.417631556706
9990.179239532858,43065.10604204012,-19085.282872352946,-10681.719861235602
9999.58932394854,43079.32175151369,-19087.853322965304,-10682.815096713914
9991.140364544435,43081.2663532813,-19093.55301780141,-10680.602274012836
9994.73899540174,43082.36158875962,-19095.25175038001,-10676.467201288606
9997.97999834776,43088.083635340176,-19091.78722998944,-10671.080430874876
9998.73995765924,43098.63365872308,-19087.83097122085,-10672.153314608731
10004.394949006431,43114.19047286397,-19087.60745377629,-10674.612006498815
9998.963475103794,43107.03791463828,-19091.85428522281,-10670.476933774584
9990.514515699688,43094.45388250994,-19093.55301780141,-10669.314643062908
9989.240466265735,43093.91744064301,-19092.10015441181,-10672.30977681992
9990.805088377609,43098.074865111696,-19087.16041888719,-10673.561474509415
9998.561143703597,43114.503397286346,-19080.857226950797,-10673.740288465058
9991.743861644729,43112.6258507521,-19090.468477066574,-10675.059041387922
9987.385271475943,43100.33239130168,-19094.78236374645,-10674.768468710005
9991.945027344827,43094.76680693231,-19091.653119522707,-10673.15914310922
9990.469812210777,43096.91257440002,-19092.74835500101,-10678.054175144933
9986.82647786456,43104.46746402591,-19093.88829396824,-10682.949207180643
9979.07042253857,43095.34795228815,-19094.000052690517,-10678.545913522948
9976.052937037104,43082.24983003734,-19095.363509102288,-10674.991986154557
9977.729317871252,43074.33731250016,-19100.9067417272,-10675.01433789901
9982.065556295582,43074.82905087818,-19099.655044037707,-10680.691680990658
9990.268646510678,43088.15069057354,-19096.16817190268,-10680.11053563482
9983.78664061864,43079.27704802479,-19103.90187548421,-10678.769430967504
9969.839152078528,43056.97000705839,-19114.25073316702,-10681.473992046596
9969.88385556744,43046.64350112004,-19114.228381422567,-10684.06679440341
9971.962567801782,43045.34709994162,-19112.88727675525,-10691.040538673466
9978.332814971543,43054.57837040167,-19111.479116854563,-10690.280579361985
9969.570931145065,43041.167323728485,-19111.43441336565,-10687.531314793983
9961.613710118974,43020.93899499643,-19112.19437267713,-10684.916160692712
9961.88193105244,43012.71355303688,-19112.17202093268,-10685.0726229039
9974.935349814335,43012.46768384787,-19109.08748019785,-10687.531314793983
9981.149134772912,43018.74852403981,-19103.611302806297,-10684.759698481525
9977.617559148975,43011.12657918055,-19109.78038427596,-10686.369024082309
9970.755573601196,42998.07316041865,-19111.25559941001,-10683.820925214402
9971.001442790204,42989.66890450346,-19111.277951154465,-10685.966692682112
9975.985881803736,42994.42982607244,-19107.58991331934,-10687.620721771804
9981.551466173109,43008.42201810146,-19097.68809052564,-10685.564361281917
9977.125820770958,43001.02359068675,-19105.1088696848,-10692.046367173954
9968.855675322497,42982.98573291132,-19111.523820343475,-10695.77910849799
9973.191913746825,42983.03043640023,-19104.661834795694,-10693.007492185532
9974.331852714044,42987.52313703574,-19097.464573081084,-10688.224218872096
9974.39890794741,42996.57559354015,-19094.73766025754,-10689.364157839318
9982.266721995678,43002.07412267615,-19095.855247480304,-10687.35250083834
9982.803163862607,42997.335552851626,-19098.604512048307,-10686.100803148844
9977.550503915609,42994.76510223927,-19102.06903243888,-10688.537143294472
9978.779849860652,43000.08481741963,-19102.65017779472,-10691.68873926267
9988.525210443166,43009.47255009086,-19096.77166900297,-10696.002625942543
9981.573817917564,43009.40549485749,-19105.73471852955,-10702.64109404577
9973.437782935833,42999.011933685775,-19110.49564009853,-10701.143527167264
9977.662262637885,42996.910869706975,-19107.63461680825,-10699.757719011037
9980.746803372718,43003.05759943218,-19107.12052668578,-10698.01428294352
9983.87604759646,43014.21111991538,-19107.142878430237,-10697.857820732335
9982.512591184688,43017.34036413913,-19115.703596556617,-10701.724672523103
9972.83428583554,43005.449236088905,-19118.13993670225,-10695.376777097796
9975.382384703444,43001.76119825378,-19112.663759310693,-10694.50505906404
9983.294902240625,43011.7524280253,-19105.846477251827,-10694.370948597309
9983.719585385274,43024.33646015364,-19109.89214299824,-10702.149355667754
9983.585474918542,43029.4550096339,-19113.513125599995,-10699.556553310938
9977.237579493234,43017.183901927936,-19115.92711400117,-10692.44869857415
9972.856637579996,43012.64649780352,-19112.59670407733,-10693.87921021929
9973.437782935833,43020.268442662775,-19109.646273809227,-10701.881134734287
9990.82744012206,43037.12165798208,-19103.63365455075,-10701.322341122906
9993.464945967788,43048.52104765428,-19102.73958477254,-10692.538105551972
9983.697233640818,43040.72028883938,-19106.405270863208,-10689.185343883675
9980.232713250243,43034.2606346918,-19103.298378383923,-10687.754832238536
9979.673919638864,43037.43458240445,-19102.627826050262,-10689.87824796179
9995.431899479854,43055.38303320206,-19096.615206791783,-10693.990968941567
9996.4600797248,43066.402443218525,-19094.73766025754,-10697.410785843227
9985.21715226378,43055.986530302354,-19102.33725337234,-10697.477841076594
9977.461096937788,43049.90685581051,-19110.11566044279,-10698.081338176888
9983.205495262802,43058.288759981246,-19106.1594016742,-10697.857820732335
9993.576704690064,43072.54917294373,-19100.0573754379,-10697.343730609862
9999.969303604285,43085.78140566128,-19099.78915450444,-10693.029843929988
9988.636969165442,43080.6181526921,-19109.35570113131,-10691.197000884653
9980.411527205888,43073.82322237769,-19107.478154597065,-10689.475916561594
9980.567989417075,43076.19250728995,-19103.54424757293,-10684.335015336874
9992.54852444512,43087.48013823988,-19096.414041091688,-10682.59157926936
9999.321103015078,43097.35960928912,-19094.268273623977,-10680.199942612642
9991.36388198899,43086.42960625048,-19103.611302806297,-10680.311701334918
9985.150097030411,43073.10796655512,-19104.907703984703,-10673.427364042684
9986.982940075748,43067.743547885846,-19102.247846394523,-10674.991986154557
9995.834230880051,43080.70755966992,-19096.369337602777,-10677.16010536672
9996.817707636084,43087.726007428886,-19099.02919519296,-10680.423460057194
9987.07234705357,43076.48307996787,-19106.785250518948,-10681.272826346496
9980.947969072817,43066.64831240753,-19107.768727274983,-10679.328224578883
9981.059727795093,43064.90487634002,-19106.06999469638,-10679.708204234625
9992.235600022746,43074.314960755706,-19100.437355093643,-10681.9210269357
9997.331797758556,43086.02727485028,-19099.31976787088,-10688.023053172
9994.113146556992,43081.89220212605,-19103.16426791719,-10679.797611212449
9985.999463319717,43073.68911191096,-19108.416927864186,-10685.899637448743
9985.619483663975,43077.04187357925,-19108.215762164087,-10690.884076462278
9992.839097123038,43090.49762374134,-19108.17105867518,-10692.8733817188
9997.868239625484,43104.89214717056,-19111.30030289892,-10695.44383233116
9991.07330931107,43103.61809773661,-19120.21864893659,-10694.817983486411
9983.83134410755,43097.60547847814,-19123.191430949144,-10693.968617197112
9986.200629019811,43103.61809773661,-19120.73273905906,-10702.21641090112
9998.404681492411,43112.49174028537,-19114.630712822764,-10710.285390649486
10009.066463597592,43122.77354273481,-19108.483983097554,-10701.657617289737
10002.852678639018,43112.44703679646,-19115.480079112065,-10697.813117243424
9990.514515699688,43091.25758305283,-19120.844497781334,-10696.762585254024
9992.816745378585,43085.78140566128,-19109.44510810913,-10688.40303282774
9995.387195990945,43092.91161214252,-19107.99224471953,-10689.0735851614
9999.745786159729,43099.14774884555,-19109.422756364675,-10695.287370119971
9988.011120320692,43086.22844055038,-19117.35762564631,-10700.338864366871
9979.182181260849,43069.48698395336,-19115.99416923453,-10697.254323632042
9980.188009761336,43066.42479496298,-19105.913532485192,-10693.678044519193
9988.4581552098,43068.3693967306,-19096.481096325053,-10692.40399508524
9991.654454666908,43074.20320203343,-19093.664776523685,-10697.656655032237
9986.290035997634,43066.134222285065,-19097.844552736828,-10697.254323632042
9980.053899294604,43048.94573079893,-19099.49858182652,-10699.578905055394
9985.440669708332,43049.59393138813,-19095.005881191,-10694.01332068602
9990.805088377609,43053.34902445663,-19092.6589480232,-10696.44966083165
9990.492163955232,43060.83685884916,-19096.34698585832,-10702.059948689932
9977.5058004267,43050.21978023288,-19112.663759310693,-10704.540992324472
9969.88385556744,43032.51719862428,-19118.005826235512,-10704.11630917982
9976.991710304226,43033.61243410259,-19113.35666338881,-10697.790765498969
9981.5067626842,43039.42388766097,-19109.82508776487,-10702.395224856762
9990.000425577216,43047.738736598345,-19106.718195285583,-10703.848088246355
9983.87604759646,43040.608530117104,-19114.518954100484,-10705.390358613771
9972.521361413164,43025.722268309866,-19118.78813729145,-10708.340788881873
9973.080155024549,43024.00118398681,-19111.948503488125,-10708.363140626328
9975.382384703444,43031.06433523468,-19103.857171995303,-10703.825736501902
9972.409602690888,43039.71446033889,-19103.723061528573,-10707.40201561475
9970.330890456546,43031.42196314597,-19112.730814544066,-10710.486556349582
9974.041280036126,43015.66398330498,-19116.15063144572,-10709.21250691563
9971.984919546238,43012.914718736974,-19110.316826142887,-10704.518640580016
9971.426125934857,43015.06048620468,-19107.63461680825,-10703.78103301299
9976.432916692844,43028.35977415559,-19108.12635518627,-10709.972466227113
9974.153038758404,43030.550245112216,-19113.379015133265,-10703.713977779626
9968.900378811406,43017.2062536724,-19115.12245120078,-10692.538105551972
9963.69242235332,43011.77477976975,-19113.24490466653,-10691.822849729402
9972.87898932445,43022.05658221919,-19106.584084818853,-10689.140640394764
9981.350300473012,43038.19454171593,-19105.086517940344,-10691.219352629108
9983.093736540524,43043.111925496094,-19109.44510810913,-10683.843276958856
9973.862466080484,43030.86316953459,-19116.374148890274,-10680.73638447957
9972.476657924257,43027.48805612184,-19115.144802945237,-10685.11732639281
9980.992672561726,43036.339346926135,-19107.81343076389,-10685.139678137264
9986.804126120109,43051.42677443347,-19107.187581919145,-10684.245608359051
9984.568951674575,43053.84076283464,-19112.17202093268,-10681.719861235602
9977.997538804717,43043.111925496094,-19117.20116343512,-10678.814134456414
9978.22105624927,43038.19454171593,-19117.35762564631,-10679.462335045617
9977.014062048682,43039.13331498305,-19120.88920127025,-10683.999739170044
9984.144268529924,43052.633768634056,-19118.3634541468,-10685.094974648357
9981.797335362118,43055.69595762443,-19123.50435537152,-10683.396242069752
9972.342547457523,43044.34127144114,-19127.751186818023,-10677.83065770038
9977.528152171151,43044.18480922995,-19119.615151836297,-10676.288387332965
9974.868294580972,43053.34902445663,-19119.81631753639,-10680.378756568283
9979.472753938766,43061.663873394,-19120.4645181256,-10682.815096713914
9983.920751085372,43069.33052174217,-19118.13993670225,-10680.557570523926
9975.158867258891,43062.44618444994,-19125.35955016131,-10672.39918379774
9974.667128880874,43059.36164371511,-19123.280837926966,-10656.596500467838
9971.560236401589,43064.12256528409,-19120.151593703224,-10657.11059059031
9983.36195747399,43073.01855957729,-19113.781346533466,-10660.038669113956
9984.390137718932,43077.75712940182,-19111.16619243219,-10662.430305770671
9973.3036724691,43064.68135889547,-19117.692901813138,-10654.853064400324
9971.493181168222,43052.85728607861,-19118.3634541468,-10648.907500375211
9979.852733594504,43053.661948879,-19108.97572147557,-10647.76756140799
9984.278378996656,43062.64735015004,-19103.611302806297,-10659.144599335745
9979.4056987054,43064.27902749527,-19111.769689532484,-10669.046422129444
9969.503875911698,43049.07984126567,-19122.78909954895,-10672.667404731204
9969.995614289715,43040.51912313928,-19122.31971291539,-10673.181494853676
9974.801239347606,43044.54243714124,-19114.85423026732,-10670.119305863298
9983.49606794072,43056.43356519146,-19107.478154597065,-10668.957015151622
9983.607826662996,43059.696919881935,-19109.936846487148,-10668.509980262515
9971.06849802357,43038.03807950474,-19119.615151836297,-10668.957015151622
9964.586492131531,43022.36950664157,-19126.477137384078,-10674.232026843076
9965.279396209646,43021.96717524138,-19126.45478563962,-10675.662538488215
9973.080155024549,43029.700878822914,-19123.012616993503,-10678.747079223049
9974.26479748068,43031.310204423695,-19125.247791439037,-10688.179515383186
9966.128762498947,43018.94968973991,-19123.54905886043,-10689.252399117042
9961.859579307984,43010.2995646357,-19115.815355278894,-10688.961826439125
9965.234692720736,43012.53473908124,-19111.724986043573,-10689.20769562813
9974.82359109206,43024.112942709085,-19107.34404413033,-10682.703337991636
9975.538846914633,43027.86803577757,-19113.088442455344,-10690.54880029545
9968.16277124438,43016.8039222722,-19125.270143183487,-10693.58863754137
9966.508742154689,43009.07021869066,-19130.18752696365,-10692.78397474098
9968.408640433388,43011.21598615837,-19130.992189764045,-10693.231009630086
9973.750707358207,43021.74365779682,-19129.673436841185,-10691.487573562572
9981.97614931776,43039.71446033889,-19124.465480383096,-10692.78397474098
9978.422221949366,43039.490942894336,-19123.97374200508,-10686.9725211826
9969.88385556744,43031.46666663488,-19125.292494927944,-10682.524524035996
9969.146248000414,43032.33838466864,-19122.34206465984,-10689.744137495058
9975.02475679216,43046.44233541994,-19113.98251223356,-10691.778146240493
9977.952835315804,43059.92043732649,-19114.18367793365,-10690.92877995119
9968.051012522104,43049.39276568803,-19122.92321001568,-10684.290311847964
9962.574835130554,43041.48024815086,-19122.900858271227,-10680.35640482383
9965.122933998458,43044.07305050767,-19116.84353552384,-10675.953111166134
9972.521361413164,43053.12550701208,-19110.607398820808,-10676.154276866231
9983.36195747399,43066.20127751843,-19108.215762164087,-10677.651843744738
9975.44943993681,43057.39469020304,-19117.20116343512,-10679.976425168088
9969.615634633976,43046.12941099757,-19119.749262303027,-10681.138715879764
9975.270625981168,43051.65029187802,-19114.27308491148,-10677.405974555728
9983.11608828498,43065.4636699514,-19109.13218368676,-10679.529390278984
9985.88770459744,43080.39463524755,-19111.792041276934,-10681.83161995788
9984.07721329656,43081.62398119259,-19117.245866924037,-10678.63532050077
9982.847867351516,43079.612324191614,-19119.726910558573,-10677.115401877809
9985.708890641796,43085.0214463498,-19117.9611227466,-10677.987119911566
9991.810916878096,43098.76776918981,-19112.17202093268,-10678.367099567307
9991.520344200177,43112.33527807418,-19112.88727675525,-10685.854933959834
9985.038338308135,43106.255603582336,-19118.49756461353,-10684.312663592418
9983.473716196266,43097.091388355664,-19114.94363724513,-10676.668366988704
9979.897437083417,43094.230365065385,-19120.01748323649,-10685.430250815183
9984.099565041011,43103.08165586968,-19122.92321001568,-10686.458431060128
9997.667073925386,43126.48393231439,-19119.50339311402,-10684.200904870142
9995.901286113416,43127.15448464805,-19122.11854721529,-10683.664463003215
9987.228809264758,43113.16229261903,-19122.654989082217,-10679.842314701356
9983.607826662996,43108.78135070579,-19121.895029770734,-10678.165933867209
9984.948931330317,43114.61515600862,-19122.610285593302,-10678.121230378298
9988.748727887718,43125.52280730281,-19120.86684952579,-10677.316567577907
9980.769155117174,43117.94556593247,-19126.14186121725,-10674.433192543172
9968.11806775547,43097.20314707794,-19133.20501246512,-10673.53912276496
9965.279396209646,43089.894126641055,-19134.344951432344,-10673.650881487238
9971.73905035723,43095.34795228815,-19127.14768971773,-10675.081393132376
9974.600073647509,43103.95337390344,-19126.87946878427,-10679.864666445812
9970.196779989814,43098.834824423175,-19132.28859094245,-10680.468163546106
9964.2512159647,43082.22747829288,-19131.79685256444,-10673.516771020506
9963.424201419855,43076.03604507876,-19129.44991939663,-10671.750983208536
9967.44751542181,43078.13710905756,-19123.05732048241,-10676.78012571098
9973.88481782494,43090.49762374134,-19119.011654736,-10678.411803056217
9951.845997792008,43085.669646939,-19129.18169846317,-10680.088183890366
9947.35329715649,43071.7668618878,-19128.44409089614,-10669.627567485282
9982.065556295582,43065.776594373776,-19115.390672134243,-10666.095991861344
9977.59520740452,43066.64831240753,-19114.965988989592,-10666.632433728271
9982.93727432934,43073.44324272194,-19117.759957046503,-10668.577035495882
9988.994597076726,43065.418966462494,-19128.846422296338,-10673.807343698423
9972.722527113265,43046.28587320875,-19133.58499212086,-10674.008509398522
9970.73322185674,43038.64157660504,-19132.02037000899,-10673.78499195397
9984.814820863585,43043.29073945174,-19133.003846765023,-10673.002680898033
9991.050957566616,43054.24309423484,-19131.863907797804,-10678.21063735612
9980.411527205888,43044.85536156361,-19141.005771280023,-10685.9219891932
9968.788620089128,43024.60468108711,-19144.13501550377,-10689.095936905856
9965.905245054397,43012.64649780352,-19138.256506712023,-10683.530352536483
9968.989785789228,43019.97786998485,-19133.83086130987,-10683.776221725491
9979.271588238667,43030.46083813439,-19131.34981767533,-10687.888942705267
9975.158867258891,43026.86220727709,-19133.40617816522,-10686.726651993593
9969.615634633976,43017.69799205041,-19133.272067698486,-10682.59157926936
9970.375593945457,43015.440465860425,-19127.68413158466,-10679.842314701356
9975.717660870274,43016.8039222722,-19123.50435537152,-10681.943378680156
9981.819687106572,43024.73879155384,-19119.615151836297,-10686.123154893296
9979.159829516391,43024.06823922017,-19127.617076351296,-10690.660559017726
9965.21234097628,43009.360791368585,-19135.820166566395,-10697.701358521148
9962.708945597284,43004.71162852188,-19132.042721753445,-10692.001663685043
9966.888721810428,43011.59596581412,-19127.97470426258,-10685.407899070728
9972.521361413164,43024.89525376502,-19121.000959992525,-10683.820925214402
9973.549541658109,43028.29271892223,-19118.922247758182,-10680.266997846007
9964.050050264605,43015.88750074953,-19123.39259664924,-10673.49441927605
9961.457247907789,43007.41618960097,-19122.18560244865,-10670.767506452505
9967.603977632998,43012.66884954797,-19113.40136687772,-10672.39918379774
9973.862466080484,43027.30924216619,-19107.656968552707,-10673.226198342589
9973.817762591572,43030.23732068984,-19106.98641621905,-10666.990061639555
9964.564140387076,43016.22277691636,-19112.21672442159,-10668.912311662712
9965.21234097628,43014.32287863766,-19111.2108959211,-10672.645052986749
9969.325061956057,43016.64746006101,-19108.55103833092,-10671.572169252891
9971.157905001392,43028.42682938896,-19108.86396275329,-10676.82482919989
9973.862466080484,43036.406402159504,-19115.97181749008,-10679.216465856607
9968.095716011014,43026.28106192125,-19124.465480383096,-10670.745154708047
9963.848884564506,43019.150855440006,-19124.666646083195,-10667.124172106289
9969.369765444966,43026.638689832536,-19120.39746289223,-10668.30881456242
9977.282282982143,43041.10026849512,-19118.20699193561,-10674.343785565352
9979.45040219431,43049.6609866215,-19118.07288146888,-10670.409878541215
9977.617559148975,43045.59296913064,-19120.106890214312,-10664.374907538284
9972.990748046726,43036.8087335597,-19120.88920127025,-10669.9181401632
9973.88481782494,43037.18871321544,-19115.390672134243,-10675.170800110198
9981.998501062217,43049.79509708823,-19109.53451508695,-10678.478858289584
9977.93048357135,43055.22657099088,-19113.49077385554,-10679.842314701356
9971.11320151248,43046.01765227529,-19125.09132922785,-10677.696547233649
9978.846905094017,43046.37528018657,-19121.470346626087,-10671.058079130422
9984.144268529924,43050.0633180217,-19116.240038423544,-10667.459448273115
9991.095661055526,43063.02732980577,-19115.05539596741,-10670.543989007949
9990.514515699688,43071.27512350978,-19120.777442547973,-10676.221332099598
9982.132611528948,43061.507411182814,-19128.600553107328,-10676.44484954415
9978.511628927186,43057.55115241422,-19127.99705600704,-10672.846218686846
9978.22105624927,43061.149783271525,-19124.04079723845,-10674.835523943368
9983.049033051617,43075.16432704501,-19122.29736117093,-10677.025994899988
9990.246294766224,43090.56467897471,-19120.755090803515,-10672.198018097642
9988.413451720888,43088.8212429072,-19119.279875669465,-10664.844294171846
9988.54756218762,43087.48013823988,-19113.24490466653,-10660.463352258606
9994.515477957188,43095.07973135469,-19107.54520983043,-10656.350631278829
10002.875030383471,43112.37998156309,-19103.79011676194,-10662.184436581663
10006.004274607216,43122.81824622373,-19105.69001504064,-10667.839427928857
9998.002350092214,43110.7259524734,-19114.407195378208,-10665.045459871944
9993.420242478876,43099.192452334464,-19118.989302991547,-10665.24662557204
9994.493126212732,43100.935888401975,-19116.262390168,-10664.285500560463
10003.724396672773,43113.29640308576,-19109.266294153487,-10660.351593536328
10004.998446106729,43123.19822587946,-19107.366395874786,-10656.954128379122
9992.861448867494,43116.11272288713,-19114.764823289494,-10653.042573099445
9985.93240808635,43107.37319080511,-19116.374148890274,-10650.293308531442
9986.02181506417,43105.74151345986,-19109.78038427596,-10654.294270788942
9993.755518645708,43115.10689438664,-19105.578256318364,-10657.177645823676
10000.438690237845,43128.428534082006,-19106.44997435212,-10652.68494518816
9988.704024398809,43123.73466774639,-19115.144802945237,-10651.410895754208
9985.843001108527,43114.995135664365,-19119.03400648046,-10652.10379983232
9983.652530151909,43117.40912406554,-19118.922247758182,-10655.233044056064
9993.196725034324,43129.43436258249,-19114.94363724513,-10657.222349312586
10003.098547828024,43141.92898773301,-19114.518954100484,-10657.401163268229
9989.195762776824,43138.24094989788,-19123.16907920469,-10654.897767889235
9995.923637857872,43123.64526076856,-19124.39842514973,-10653.579014966372
9997.73412915875,43113.74343797487,-19126.991227506547,-10661.782105181468
9992.325007000569,43111.843539696165,-19129.651085096728,-10664.151390093732
9995.78952739114,43118.25849035484,-19126.11950947279,-10661.424477270184
9987.608788920495,43103.30517331424,-19132.35564617582,-10661.603291225829
9978.623387649464,43084.39559750505,-19130.54515487494,-10659.166951080198
9978.355166716,43076.52778345678,-19124.59959084983,-10659.68104120267
9979.852733594504,43075.58901018966,-19122.78909954895,-10666.028936627978
9980.903265583906,43082.29453352625,-19119.25752392501,-10670.92396866369
9982.378480717956,43073.62205667759,-19119.615151836297,-10661.200959825632
9974.197742247314,43054.17603900148,-19126.007750750512,-10652.0143928545
9973.348375958012,43046.12941099757,-19127.102986228823,-10654.316622533395
9982.82551560706,43053.28196922326,-19125.65012283923,-10659.971613880589
9989.240466265735,43063.3626059726,-19128.39938740723,-10666.520675005992
9984.278378996656,43057.305283225214,-19133.13795723176,-10667.504151762028
9978.377518460456,43044.63184411906,-19133.249715954036,-10662.720878448592
9979.472753938766,43044.18480922995,-19127.84059379585,-10663.279672059974
9983.518419685175,43046.956425542405,-19126.96887576209,-10665.11251510531
9989.59809417702,43054.13133551256,-19129.718140330093,-10668.219407584598
9980.92561732836,43045.54826564172,-19139.374093934788,-10667.660613973214
9974.376556202957,43033.388916658034,-19136.602477622328,-10658.786971424455
9975.672957381365,43029.52206486727,-19135.44018691065,-10659.25635805802
9975.158867258891,43031.1090387236,-19137.474195656087,-10660.619814469794
9981.93144582885,43045.28004470826,-19132.802681064928,-10657.043535356945
9981.774983617664,43042.88840805154,-19137.02716076698,-10658.25052955753
9972.901341068906,43027.80098054421,-19141.65397186923,-10656.887073145755
9975.047108536615,43023.621204331066,-19137.49654740054,-10652.10379983232
9982.177315017858,43031.46666663488,-19128.0641112404,-10647.454636985616
9986.535905186642,43047.1575912425,-19126.38773040625,-10654.67425044468
9981.193838261825,43045.52591389727,-19138.18945147865,-10658.921081891189
9974.220093991767,43033.344213169126,-19141.87748931378,-10654.406029511218
9973.549541658109,43028.71740206688,-19135.99898052204,-10654.58484346686
9978.064594038082,43035.93701552594,-19131.059244997414,-10654.093105088845
9990.02277732167,43052.03027153376,-19126.07480598388,-10653.53431147746
9991.36388198899,43056.47826868037,-19125.851288539325,-10656.998831868032
9984.59130341903,43049.415117432494,-19129.44991939663,-10654.67425044468
9980.59034116153,43044.78830633024,-19132.802681064928,-10655.38950626725
9981.774983617664,43052.05262327822,-19134.41200666571,-10656.909424890213
9994.31431225709,43066.78242287427,-19133.763806076506,-10666.431268028173
9995.521306457676,43072.01273107681,-19140.33521894637,-10673.24855008704
9986.245332508724,43062.04385304974,-19153.008658052524,-10677.897712933744
9988.54756218762,43062.9155710835,-19152.002829552035,-10672.10861111982
9994.940161101838,43076.46072822341,-19144.73851260406,-10669.35934655182
9996.482431469254,43091.88343189758,-19144.805567837426,-10677.115401877809
9997.354149503011,43097.89605115605,-19152.449864441143,-10682.949207180643
9990.805088377609,43089.26827779631,-19161.301155245445,-10679.149410623242
9986.424146464366,43083.81445214921,-19159.64712615575,-10677.137753622264
9989.531038943654,43087.07780683968,-19152.405160952232,-10679.775259467991
9994.873105868472,43097.35960928912,-19149.83471033987,-10681.49634379105
9992.861448867494,43099.52772850129,-19151.756960363025,-10686.346672337851
9983.4066609629,43084.172080060496,-19158.440131955165,-10686.234913615575
9986.155925530902,43080.14876605854,-19150.68407662917,-10680.378756568283
9993.21907677878,43086.02727485028,-19137.094216000347,-10674.120268120798
9991.16271628889,43091.41404526401,-19139.84348056835,-10680.44581180165
9988.636969165442,43093.96214413192,-19146.41489343821,-10683.01626241401
9981.953797573304,43079.545268958245,-19148.60536439483,-10674.522599520991
9974.30950096959,43066.20127751843,-19146.59370739385,-10676.333090821874
9979.584512661042,43069.665797909,-19142.25746896952,-10677.897712933744
9989.195762776824,43081.73573991487,-19137.40714042272,-10675.841352443857
9987.4076232204,43086.4743097394,-19142.749207347537,-10675.953111166134
9982.64670165142,43075.968989845394,-19148.426550439188,-10669.0687738739
9979.383346960944,43065.642483907046,-19147.197204494143,-10667.973538395589
9982.579646418051,43067.7658996303,-19142.749207347537,-10670.655747730225
9988.681672654351,43075.38784448956,-19139.374093934788,-10669.672270974192
9991.654454666908,43079.5676207027,-19139.12822474578,-10670.745154708047
9982.713756884785,43063.04968155023,-19145.16319574871,-10669.024070384989
9977.21522774878,43051.67264362248,-19144.51499515951,-10668.062945373413
9981.015024306182,43049.70569011041,-19139.999942779534,-10664.77723893848
9986.960588331292,43057.48409718086,-19135.976628777586,-10672.712108220114
9984.54659993012,43059.85338209312,-19140.424625924188,-10674.366137309808
9974.555370158598,43045.637672619545,-19142.570393391896,-10667.280634317474
9958.998556017705,43032.78541955775,-19145.25260272653,-10665.000756383031
9972.409602690888,43032.427791646456,-19140.29051545745,-10667.168875595198
9992.21324827829,43050.73387035536,-19129.427567652176,-10662.854988915324
9992.21324827829,43057.886428581056,-19134.523765387985,-10669.649919229738
9991.87797211146,43048.74456509883,-19143.24094572556,-10672.510942520015
9997.152983802913,43041.68141385096,-19139.619963123798,-10667.951186651131
9997.465908225287,43042.46372490689,-19133.33912293185,-10669.24758782954
9994.381367490456,43047.17994298696,-19137.49654740054,-10679.998776912544
9996.303617513611,43055.628902391065,-19143.59857363684,-10684.290311847964
9989.866315110485,43048.92337905448,-19150.013524295515,-10681.429288557683
9984.144268529924,43043.9612917854,-19152.53927141896,-10682.524524035996
9984.948931330317,43048.38693718755,-19151.71225687412,-10682.725689736091
9985.88770459744,43057.886428581056,-19154.52857667549,-10685.385547326274
9983.87604759646,43066.64831240753,-19162.150521534742,-10689.028881672488
9982.244370251225,43062.64735015004,-19168.230196026587,-10689.475916561594
9978.44457369382,43056.00888204681,-19164.87743435829,-10685.407899070728
9982.378480717956,43060.30041698222,-19157.724876132597,-10682.524524035996
9988.279341254156,43069.37522523108,-19150.28174522898,-10683.73151823658
9992.637931422942,43078.58414394667,-19150.237041740067,-10687.464259560616
9981.97614931776,43071.20806827641,-19157.70252438814,-10686.793707226958
9975.807067848094,43065.19544901794,-19156.719047632105,-10687.128983393786
9978.422221949366,43071.655103165525,-19150.102931273334,-10684.44677405915
9984.680710396851,43080.14876605854,-19147.890108572257,-10686.167858382209
9988.234637765248,43090.89995514154,-19144.87262307079,-10687.330149093885
9980.210361505791,43085.669646939,-19152.338105718864,-10686.033747915477
9973.460134680288,43075.343141000645,-19153.92507957519,-10681.116364135309
9974.890646325428,43078.27121952429,-19148.493605672556,-10685.765526982012
9984.948931330317,43092.44222550896,-19146.951335305137,-10685.743175237558
9992.637931422942,43107.52965301629,-19146.41489343821,-10686.257265360033
9992.16854478938,43110.83771119567,-19151.578146407384,-10682.703337991636
9986.871181353472,43105.65210648205,-19155.24383249805,-10681.384585068774
9982.02085280667,43109.42955129499,-19155.042666797955,-10682.122192635798
9986.558256931095,43122.63943226808,-19150.617021395807,-10683.262131603018
9996.437727980345,43138.03978419778,-19151.64520164075,-10687.68777700517
9988.860486609994,43140.61023481014,-19152.9192510747,-10683.06096590292
9978.69044288283,43137.19041790848,-19157.34489647685,-10680.199942612642
9982.065556295582,43138.06213594224,-19156.65199239874,-10684.312663592418
9992.257951767202,43146.82401976872,-19148.56066090592,-10682.92685543619
9993.822573879072,43159.83273504171,-19146.705466116127,-10684.245608359051
9986.424146464366,43151.74140354889,-19151.108759773822,-10682.21159961362
9981.015024306182,43135.20111265196,-19146.54900390494,-10675.126096621289
9982.222018506767,43129.30025211576,-19141.184585235667,-10676.847180944344
9988.860486609994,43130.86487422764,-19136.44601541114,-10680.982253668575
9989.106355799004,43132.31773761722,-19139.12822474578,-10688.537143294472
9981.171486517367,43120.53836828928,-19147.33131496088,-10695.197963142153
9970.755573601196,43099.48302501238,-19148.60536439483,-10688.939474694667
9970.599111390007,43092.03989410876,-19145.006733537524,-10684.312663592418
9974.600073647509,43094.85621391013,-19142.1680619917,-10692.225181129596
9976.79054460413,43096.19731857745,-19140.469329413096,-10695.846163731358
9972.655471879896,43087.18956556196,-19146.41489343821,-10695.510887564527
9964.87706480945,43067.25180950783,-19153.858024341826,-10696.337902109371
9960.54082638512,43056.47826868037,-19153.768617364003,-10696.44966083165
9965.011175276182,43057.32763496967,-19150.147634762245,-10697.969579454611
9976.343509715023,43063.89904783953,-19144.11266375931,-10698.72953876609
9970.085021267536,43054.5113151683,-19155.64616389825,-10704.876268491302
9962.64189036392,43033.59008235813,-19165.011544825025,-10699.422442844208
9960.965509529771,43022.436561874936,-19161.43526571217,-10694.393300341762
9960.87610255195,43021.27427116326,-19159.55771917793,-10693.87921021929
9966.06170726558,43025.83402703214,-19158.88716684427,-10701.54585856746
9965.324099698557,43022.436561874936,-19158.93187033318,-10701.143527167264
9958.77503857315,43009.94193672442,-19164.20688202463,-10697.857820732335
9959.78086707364,43006.38800935603,-19163.46927445761,-10699.198925399653
9965.815838076573,43012.64649780352,-19160.69765814515,-10697.701358521148
9975.4047364479,43025.94578575442,-19154.50622493103,-10697.656655032237
9973.393079446922,43026.638689832536,-19158.70835288863,-10695.287370119971
9967.31340495508,43017.13919843903,-19162.150521534742,-10688.648902016748
9963.78182933114,43012.55709082569,-19161.569376178908,-10695.220314886608
9963.424201419855,43012.37827687005,-19160.004754067035,-10703.64692254626
9973.370727702466,43026.10224796561,-19151.846367340848,-10701.657617289737
9973.370727702466,43027.28689042174,-19155.26618424251,-10697.455489332138
9964.653547364896,43015.61927981607,-19157.52371043249,-10691.219352629108
9961.59135837452,43007.550300067705,-19154.59563190885,-10695.332073608884
9965.391154931922,43010.94776522491,-19148.65006788374,-10697.433137587685
9971.984919546238,43026.54928285472,-19146.19137599365,-10694.661521275226
9975.695309125818,43035.78055331476,-19150.617021395807,-10696.181439898186
9967.179294488347,43024.62703283156,-19162.84342561286,-10694.885038719778
9961.859579307984,43014.92637573795,-19170.46537047212,-10697.880172476787
9968.274529966657,43019.195558928914,-19164.65391691374,-10696.516716065016
9976.343509715023,43033.94771026942,-19158.060152299426,-10698.573076554903
9969.705041611796,43041.39084117304,-19161.23410001208,-10702.082300434387
9962.038393263629,43033.344213169126,-19168.207844282133,-10697.433137587685
9964.675899109352,43026.95161425491,-19167.224367526094,-10700.942361467169
9966.888721810428,43028.51623636678,-19162.93283259068,-10699.69066377767
9970.710870112283,43041.99433827333,-19163.82690236889,-10699.198925399653
9980.478582439257,43052.87963782306,-19162.75401863504,-10699.131870166288
9976.745841115218,43041.50259989531,-19165.168007036213,-10695.242666631064
9974.577721903051,43034.461800391895,-19164.162178535724,-10692.269884618509
9978.623387649464,43040.27325395027,-19158.88716684427,-10693.83450673038
9983.764288874185,43061.32859722717,-19154.79679760895,-10700.271809133508
9977.483448682244,43065.75424262932,-19161.457617456632,-10703.445756846162
9976.187047503836,43063.45201295042,-19161.41291396772,-10693.856858474834
9973.035451535638,43061.35094897162,-19157.479006943584,-10692.135774151777
9975.136515514436,43064.591951917646,-19150.68407662917,-10690.884076462278
9981.774983617664,43076.86305962361,-19147.59953589434,-10689.274750861496
9980.523285928164,43082.78627190427,-19155.40029470924,-10695.890867220269
9970.73322185674,43074.96316134491,-19166.017373325514,-10697.142564909764
9966.26287296568,43068.77172813079,-19165.3244692474,-10696.58377129838
9966.844018321515,43076.52778345678,-19165.168007036213,-10693.655692774735
9971.470829423766,43092.50928074232,-19167.403181481743,-10695.35442535334
9975.762364359183,43109.07192338371,-19169.191321038168,-10700.40591960024
9969.325061956057,43107.97668790539,-19173.84048388487,-10700.584733555885
9966.82166657706,43103.61809773661,-19174.198111796155,-10699.98123645559
9968.386288688933,43103.34987680315,-19173.773428651504,-10702.59639055686
9973.996576547215,43111.73178097389,-19169.012507082523,-10704.11630917982
9972.141381757425,43112.96112691893,-19173.63931818477,-10713.392283128773
9963.982995031238,43100.377094790594,-19181.93181537769,-10718.488480864582
9964.295919453612,43094.789158676766,-19175.203940296644,-10709.659541804736
9966.888721810428,43096.420836022,-19166.442056470165,-10705.144489424763
9975.561198659088,43106.27795532679,-19158.70835288863,-10707.916105737222
9978.913960327383,43111.55296701824,-19162.731666890584,-10712.49821335056
9970.800277090106,43100.39944653505,-19166.911443103727,-10707.871402248313
9965.815838076573,43091.21287956392,-19164.20688202463,-10702.9763702126
9976.321157970568,43089.11181558512,-19163.51397794652,-10704.630399302292
9980.098602783512,43094.11860634311,-19165.43622796968,-10705.189192913676
9986.670015653375,43104.91449891502,-19168.006678582035,-10705.233896402586
9982.132611528948,43102.83578668068,-19169.660707671726,-10700.8753062338
9970.621463134465,43089.58120221868,-19171.940585606168,-10704.11630917982
9973.3036724691,43086.9213446285,-19169.16896929371,-10711.134756938787
9977.125820770958,43092.37517027559,-19166.822036125905,-10709.301913893452
9986.178277275358,43109.04957163925,-19163.379867479787,-10706.195021414163
9979.897437083417,43104.48981577037,-19170.13009430529,-10708.430195859695
9978.556332416098,43098.65601046753,-19167.78316113748,-10704.026902201998
9983.697233640818,43104.176891348,-19164.83273086938,-10700.920009722711
9985.39596621942,43115.53157753129,-19164.58686168037,-10703.579867312894
9987.005291820204,43124.31581310223,-19166.75498089254,-10707.849050503855
9982.31142548459,43113.60932750814,-19175.18158855219,-10704.540992324472
9978.154001015902,43097.53842324477,-19180.434248499187,-10699.377739355295
9978.64573939392,43093.91744064301,-19181.194207810662,-10701.747024267555
9982.423184206866,43099.90770815703,-19180.9259868772,-10705.54682082496
9996.12480355797,43117.20795836544,-19178.109667075834,-10709.525431338005
9991.319178500078,43112.96112691893,-19182.535312477983,-10709.704245293648
9981.998501062217,43098.3207343007,-19186.357460779844,-10706.776166770002
9984.16662027438,43095.07973135469,-19181.1271525773,-10704.228067902097
9990.64862616642,43100.44415002396,-19177.684983931184,-10702.618742301314
9998.494088470232,43111.59767050716,-19173.63931818477,-10703.624570801803
9994.917809357385,43107.14967336055,-19176.32152751941,-10698.68483527718
9987.340567987034,43091.50345224184,-19178.623757198307,-10698.483669577085
9986.111222041993,43086.76488241731,-19173.28169027349,-10702.171707412208
9989.419280221377,43092.35281853114,-19164.497454702552,-10700.8753062338
9993.777870390162,43102.50051051385,-19158.440131955165,-10697.768413754511
9989.01694882118,43093.42570226499,-19165.369172736308,-10696.606123042837
9982.624349906964,43078.80766139122,-19173.147579806755,-10691.241704373564
9981.752631873209,43075.49960321184,-19173.147579806755,-10686.033747915477
9983.205495262802,43082.406292248525,-19169.392486738263,-10686.570189782404
9985.26185575269,43092.84455690916,-19171.113571061323,-10694.21448638612
9980.59034116153,43089.894126641055,-19178.444943242663,-10696.203791642642
9973.549541658109,43078.02535033529,-19180.613062454828,-10689.945303195156
9973.370727702466,43074.89610611154,-19174.041649584968,-10688.291274105462
9976.857599837494,43077.42185323499,-19164.69862040265,-10688.15716363873
9984.144268529924,43090.49762374134,-19159.49066394456,-10684.625588014793
9986.245332508724,43091.011713863816,-19164.65391691374,-10686.279617104485
9968.4533439223,43075.03021657827,-19170.75594315004,-10690.50409680654
9960.183198473836,43068.4141002195,-19170.912405361225,-10697.388434098772
9972.476657924257,43070.53751594276,-19165.547986691952,-10700.338864366871
9981.864390595483,43087.14486207305,-19158.998925566542,-10704.07160569091
9985.083041797048,43094.56564123221,-19160.228271511587,-10701.322341122906
9979.293939983125,43088.39655976255,-19164.922137847203,-10703.512812079529
9986.111222041993,43093.00101912034,-19162.84342561286,-10703.155184168245
9983.473716196266,43099.93005990149,-19164.02806806899,-10704.518640580016
9990.3580534885,43112.58114726319,-19164.0727715579,-10707.513774337029
9981.573817917564,43115.08454264219,-19172.789951895476,-10710.441852860671
9975.181219003349,43102.0758273692,-19182.95999562264,-10710.911239494231
9965.279396209646,43094.14095808756,-19179.0260885985,-10717.728521553105
9976.634082392942,43098.7230657009,-19169.88422511628,-10713.951076740155
9986.625312164464,43106.0767896267,-19170.28655651648,-10715.962733741131
9980.724451628264,43104.80274019275,-19174.93571936318,-10718.39907388676
9969.392117189422,43088.709484184925,-19180.83657989938,-10716.20860293014
9979.11512602748,43081.40046374804,-19176.54504496396,-10713.325227895408
9979.673919638864,43088.44126325146,-19168.856044871336,-10713.794614528968
9990.849791866516,43098.94658314545,-19162.41874246821,-10719.27079192052
9988.391099976434,43102.3216965582,-19165.57033843641,-10721.237745432583
9974.421259691866,43088.97770511839,-19167.492588459565,-10719.874289020812
9973.773059102665,43081.13224281457,-19165.369172736308,-10722.40003614426
9976.477620181757,43079.50056546934,-19166.30794600343,-10723.048236733466
9979.629216149951,43087.10015858414,-19165.27976575849,-10726.021018746022
9978.623387649464,43084.932039371975,-19168.096085559857,-10725.46222513464
9974.063631780582,43070.69397815395,-19171.69471641716,-10721.371855899317
9970.30853871209,43058.15464951452,-19168.923100104705,-10719.427254131706
9971.4037741904,43054.77953610176,-19168.274899515494,-10723.40586464475
9968.095716011014,43059.42869894847,-19172.36526875082,-10732.346562426874
9972.051974779604,43057.77466985878,-19178.109667075834,-10732.12304498232
9970.844980579015,43044.385974930046,-19182.26709154452,-10726.959792013144
9967.380460188444,43035.69114633693,-19179.98721361008,-10723.472919878115
9967.872198566462,43033.03128874675,-19174.86866412981,-10723.964658256133
9972.141381757425,43040.94380628393,-19173.28169027349,-10733.799425816467
9974.376556202957,43046.621149375576,-19177.237949042075,-10736.191062473186
9966.26287296568,43035.17705621446,-19183.965824123123,-10729.150262969764
9964.765306087173,43025.90108226551,-19182.468257244615,-10722.31062916644
9970.979091045749,43031.377259657056,-19176.388582752774,-10721.371855899317
9980.009195805693,43044.72125109688,-19171.247681528053,-10725.395169901272
9977.908131826896,43051.09149826664,-19174.13105656279,-10733.687667094193
9966.888721810428,43039.71446033889,-19185.105763090345,-10734.805254316958
9962.194855474812,43033.76889631378,-19188.011489869536,-10732.100693237864
9962.798352575106,43036.629919604056,-19185.59750146836,-10736.146358984275
9962.619538619463,43046.35292844212,-19184.301100289955,-10742.22603347612
9975.270625981168,43055.628902391065,-19183.63054795629,-10745.288222466495
9968.073364266558,43049.14689649903,-19186.871550902317,-10742.337792198396
9967.559274144089,43047.44816392042,-19181.79770491096,-10735.185233972696
9965.659375865383,43047.9622540429,-19181.26126304403,-10741.55548114246
9973.460134680288,43059.67456813748,-19174.153408307244,-10743.969469543634
9976.745841115218,43070.2692950093,-19174.533387962983,-10749.266832979542
9965.88289330994,43060.36747221559,-19184.345803778862,-10757.469923194638
9964.944120042815,43055.38303320206,-19179.2272542986,-10749.758571357555
9969.839152078528,43056.74648961383,-19173.52755946249,-10743.231861976608
9977.572855660064,43069.2187630199,-19166.88909135927,-10743.79065558799
9979.11512602748,43082.7192166709,-19172.85700712884,-10743.343620698884
9973.437782935833,43082.49569922635,-19183.63054795629,-10742.270736965029
9970.085021267536,43079.43351023597,-19185.26222530153,-10739.54382414148
9976.768192859674,43082.42864399298,-19180.277786288,-10738.873271807824
9974.01892829167,43089.17887081848,-19178.735515920584,-10743.723600354624
9978.131649271449,43101.00294363534,-19179.003736854047,-10742.561309642948
9972.83428583554,43096.57729823319,-19182.468257244615,-10741.153149742264
9969.056841022591,43087.99422836235,-19181.70829793314,-10738.761513085548
9974.331852714044,43092.26341155332,-19177.70733567564,-10737.59922237387
9981.21619000628,43106.81439719372,-19176.634451941783,-10741.89075730929
9982.087908040035,43122.34885959016,-19185.17281832371,-10753.446609192682
9983.250198751712,43129.322603860215,-19188.45852475864,-10749.31153646845
9982.557294673596,43132.38479285059,-19185.485742746085,-10743.880062565811
9988.234637765248,43137.86097024215,-19178.93668162068,-10739.275603208018
9996.92946635836,43150.46735411494,-19173.84048388487,-10743.857710821356
9993.867277367985,43163.81134555475,-19179.94251012117,-10754.22892024862
9981.372652217467,43157.32933966271,-19189.46435325913,-10752.060801036454
9972.96839630227,43143.71712728944,-19188.346766036364,-10749.467998679638
9977.952835315804,43143.47125810043,-19181.998870611056,-10751.054972535963
9987.228809264758,43157.32933966271,-19176.72385891961,-10749.31153646845
9992.414413978388,43174.0931480042,-19178.60140545385,-10749.64681263528
9983.02668130716,43178.29527596179,-19188.235007314088,-10744.930594555211
9968.11806775547,43167.074700245226,-19196.482801018097,-10740.862577064345
9979.964492316782,43160.03390074181,-19191.18543758219,-10740.370838686327
9991.207419777802,43165.64418860009,-19179.51782697652,-10739.02973401901
9995.476602968763,43172.1932497255,-19175.71803041912,-10739.275603208018
9989.955722088303,43164.19132521049,-19179.83075139889,-10737.107483995853
9975.74001261473,43138.687984786986,-19186.335109035383,-10742.248385220577
9974.376556202957,43131.44601958347,-19184.21169331213,-10742.65071662077
9981.037376050635,43134.50820857385,-19178.26612928702,-10739.946155541678
9986.290035997634,43140.90080748806,-19176.32152751941,-10740.50494915306
9977.5058004267,43130.88722597209,-19184.79283866797,-10744.103580010364
9969.861503822984,43113.96695541942,-19187.05036485796,-10738.158015985253
9969.548579400607,43106.56852800471,-19186.02218461301,-10735.922841539725
9972.4543061798,43103.08165586968,-19183.92112063421,-10738.806216574458
9976.745841115218,43104.020429136806,-19181.82005665541,-10742.449550920672
9972.722527113265,43095.59382147716,-19186.04453635747,-10743.701248610168
9965.435858420831,43076.416024734506,-19188.86085615884,-10741.533129398003
9965.435858420831,43065.977760073874,-19182.55766422244,-10736.45928340665
9966.955777043791,43064.23432400637,-19180.389545010275,-10740.259079964051
9969.414468933875,43072.52682119928,-19179.0260885985,-10745.712905611146
9966.441686921322,43064.63665540655,-19181.1271525773,-10746.60697538936
9964.385326431431,43048.54339939873,-19181.26126304403,-10740.281431708509
9963.82653282005,43042.15080048452,-19177.55087346445,-10738.828568318911
9965.63702412093,43043.71542259639,-19174.08635307388,-10742.382495687309
9971.224960234757,43056.43356519146,-19170.353611749844,-10746.74108585609
9968.296881711112,43057.34998671413,-19173.147579806755,-10746.785789345002
9960.607881618487,43044.56478888569,-19179.920158376717,-10741.063742764443
9959.624404862452,43037.68045159346,-19179.07079208741,-10740.482597408603
9959.512646140176,43039.82621906117,-19179.339013020875,-10742.069571264932
9969.727393356252,43054.01957679029,-19171.2253297836,-10742.628364876316
9971.806105590596,43055.87477158008,-19170.510073961028,-10741.98016428711
9964.16180898688,43042.08374525115,-19174.421629240707,-10740.415542175238
9963.245387464212,43038.507466138304,-19168.72193440461,-10740.326135197418
9964.519436898165,43044.72125109688,-19162.195225023654,-10745.020001533032
9968.565102644576,43059.49575418184,-19158.417780210708,-10748.953908557169
9976.902303326406,43062.42383270548,-19158.864815099816,-10748.59628064588
9968.274529966657,43043.78247782976,-19162.03876281247,-10746.808141089456
9965.458210165289,43039.490942894336,-19154.238003997565,-10744.148283499277
9971.850809079506,43050.89033256655,-19146.19137599365,-10746.204643989164
9978.913960327383,43062.84851585013,-19135.99898052204,-10749.51270216855
9973.191913746825,43070.0681293092,-19133.49558514304,-10752.016097547545
9960.83139906304,43057.6629111365,-19140.33521894637,-10749.31153646845
9958.573872873054,43050.97973954436,-19141.45280616913,-10748.08219052341
9967.134590999436,43061.19448676044,-19136.13309098877,-10747.322231211929
9972.74487885772,43075.18667878946,-19136.51307064451,-10750.540882413494
9979.852733594504,43085.80375740573,-19136.580125877877,-10749.535053913003
9976.902303326406,43080.729911414375,-19134.903745043724,-10742.158978242753
9970.800277090106,43071.655103165525,-19134.568468876896,-10743.723600354624
9974.465963180775,43078.695902668944,-19131.662742097706,-10742.047219520477
9983.205495262802,43092.822205164695,-19130.34398917484,-10748.17159750123
9979.696271383318,43096.64435346655,-19135.976628777586,-10752.351373714371
9971.224960234757,43086.69782718395,-19145.58787889336,-10748.015135290045
9966.218169476768,43082.04866433724,-19142.972724792093,-10742.471902665127
9969.392117189422,43085.848460894646,-19139.619963123798,-10739.387361930296
9981.59616966202,43103.23811808087,-19132.78032932047,-10738.493292152085
9984.613655163486,43115.08454264219,-19134.859041554813,-10743.544786398985
9971.917864312873,43106.79204544926,-19147.26425972751,-10744.349449199372
9966.844018321515,43103.46163552543,-19145.40906493772,-10744.394152688285
9975.918826570372,43117.25266185435,-19141.184585235667,-10739.65558286376
9988.704024398809,43141.10197318816,-19134.344951432344,-10737.800388073969
9991.475640711264,43158.67044433003,-19132.802681064928,-10742.561309642948
9984.300730741112,43155.83177278421,-19136.848346811337,-10738.247422963075
9978.556332416098,43151.272016915325,-19135.08255899937,-10737.621574118326
9975.427088192357,43147.76279303584,-19132.37799792028,-10740.84022531989
9975.941178314826,43152.814287282745,-19129.04758799644,-10743.500082910072
9976.343509715023,43160.860915286656,-19129.87460254128,-10746.22699573362
9964.094753753514,43146.22052266842,-19140.066998012902,-10747.679859123216
9960.786695574128,43135.1787609075,-19140.37992243528,-10745.131760255308
9963.915939797873,43132.69771727297,-19133.115605487303,-10748.283356223506
9967.91690205537,43139.7832202653,-19128.0641112404,-10749.9373853132
9964.139457242423,43146.801668024265,-19134.344951432344,-10754.519492926538
9951.01898324716,43133.12240041762,-19148.180681250175,-10758.721620884136
9965.905245054397,43127.75798174834,-19142.21276548061,-10750.540882413494
9970.68851836783,43131.22250213892,-19137.273029955988,-10745.779960844511
9981.640873150933,43146.68990930199,-19131.193355464144,-10745.51173991105
9986.155925530902,43165.197153710986,-19131.97566652008,-10748.84214983489
9975.762364359183,43163.9901595104,-19142.12335850279,-10747.74691435658
9973.527189913651,43156.14469720658,-19143.33035270337,-10744.50591141056
9975.74001261473,43155.80942103976,-19136.423663666686,-10743.567138143437
9976.678785881852,43165.82300255573,-19133.07090199839,-10748.305707967962
9973.88481782494,43170.62862761362,-19139.50820440152,-10757.894606339289
9971.292015468123,43155.69766231748,-19145.69963761564,-10753.580719659414
9964.385326431431,43139.20207490946,-19144.962030048613,-10744.8858910663
9971.202608490305,43139.55970282075,-19137.384788678264,-10744.50591141056
9981.193838261825,43147.04753721327,-19128.93582927416,-10745.17646374422
9981.819687106572,43153.46248787195,-19127.751186818023,-10750.429123691216
9970.621463134465,43138.91150223154,-19137.1165677448,-10755.190045260197
9961.412544418878,43121.96887993442,-19141.117530002302,-10750.786751602502
9964.944120042815,43120.29249910027,-19138.27885845648,-10747.433989934205
9972.677823624352,43127.48976081488,-19132.28859094245,-10749.713867868646
9979.383346960944,43138.687984786986,-19125.3148466724,-10748.059838778954
9971.716698612774,43129.79199049377,-19129.36051241881,-10743.634193376804
9970.710870112283,43117.76675197682,-19124.867811783293,-10739.230899719108
9972.051974779604,43113.13994087457,-19121.73856755955,-10737.59922237387
9970.286186967634,43114.30223158625,-19124.77840480547,-10741.466074164638
9971.78375384614,43124.11464740213,-19122.409119893207,-10740.59435613088
9967.4028119329,43111.95529841844,-19133.13795723176,-10746.472864922627
9964.720602598263,43095.79498717725,-19136.602477622328,-10746.294050966984
9968.20747473329,43088.44126325146,-19133.58499212086,-10745.712905611146
9971.046146279115,43090.85525165263,-19129.896954285738,-10743.947117799178
9976.209399248291,43101.15940584653,-19126.96887576209,-10742.628364876316
9966.82166657706,43087.74835917335,-19135.93192528867,-10740.996687531077
9962.194855474812,43071.31982699869,-19136.960105533613,-10736.41457991774
9963.2006839753,43067.9670653304,-19132.17683222018,-10737.375704929318
9967.82749507755,43074.18085028897,-19123.10202397132,-10734.782902572502
9968.788620089128,43079.43351023597,-19122.833803037855,-10737.241594462586
9962.507779897189,43072.39271073255,-19132.936791531654,-10737.308649695951
9960.07143975156,43059.696919881935,-19131.662742097706,-10730.156091470251
9964.184160731336,43057.8640768366,-19124.68899782765,-10725.864556534834
9966.82166657706,43058.33346347016,-19125.04662573893,-10732.815949060434
9971.001442790204,43068.86113510861,-19125.516012372496,-10732.324210682418
9970.30853871209,43071.07395780968,-19130.72396883058,-10723.785844300492
9956.20458796079,43059.80867860421,-19138.055341011925,-10718.488480864582
9959.177369973346,43060.43452744896,-19132.60151536483,-10710.26303890503
9970.017966034173,43068.503507197325,-19126.20891645061,-10712.78878602848
9976.097640526012,43081.713388170414,-19122.3644164043,-10715.426291874206
9971.87316082396,43080.12641431409,-19129.13699497425,-10715.02396047401
9961.144323485414,43067.54238218575,-19134.1661374767,-10714.778091285
9958.149189728403,43060.72510012688,-19135.350779932836,-10718.68964656468
9961.032564763138,43063.34025422815,-19135.954277033125,-10725.730446068104
9970.509704412189,43078.3159230132,-19133.40617816522,-10723.8305477894
9968.296881711112,43083.7697486603,-19137.384788678264,-10720.83541403239
9962.999518275205,43073.6667601665,-19138.949410790137,-10717.147376197265
9966.173465987858,43070.33635024266,-19128.824070551884,-10714.129890695798
9972.588416646531,43078.919420113496,-19124.39842514973,-10714.666332562723
9973.147210257914,43093.26924005381,-19121.515050115,-10716.968562241622
9979.808030105594,43098.41014127853,-19122.520878615487,-10718.488480864582
9971.694346868318,43087.793062662255,-19126.54419261744,-10718.533184353491
9969.235654978234,43081.53457421477,-19127.550021117928,-10722.40003614426
9971.761402101683,43085.93786787246,-19125.270143183487,-10724.903431523257
9973.3036724691,43098.991286634366,-19123.951390260627,-10728.099730980364
9970.956739301291,43097.56077498922,-19137.764768334004,-10733.061818249444
9969.392117189422,43085.31201902772,-19144.73851260406,-10732.16774847123
9971.359070701488,43082.5180509708,-19139.17292823469,-10729.50789088105
9967.894550310915,43083.9709143604,-19142.525689902985,-10734.626440361317
9973.281320724644,43095.839690666166,-19141.63162012477,-10741.711943353646
9975.538846914633,43102.38875179157,-19142.1680619917,-10741.64488812028
9964.273567709157,43087.9718766179,-19145.87845157128,-10740.773170086524
9966.240521221223,43082.138071315065,-19142.63744862526,-10745.869367822334
9966.59814913251,43085.53553647227,-19141.184585235667,-10757.380516216816
9973.326024213557,43100.55590874623,-19139.97759103508,-10757.715792383648
9969.88385556744,43105.60740299313,-19147.666591127705,-10756.978184816622
9960.674936851852,43092.30811504223,-19156.942565076657,-10756.821722605437
9954.483503637732,43080.55109745874,-19162.016411068013,-10761.716754641147
9962.016041519171,43081.33340851467,-19156.003791809537,-10759.503931940071
9970.77792534565,43093.40335052054,-19149.20886149512,-10755.391210960295
9969.414468933875,43103.327525058696,-19149.007695795022,-10754.206568504163
9963.960643286782,43094.073902854194,-19149.745303362048,-10746.517568411538
9960.697288596308,43085.11085332762,-19145.006733537524,-10743.187158487695
9960.809047318584,43086.09433008365,-19143.97855329258,-10749.713867868646
9967.69338461082,43093.58216447618,-19140.69284685765,-10755.011231304554
9969.660338122883,43099.03599012327,-19142.92802130318,-10760.554463929471
9962.753649086197,43081.37811200358,-19150.058227784422,-10757.9393098282
9958.953852528794,43069.37522523108,-19153.209823752622,-10757.402867961271
9959.11031473998,43069.2634665088,-19152.0698847854,-10755.27945223802
9965.704079354296,43077.734777657366,-19149.767655106505,-10760.398001718284
9965.21234097628,43080.171117803,-19154.97561156459,-10765.60595817637
9953.410619903878,43060.322768726684,-19161.99405932356,-10766.768248888044
9952.248329192202,43046.33057669766,-19163.871605857803,-10765.874179109836
9952.315384425568,43047.80579183171,-19162.239928512565,-10769.316347755952
9958.283300195137,43054.89129482404,-19160.40708546723,-10774.41254549176
9958.909149039882,43057.48409718086,-19163.64808841325,-10779.575798460935
9951.957756514284,43046.35292844212,-19168.11843730431,-10778.145286815798
9958.037431006123,43038.64157660504,-19160.854120356336,-10772.445591979696
9960.674936851852,43040.72028883938,-19155.377942964788,-10769.718679156147
9968.185122988836,43051.53853315575,-19147.487777172064,-10771.171542545742
9969.012137533682,43058.73579487036,-19149.65589638423,-10776.692423426202
9954.818779804562,43046.35292844212,-19160.42943721169,-10781.498048484094
9947.241538434211,43039.37918417206,-19164.139826791263,-10782.682690940224
9950.236672191224,43044.385974930046,-19163.51397794652,-10785.320196785951
9960.11614324047,43054.310149468205,-19161.92700409019,-10784.202609563186
9967.335756699536,43069.48698395336,-19159.31184998892,-10785.051975852488
9962.26191070818,43063.58612341715,-19161.457617456632,-10781.498048484094
9960.2502537072,43057.305283225214,-19162.12816979029,-10778.234693793618
9963.871236308962,43062.35677747212,-19164.117475046813,-10782.772097918049
9976.231750992743,43076.125452056585,-19162.195225023654,-10782.816801406956
9979.696271383318,43091.54815573074,-19159.08833254437,-10781.386289761816
9973.415431191375,43091.54815573074,-19165.816207625416,-10780.112240327864
9968.699213111307,43085.42377775,-19166.50911170353,-10776.42420249274
9976.611730648488,43092.55398423124,-19157.52371043249,-10772.266778024052
9981.573817917564,43102.50051051385,-19157.166082521213,-10779.531094972026
9984.099565041011,43115.26335659783,-19156.048495298444,-10782.973263618143
9982.043204551126,43116.53740603178,-19156.98726856557,-10778.391156004804
9978.846905094017,43108.51312977233,-19154.75209412004,-10773.22790303563
9980.702099883809,43108.37901930559,-19152.673381885696,-10768.601091933382
9989.575742432564,43118.05732465474,-19146.63841088276,-10769.428106478228
9994.046091323626,43132.36244110614,-19141.60926838032,-10764.980109331622
9979.852733594504,43128.38383059309,-19146.861928327315,-10761.336774985406
9980.299768483612,43113.76578971932,-19147.30896321642,-10758.140475528298
9984.054861552104,43110.97182166241,-19144.000905037035,-10759.28041449552
9985.194800519324,43118.973746177406,-19136.714236344604,-10763.013155819555
9987.295864498125,43127.62387128161,-19134.00967526551,-10762.297899996986
9979.763326616683,43119.93487118898,-19138.72589334558,-10753.871292337331
9971.515532912676,43106.81439719372,-19140.938716046658,-10749.0880190239
9968.11806775547,43104.75803670383,-19139.97759103508,-10748.864501579345
9974.421259691866,43114.16812111952,-19137.13891948925,-10747.813969589946
9984.323082485567,43131.20015039446,-19135.32842818837,-10749.780923102013
9973.616596891476,43131.08839167219,-19141.40810268022,-10750.205606246664
9975.561198659088,43122.95235669045,-19143.59857363684,-10749.490350424094
9974.197742247314,43122.17004563451,-19141.989248036058,-10749.266832979542
9977.103469026502,43129.63552828259,-19140.268163713,-10753.111333025854
9985.21715226378,43150.06502271474,-19137.18362297817,-10758.520455184038
9977.952835315804,43149.99796748137,-19144.090312014858,-10758.118123783845
9972.789582346628,43132.34008936168,-19145.654934126727,-10754.899472582278
9971.090849768025,43129.65788002704,-19142.07865501388,-10750.160902757752
9971.627291634954,43130.03785968279,-19142.346875947344,-10753.84894059288
9973.326024213557,43135.20111265196,-19142.1680619917,-10761.381478474315
9967.849846822006,43126.75215324786,-19147.15250100524,-10761.60499591887
9962.64189036392,43109.58601350618,-19149.27591672849,-10755.234748749108
9963.78182933114,43104.95920240393,-19149.3206202174,-10752.50783592556
9969.839152078528,43110.94946991796,-19146.5713556494,-10753.357202214862
9977.818724849072,43117.61028976563,-19139.73172184607,-10753.021926048032
9971.582588146042,43109.09427512816,-19141.899841058235,-10749.31153646845
9966.128762498947,43095.34795228815,-19142.056303269423,-10743.41067593225
9961.68076535234,43086.58606846167,-19139.64231486825,-10739.186196230195
9959.06561125107,43082.67451318199,-19141.69867535814,-10740.683763108704
9969.146248000414,43094.00684762083,-19136.110739244312,-10736.16871072873
9960.049088007105,43090.788196419264,-19139.39644567924,-10743.969469543634
9957.63509960593,43069.978722331376,-19145.74434110455,-10745.64585037778
9957.21041646128,43060.322768726684,-19144.157367248223,-10745.623498633326
9966.888721810428,43068.43645196396,-19136.714236344604,-10747.858673078856
9972.521361413164,43082.071016081696,-19133.115605487303,-10754.69830688218
9970.30853871209,43084.037969593766,-19140.044646268445,-10761.336774985406
9959.959681029282,43069.08465255316,-19149.16415800621,-10760.554463929471
9958.417410661868,43064.39078621755,-19145.92315506019,-10752.284318481008
9960.2502537072,43069.978722331376,-19145.029085281974,-10757.246405750086
9962.954814786292,43082.987437604366,-19144.760864348515,-10765.717716898647
9972.364899201975,43088.217745806905,-19144.29147771496,-10763.08021105292
9965.033527020638,43076.594838690144,-19149.43237893968,-10756.12881852732
9962.418372919366,43070.04577756474,-19148.761826606016,-10753.580719659414
9965.502913654198,43072.72798689938,-19149.007695795022,-10756.642908649792
9974.778887603152,43090.29645804125,-19142.39157943625,-10754.452437693171
9978.109297526991,43100.35474304614,-19141.22928872458,-10752.105504525363
9969.950910800804,43088.55302197373,-19149.20886149512,-10758.36399297285
9968.028660777649,43083.72504517139,-19147.93481206117,-10760.554463929471
9970.889684067928,43088.083635340176,-19140.08934975736,-10757.514626683547
9976.4552684373,43102.83578668068,-19137.87652705628,-10757.805199361468
9978.981015560748,43108.40137105005,-19140.22346022409,-10751.971394058632
9973.102506769004,43096.08555985517,-19146.19137599365,-10742.22603347612
9965.25704446519,43090.63173420808,-19145.16319574871,-10741.533129398003
9966.844018321515,43094.25271680984,-19142.749207347537,-10748.149245756777
9979.249236494212,43108.22255709441,-19135.395483421744,-10746.182292244708
9977.326986471056,43117.2750135988,-19137.92123054519,-10746.830492833911
9983.719585385274,43111.24004259587,-19140.82695732438,-10740.951984042167
9977.572855660064,43102.43345528048,-19143.755035848026,-10741.197853231177
9976.231750992743,43106.03208613778,-19141.676323613683,-10742.158978242753
9985.59713191952,43122.97470843491,-19132.959143276115,-10743.567138143437
9987.854658109503,43136.184589408,-19137.384788678264,-10743.343620698884
9978.668091138374,43124.96401369143,-19146.48194867157,-10738.672106107726
9972.566064902076,43114.74926647535,-19152.29340222996,-10745.422332933227
9974.600073647509,43117.58793802118,-19145.54317540445,-10750.049144035476
9982.40083246241,43129.23319688239,-19131.685093842163,-10743.164806743242
9977.68461438234,43133.23415913989,-19139.73172184607,-10747.79161784549
9971.06849802357,43121.96887993442,-19148.940640561657,-10747.590452145392
9968.699213111307,43112.91642343002,-19145.99021029356,-10742.829530576411
9973.326024213557,43119.3760775776,-19140.044646268445,-10749.199777746177
9973.571893402564,43131.289557372285,-19138.10004450084,-10755.41356270475
9971.046146279115,43139.00090920936,-19145.78904459346,-10760.93444358521
9962.194855474812,43129.14378990457,-19157.568413921406,-10759.593338917892
9954.930538526838,43116.09037114267,-19159.98240232258,-10754.295975481984
9961.814875819073,43115.59863276465,-19156.98726856557,-10754.810065604455
9969.749745100708,43126.21571138093,-19145.185547493165,-10752.12785626982
9974.845942836517,43134.17293240702,-19144.626753881785,-10755.346507471384
9969.772096845163,43120.33720258918,-19149.007695795022,-10748.350411456871
9968.051012522104,43112.06705714072,-19148.82888183938,-10746.60697538936
9964.4523816648,43110.23421409538,-19149.298268472943,-10750.60793764686
9971.582588146042,43116.0233159093,-19145.207899237623,-10755.301803982473
9977.97518706026,43124.53933054678,-19142.63744862526,-10754.072458037432
9970.509704412189,43115.7774467203,-19149.678248128683,-10749.266832979542
9961.367840929966,43095.16913833251,-19149.901765573235,-10748.573928901424
9964.698250853808,43089.64825745204,-19146.75016960504,-10753.13368477031
9965.324099698557,43096.66670521101,-19143.799739336937,-10749.423295190729
9966.30757645459,43105.65210648205,-19145.274954470988,-10749.825626590924
9963.960643286782,43093.448054009445,-19156.808454609927,-10748.193949245686
9955.3999251604,43075.343141000645,-19157.43430345468,-10746.428161433716
9954.930538526838,43071.47628920988,-19152.9192510747,-10745.89171956679
9961.88193105244,43075.92428635649,-19147.465425427607,-10747.411638189751
9965.77113458766,43083.90385912703,-19144.73851260406,-10750.27266148003
9954.148227470903,43075.27608576728,-19152.159291763222,-10749.199777746177
9946.034544233626,43058.69109138144,-19155.98144006508,-10748.350411456871
9948.001497745694,43053.661948879,-19155.2214807536,-10758.140475528298
9952.963585014772,43065.15074552903,-19148.09127427236,-10757.201702261174
9965.234692720736,43083.47917598238,-19142.19041373616,-10752.731353370113
9964.854713064997,43083.03214109328,-19147.577184149886,-10752.574891158923
9944.4475703773,43063.9661030729,-19159.24479475556,-10752.396077203284
9944.939308755316,43059.02636754827,-19160.11651278931,-10757.626385405823
9955.914015282871,43070.738681642855,-19156.920213332203,-10760.241539507097
9960.853750807497,43084.8202806497,-19153.54509991945,-10759.45922845116
9953.92471002635,43078.94177185795,-19160.898823845248,-10753.692478381692
9948.940271012816,43065.68718739595,-19163.89395760226,-10748.998612046076
9953.187102459324,43066.536553685255,-19155.869681342803,-10748.663335879248
9957.12100948346,43073.93498109996,-19155.668515642705,-10747.523396912027
9967.73808809973,43090.00588536333,-19156.20495750963,-10747.143417256286
9959.870274051462,43087.18956556196,-19165.57033843641,-10745.958774800156
9950.72841056924,43072.88444911056,-19169.861873371825,-10745.89171956679
9951.644832091908,43071.67745490998,-19171.51590246152,-10747.143417256286
9960.87610255195,43083.52387947129,-19163.98336458008,-10739.65558286376
9970.174428245358,43100.377094790594,-19157.233137754574,-10742.874234065324
9965.77113458766,43098.81247267872,-19159.71418138912,-10738.917975296734
9964.027698520147,43092.08459759767,-19162.48579770157,-10733.844129305378
9966.955777043791,43092.71044644242,-19161.055286056435,-10734.894661294778
9966.084059010036,43101.36057154663,-19159.848291855847,-10743.45537942116
9974.82359109206,43117.16325487653,-19155.24383249805,-10741.667239864735
9969.995614289715,43115.91155718703,-19163.69279190216,-10740.12496949732
9964.16180898688,43104.13218785908,-19169.057210571435,-10742.851882320869
9962.708945597284,43103.46163552543,-19165.480931458587,-10743.544786398985
9963.982995031238,43113.56462401922,-19159.73653313357,-10747.74691435658
9977.058765537591,43132.25068238386,-19158.12720753279,-10753.55836791496
9971.180256745847,43132.27303412832,-19164.184530280178,-10755.838245849402
9964.519436898165,43124.11464740213,-19169.1242658048,-10752.038449291998
9967.78279158864,43125.36634509163,-19166.598518681352,-10756.039411549498
9972.364899201975,43135.08935392968,-19158.283669743974,-10760.554463929471
9978.802201605104,43154.0883367167,-19155.64616389825,-10762.119086041344
9969.459172422788,43161.17383970903,-19168.83369312688,-10762.052030807976
9959.445590906813,43157.93283676301,-19175.650975185752,-10757.045240049987
9969.123896255958,43159.72097631943,-19170.621832683308,-10754.56419641545
9979.852733594504,43170.78508982481,-19167.157312292733,-10754.005402804063
9986.73707088674,43188.77824411133,-19163.89395760226,-10753.13368477031
9986.40179471991,43193.06977904675,-19166.039725069968,-10755.36885921584
9974.980053303248,43181.80449984127,-19167.76080939303,-10749.780923102013
9972.141381757425,43176.93181955002,-19164.65391691374,-10738.537995640992
9973.996576547215,43180.50809866287,-19157.769579621505,-10736.302821195462
9980.411527205888,43194.20971801397,-19153.254527241534,-10735.855786306356
9979.808030105594,43196.22137501495,-19157.724876132597,-10732.637135104793
9971.694346868318,43183.23501148642,-19164.22923376909,-10728.479710636106
9973.88481782494,43176.95417129448,-19160.630602911784,-10724.79167280098
9970.330890456546,43170.82979331372,-19157.546062176956,-10729.306725180952
9974.533018414142,43176.21656372745,-19150.63937314026,-10731.8324723044
9967.91690205537,43170.02513051333,-19154.908556331226,-10733.419446160728
9957.098657739003,43148.38864188059,-19161.16704477871,-10732.681838593702
9953.008288503685,43135.64814754107,-19159.37890522229,-10730.916050781734
9953.142398970414,43131.40131609456,-19158.26131799952,-10733.039466504988
9967.760439844184,43141.43724935499,-19148.203032994632,-10727.36212341334
9961.367840929966,43139.44794409847,-19152.69573363015,-10733.352390927364
9952.91888152586,43120.29249910027,-19159.62477441129,-10733.88883279429
9953.92471002635,43106.70263847144,-19155.80262610944,-10732.592431615882
9956.249291449702,43105.18271984848,-19151.64520164075,-10734.335867683396
9959.02090776216,43110.83771119567,-19149.45473068413,-10737.107483995853
9953.321212926056,43107.26143208283,-19156.47317844309,-10733.218280460633
9949.4990646242,43089.827071407686,-19158.46248369962,-10727.02684724651
9951.153093713892,43079.18764104696,-19153.634506897277,-10727.183309457698
9948.58264310153,43077.31009451272,-19151.354628962832,-10731.698361837667
9950.616651846964,43079.63467593607,-19150.70642837363,-10743.41067593225
9958.909149039882,43085.17790856098,-19152.56162316342,-10747.188120745195
9951.421314647356,43073.42089097749,-19161.882300601283,-10750.60793764686
9943.508797110177,43064.27902749527,-19164.74332389156,-10754.430085948718
9946.414523889369,43065.39661471804,-19158.64129765526,-10753.491312681594
9955.48933213822,43075.47725146738,-19154.52857667549,-10756.911129583255
9968.274529966657,43086.56371671721,-19155.310887731423,-10758.36399297285
9959.289128695624,43074.650236922535,-19164.40804772473,-10760.487408696104
9954.438800148822,43062.15561177202,-19167.000850081546,-10757.805199361468
9952.024811747648,43062.93792282795,-19167.76080939303,-10760.018022062544
9954.662317593376,43072.95150434393,-19166.039725069968,-10765.248330265083
9960.429067662844,43083.05449283773,-19165.391524480765,-10765.762420387557
9953.880006537438,43079.18764104696,-19165.25741401403,-10755.681783638214
9949.364954157469,43070.53751594276,-19164.45275121364,-10755.570024915938
9954.170579215355,43072.05743456572,-19160.340030233863,-10756.79937086098
9959.1997217178,43079.58997244716,-19161.74819013455,-10763.728411642123
9962.30661419709,43088.88829814056,-19164.162178535724,-10765.628309920825
9955.802256560595,43083.61328644911,-19173.371097251307,-10763.728411642123
9951.845997792008,43072.34800724364,-19179.562530465428,-10767.997594833088
9951.510721625176,43072.90680085502,-19177.014431597523,-10766.522379699038
9958.68563159533,43086.54136497276,-19166.196187281155,-10762.923748841731
9958.68563159533,43096.64435346655,-19164.22923376909,-10767.058821565965
9953.142398970414,43086.98839986186,-19169.213672782626,-10764.600129675882
9951.957756514284,43081.6686846815,-19169.72776290509,-10762.186141274708
9953.276509437146,43080.70755966992,-19170.28655651648,-10762.74493488609
9955.422276904856,43088.485966740365,-19168.38665823777,-10761.202664518674
9963.647718864408,43104.24394658136,-19168.99015533807,-10763.259025008563
9963.357146186489,43104.33335355918,-19173.46050422913,-10761.448533707684
9952.248329192202,43091.39169351956,-19174.86866412981,-10763.124914541831
9951.845997792008,43092.24105980886,-19171.85117862835,-10761.627347663323
9960.138494984923,43106.30030707125,-19165.145655291755,-10761.336774985406
9965.815838076573,43118.61611826612,-19164.162178535724,-10763.616652919847
9957.702154839297,43112.111760629625,-19173.63931818477,-10759.191007517697
9951.197797202802,43101.11470235762,-19176.098010074857,-10759.436876706706
9947.912090767872,43096.30907729973,-19176.813265897425,-10769.65162392278
9958.551521128598,43109.72012397291,-19163.40221922424,-10767.975243088633
9973.191913746825,43131.9824614504,-19152.226346996587,-10758.252234250574
9968.63215787794,43130.03785968279,-19160.228271511587,-10757.447571450182
9960.004384518194,43120.73953398938,-19164.810379124927,-10751.233786491608
9962.999518275205,43124.4275718245,-19161.278803500987,-10742.963641043145
9968.900378811406,43139.04561269828,-19161.345858734352,-10749.043315534987
9979.919788827872,43164.59365661069,-19161.50232094554,-10752.105504525363
9978.154001015902,43173.53435439281,-19166.06207681442,-10749.9373853132
9969.235654978234,43166.851182800674,-19171.27003327251,-10751.680821380714
9971.046146279115,43172.595581125686,-19167.157312292733,-10750.60793764686
9980.36682371698,43184.889040576105,-19159.781236622483,-10745.020001533032
9982.31142548459,43196.22137501495,-19158.998925566542,-10749.713867868646
9973.415431191375,43188.57707841123,-19163.916309346718,-10750.496178924584
9965.88289330994,43173.4896509039,-19165.547986691952,-10747.478693423116
9961.412544418878,43167.7899560678,-19168.520768704508,-10750.384420202308
9963.804181075597,43170.00277876888,-19168.163140793225,-10751.45730393616
9969.503875911698,43177.66942711704,-19163.64808841325,-10753.111333025854
9965.100582254005,43170.80744156927,-19168.230196026587,-10751.881987080813
9956.606919360986,43153.574246594224,-19170.80064663895,-10749.22212949063
9955.06464899357,43141.12432493261,-19169.101914060346,-10746.69638236718
9958.395058917413,43138.50917083135,-19166.55381519244,-10748.0374870345
9958.015079261671,43137.39158360858,-19167.71610590412,-10753.468960937138
9956.606919360986,43129.389659093584,-19171.381791994787,-10751.07732428042
9947.10742796748,43111.79883620726,-19175.762733908028,-10747.36693470084
9946.414523889369,43104.087484370175,-19176.16506530822,-10753.290146981495
9948.560291357076,43103.50633901433,-19169.906576860736,-10749.110370768354
9952.53890187012,43109.00486815034,-19163.245757013054,-10740.303783452962
9955.377573415944,43104.91449891502,-19164.542158191463,-10741.287260208996
9953.96941351526,43087.61424870661,-19168.40900998223,-10739.923803797225
9956.91984378336,43083.70269342693,-19164.31864074691,-10736.571042128926
9958.931500784338,43087.658952195525,-19162.79872212395,-10740.281431708509
9963.2006839753,43095.48206275488,-19158.060152299426,-10742.337792198396
9965.502913654198,43095.19149007696,-19159.37890522229,-10739.186196230195
9961.948986285804,43086.31784752821,-19159.71418138912,-10736.146358984275
9962.68659385283,43082.04866433724,-19160.11651278931,-10737.912146796243
9962.999518275205,43080.104062569626,-19161.390562223263,-10741.22020497563
9969.16859974487,43092.77750167579,-19158.618945910806,-10735.922841539725
9970.956739301291,43100.15357734604,-19161.010582567524,-10736.8839665513
9957.791561817116,43081.31105677022,-19170.867701872317,-10736.749856084569
9961.770172330162,43075.36549274511,-19162.41874246821,-10730.64782984827
9973.638948635931,43084.57441146069,-19155.377942964788,-10730.804292059456
9974.912998069884,43098.14192034506,-19157.63546915477,-10738.560347385448
9971.582588146042,43097.15844358903,-19163.089294801863,-10742.293088709484
9963.670070608863,43082.406292248525,-19166.75498089254,-10741.60018463137
9967.961605544282,43078.96412360241,-19159.26714650001,-10738.873271807824
9973.88481782494,43086.54136497276,-19152.852195841337,-10743.07539976542
9977.058765537591,43095.906745899534,-19151.108759773822,-10748.439818434694
9982.490239440232,43103.01460063632,-19150.013524295515,-10740.303783452962
9973.035451535638,43091.27993479728,-19153.79096910846,-10739.007382274554
9970.241483478723,43084.88733588307,-19146.21372773811,-10736.682800851202
9975.82941959255,43089.04476035175,-19143.173890492188,-10734.291164194485
9983.384309218443,43104.66862972601,-19143.844442825848,-10732.145396726775
9984.88187609695,43116.09037114267,-19151.51109117402,-10731.608954859848
9985.753594130709,43115.53157753129,-19149.79000685096,-10719.382550642797
9986.893533097928,43113.944603674965,-19145.632582382277,-10723.74114081158
9992.392062233934,43117.69969674345,-19140.871660813293,-10725.573983856915
9994.493126212732,43126.86391197013,-19136.69188460015,-10727.853861791356
9988.16758253188,43129.76963874932,-19141.296343957943,-10736.995725273577
9980.813858606083,43118.83963571068,-19146.034913782467,-10737.59922237387
9980.523285928164,43113.40816180804,-19144.0679602704,-10741.9354607982
9976.83524809304,43111.48591178488,-19148.895937072743,-10747.188120745195
9983.920751085372,43125.36634509163,-19147.53248066097,-10749.9373853132
9988.234637765248,43134.37409810712,-19148.113626016813,-10753.17838825922
9977.438745193333,43123.5782055352,-19155.89203308726,-10751.725524869624
9975.270625981168,43118.21378686593,-19153.54509991945,-10747.925728312222
9975.091812025525,43119.733705488885,-19154.081541786378,-10754.765362115546
9982.3561289735,43128.04855442626,-19155.087370286867,-10759.101600539876
9983.36195747399,43138.5315225758,-19157.3225447324,-10760.241539507097
9973.3036724691,43128.67440327101,-19164.989193080568,-10758.9898418176
9969.079192767049,43120.89599620056,-19164.989193080568,-10752.910167325756
9971.247311979212,43121.99123167888,-19163.35751573533,-10745.802312588969
9979.11512602748,43133.45767658445,-19162.396390723752,-10747.724562612124
9974.376556202957,43147.092240702186,-19162.955184335136,-10749.490350424094
9965.88289330994,43142.7336505334,-19171.2253297836,-10748.708039368155
9976.522323670664,43138.91150223154,-19169.1242658048,-10742.717771854135
9976.321157970568,43145.10293544566,-19164.31864074691,-10746.092885266888
9986.960588331292,43162.98433100991,-19154.97561156459,-10745.60114688887
9993.777870390162,43185.42548244304,-19154.103893530835,-10745.847016077878
9994.202553534811,43193.159186024575,-19153.813320852914,-10737.956850285156
9988.279341254156,43193.33799998021,-19154.19330050865,-10735.498158395072
9988.324044743067,43196.40018897059,-19157.367248221308,-10737.17453922922
9991.587399433542,43209.855939132685,-19155.467349942606,-10733.88883279429
9991.676806411364,43218.37195377016,-19158.283669743974,-10734.02294326102
9985.820649364072,43204.8491483747,-19166.419704725708,-10734.671143850224
9981.864390595483,43186.27484873234,-19163.312812246422,-10728.54676586947
9987.161754031393,43182.944438808496,-19154.260355742023,-10731.161919970742
9996.057748324603,43189.18057551153,-19148.046570783445,-10733.50885313855
9989.553390688108,43187.772415610845,-19157.099027287844,-10735.229937461609
9979.673919638864,43173.556706137264,-19166.64322217026,-10734.425274661216
9974.980053303248,43157.55285710727,-19168.297251259955,-10730.759588570549
9974.108335269491,43147.76279303584,-19166.531463447984,-10734.157053727751
9976.991710304226,43151.22731342642,-19163.916309346718,-10733.575908371917
9983.227847007258,43158.78220305231,-19163.245757013054,-10733.799425816467
9973.057803280091,43143.65007205607,-19174.354574007342,-10737.643925862782
9966.844018321515,43126.39452533657,-19180.791876410472,-10742.494254409585
9959.333832184531,43118.39260082157,-19178.959033365136,-10742.538957898494
9962.485428152731,43120.31485084473,-19178.355536264844,-10749.758571357555
9967.156942743892,43126.12630440311,-19180.546007221463,-10749.758571357555
9957.277471694646,43113.13994087457,-19183.004699111545,-10748.372763201329
9953.25415769269,43096.30907729973,-19180.791876410472,-10750.384420202308
9958.953852528794,43091.27993479728,-19174.98042285209,-10748.8868533238
9966.3522799435,43097.091388355664,-19165.63739366977,-10744.572966643926
9969.503875911698,43108.31196407223,-19161.681134901184,-10744.304745710462
9963.759477586686,43101.18175759098,-19167.581995437384,-10737.733332840602
9956.87514029445,43086.407254506026,-19170.107742560835,-10736.280469451009
9960.809047318584,43080.886373625566,-19163.82690236889,-10735.520510139528
9965.435858420831,43086.31784752821,-19157.27784124349,-10740.057914263954
9971.180256745847,43094.36447553212,-19150.482910929077,-10735.45345490616
9972.856637579996,43092.08459759767,-19146.817224838403,-10729.820815303425
9959.69146009582,43073.55500144423,-19151.958126063124,-10730.670181592724
9958.015079261671,43066.17892577397,-19150.66172488472,-10728.435007147194
9967.179294488347,43072.92915259948,-19145.476120171086,-10726.021018746022
9971.917864312873,43078.919420113496,-19145.23025098208,-10733.821777560925
9971.850809079506,43073.06326306621,-19147.30896321642,-10729.664353092236
9966.888721810428,43054.801887846224,-19147.018390538506,-10724.50110012306
9970.017966034173,43044.63184411906,-19144.336181203864,-10724.41169314524
9971.31436721258,43041.435544661945,-19143.88914631476,-10729.59729785887
9978.958663816293,43052.52200991178,-19143.12918700328,-10730.133739725798
9976.991710304226,43054.48896342385,-19150.862890584816,-10728.591469358382
9966.285224710136,43041.94963478442,-19157.166082521213,-10724.657562334249
9967.671032866365,43040.45206790591,-19150.50526267353,-10717.594411086371
9973.147210257914,43046.12941099757,-19151.46638768511,-10720.433082632197
9978.332814971543,43059.45105069292,-19150.68407662917,-10726.155129212751
9974.890646325428,43064.94957982893,-19151.51109117402,-10722.847071033368
9970.06266952308,43051.717347111386,-19155.713219131616,-10721.148338454765
9971.493181168222,43046.93407379795,-19152.405160952232,-10721.103634965852
9971.292015468123,43051.98556804485,-19147.51012891652,-10724.612858845338
9973.25896898019,43066.11187054061,-19144.894974815248,-10728.479710636106
9966.486390410231,43062.84851585013,-19154.238003997565,-10725.97631525711
9964.765306087173,43054.444259934935,-19155.0203150535,-10719.159033198242
9966.30757645459,43051.940864555945,-19148.940640561657,-10714.956905240644
9967.894550310915,43059.00401580382,-19147.93481206117,-10713.660504062236
9975.918826570372,43077.15363230153,-19143.33035270337,-10717.12502445281
9978.981015560748,43087.793062662255,-19147.55483240543,-10718.756701798047
9972.990748046726,43081.51222247032,-19153.343934219352,-10714.241649418074
9965.25704446519,43074.53847820026,-19153.79096910846,-10717.907335508746
9964.184160731336,43078.15946080202,-19149.65589638423,-10721.729483810605
9977.326986471056,43091.36934177511,-19146.19137599365,-10723.182347200198
9971.4037741904,43094.36447553212,-19152.852195841337,-10723.338809411383
9971.001442790204,43081.51222247032,-19161.770541879003,-10723.115291966831
9973.706003869296,43077.64537067954,-19157.50135868804,-10719.047274475966
9980.188009761336,43086.0719783392,-19150.54996616244,-10715.895678507768
9985.105393541502,43098.87952791209,-19148.068922527906,-10721.729483810605
9987.139402286935,43108.24490883886,-19149.946469062143,-10724.612858845338
9976.745841115218,43099.3265628012,-19158.93187033318,-10724.389341400783
9972.521361413164,43093.872737154095,-19161.144693034257,-10722.31062916644
9980.120954527967,43100.98059189088,-19154.036838297467,-10723.182347200198
9986.580608675553,43119.42078106651,-19150.147634762245,-10725.305762923452
9984.725413885762,43130.55194980526,-19155.467349942606,-10720.231916932096
9982.244370251225,43130.28372887179,-19156.69669588765,-10709.12309993781
9982.870219095972,43129.79199049377,-19155.69086738716,-10706.530297580994
9989.084004054548,43141.14667667708,-19152.963954563613,-10710.441852860671
9994.560181446095,43164.05721474376,-19152.405160952232,-10719.762530298536
9992.727338400762,43181.15629925207,-19157.07667554339,-10722.35533265535
9986.759422631196,43176.864764316655,-19163.84925411335,-10717.63911457528
9987.564085431586,43175.99304628289,-19159.289498244467,-10711.78295752799
9986.111222041993,43184.41965394255,-19159.110684288826,-10714.64398081827
9993.353187245511,43207.37489549815,-19155.60146040934,-10716.298009907963
9997.331797758556,43222.708192194485,-19155.78027436498,-10718.376722142306
9990.536867444143,43214.43804674602,-19163.245757013054,-10716.40976863024
9984.2560272522,43200.57996518374,-19167.023201826003,-10713.45933836214
9981.59616966202,43195.394360470105,-19163.80455062444,-10717.505004108549
9982.669053395874,43196.13196803713,-19161.390562223263,-10728.814986802934
9989.39692847692,43198.83652911622,-19156.98726856557,-10728.949097269666
9978.533980671642,43183.5926393977,-19164.63156516928,-10726.043370490475
9971.269663723668,43166.78412756731,-19169.392486738263,-10725.752797812558
9974.890646325428,43162.00085425387,-19165.83855936987,-10730.871347292825
9980.746803372718,43165.2865606888,-19161.03293431198,-10737.040428762488
9983.764288874185,43166.60531361167,-19160.898823845248,-10741.667239864735
9975.82941959255,43149.66269131455,-19164.966841336118,-10740.259079964051
9968.006309033191,43131.5801300502,-19165.43622796968,-10739.879100308312
9971.224960234757,43129.05438292675,-19159.580070922384,-10733.955888027656
9975.002405047704,43131.89305447257,-19156.942565076657,-10735.40875141725
9976.902303326406,43134.150580662565,-19157.74722787705,-10737.286297951496
9965.34645144301,43125.92513870301,-19168.74428614906,-10735.45345490616
9963.290090953124,43113.89990018605,-19171.27003327251,-10741.287260208996
9969.839152078528,43113.72108623041,-19169.012507082523,-10741.421370675727
