 EXG Channel 0, EXG Channel 1, EXG Channel 2, EXG Channel 3
-50406.82708106364,-41954.403156567,-45318.16188313507,-45736.67594631624
-50352.26647284824,-42050.426250747,-45317.35722033468,-45817.343392055445
-50426.13898827303,-42094.30272511277,-45342.56998808026,-45844.7689825021
-50540.06582976173,-41988.22134592788,-45347.73324104944,-45747.8965220328
-50486.39929132453,-41926.038792853215,-45321.6487552701,-45699.30382958696
-50417.421807935454,-41966.27193287277,-45302.62742073863,-45736.13950444931
-50358.90494095146,-42049.778050157794,-45298.40294103658,-45807.41921751729
-50437.851302367606,-42095.68853326899,-45328.13076116214,-45835.24713936415
-50545.38554494209,-41988.02018022778,-45340.67008980156,-45744.78962955352
-50470.59660799463,-41909.02911532272,-45311.03167665382,-45695.10170162937
-50394.421862890944,-41944.18840935092,-45294.40197877908,-45731.69150730271
-50351.6853274924,-42045.240646033366,-45303.9461736615,-45813.208319331214
-50435.3032034997,-42081.51752728433,-45340.692441546016,-45836.34237484245
-50540.66932686202,-41966.227229383854,-45349.87900851715,-45735.4466003712
-50489.99792218184,-41925.25648179728,-45327.90724371759,-45694.81112895145
-50402.624953106046,-41952.65972049948,-45307.567156263256,-45726.729420033626
-50346.20915010085,-42039.96563434191,-45313.57977552173,-45803.01592385959
-50429.58115691914,-42074.18615510299,-45343.844037514216,-45820.42793279028
-50539.75290533935,-41971.52459281976,-45354.01408124138,-45722.86256824286
-50468.67435797148,-41912.89596711349,-45329.76243850737,-45678.002617121056
-50382.486031351815,-41949.70929023138,-45308.952964419484,-45710.90438495927
-50335.4803127623,-42051.18621005848,-45314.02681041084,-45791.37066499837
-50432.5539389317,-42092.67104776753,-45343.66522355857,-45810.16848208529
-50539.35057393916,-41980.53234583525,-45348.44849687201,-45712.31254485995
-50461.67826195696,-41900.446045451885,-45321.91697620356,-45668.32431177191
-50358.86023746256,-41925.92703413094,-45299.56523174825,-45704.31062034496
-50311.56394619512,-42037.059907562725,-45308.37181906364,-45789.06843531948
-50397.3946449035,-42057.35529152814,-45338.34550837821,-45801.85363314791
-50489.95321869293,-41964.66260727199,-45342.32411889126,-45709.92090820324
-50420.97573530385,-41907.41978972194,-45314.4961970444,-45672.839364151885
-50340.80002794266,-41927.11167658707,-45290.2892577993,-45703.88593720031
-50302.4220827129,-42033.12600053859,-45299.69934221498,-45788.800214386014
-50391.58319134512,-42053.3766810151,-45325.73912450542,-45796.24334528963
-50487.3157128472,-41935.4488772689,-45324.10744716018,-45694.76642546254
-50410.80569157669,-41879.971847530825,-45295.65367646857,-45656.38848023277
-50331.658164460445,-41929.10098184359,-45279.046330338286,-45695.816957451934
-50284.674797615386,-42032.298985993744,-45285.4389292525,-45778.4066532143
-50387.35871164307,-42057.84702990616,-45316.01611566736,-45787.973199841166
-50474.50816327431,-41933.97366213485,-45321.313479103264,-45686.04924512497
-50405.910659540976,-41893.24878373728,-45297.95590614747,-45652.36516623082
-50331.59110922708,-41945.484810529335,-45278.822812893726,-45688.10560561486
-50284.85361157103,-42044.30187276624,-45290.848051410685,-45771.745833366615
-50382.95541798537,-42047.922855368,-45324.66624077156,-45772.19286825572
-50467.37795679307,-41929.36920277705,-45327.84018848422,-45667.76551816053
-50395.4947466248,-41890.49951916928,-45303.990877150405,-45637.14362825676
-50330.0264871152,-41959.07467115816,-45295.51956600184,-45686.56333524744
-50290.553306407135,-42048.90633212404,-45309.69057198651,-45766.783746097535
-50393.25957217927,-42048.03461409029,-45340.53597933483,-45759.63118787184
-50469.79194519424,-41934.219531323855,-45338.658432800585,-45657.75193664455
-50395.74061581381,-41891.88532732551,-45310.20466210898,-45630.95219504264
-50325.53378647969,-41941.43914478292,-45296.50304275788,-45678.5837624769
-50271.44256489784,-42028.253320247335,-45300.213432337456,-45752.21040871268
-50383.961246485866,-42046.58175070069,-45331.9976129529,-45755.36200468088
-50476.63157899756,-41932.744316189805,-45337.27262464436,-45663.85396288085
-50403.27315369525,-41895.95334481637,-45303.432083539024,-45634.68493636667
-50336.061458118136,-41947.38470880803,-45284.9918943634,-45677.7790996765
-50291.15680350743,-42036.1211342956,-45294.2902200568,-45757.61953087086
-50403.07198799515,-42044.10070706614,-45328.8013134958,-45752.56803662396
-50477.65975924251,-41928.072801598646,-45332.17642690855,-45652.54398018646
-50402.55789787268,-41891.61710639204,-45307.90243243008,-45624.64900310624
-50327.05370510265,-41937.68405171443,-45290.89275489959,-45664.435108236685
-50291.22385874079,-42040.9714628424,-45306.2931068293,-45745.88486503183
-50407.2964676972,-42050.51565772482,-45344.93927299253,-45743.26971093055
-50476.27395108628,-41924.094191085605,-45344.179313681045,-45648.00657606204
-50404.39074091801,-41896.2886209832,-45319.86061571368,-45629.3205176974
-50335.65912671795,-41962.06980491517,-45304.43791203951,-45680.2824950555
-50293.23551574177,-42043.78778264377,-45313.445665055,-45754.78085932504
-50401.50736588328,-42030.46614294841,-45340.31246189028,-45736.49713236059
-50463.153477091015,-41913.812388636165,-45334.07632518725,-45636.24955847854
-50390.75617680028,-41889.56074590216,-45313.6468307551,-45621.07272399339
-50329.82532141511,-41945.70832797389,-45300.45930152647,-45667.98903560508
-50295.0683587871,-42047.20759954544,-45311.03167665382,-45752.36687092386
-50409.464586909366,-42037.126962796094,-45335.59624381021,-45738.91112076177
-50478.57618076518,-41924.00478410778,-45328.8013134958,-45638.06004977942
-50400.233316449325,-41900.51310068525,-45298.17942359202,-45614.41190414571
-50321.15284456645,-41936.946444147405,-45278.80046114927,-45653.393346475765
-50285.591219138056,-42027.895692336046,-45286.51181298636,-45730.01512646856
-50407.54233688621,-42031.20375051544,-45317.6477930126,-45720.515635075055
-50466.68505271495,-41916.36048750407,-45320.08413315823,-45625.9677560291
-50371.086641679605,-41879.0330742637,-45290.33396128821,-45604.241860418544
-50296.36475996552,-41923.58010096313,-45269.8374116227,-45650.50997144103
-50267.97804450728,-42018.105628264624,-45283.42727225152,-45731.87032125835
-50384.7435575418,-42009.99194502735,-45307.142473118605,-45709.9879634366
-50443.79686639272,-41898.389684962,-45298.44764452549,-45606.54409009744
-50377.523944082735,-41883.8386993216,-45276.69939717047,-45587.25453463251
-50310.84869037255,-41949.88810418703,-45267.75869938835,-45641.21164574762
-50272.47074514279,-42039.09391630816,-45282.62260945113,-45722.48258858712
-50391.09145296711,-42016.09397126365,-45309.020019652846,-45697.89566968628
-50442.053430325206,-41904.89404259849,-45303.432083539024,-45599.65975280521
-50354.97103392733,-41873.735710827794,-45279.11338557165,-45581.97952294106
-50292.67672213039,-41934.82302842415,-45269.36802498913,-45633.76851484401
-50264.15589620542,-42023.671212634,-45282.466147239946,-45708.84802446938
-50388.67746456593,-42013.85879681812,-45312.90922318807,-45685.57985849141
-50446.21085479389,-41912.24776652429,-45311.07638014274,-45593.51302308
-50369.7902405012,-41883.72694059932,-45288.14349033159,-45582.06892991888
-50300.94686757885,-41943.85313318409,-45275.64886518107,-45634.70728811113
-50282.03729176966,-42053.93547462648,-45293.03852236731,-45719.68862053021
-50395.83002279163,-42024.94526206795,-45316.30668834528,-45689.111434115344
-50443.5062937148,-41914.75116190328,-45307.63421149662,-45592.10486317932
-50364.04584217619,-41890.946554058384,-45290.26690605484,-45582.76183399699
-50287.62522788349,-41933.7501446903,-45275.11242331415,-45623.57611937239
-50266.88280902896,-42031.15904702652,-45292.09974910018,-45703.75182673357
-50405.10599674058,-42019.75965735432,-45322.98985993741,-45678.3825967768
-50452.84932289712,-41912.78420839122,-45308.86355744166,-45582.04657817443
-50372.69596728039,-41892.44412093689,-45280.29802802778,-45571.6083135138
-50311.40748398394,-41957.219476368366,-45269.70330115596,-45624.96192752862
-50277.1646114784,-42043.72072741041,-45281.30385652827,-45699.68380924271
-50402.78141531723,-42015.7139916079,-45307.276583585335,-45665.35152975936
-50456.58206422116,-41914.48294096982,-45302.82858643873,-45576.704511249605
-50372.5395050692,-41900.0884175406,-45279.67217918303,-45574.84931645982
-50293.41432969741,-41947.652929741496,-45266.57405693222,-45632.00272703204
-50270.10146023053,-42022.44186668896,-45278.86751638264,-45708.22217562464
-50401.149737972,-41999.39721815553,-45305.08611262871,-45676.50505024255
-50443.21572103688,-41894.14285351549,-45293.28439155631,-45579.76670023998
-50368.292673622695,-41894.47812968232,-45266.05996680975,-45569.82017395737
-50300.902164089945,-41956.77244147926,-45256.29225448278,-45623.15143622774
-50280.42796616888,-42038.0210325743,-45272.69843491298,-45696.62162025233
-50408.19053747541,-42001.18535771196,-45295.5419177463,-45654.15330578725
-50441.22641578036,-41894.656943637965,-45281.50502222837,-45560.94653140861
-50355.39571707198,-41876.35086492907,-45255.42053644903,-45560.67831047515
-50289.86040232902,-41943.450801783896,-45243.70822235444,-45620.60333735983
-50276.7175765893,-42039.02686107479,-45260.20380976246,-45693.35826556185
-50406.62591536354,-41999.59838385563,-45286.020074608336,-45649.14651502926
-50434.81146512169,-41887.19146098989,-45275.51475471434,-45556.40912728419
-50358.32379559563,-41877.49080389629,-45249.96671080193,-45551.93877839312
-50301.90799259043,-41951.34096757662,-45241.33893744218,-45612.22143318909
-50285.658274371424,-42038.57982618568,-45261.410803963045,-45688.10560561486
-50410.58217413213,-41995.798587298224,-45292.05504561127,-45652.275759253
-50435.79494187772,-41884.84452782208,-45273.74896690238,-45560.09716511931
-50365.05167067667,-41887.19146098989,-45250.92783581351,-45560.34303430832
-50290.553306407135,-41951.899761188,-45240.53427464179,-45618.79284605895
-50289.65923662892,-42041.91023610953,-45256.04638529377,-45688.57499224842
-50434.74440988832,-42011.69067760595,-45283.87430714063,-45643.245654493054
-50435.750238388806,-41890.76774010274,-45266.6858156545,-45550.37415628126
-50342.85638843256,-41873.467489894334,-45243.19413223197,-45546.641414957216
-50283.356044692526,-41944.367223306566,-45236.15333272855,-45601.514947595
-50286.99937903874,-42038.8703988636,-45257.70041438346,-45677.19795432067
-50429.111770285584,-41992.42347388548,-45281.057987339256,-45629.90166305324
-50442.6569274255,-41886.07387376713,-45264.27182725333,-45541.0981823323
-50362.30240610867,-41897.47326343933,-45241.54010314227,-45547.24491205751
-50298.35406522203,-41952.21268561038,-45231.48181813739,-45601.514947595
-50295.42598669839,-42031.807247615725,-45253.74415561488,-45673.50991648554
-50427.59185166262,-41988.7130843059,-45277.05702508176,-45619.79867455944
-50439.7064971574,-41886.85618482306,-45264.45064120897,-45528.469446715055
-50361.654205519466,-41897.7861878617,-45242.680042109496,-45533.54329270641
-50306.35598973704,-41969.17765965196,-45237.18151297349,-45595.59173531434
-50298.80110011114,-42032.70131739394,-45256.739289371886,-45659.04833782296
-50424.99904930581,-41974.564430065686,-45277.32524601522,-45603.25838366251
-50423.03209579374,-41860.03409147669,-45257.38748996109,-45521.20512976708
-50337.35785929655,-41864.32562641211,-45232.554701871246,-45530.41404848266
-50281.92553304738,-41943.51785701727,-45228.73255356939,-45592.708360279605
-50284.49598365975,-42031.807247615725,-45254.39235620408,-45661.30586401295
-50424.73082837234,-41986.656723816006,-45279.42630999402,-45606.3652761418
-50444.86975012657,-41896.31097272765,-45266.05996680975,-45523.28384200142
-50360.62602527452,-41886.69972261188,-45241.18247523099,-45527.5977286813
-50296.16359426542,-41956.05718565669,-45235.415725161525,-45588.55093581092
-50317.464806731325,-42053.04140484827,-45259.19798126197,-45660.36709074582
-50461.67826195696,-42006.10274149213,-45283.60608620717,-45612.89198552275
-50464.38282303606,-41915.26525202576,-45268.07162381073,-45536.29255727441
-50381.25668540677,-41926.41877250896,-45246.97157704492,-45545.83675215683
-50303.24909725775,-41978.38657836754,-45242.255358964845,-45606.92406975318
-50308.05472231564,-42054.382509515584,-45263.44481270848,-45665.59739894836
-50437.627784923054,-41984.17568018147,-45280.70035942797,-45595.47997659206
-50430.38581971954,-41880.64239986448,-45264.29417899778,-45511.81739709585
-50352.691155992885,-41895.34984771608,-45243.5294083988,-45522.36742047875
-50286.485288916265,-41967.4565753289,-45235.415725161525,-45583.94647645313
-50303.80789086913,-42049.643939691065,-45254.638225393086,-45645.25731149403
-50440.444104724425,-41975.88318298855,-45270.95499884546,-45581.84541247433
-50436.91252910048,-41889.42663543542,-45251.57603640271,-45509.11283601676
-50358.05557466216,-41905.96692633235,-45231.57122511521,-45527.17304553665
-50280.271503957694,-41952.43620305493,-45221.87056802161,-45588.08154917736
-50299.80692861163,-42035.092954050655,-45243.55176014325,-45647.55954117293
-50441.22641578036,-41978.00659871181,-45268.36219648865,-45582.091281663335
-50440.913491357984,-41883.57047838813,-45250.793725346775,-45504.8883563147
-50363.82232473163,-41901.56363267465,-45229.69367858097,-45519.12641753274
-50297.28118148818,-41966.89778171752,-45224.44101863397,-45584.482918320056
-50315.81077764163,-42039.8762273641,-45242.59063513167,-45643.78209635998
-50451.59762520762,-41979.59357256813,-45260.47203069592,-45579.76670023998
-50433.403305221,-41878.42957716341,-45245.13873399958,-45508.8446150833
-50341.91761516543,-41879.79303357518,-45217.84725401965,-45522.12155128975
-50277.38812892296,-41964.55084854971,-45205.15146316904,-45584.03588343095
-50307.22770777079,-42043.43015473249,-45229.537216369776,-45639.04352653546
-50441.71815415838,-41963.99205493832,-45249.743193357375,-45560.81242094188
-50424.015572549775,-41857.28482690869,-45225.75977155683,-45475.831088522806
-50336.03910637368,-41875.25562945076,-45202.55866081223,-45494.070111998335
-50269.31914917459,-41950.98333966533,-45196.38957934256,-45564.05342388791
-50304.25492575824,-42027.53806442476,-45224.3739634006,-45630.3710496868
-50437.8065988787,-41951.31861583217,-45241.80832407574,-45560.72301396406
-50428.28475574074,-41871.656998593455,-45221.356477899135,-45491.29849568588
-50345.53859776719,-41890.90185056947,-45201.75399801183,-45511.77269360694
-50274.46005039931,-41963.58972353813,-45196.90366946503,-45573.41880481468
-50311.92157410641,-42036.67992790698,-45226.452675634944,-45625.855997306826
-50449.0048228508,-41953.71025248888,-45244.42347817701,-45547.02139461296
-50419.20994749188,-41856.30135015266,-45217.13199819708,-45473.90883849965
-50341.18000759841,-41886.36444644504,-45199.78704449976,-45502.7872923359
-50273.94596027684,-41962.606246782096,-45194.713198508405,-45572.792955969926
-50307.29476300416,-42033.19305577195,-45221.08825696567,-45630.72867759808
-50438.0524680677,-41946.512990774274,-45236.55566412874,-45554.3527667943
-50418.53939515822,-41860.23525717679,-45213.26514640632,-45486.49287062799
-50340.15182735346,-41880.86591730904,-45191.80747172922,-45506.83295808232
-50268.89446602994,-41958.31471184668,-45185.05724490371,-45572.99412167002
-50310.35695199454,-42041.75377389834,-45212.5722423282,-45626.61595661831
-50439.10300005711,-41944.65779598449,-45231.25830069283,-45545.14384807871
-50411.61035437708,-41849.70758553834,-45215.41091387402,-45480.81552753634
-50321.51047247773,-41874.47331839482,-45187.60534377162,-45498.898088800684
-50259.39497463644,-41966.0037119393,-45182.50914603581,-45570.42367105767
-50298.33171347758,-42013.67998286247,-45203.60919280162,-45614.63542159026
-50417.846491080105,-41925.65881319747,-45216.3720388856,-45533.87856887324
-50389.191554688405,-41855.40728037444,-45194.73555025287,-45469.4831930975
-50310.625172928,-41879.34599868608,-45172.85319243112,-45489.66681834064
-50249.40374486491,-41961.73452874834,-45170.57331449668,-45559.91835116367
-50292.58731515257,-42027.58276791367,-45198.71416076591,-45608.89102326525
-50418.80761609168,-41937.5499412477,-45217.73549529738,-45528.31298450386
-50382.70954879637,-41853.70854779584,-45204.369152113104,-45467.67270179662
-50312.41331248442,-41889.87367032453,-45187.78415772726,-45497.35581843327
-50248.08499194205,-41971.79281375323,-45180.69865473493,-45568.27790358996
-50308.74762639376,-42045.575922200194,-45208.68303879297,-45617.76466581401
-50428.70943888539,-41943.80842969519,-45220.35064939864,-45529.2964612599
-50387.58222908762,-41869.82415554812,-45198.065960176704,-45468.32090238582
-50299.359893722525,-41881.96115278735,-45170.50625926331,-45489.19743170708
-50246.69918378582,-41967.34481660662,-45164.69480570493,-45556.78910693993
-50311.83216712859,-42038.8256953747,-45196.59074504265,-45601.71611329509
-50426.07193303966,-41939.82981918214,-45209.957088226925,-45512.01856279595
-50373.187705658405,-41848.366480871024,-45184.49845129233,-45449.9254166991
-50298.6222861555,-41894.52283317123,-45165.58887548315,-45486.26935318344
-50244.195788406825,-41984.93563949295,-45164.00190162682,-45565.3051215774
-50296.54357392115,-42029.84029410366,-45191.360436840114,-45606.74525579754
-50415.23133697884,-41924.54122597471,-45203.18450965697,-45516.46655994256
-50361.721260752834,-41844.454925591344,-45174.08253837616,-45451.53474229989
-50278.885695801466,-41870.65117009296,-45152.66956718798,-45476.21106817855
-50225.28621259764,-41969.24471488533,-45154.56946546668,-45552.16229583768
-50292.96729480831,-42036.27759650679,-45187.00184667133,-45596.03877020345
-50399.741578071305,-41911.2419380238,-45197.03777993176,-45503.03316152492
-50364.5375805542,-41850.467544849824,-45176.04949188823,-45452.13823940018
-50282.4172714254,-41874.69683583937,-45151.01553809828,-45480.21203043604
-50220.569994517566,-41953.46438329988,-45153.02719509926,-45554.33041504984
-50288.876925572986,-42009.097875249136,-45184.92313443698,-45595.234107403056
-50407.25176420829,-41915.42171423695,-45195.04847467524,-45506.452978426576
-50354.792219971685,-41840.85629473404,-45166.32648305017,-45447.08674515328
-50279.28802720166,-41869.10889972555,-45144.84645662862,-45477.95450424606
-50222.604003263,-41949.44106929792,-45147.23809328533,-45551.33528129284
-50289.32396046209,-42004.60517461362,-45176.31771282169,-45587.03101718796
-50408.16818573096,-41904.31289724266,-45191.22632637338,-45501.31207720186
-50357.317967095136,-41834.88837896448,-45170.41685228549,-45453.524047556406
-50281.00911152472,-41871.85816429355,-45151.95431136541,-45487.56575436184
-50230.605927778,-41965.17669739445,-45155.93292187845,-45562.42174654266
-50310.692228161366,-42021.34663121065,-45191.62865777357,-45596.19523241463
-50421.46747368187,-41913.36535374705,-45202.75982651232,-45497.26641145544
-50373.25476089177,-41861.732824055296,-45181.07863439067,-45446.93028294209
-50290.24038198476,-41881.49176615378,-45161.0067678698,-45470.1313936867
-50236.28327086965,-41967.68009277345,-45162.39257602603,-45544.62975795624
-50317.50951022023,-42017.85975907562,-45197.73068400988,-45578.38089208376
-50429.62586040806,-41918.10392357158,-45208.973611470894,-45489.9350392741
-50372.83007774712,-41855.787260030185,-45180.5645442682,-45444.60570151874
-50301.23744025677,-41893.047618037184,-45165.03008187176,-45484.369454904736
-50254.79051527864,-41989.651857573015,-45173.34493080914,-45567.78616521194
-50343.10225762156,-42034.24358776135,-45207.76661727031,-45593.73654052455
-50440.04177332423,-41901.76479837475,-45206.93960272546,-45488.258658439954
-50376.763984771256,-41846.7795070147,-45174.52957326527,-45439.554207271845
-50303.22674551329,-41889.31487671314,-45154.72592767786,-45478.66976006863
-50259.50673335872,-41984.7121220484,-45160.51502949179,-45565.64039774423
-50346.276205334216,-42019.80436084323,-45187.27006760479,-45584.79584274243
-50452.73756417485,-41908.82794962263,-45194.04264617475,-45484.503565371466
-50386.55404884268,-41843.6279110465,-45167.108794106105,-45431.30641356784
-50314.98376309678,-41884.71041735535,-45151.26140728729,-45449.09840215426
-50267.93334101836,-41980.62175281307,-45155.68705268944,-45512.26443198496
-50353.40641181546,-42016.29513696375,-45185.52663153728,-45529.47527521554
-50450.39063100704,-41901.69774314138,-45190.95810543992,-45430.099419367245
-50392.767833801256,-41851.49572509476,-45171.06505287469,-45387.251125246425
-50315.96723985282,-41880.4859376533,-45153.183657310445,-45417.381276772176
-50261.1607624484,-41975.70436903291,-45157.43048875696,-45502.3402574468
-50357.11680139504,-42029.77323887029,-45196.881317720574,-45532.04572582791
-50462.237055568345,-41930.50914174428,-45206.60432655864,-45440.15770437213
-50385.391758131,-41846.75715527024,-45181.4139105575,-45398.024666073885
-50301.84093735706,-41861.03991997718,-45161.43145101445,-45432.46870427951
-50256.46689611279,-41967.50127881781,-45165.03008187176,-45510.29747847289
-50352.42293505943,-42007.30973569271,-45198.33418111017,-45525.250795513486
-50457.96787237738,-41907.33038274412,-45209.30888763772,-45428.11011411073
-50387.00108373178,-41844.253759891246,-45186.42070131549,-45383.22781124447
-50314.96141135233,-41895.90864132746,-45177.05532038872,-45423.19273033056
-50261.9654252488,-41985.65089531552,-45179.40225355653,-45498.45105391158
-50351.01477515874,-42008.42732291548,-45209.688867293466,-45507.078827271325
-50451.03883159624,-41907.08451355511,-45222.02703023279,-45414.65436394863
-50375.44523184839,-41837.10120166554,-45197.95420145443,-45397.93525909606
-50310.22284152781,-41887.34792320108,-45185.43722455946,-45466.26454189594
-50274.70591958832,-41995.61977334259,-45197.26129737632,-45554.57628423885
-50371.01958644624,-42026.10755277963,-45230.297175681255,-45565.3051215774
-50448.53543621725,-41901.29541174119,-45230.0289547478,-45460.45308833756
-50367.15273465547,-41842.376213357,-45198.0212566878,-45419.32587853979
-50297.48234718828,-41886.02917027821,-45175.021311643286,-45453.97108244552
-50267.10632647352,-41992.24465992984,-45186.86773620459,-45539.08652533133
-50383.38010113002,-42040.07739306419,-45220.75298079884,-45552.31875804887
-50458.325500288665,-41918.46155148286,-45222.250547677344,-45456.00509119095
-50372.45009809138,-41843.85142849105,-45196.38957934256,-45425.87493966519
-50290.95563780733,-41871.589943360086,-45179.1116808786,-45469.125565186216
-50249.15787567591,-41971.63635154204,-45186.48775654886,-45555.89503716172
-50351.59592051458,-41991.819976785184,-45216.394390630056,-45564.14283086573
-50434.61029942159,-41877.02141726272,-45215.7238382964,-45462.97883546101
-50362.48122006432,-41841.95153021235,-45195.763730497805,-45435.08385838078
-50294.84484134255,-41895.57336516063,-45185.59368677064,-45482.35779790376
-50254.32112864508,-41997.85494778812,-45192.81330022971,-45564.96984541057
-50359.128458396015,-42007.95793628191,-45216.93083249698,-45560.834772686336
-50444.154494304006,-41896.91446982795,-45211.38759987207,-45455.02161443492
-50365.632816032514,-41850.1769721719,-45183.962009425406,-45422.969212886
-50298.6222861555,-41906.65983041046,-45171.13210810806,-45473.55121058836
-50257.85270426902,-42004.73928508035,-45179.40225355653,-45555.73857495053
-50358.837885718094,-41999.084293733154,-45213.600422573145,-45556.92321740666
-50434.87852035505,-41877.311989940645,-45213.95805048443,-45456.25096037996
-50367.21978988884,-41848.79116401568,-45193.14857639654,-45433.94391941356
-50295.29187623166,-41911.890138613,-45178.73170122287,-45481.03904498089
-50244.486361084746,-41987.8637180166,-45189.81816647269,-45559.8065924414
-50363.0847171646,-42001.63239260107,-45217.51197785282,-45551.2011708261
-50458.70547994441,-41907.41978972194,-45221.91527151052,-45454.23930337898
-50364.60463578757,-41831.33445159608,-45193.12622465208,-45420.17524482909
-50292.5202599192,-41888.51021391276,-45176.205954099416,-45466.15278317366
-50255.863399012494,-41987.88606976105,-45187.873564705085,-45549.61419696977
-50365.34224335459,-41992.15525295201,-45219.07659996469,-45543.53452247793
-50439.99706983531,-41882.89992605447,-45223.39048664457,-45449.679547510095
-50363.464696820345,-41849.3276058826,-45199.94350671095,-45429.048887377845
-50291.51443141871,-41906.749237388285,-45181.48096579087,-45475.98755073399
-50258.389146135945,-42010.86366306111,-45192.18745138496,-45562.39939479821
-50366.70569976637,-42000.917136778495,-45222.29525116626,-45549.74830743651
-50437.69484015642,-41888.778434846216,-45220.03772497628,-45447.734945742486
-50358.97199618483,-41858.447117620366,-45197.0154281873,-45429.36181180022
-50291.20150699634,-41917.58983344911,-45187.22536411588,-45478.93798100209
-50266.90516077342,-42017.68094511997,-45208.61598355961,-45560.54420000842
-50385.279999408725,-42004.58282286916,-45242.32241419821,-45545.94851087911
-50440.153532046505,-41885.60448713356,-45239.79666707476,-45442.86226545123
-50358.41320257344,-41858.514172853735,-45210.0688469492,-45420.46581750701
-50288.85457382853,-41916.4945979708,-45190.82399497319,-45466.37630061821
-50257.09274495754,-42002.30294493472,-45198.33418111017,-45541.0981823323
-50378.66388304996,-41999.307811177714,-45225.2233296899,-45526.1448652917
-50446.523779216266,-41895.32749597162,-45221.98232674389,-45431.39582054566
-50370.21492364585,-41879.14483298598,-45200.23407938887,-45418.61062271722
-50290.95563780733,-41912.98537409132,-45184.47609954788,-45462.50944882744
-50249.26963439818,-42000.00071525583,-45193.19327988545,-45538.93006312014
-50370.21492364585,-41978.72185453437,-45227.45850413544,-45523.574414679344
-50432.17395927596,-41858.80474553165,-45221.11060871013,-45414.18497731507
-50355.82040021663,-41850.64635880546,-45196.54604155375,-45391.65441890412
-50290.195678495846,-41917.18750204891,-45184.52080303679,-45444.78451547439
-50241.49122732774,-41997.296154176736,-45190.667532762,-45517.87471984324
-50357.54148453969,-41980.19706966842,-45212.63929756157,-45495.99236202149
-50417.95824980238,-41878.653094607966,-45214.360381884624,-45415.3696197712
-50335.54736799567,-41849.01468146023,-45195.83078573117,-45406.27245977789
-50267.08397472906,-41911.97954559082,-45186.55481178222,-45460.49779182646
-50246.63212855245,-42009.34374443814,-45204.90559398003,-45544.22742655605
-50377.18866791591,-41992.15525295201,-45236.10862923964,-45519.931080333125
-50435.347906988616,-41882.16231848745,-45238.36615542963,-45426.21021583203
-50341.20235934286,-41859.16237344294,-45214.159216184526,-45410.85456739123
-50265.22877993927,-41913.00772583577,-45199.340009610656,-45459.80488774835
-50245.24632039623,-42015.87045381909,-45217.176701686,-45544.62975795624
-50379.06621445015,-42003.19701471293,-45248.1338677566,-45520.13224603322
-50425.44608419491,-41887.79495809018,-45241.987138031385,-45424.86911116471
-50350.8359612031,-41874.182745716906,-45220.52946335429,-45417.35892502772
-50278.170439978894,-41938.01932788126,-45205.24087014686,-45470.15374543116
-50271.06258524211,-42054.6283787046,-45222.09408546616,-45555.98444413954
-50398.51223212627,-42020.43020968798,-45253.87826608161,-45526.18956878061
-50448.11075307259,-41904.84933910958,-45245.45165842195,-45426.74665769896
-50368.58324630061,-41889.56074590216,-45216.75201854135,-45413.91675638161
-50296.14124252096,-41941.3497378051,-45200.70346602243,-45466.04102445138
-50260.40080313692,-42021.03370678827,-45210.04649520475,-45545.43442075663
-50375.04290044819,-41998.19022395495,-45237.82971356269,-45521.02631581144
-50413.28673521122,-41878.11665274104,-45227.83848379117,-45428.04305887736
-50327.90307139195,-41861.9339897554,-45200.256431133326,-45421.002259373934
-50260.17728569237,-41925.77057191975,-45183.80554721422,-45477.99920773497
-50241.37946860546,-42019.513788165306,-45202.13397766757,-45559.56072325238
-50378.50742083877,-41997.85494778812,-45239.70726009694,-45532.60451943929
-50412.99616253331,-41879.65892310845,-45227.10087622415,-45429.74179145596
-50335.94969939586,-41880.57534463112,-45208.28070739278,-45423.03626811937
-50259.70789905881,-41932.051412111694,-45198.222422387895,-45470.3325593868
-50245.179265162864,-42020.74313411035,-45212.84046326167,-45541.9475486216
-50388.69981631039,-41997.05028498772,-45243.75292584335,-45507.48115867152
-50415.901889312496,-41878.94366728588,-45223.92692851149,-45405.2666312774
-50326.67372544691,-41864.12446071202,-45196.03195143127,-45399.99161958595
-50264.87115202798,-41936.38765053602,-45185.59368677064,-45460.18486740409
-50248.21910240878,-42030.30968073722,-45204.21268990191,-45538.30421427539
-50378.23919990531,-41982.47694760287,-45237.2262164624,-45499.12160624524
-50400.47918563833,-41871.634646848994,-45227.10087622415,-45408.39587550114
-50315.34139100807,-41876.887306796,-45197.19424214295,-45409.491110979456
-50248.57673032007,-41939.89687441551,-45187.82886121617,-45468.05268145236
-50242.89938722842,-42030.82377085969,-45207.20782365892,-45543.66863294466
-50380.452022606376,-41986.45555811591,-45237.06975425121,-45497.17700447762
-50395.36063615807,-41863.85623977855,-45223.524597111296,-45402.02562833138
-50310.73693165027,-41863.632722334,-45198.84827123264,-45401.310372508815
-50252.28711989965,-41943.20493259489,-45188.61117227211,-45461.57067556032
-50245.24632039623,-42023.40299170053,-45204.927945724485,-45532.649222928194
-50381.54725808469,-41979.01242721229,-45235.0804489947,-45488.10219622877
-50394.55597335768,-41863.744481056274,-45218.89778600905,-45396.4153404731
-50304.47844320279,-41856.59192283057,-45181.90564893552,-45396.88472710666
-50242.67586978387,-41938.75693544829,-45174.48486977636,-45461.011881948936
-50238.87607322646,-42028.27567199179,-45196.166061898,-45521.60746116728
-50376.42870860442,-41976.933714977946,-45222.98815524437,-45445.00803291894
-50378.95445572787,-41854.66967280742,-45207.67721029249,-45345.07338345926
-50303.00322806874,-41867.56662935813,-45183.69378849194,-45353.96937775247
-50238.36198310399,-41943.74137446182,-45174.2613523318,-45418.85649190623
-50234.271613868674,-42025.01231730131,-45194.2661636193,-45491.67847534162
-50375.556990570665,-41971.81516549768,-45222.36230639962,-45438.95071017155
-50389.3927203885,-41863.72212931182,-45212.01344871682,-45350.14722945062
-50298.24230649976,-41860.03409147669,-45181.793890213245,-45349.722546305966
-50231.678811511854,-41937.01349938077,-45167.42171852848,-45408.59704120124
-50231.32118360057,-42023.20182600043,-45185.03489315926,-45474.9370187446
-50367.39860384448,-41964.32733110515,-45212.79575977275,-45415.86135814922
-50374.39469985899,-41867.4325188914,-45203.63154454608,-45333.51753157587
-50283.84778307055,-41874.51802188373,-45180.7657099683,-45344.536941592334
-50217.79837820511,-41940.12039186006,-45175.356587810114,-45413.62618370369
-50233.7575237462,-42035.89761685105,-45201.016390444805,-45488.86215554025
-50364.00113868727,-41973.96093296539,-45224.7762948008,-45430.43469553407
-50353.89815019348,-41870.49470788178,-45203.20686140143,-45342.3017671468
-50263.217122938295,-41870.71822532633,-45174.48486977636,-45347.66618581607
-50199.31348554057,-41938.04167962571,-45159.84447715813,-45406.74184641145
-50214.04328513662,-42026.19695975744,-45181.88329719106,-45477.88744901269
-50346.61148150104,-41970.407005597,-45204.63737304656,-45419.79526517335
-50350.14305712498,-41870.3829491595,-45186.30894259321,-45340.625386312655
-50262.79243979365,-41871.61229510454,-45159.12922133556,-45352.74003180743
-50195.468985494255,-41952.86088619958,-45152.13312532105,-45423.28213730838
-50213.05980838058,-42040.70324190894,-45178.88816343405,-45493.19839396458
-50348.69019373539,-41980.5099940908,-45201.53048056728,-45428.08776236627
-50337.60372848556,-41868.505402625255,-45182.53149778026,-45340.82655201275
-50248.04028845314,-41871.32172242662,-45160.31386379169,-45349.431973628045
-50192.473851737246,-41950.96098792088,-45158.27985504626,-45415.19080581556
-50206.53309899964,-42031.22610225989,-45179.961047167904,-45476.79221353438
-50323.09744633406,-41948.68110998644,-45200.61405904461,-45409.2675935349
-50316.39192299747,-41859.05061472066,-45184.92313443698,-45333.4504763425
-50240.73126801626,-41879.01072251925,-45165.94650339443,-45356.18220045355
-50169.36214797046,-41947.92115067496,-45157.69870969042,-45428.82536993329
-50190.88687788092,-42028.29802373624,-45181.995055913336,-45502.49671965799
-50308.14412929346,-41938.95810114838,-45195.74137875335,-45435.86616943672
-50290.843879085056,-41839.87281797801,-45172.696730219934,-45357.12097372067
-50205.92960189934,-41853.686196051385,-45146.03109908475,-45368.989750026434
-50145.40107791437,-41932.78901967872,-45134.72111639036,-45431.52993101239
-50172.37963347192,-42019.513788165306,-45158.2575033018,-45494.89712654318
-50303.40555946893,-41945.82008669616,-45181.6150762576,-45428.490093766464
-50277.9692742788,-41839.358727855535,-45157.09521259013,-45347.755592793896
-50200.14050008541,-41860.682292065896,-45133.44706695641,-45367.7604040814
-50138.986127255695,-41941.75206920529,-45131.5024651888,-45443.64457650716
-50170.21151425976,-42018.55266315373,-45156.71523293439,-45508.419931938646
-50306.87007985951,-41934.75597319078,-45171.19916334143,-45433.22866359099
-50285.03242552668,-41837.61529178802,-45148.512142719286,-45352.717680062975
-50201.28043905264,-41861.84458277757,-45127.9038343315,-45367.44747965902
-50145.892816292384,-41947.71998497487,-45127.63561339803,-45437.49784678195
-50175.86650560695,-42015.49047416335,-45149.22739854186,-45494.74066433199
-50304.70196064734,-41925.278833541735,-45168.27108481778,-45419.03530586187
-50288.60870463952,-41845.46075409183,-45153.27306428827,-45349.14140095013
-50211.31637231307,-41872.59577186058,-45136.88923560253,-45367.46983140348
-50129.620746328925,-41933.3478132901,-45127.54620642021,-45413.60383195923
-50156.08521176401,-41997.5643751102,-45151.797849154216,-45463.91760872813
-50303.51731819121,-41932.63255746753,-45169.94746565193,-45391.78852937085
-50283.4678034148,-41847.09243143707,-45150.72496542036,-45320.03942966931
-50201.72747394174,-41861.66576882193,-45132.01655531128,-45339.82072351226
-50147.32332793753,-41943.07082212816,-45128.64144189852,-45405.8701283777
-50181.87912486543,-42004.49341589135,-45155.41883175598,-45450.68537601059
-50315.028466585696,-41925.68116494193,-45178.17290761148,-45373.348340195225
-50289.70394011783,-41843.56085581313,-45157.65400620151,-45302.694475972
-50209.70704671229,-41876.35086492907,-45137.93976759193,-45328.98012745144
-50145.17756046982,-41955.27487460076,-45135.302261746205,-45401.84681437574
-50192.540906970615,-42032.47779994939,-45166.21472432789,-45461.10128892676
-50324.81853065712,-41929.70447894389,-45182.88912569155,-45376.85756407471
-50289.569829651104,-41843.00206220175,-45157.58695096814,-45300.54870850429
-50193.88201163793,-41855.60844607454,-45132.84356985612,-45319.27947035783
-50128.77138003962,-41942.51202851677,-45125.512197674776,-45390.82740435928
-50178.347549241495,-42011.69067760595,-45151.373166009565,-45437.38608805968
-50308.38999848247,-41917.70159217138,-45165.36535803859,-45350.482505617445
-50281.50084990273,-41849.95345472735,-45139.61614842608,-45285.32717053023
-50195.08900583852,-41862.96217000034,-45113.7998835802,-45307.83537719672
-50132.50412136366,-41937.21466508087,-45113.57636613565,-45384.43480544505
-50192.42914824834,-42007.44384615944,-45146.612244440585,-45435.8214659478
-50312.9721060958,-41902.14477803049,-45159.03981435774,-45348.35908989419
-50271.04023349765,-41825.94768118235,-45141.0019565823,-45286.31064728626
-50201.14632858591,-41868.885382281,-45124.7522383633,-45317.17840637903
-50136.79565629908,-41939.76276394878,-45124.01463079627,-45386.826442101774
-50191.423319747846,-42001.40887515651,-45153.85420964411,-45431.30641356784
-50318.15771080944,-41915.93580435942,-45168.427547028965,-45348.24733117192
-50272.96248352081,-41829.70277425084,-45146.478133973855,-45284.23193505191
-50197.07831109504,-41869.622989848016,-45129.53551167673,-45315.09969414469
-50139.70138307827,-41950.91628443197,-45137.91741584747,-45394.15781428311
-50199.872279151954,-42016.988041041855,-45175.75891921031,-45442.03525090638
-50324.952641123855,-41929.5480167327,-45196.3672275981,-45357.54565686532
-50270.92847477538,-41829.3227945951,-45169.85805867411,-45288.99285662089
-50186.97532260124,-41860.01173973224,-45144.7570496508,-45313.289202843815
-50126.893833505375,-41956.28070310124,-45141.15841879349,-45389.03926480285
-50188.472889479744,-42009.88018630507,-45168.49460226233,-45429.42886703359
-50302.08680654608,-41902.68121989742,-45173.23317208686,-45335.3503746212
-50264.0664892276,-41832.63085277448,-45157.02815735676,-45280.834469894704
-50186.84121213451,-41874.47331839482,-45136.911587346985,-45313.11038888817
-50116.56732756703,-41947.34000531912,-45133.000032067306,-45386.826442101774
-50184.18135454433,-42008.673192104485,-45164.7618609383,-45434.27919558039
-50314.447321229854,-41911.778379890726,-45172.45086103092,-45348.13557244964
-50272.73896607626,-41837.41412608792,-45150.322634020165,-45296.12306310214
-50197.07831109504,-41875.47914689531,-45132.1059622891,-45326.02969718334
-50142.71886857973,-41978.43128185646,-45138.92324434796,-45404.28315452137
-50208.00831413369,-42036.5234656958,-45173.970779653886,-45440.40357356115
-50319.00707709874,-41913.05242932468,-45180.02810240127,-45341.07242120176
-50267.28514042916,-41829.41220157292,-45155.48588698934,-45282.64496119558
-50200.587534974526,-41870.248838692765,-45143.75122115031,-45319.07830465773
-50135.32044116503,-41954.6043222671,-45145.092325817626,-45398.67286666309
-50197.5476977286,-42004.94045078045,-45168.49460226233,-45432.98279440199
-50319.29764977666,-41906.36925773254,-45176.94356166644,-45339.507799089886
-50273.78949806566,-41845.84073374757,-45152.33429102114,-45287.830565909215
-50206.30958155509,-41886.61031563405,-45137.87271235856,-45326.94611870601
-50149.58085412751,-41977.73837777834,-45139.482037959344,-45406.406570244624
-50214.19974734781,-42006.34861068113,-45161.63261671455,-45430.70291646754
-50329.02065861472,-41902.86003385306,-45168.09227086214,-45338.25610140039
-50280.60678012452,-41839.626948789,-45141.0019565823,-45285.52833623032
-50203.62737222044,-41867.99131250278,-45118.650212127,-45313.8479964552
-50151.92778729532,-41967.21070613989,-45120.84068308362,-45391.3638462262
-50224.25803235269,-42014.37288694059,-45144.64529092852,-45420.219948318
-50336.9331761519,-41910.61608917905,-45150.322634020165,-45329.09188617372
-50282.75254759223,-41848.18766691538,-45128.93201457644,-45286.06477809725
-50210.779930446144,-41889.98542904681,-45115.56567139216,-45326.92376696155
-50146.67512734832,-41968.909438718496,-45119.74544760531,-45404.216099288
-50230.22594812226,-42013.88114856257,-45152.13312532105,-45429.18299784458
-50335.65912671795,-41899.73078962932,-45157.05050910122,-45326.45438032799
-50280.49502140225,-41847.114783181525,-45133.31295648968,-45279.1357373161
-50217.59721250501,-41896.37802796102,-45115.56567139216,-45315.949060434
-50171.48556369371,-41993.25048843032,-45118.76197084928,-45399.5669364413
-50236.81971273658,-42014.57405264069,-45149.65208168651,-45420.17524482909
-50343.750458210765,-41903.48588269781,-45159.37509052457,-45324.330964604735
-50291.51443141871,-41844.43257384689,-45136.01751756877,-45282.37674026212
-50223.34161083002,-41890.946554058384,-45113.129331246535,-45320.03942966931
-50165.71881362425,-41982.47694760287,-45116.52679640374,-45393.487261949456
-50241.5582825611,-42008.02499151528,-45150.4567444869,-45413.00033485894
-50337.00023138526,-41890.43246393591,-45154.90474163351,-45310.51758653136
-50278.14808823444,-41848.90292273795,-45134.72111639036,-45270.19503953398
-50209.5505845011,-41891.90767906996,-45123.14291276252,-45309.57881326424
-50157.11339200895,-41978.475985345365,-45125.73571511933,-45384.99359905644
-50247.77206751968,-42014.68581136296,-45155.284721289245,-45398.89638410764
-50349.85248444707,-41913.90179561398,-45162.75020393732,-45307.29893532979
-50272.314282931606,-41847.58416981508,-45135.92811059096,-45265.72469064292
-50204.05205536509,-41887.10205401207,-45123.7017063739,-45304.63907773961
-50153.29124370709,-41983.19220342543,-45134.22937801235,-45387.29582873533
-50237.89259647043,-42010.95307003893,-45166.8629249171,-45406.13834931116
-50329.1771208259,-41894.27696398222,-45168.15932609551,-45309.243537097405
-50258.32209090258,-41838.375251099504,-45135.74929663531,-45261.20963826295
-50182.88495336592,-41887.2361644788,-45117.44321792641,-45301.42042653805
-50137.89089177739,-41984.26508715929,-45126.652136642,-45386.84879384623
-50229.5553957886,-41996.06680823169,-45154.68122418896,-45395.81184337281
-50324.97499286831,-41886.900888311975,-45155.10590733361,-45294.17846133452
-50255.79634377913,-41839.783411000186,-45129.55786342119,-45261.45550745195
-50184.67309292234,-41887.19146098989,-45116.52679640374,-45302.06862712725
-50138.62849934441,-41978.67715104546,-45123.56759590717,-45380.59030539874
-50230.27065161117,-41989.89772676203,-45155.68705268944,-45390.22390725898
-50318.4259317429,-41881.00002777577,-45156.3576050231,-45294.06670261225
-50253.44941061133,-41844.253759891246,-45131.86009310008,-45263.0871847972
-50191.60213370349,-41910.52668220124,-45114.40338068049,-45305.06376088426
-50134.940461509286,-41986.723779049375,-45118.98548829383,-45383.7642531114
-50222.26872709617,-41981.38171212455,-45148.22157004137,-45385.41828220109
-50302.69030364636,-41860.05644322115,-45147.55101770771,-45278.755757660365
-50234.67394526886,-41821.81260845812,-45122.293546473215,-45248.80442009025
-50160.2873397216,-41874.160393972445,-45104.479206142336,-45289.32813278773
-50112.18638565378,-41976.88901148904,-45114.15751149148,-45377.63987513064
-50227.11905564297,-41993.60811634161,-45151.12729682056,-45387.1617182686
-50315.944888108366,-41881.55882138715,-45152.04371834323,-45286.95884787546
-50235.41155283589,-41839.47048657781,-45123.0982092736,-45253.4312311925
-50157.87335132043,-41882.45289116537,-45098.60069735059,-45291.36214153316
-50126.335039894,-41993.69752331943,-45110.53652888972,-45376.94697105253
-50240.32893661606,-42016.02691603028,-45144.06414557268,-45381.9090583216
-50321.5775277111,-41895.39455120499,-45143.17007579447,-45278.934571616
-50246.47566634127,-41855.58609433009,-45116.213871981374,-45249.430268935
-50175.620636417945,-41904.4917111983,-45102.78047356373,-45297.86649916965
-50122.93757473679,-41993.31754366369,-45112.39172367951,-45378.06455827529
-50230.65063126691,-42004.78398856926,-45149.45091598641,-45381.43967168805
-50298.08584428857,-41872.90869628295,-45149.76384040879,-45274.77714714732
-50222.93927942983,-41843.6279110465,-45127.65796514249,-45247.508018911845
-50160.91318856635,-41909.9902403343,-45117.42086618196,-45294.826661923726
-50121.641173558375,-42006.88505254806,-45131.36835472207,-45380.210325743
-50220.43588405084,-41981.87345050257,-45154.234189299845,-45369.61559887118
-50300.87981234548,-41877.35669342955,-45153.40717475501,-45272.40786223506
-50229.01895392167,-41857.08366120859,-45131.16718902197,-45253.20771374795
-50159.54973215458,-41912.44893222439,-45116.03505802573,-45304.92965041753
-50109.548879808055,-41978.67715104546,-45120.17013074996,-45383.94306706704
-50229.66715451088,-41987.99782848333,-45148.42273574147,-45375.918790807584
-50298.935210577874,-41876.79789981817,-45146.58989269613,-45276.3864727481
-50204.83436642103,-41829.9262916954,-45117.487921415326,-45249.69848986846
-50138.695554577775,-41886.20798423386,-45100.83587179612,-45296.74891194689
-50102.68689426028,-41990.92590700697,-45110.69299110091,-45381.35026471022
-50218.15600611639,-41994.27866867527,-45138.49856120331,-45365.12289823567
-50281.29968420264,-41868.32658866961,-45133.82704661216,-45257.90158008356
-50197.12301458395,-41833.59197778606,-45111.34119169012,-45236.15333272855
-50126.893833505375,-41889.761911602254,-45099.96415376236,-45285.68479844151
-50087.8229841975,-41988.86954651708,-45109.32953468914,-45365.56993312477
-50207.851851922496,-41979.727683034864,-45142.63363392754,-45347.48737186044
-50279.93622779087,-41869.71239682584,-45147.193389796426,-45249.11734451263
-50195.22311630525,-41835.290710364665,-45116.07976151464,-45225.42449539
-50126.335039894,-41896.2886209832,-45097.9972002503,-45276.05119658127
-50102.08339715999,-42002.16883446799,-45110.0000870228,-45360.78665981134
-50221.329953829045,-41993.76457855279,-45139.012651325786,-45339.7536682789
-50278.28219870117,-41875.52385038422,-45137.85036061411,-45238.63437636309
-50194.88784013842,-41840.58807380057,-45111.25178471229,-45222.98815524437
-50130.47011261823,-41908.44796996689,-45097.84073803911,-45280.633304194605
-50095.60139126795,-41986.656723816006,-45108.45781665538,-45364.29588369082
-50216.32316307106,-41966.04841542822,-45135.19050302393,-45339.30663338979
-50259.774954292174,-41842.152695912446,-45123.411133695976,-45232.688812337976
-50179.88981960891,-41833.18964638587,-45096.85726128308,-45221.44588487696
-50119.18248166829,-41904.96109783186,-45082.14981343148,-45278.84516463819
-50082.97265565069,-41988.37780813906,-45091.2916769137,-45355.7575173089
-50205.683732710335,-41967.09894741762,-45123.008802295786,-45328.26487162887
-50264.04413748314,-41853.82030651812,-45123.52289241825,-45229.09018148067
-50174.45834570627,-41831.177989384894,-45097.88544152802,-45217.37786738609
-50106.10671116194,-41893.36054245956,-45083.35680763207,-45276.56528670374
-50073.85314391293,-41981.20289816892,-45093.63861008151,-45357.38919465413
-50202.62154371996,-41963.96970319387,-45128.28381398723,-45335.01509845437
-50246.18509366335,-41855.45198386336,-45118.56080514918,-45242.255358964845
-50160.6896711218,-41835.96126269833,-45085.68138905542,-45228.21846344692
-50090.751062721145,-41895.46160643835,-45070.34809235908,-45280.990932105895
-50067.14762057634,-41988.824843028175,-45087.02249372274,-45367.02279651437
-50202.35332278649,-41973.73741552084,-45119.92426156096,-45338.92665373405
-50247.14621867493,-41853.14975418446,-45117.13029350404,-45241.33893744218
-50164.71298512376,-41840.252797633744,-45090.75523504677,-45233.69464083846
-50092.13687087737,-41906.36925773254,-45076.137194173,-45285.57303971923
-50083.93378066228,-42020.25139573233,-45096.87961302753,-45374.19770648453
-50212.65747698039,-41986.94729649393,-45122.51706391777,-45342.90526424709
-50241.98296570575,-41860.61523683253,-45109.55305213369,-45245.98810028888
-50159.79560134359,-41852.56860882862,-45087.201307678384,-45242.99296653187
-50092.494498788656,-41917.18750204891,-45077.23242965132,-45299.76639744835
-50059.95035886173,-42002.25824144581,-45089.88351701302,-45376.18701174104
-50178.92869459733,-41976.62079055557,-45117.57732839314,-45334.41160135408
-50219.94414567282,-41865.95730375735,-45116.12446500355,-45236.06392575073
-50134.67224057582,-41845.84073374757,-45088.00597047877,-45227.9725942579
-50064.89009438636,-41914.88527237002,-45078.01474070725,-45289.86457465465
-50048.75213488962,-42018.59736664264,-45094.57738334863,-45385.8653170902
-50179.532191697625,-41981.9628574804,-45119.25370922729,-45364.0053110129
-50208.25418332269,-41851.78629777268,-45111.72117134585,-45267.60223717716
-50117.88608048989,-41841.25862613424,-45086.12842394453,-45261.544914429775
-50052.171951791286,-41917.9474613604,-45074.68433078341,-45321.536996547824
-50039.99025106314,-42010.19311072744,-45087.53658384521,-45400.103378308224
-50172.91607533885,-41967.27776137325,-45116.07976151464,-45359.93729352204
-50206.51074725518,-41860.50347811025,-45112.12350274605,-45267.7363476439
-50119.07072294602,-41859.92233275442,-45089.36942689055,-45271.20086803447
-50054.541236703546,-41928.139856832015,-45078.57353431863,-45334.5010083319
-50048.37215523388,-42010.57309038319,-45088.52006060125,-45405.69131442205
-50172.64785440539,-41965.93665670594,-45106.915546287964,-45355.19872369751
-50191.82565114804,-41849.19349541587,-45091.55989784717,-45254.705280626455
-50108.29718211856,-41842.21975114581,-45064.55899054516,-45234.4769518944
-50038.53738767355,-41904.022324564736,-45048.06340313714,-45273.65955992456
-50023.00292527711,-41982.90163074752,-45058.903999197966,-45343.419354369566
-50161.5390374111,-41948.56935126417,-45083.11093844306,-45294.133757845615
-50182.77319464364,-41846.69010003688,-45074.2372958943,-45204.74913176884
-50104.4750338167,-41847.00302445925,-45053.651339250966,-45209.91238473802
-50041.890149341845,-41915.82404563714,-45043.995385646274,-45269.52448720032
-50031.78716084804,-41996.82676754317,-45059.21692362034,-45339.79837176781
-50165.38353745741,-41948.16701986397,-45083.51326984326,-45284.7907286633
-50182.54967719909,-41841.63860578997,-45077.36654011805,-45194.98141944187
-50100.317609348014,-41845.84073374757,-45049.18099035991,-45194.95906769742
-50042.00190806412,-41924.362412019065,-45038.0274698767,-45258.43802195049
-50043.365364475896,-42012.42828517297,-45060.82624922112,-45334.0986769317
-50180.47096496475,-41957.51004904629,-45091.00110423579,-45285.72950193042
-50195.60309596099,-41846.62304480351,-45080.67459829743,-45199.38471309957
-50111.40407459785,-41844.34316686907,-45057.1829148749,-45204.05622769073
-50052.015489580095,-41925.77057191975,-45048.398679303966,-45263.60127491967
-50060.95618736222,-42022.06188703321,-45073.700854027375,-45337.18321766653
-50192.205630803786,-41961.265142114775,-45101.61818285206,-45281.50502222837
-50198.77704367365,-41836.967091198814,-45088.22948792332,-45191.89687870704
-50122.26702240312,-41845.39369885847,-45070.54925805917,-45201.95516371193
-50054.80945763701,-41925.36824051956,-45065.34130160109,-45266.75287088786
-50067.10291708743,-42012.27182296179,-45090.487014113314,-45338.97135722296
-50205.77313968816,-41959.00761592479,-45118.00201153779,-45286.221240308434
-50213.01510489168,-41854.06617570713,-45106.35675267658,-45198.49064332136
-50133.53230160861,-41865.37615840151,-45081.72513028683,-45206.06788469171
-50067.125268831885,-41938.17579009245,-45072.11388017105,-45271.78201339031
-50071.68502470077,-42014.10466600712,-45089.30237165718,-45337.42908685555
-50210.1987850903,-41962.13686014854,-45113.93399404693,-45279.58277220521
-50214.08798862553,-41856.63662631949,-45102.26638344126,-45202.24573638985
-50140.01430750064,-41875.61325736204,-45083.08858669861,-45219.92596625399
-50076.490649758656,-41949.7539937203,-45074.95255171687,-45283.784900162806
-50076.04361486955,-42016.63041313057,-45090.75523504677,-45345.98980498192
-50220.23471835074,-41962.78506073774,-45116.01270628128,-45284.09782458518
-50230.002430677705,-41870.80763230415,-45105.70855208737,-45203.34097186816
-50143.031793002105,-41869.622989848016,-45080.27226689724,-45213.8239400177
-50071.79678342304,-41939.40513603749,-45071.77860400422,-45277.41465299304
-50088.53824002007,-42026.50988417982,-45095.15852870447,-45344.961624736985
-50228.34840158802,-41959.85698221409,-45114.537491147225,-45277.48170822641
-50212.32220081356,-41840.07398367811,-45093.68331357042,-45187.91826819399
-50117.17082466732,-41859.207076931845,-45066.6377027795,-45200.68111427798
-50052.97661459167,-41933.88425515703,-45060.26745560973,-45265.92585634302
-50071.26034155612,-42011.91419505051,-45085.52492684424,-45330.96943270796
-50208.678866467344,-41944.3001680732,-45102.42284565244,-45259.46620219544
-50202.10745359749,-41848.0312047042,-45089.101205957086,-45179.62577100108
-50118.10959793444,-41865.1302892125,-45068.805821991664,-45193.90853570802
-50052.82015238049,-41943.29433957271,-45062.34616784408,-45257.52160042782
-50078.83758292646,-42017.50213116433,-45087.62599082304,-45318.34069709071
-50215.0044101482,-41943.04847038371,-45113.33049694663,-45247.776239845305
-50199.15702332938,-41852.81447801763,-45092.521022858746,-45169.209858084905
-50109.77239725261,-41859.16237344294,-45063.08377541111,-45181.77153846878
-50050.02618432357,-41945.52951401824,-45054.90303694047,-45253.09595502568
-50080.04457712705,-42018.79853234274,-45075.53369707272,-45312.14926387659
-50217.93248867184,-41944.59074075112,-45100.50059562929,-45241.27188220881
-50197.07831109504,-41854.53556234069,-45090.0399792242,-45166.17002083898
-50112.72282752071,-41863.45390837835,-45071.2868656262,-45180.72100647938
-50048.48391395616,-41944.367223306566,-45063.26258936675,-45250.34669045767
-50083.06206262852,-42024.60998590112,-45086.4413483669,-45310.98697316492
-50210.93639265733,-41936.43235402493,-45104.45685439788,-45231.48181813739
-50184.78485164462,-41845.66191979193,-45086.4413483669,-45157.31873003468
-50103.44685357176,-41857.731861797794,-45065.49776381228,-45175.021311643286
-50048.37215523388,-41943.96489190637,-45062.92731319992,-45247.26214972283
-50086.705396974736,-42030.44379120395,-45087.11190070056,-45309.53410977532
-50227.923718443366,-41949.48577278683,-45107.340229432615,-45238.16498972953
-50203.56031698708,-41852.76977452872,-45090.21879317985,-45162.39257602603
-50111.33701936448,-41866.694911324375,-45063.55316204466,-45175.53540176575
-50046.919291844286,-41945.44010704042,-45056.57941777461,-45248.3797369456
-50085.76662370761,-42023.2688812338,-45079.86993549704,-45305.13081611763
-50215.674962481855,-41937.3487755476,-45099.71828457336,-45229.403105903046
-50184.8966103669,-41843.44909709085,-45080.11580468605,-45153.8095061552
-50110.06296993053,-41877.96019052985,-45062.92731319992,-45175.80362269922
-50041.42076270828,-41934.93478714643,-45057.987577675296,-45244.89286481057
-50078.99404513765,-42000.06777048919,-45078.30531338517,-45298.35823754767
-50214.87029968146,-41925.43529575292,-45095.11382521556,-45221.065905221214
-50182.16969754335,-41830.55214054015,-45074.86314473905,-45148.713308419385
-50105.81613848402,-41863.2303909338,-45059.30633059816,-45173.59079999814
-50047.276919755575,-41952.68207224394,-45057.92052244193,-45243.55176014325
-50095.55668777903,-42030.77906737079,-45084.67556055493,-45297.71003695847
-50221.50876778469,-41937.7511069478,-45093.88447927052,-45213.93569873997
-50194.709026182776,-41847.69592853736,-45074.50551682777,-45147.14868630752
-50113.84041474348,-41872.081681738106,-45053.09254563959,-45173.00965464231
-50055.63647218185,-41965.04258692773,-45051.21499910534,-45249.96671080193
-50093.47797554469,-42022.77714285578,-45070.81747899264,-45294.133757845615
-50212.00927639118,-41926.30701378668,-45070.97394120383,-45207.18547191447
-50189.29990402459,-41855.004948974245,-45029.69026919488,-45143.34888975012
-50104.83266172799,-41869.04184449218,-44997.50375717924,-45161.45380275892
-50051.50139945762,-41958.337063591134,-44993.21222224381,-45235.01339376133
-50097.90362094684,-42017.904462564526,-45019.07319057861,-45280.856821639165
-50205.92960189934,-41913.96885084735,-45025.95752787084,-45186.51010829331
-50162.20958974476,-41827.98168992778,-45003.20345201534,-45124.30520347419
-50089.85699294293,-41860.391719387975,-44984.919725050895,-45153.51893347728
-50034.24585273813,-41946.89297043002,-44983.17628898338,-45226.74324831287
-50100.25055411465,-42017.68094511997,-45017.10623706654,-45275.69356866999
-50225.50973004219,-41926.329365531135,-45030.38317327299,-45191.53925079576
-50173.00548231667,-41830.1721608844,-45003.65048690445,-45125.8027703527
-50096.51781279061,-41865.39851014597,-44982.818661072095,-45150.14382006453
-50039.72203012968,-41955.766612978776,-44984.38328318397,-45226.05034423475
-50086.92891441929,-41999.866604789095,-45006.51151019472,-45259.42149870652
-50203.15798558688,-41899.90960358496,-45014.222862031806,-45167.93580865095
-50164.06478453455,-41829.99334692876,-44998.353123468536,-45111.76587483477
-50094.19323136726,-41861.95634149985,-44982.88571630546,-45137.71625014737
-50045.19820752123,-41950.46924954287,-44982.86336456101,-45212.79575977275
-50113.99687695466,-42016.33984045265,-45010.24425151876,-45255.55464691576
-50230.002430677705,-41920.6967259284,-45018.87202487851,-45165.32065454968
-50185.56716270056,-41842.13034416799,-44995.067417033606,-45111.67646785695
-50111.76170250913,-41870.3829491595,-44972.04512024464,-45142.566578694175
-50048.75213488962,-41950.73747047633,-44969.117041720994,-45221.91527151052
-50110.73352226419,-41997.60907859911,-44996.90026007894,-45261.65667315205
-50224.68271549734,-41898.367333217546,-45010.80304513015,-45173.12141336458
-50176.62646491843,-41837.90586446594,-44990.462957675816,-45118.31493596017
-50096.2272401127,-41864.39268164548,-44971.6651405889,-45146.88046537405
-50050.562626190505,-41965.824897983664,-44976.76133832471,-45228.33022216919
-50125.2845079046,-42018.08327652017,-45006.64562066145,-45261.50021094087
-50247.99558496423,-41924.54122597471,-45018.00030684475,-45167.82404992868
-50198.37471227345,-41854.93789374088,-44997.19083275686,-45113.55401439119
-50125.77624628261,-41900.15547277397,-44976.64957960243,-45143.97473859487
-50064.13013507488,-41985.94146799344,-44972.134527222464,-45217.66844006401
-50128.234938172696,-42021.88307307757,-44999.87304209149,-45246.94922530047
-50237.42320983687,-41911.890138613,-45013.64171667597,-45153.98832011084
-50172.31257823856,-41837.99527144376,-44987.937210552365,-45095.87378452704
-50089.90169643184,-41869.265361936734,-44964.937265507855,-45123.008802295786
-50027.24975672361,-41955.72190948986,-44963.864381774,-45198.96002995492
-50108.498347818655,-42002.83938680165,-44992.20639374333,-45224.75394305634
-50221.30760208459,-41901.51892918575,-45004.70101889384,-45130.2060640104
-50156.24167397519,-41818.54925376764,-44976.3143034356,-45070.66101678146
-50078.61406548191,-41857.35188214206,-44954.297835147125,-45102.13227297453
-50033.35178295992,-41959.18642988044,-44955.10249794752,-45184.99018967035
-50112.52166182061,-41996.60325009862,-44979.33178893707,-45208.32541088169
-50215.89847992641,-41892.35471395907,-44987.6689896189,-45110.35771493408
-50155.906397808365,-41824.51716953721,-44967.172439953385,-45062.189705632896
-50075.4177660248,-41848.12061168202,-44945.31243387609,-45099.31595317316
-50018.44316940822,-41935.426525524446,-44941.78085825216,-45177.43530004445
-50095.73550173468,-41972.66453178698,-44969.273503932185,-45199.98821019986
-50199.91698264086,-41873.57924861661,-44976.9178005359,-45102.84752879709
-50148.910301793854,-41828.54048353917,-44955.32601539207,-45062.524981799725
-50078.926989904285,-41865.28675142369,-44933.17543663686,-45095.6949705714
-50018.28670719704,-41940.20979883788,-44931.56611103608,-45169.18750634045
-50105.81613848402,-41987.4613866164,-44963.75262305172,-45190.48871880636
-50214.31150607008,-41890.79009184719,-44977.49894589173,-45097.72897931683
-50146.00457501466,-41819.152750867936,-44952.04030895714,-45048.64454849298
-50073.02612936809,-41860.95051299936,-44928.83919821253,-45087.603639078574
-50029.77550384706,-41955.543095534216,-44935.18709363784,-45175.93773316595
-50120.85886250244,-41992.82580528567,-44967.59712309804,-45200.03291368877
-50216.47962528225,-41876.82025156263,-44971.24045744425,-45101.14879621849
-50145.95987152575,-41827.0205649162,-44944.23955014224,-45060.26745560973
-50069.69571944424,-41857.15071644196,-44923.83240745455,-45092.521022858746
-50016.74443682962,-41949.463421042376,-44924.36884932147,-45171.69090171944
-50116.50027233366,-41990.97061049588,-44959.48343986076,-45195.920192709
-50216.30081132661,-41882.02820802072,-44967.84299228704,-45096.23141243833
-50146.049278503575,-41830.93212019588,-44941.13265766295,-45052.86902819503
-50070.276864800086,-41857.77656528671,-44922.11132313148,-45090.889345513504
-50022.62294562137,-41950.06691814267,-44923.29596558762,-45168.7628231958
-50128.54786259507,-41986.83553777165,-44952.53204733515,-45183.13499488056
-50217.26193633818,-41873.44513814988,-44950.386279867445,-45083.02153146524
-50144.708173836254,-41825.50064629324,-44920.43494229734,-45048.82336244862
-50068.935760132765,-41864.459736878845,-44901.16773857686,-45090.487014113314
-50032.97180330418,-41963.43326132694,-44912.008334637685,-45172.20499184192
-50118.80250201256,-41970.11643291908,-44940.663271029385,-45174.574276754174
-50203.40385477589,-41864.90677176795,-44946.16180016539,-45076.18189766192
-50137.175635954816,-41825.858274204526,-44925.3076225886,-45047.30344382566
-50064.0183763526,-41872.95339977186,-44906.55450899059,-45086.86603151155
-50013.03404725004,-41963.12033690457,-44909.03555262513,-45160.93971263644
-50117.01436245613,-41988.73543605035,-44936.88582621644,-45170.21568658539
-50207.87420366695,-41878.56368763014,-44939.0092419397,-45075.37723486152
-50123.742237537175,-41821.20911135782,-44911.11426485948,-45043.10131586806
-50054.58594019246,-41876.753196329264,-44885.96855234725,-45084.67556055493
-50006.7532070581,-41968.12712766256,-44884.85096512449,-45161.78907892574
-50107.93955420728,-41985.87441276007,-44915.83048293954,-45163.39840452653
-50190.66336043637,-41869.64534159248,-44920.323183575056,-45063.0390719222
-50119.87538574641,-41825.858274204526,-44896.071540841054,-45032.39483027397
-50047.8133616225,-41867.99131250278,-44873.004540563175,-45071.44332783739
-50018.33141068595,-41975.70436903291,-44880.4923749557,-45160.51502949179
-50125.88800500489,-41994.03279948626,-44910.66722997037,-45163.3089975487
-50202.17450883085,-41886.63266737851,-44911.49424451521,-45065.54246730119
-50115.65090604436,-41830.93212019588,-44880.62648542244,-45036.10521985355
-50048.79683837853,-41867.85720203605,-44862.16394450235,-45079.646418052485
-50007.17789020275,-41965.71313926138,-44873.38452021891,-45163.3089975487
-50115.13681592189,-41983.28161040325,-44904.00641012268,-45159.1068695911
-50193.658494193376,-41875.81442306214,-44904.74401768971,-45056.46765905234
-50111.67229553131,-41822.88549219197,-44879.12891854393,-45025.46578949282
-50037.37509696187,-41862.783356044696,-44855.48077291021,-45066.078909168114
-50011.51412862708,-41981.11349119109,-44866.88016258242,-45155.5082387338
-50112.96869670972,-41981.47111910237,-44896.20565130778,-45154.27889278876
-50184.293113266605,-41853.01564371773,-44895.75861641868,-45051.77379271672
-50104.27386811661,-41815.06238163261,-44866.16490675985,-45020.03431559019
-50044.23708250965,-41875.85912655105,-44849.31169144055,-45067.978807446816
-50005.47915762415,-41969.84821198562,-44854.56435138755,-45145.427601984455
-50119.36129562394,-41974.98911321034,-44885.32035175805,-45138.31974724767
-50181.61090393197,-41846.42187910341,-44882.705197656775,-45033.13243784099
-50096.54016453507,-41798.72325643578,-44854.63140662091,-45001.99645781475
-50032.81534109299,-41862.44807987787,-44837.37585990142,-45051.34910957207
-50007.200241947205,-41971.01050269729,-44847.68001409531,-45141.69486066042
-50127.519682350125,-41969.40117709651,-44879.93358134432,-45131.94950007791
-50181.700310909786,-41835.17895164239,-44874.479755697226,-45024.81758890362
-50099.02120816961,-41805.29466930565,-44848.35056642897,-45004.7233706383
-50035.89988182782,-41870.15943171495,-44833.62076683292,-45053.29371133968
-50011.98351526064,-41973.3574358651,-44843.88021753791,-45137.828008869656
-50138.65085108887,-41976.88901148904,-44876.78198537612,-45128.59673840961
-50189.47871798024,-41845.75132676975,-44874.85973535296,-45026.06928659312
-50103.15628089384,-41811.12847460848,-44842.85203729296,-45007.0256003172
-50041.890149341845,-41873.51219338324,-44823.45072310576,-45058.85929570905
-50021.43830316524,-41978.34187487864,-44835.25244417816,-45149.495619475325
-50143.54588312458,-41973.75976726529,-44866.142555015394,-45134.36348847908
-50197.726511684246,-41838.86698947752,-44858.453554922766,-45025.15286507045
-50109.43712108578,-41800.690209947854,-44829.70921155324,-45001.348257225545
-50040.99607956363,-41863.677425822905,-44812.14074041137,-45048.599845004064
-50018.57727987496,-41971.68105503095,-44826.80348477406,-45132.575348922655
-50145.15520872536,-41953.01734841077,-44859.88406656791,-45106.55791837668
-50182.616732432456,-41819.82330320159,-44849.60226411847,-44997.928440323885
-50102.08339715999,-41801.874852403984,-44823.09309519448,-44986.86432681851
-50042.82892260897,-41865.37615840151,-44810.48671132168,-45040.95554840035
-50017.88437579684,-41964.88612471654,-44824.277737650606,-45121.84651158411
-50156.26402571965,-41960.41577582547,-44862.87920032492,-45105.57444162064
-50213.50684326969,-41848.54529482667,-44862.9909590472,-45003.65048690445
-50122.691705547775,-41812.98366939827,-44839.3875169024,-44985.54557389565
-50056.19526579324,-41876.30616144016,-44826.44585686277,-45037.04399312067
-50038.02329755107,-41977.93954347844,-44842.5838163595,-45119.36546794957
-50167.19402875829,-41958.51587754678,-44876.133784786914,-45094.66679032645
-50228.77308473267,-41851.92040823941,-44877.43018596533,-45004.075170049095
-50147.1892174708,-41829.25573936173,-44848.4846768957,-44997.637867645964
-50056.82111463799,-41874.51802188373,-44825.64119406238,-45049.09158338208
-50029.797855591525,-41967.72479626236,-44836.8841215234,-45126.07099128616
-50171.03852880461,-41950.13397337603,-44870.61290390645,-45099.07008398415
-50220.43588405084,-41830.261567862224,-44865.85198233747,-44998.978972313285
-50129.35252539546,-41800.33258203656,-44832.95021449927,-44984.025655272686
-50072.13205958987,-41881.75998708725,-44822.19902541626,-45045.42589729141
-50054.16125704781,-41979.817090012686,-44835.11833371143,-45122.60647089559
-50187.24354353471,-41950.62571175405,-44865.69552012629,-45089.65999956847
-50224.39214281942,-41824.36070732602,-44859.59349388999,-44990.68647512037
-50142.22713020172,-41808.15569259592,-44836.41473488983,-44986.23847797376
-50060.196228050736,-41870.15943171495,-44819.24859514816,-45039.23446407729
-50036.97276556167,-41965.5566770502,-44830.357412142446,-45118.33728770463
-50168.57983691453,-41935.94061564691,-44855.07844151002,-45078.48412734081
-50200.25225880769,-41816.068210133104,-44844.483714638205,-44976.82839355808
-50119.607164812944,-41813.67657347638,-44816.00759220214,-44971.2628091887
-50050.16029479031,-41878.72014984133,-44803.26709786262,-45027.209225560335
-50036.79395160604,-41967.23305788435,-44824.36714462843,-45110.894156801005
-50179.6439504199,-41939.60630173759,-44859.72760435672,-45076.91950522894
-50212.0539798801,-41819.778599712685,-44849.15522922936,-44978.43771915886
-50123.25049915916,-41814.01184964322,-44819.06978119252,-44977.34248368055
-50058.318681516495,-41887.75025460128,-44805.30110660805,-45039.25681582175
-50054.80945763701,-41997.60907859911,-44823.562481828034,-45122.561767406674
-50186.97532260124,-41937.88521741453,-44849.04347050709,-45066.28007486821
-50215.69731422631,-41816.49289327776,-44831.6314615764,-44955.88480900345
-50130.09013296248,-41817.5210735227,-44805.2787548636,-44957.20356192632
-50039.65497489632,-41864.70560606785,-44787.68793197727,-45018.17912080039
-50012.67641933876,-41950.24573209831,-44798.08149314899,-45102.48990088581
-50166.12114502444,-41916.315784015154,-44827.02700221861,-45057.80876371965
-50215.92083167086,-41788.24028828624,-44819.6285748039,-44939.56803555108
-50121.68587704729,-41785.55807895161,-44788.00085639964,-44932.68369825884
-50016.58797461844,-41866.51609736873,-44772.06406260301,-45014.15580679844
-49980.17698290074,-41994.09985471962,-44793.63349600238,-45129.93784307693
-50180.6944824093,-41957.08536590164,-44839.3875169024,-45071.42097609294
-50234.8080557356,-41792.28595403265,-44831.65381332086,-44924.59236676602
-50109.88415597488,-41764.88271533045,-44794.95224892524,-44905.79454967911
-50015.06805599548,-41856.16723968592,-44783.73167320868,-44990.64177163145
-49984.04383469151,-41999.307811177714,-44803.11063565143,-45112.65994461298
-50178.36990098595,-41959.34289209162,-44842.96379601524,-45056.82528696362
-50225.73324748674,-41793.761169166704,-44830.60328133146,-44916.07635212855
-50100.20585062574,-41773.17521252337,-44797.276830348594,-44901.81593916607
-49993.54332608501,-41872.23814394929,-44774.992141126655,-44983.71273085031
-49962.27323559204,-41988.84719477263,-44792.24768784615,-45097.77368280574
-50171.66437764936,-41946.177714607446,-44837.19704594577,-45042.609577490046
-50218.29011658313,-41785.33456150706,-44816.231109646695,-44898.53023273114
-50100.92110644831,-41765.03917754164,-44774.701568448734,-44889.07544482654
-49984.46851783616,-41844.454925591344,-44754.987329839154,-44978.63888485896
-49961.20035185818,-41984.44390111493,-44777.56259173901,-45103.16045321947
-50170.97147357124,-41944.434278539935,-44820.70145853776,-45039.32387105512
-50223.02868640765,-41800.08671284756,-44812.8783479784,-44902.285325799625
-50094.48380404518,-41763.09457577403,-44775.685045204766,-44889.25425878218
-49978.79117474451,-41841.54919881215,-44755.97080659519,-44976.53782088016
-49972.5997415304,-41996.60325009862,-44785.78803369857,-45104.054522997685
-50174.21247651726,-41949.28460708673,-44829.19512143077,-45035.81464717563
-50203.78383443163,-41782.31707600559,-44814.39826660136,-44900.02779960964
-50084.11259461792,-41758.62422688297,-44782.569382497,-44898.06084609757
-49976.57835204344,-41860.7269955548,-44767.39254801185,-44992.76518735471
-49975.9972066876,-42018.99969804283,-44793.94642042476,-45119.85720632759
-50171.37380497144,-41947.988205908325,-44833.17373194382,-45048.68925198189
-50195.13370932743,-41766.04500604213,-44818.9803742147,-44908.163834591374
-50079.55283874904,-41757.26077047119,-44782.70349296373,-44905.5486804901
-49971.01276767407,-41867.52192586922,-44765.894981133344,-44998.80015835764
-49954.02544188803,-41999.48662513335,-44790.928934923286,-45118.35963944908
-50171.82083986054,-41944.12135411756,-44828.85984526394,-45040.7320309558
-50204.275572809645,-41785.379264995965,-44808.96679269872,-44903.11234034447
-50064.59952170844,-41751.89635180192,-44767.52665847858,-44895.95978211877
-49948.59396798539,-41850.64635880546,-44748.08064080247,-44984.45033841734
-49942.44723826018,-41987.841366272136,-44768.10780383442,-45093.45979612587
-50150.40786867236,-41917.56748170465,-44807.44687407576,-45009.528995696186
-50177.60994167447,-41761.9099333179,-44792.69472273526,-44875.41852896435
-50058.452791983225,-41753.46097391379,-44754.987329839154,-44873.51863068565
-49954.58423549942,-41863.94564675637,-44738.51409417559,-44971.91100977791
-49955.81358144445,-41998.6149070996,-44765.85027764443,-45082.70860704286
-50167.03756654711,-41923.177769562935,-44808.407999087336,-44993.83807108856
-50164.66828163485,-41774.02457881267,-44789.185498855775,-44868.4894881832
-49973.94084619771,-41764.10040427451,-44744.83963785644,-44873.7421481302
-49860.57279832039,-41888.57726914612,-44733.3061377175,-44977.05191100263
-49884.086833487374,-42022.240700988856,-44765.93968462225,-45088.877688512526
-50067.39348976535,-41908.04563856669,-44794.70637973624,-44986.14907099594
-50064.89009438636,-41753.57273263607,-44772.04171085855,-44856.64306362189
-49954.56188375496,-41768.01195955419,-44743.20796051121,-44872.98218881872
-49852.280301127474,-41870.5841148596,-44728.32169870397,-44967.26184693121
-49876.889571772765,-41998.97253501088,-44760.08352757496,-45072.87383948253
-50085.56545800751,-41911.33134500162,-44797.12036813741,-44980.04704475964
-50079.50813526013,-41756.38905243744,-44773.7180916927,-44860.17463924583
-49979.48407882263,-41777.01971256968,-44744.23614075615,-44882.3922732344
-49889.31714168992,-41890.745388358286,-44735.04957378502,-44990.28414372017
-49914.21698501313,-42019.49143642085,-44763.033957843065,-45092.76689204775
-50120.12125493542,-41935.38182203553,-44799.69081874977,-44995.04506528915
-50116.612031055934,-41795.57166046758,-44788.04555988855,-44883.37574999044
-50009.83774779293,-41813.967146154304,-44761.64814968684,-44902.88882289992
-49903.3316854634,-41913.7453334028,-44748.88530360285,-44997.12377752349
-49918.88849960429,-42005.052209502726,-44774.43334751527,-45084.31793264365
-50100.474071559205,-41893.51700467074,-44806.39634208636,-44977.655408102924
-50079.73165270468,-41753.93036054735,-44775.394472526845,-44861.58279914651
-49964.62016875984,-41764.480383930255,-44739.87755058736,-44883.50986045717
-49878.94593226266,-41888.085530768105,-44734.46842842918,-44990.84293733155
-49914.52990943551,-41999.35251466662,-44761.40228049782,-45078.35001687408
-50101.59165878197,-41898.076760539625,-44792.31474307952,-44975.15201272393
-50087.28654233057,-41770.425947955366,-44774.36629228191,-44865.02496779263
-49973.6949770087,-41771.43177645586,-44744.32554773397,-44882.3922732344
-49877.58247585088,-41877.64726610747,-44732.90380631731,-44981.924591293886
-49913.814653612935,-41979.727683034864,-44763.1680683098,-45071.42097609294
-50101.7257692487,-41877.937838785394,-44793.164109368816,-44963.90908526291
-50073.36140553492,-41750.53289539014,-44768.51013523461,-44856.17367698833
-49960.21687510215,-41764.6591978859,-44738.5587976645,-44881.14057554491
-49876.10726071683,-41882.49759465428,-44726.66766961428,-44985.14324249545
-49924.11880780683,-41991.68586631845,-44757.42366998478,-45068.00115919127
-50106.84431872897,-41875.926181784416,-44783.84343193095,-44952.42028861288
-50076.825925925485,-41748.051851755605,-44762.29635027604,-44851.680976352814
-49974.05260491998,-41778.360817237,-44734.13315226235,-44881.051168567086
-49878.61065609582,-41890.43246393591,-44723.96310853519,-44986.50669890722
-49933.90887187825,-41996.29032567624,-44755.65788217281,-45069.47637432532
-50120.0318479576,-41881.17884173142,-44787.84439418845,-44955.43777411435
-50075.820097425,-41746.1519534769,-44760.30704501952,-44849.19993271827
-49962.45204954768,-41755.56203789259,-44727.47233241467,-44872.46809869625
-49873.31329265992,-41877.71432134084,-44718.84455905492,-44985.03148377317
-49932.36660151084,-41982.96868598088,-44748.773544880576,-45069.5881330476
-50124.05516195955,-41863.90094326746,-44773.87455390389,-44947.39114611044
-50082.7714899506,-41733.65732832639,-44748.684137902754,-44838.80637154656
-49965.6930524937,-41750.51054364569,-44717.36934392087,-44861.87337182443
-49863.29971114394,-41880.17301323093,-44709.00979149459,-44981.07522500458
-49923.22473802862,-41988.534270350254,-44744.30319598952,-45068.895228969486
-50128.90549050635,-41861.866934522026,-44777.54023999456,-44945.37948910946
-50098.59652502496,-41724.56016833308,-44755.94845485073,-44831.98908948769
-49986.32371262595,-41754.98089253675,-44724.47719865766,-44861.64985437988
-49875.61552233881,-41895.46160643835,-44713.86012004139,-44986.95373379633
-49934.7358864231,-42014.39523868504,-44746.09133554594,-45077.16537441795
-50137.57796735501,-41875.32268468412,-44776.40030102734,-44944.9101024759
-50087.24183884166,-41713.11607517196,-44749.66761465879,-44828.70338305276
-49966.72123273864,-41735.04313648261,-44716.60938460939,-44854.72081359873
-49858.67290004169,-41878.45192890787,-44702.05839896898,-44982.93041979437
-49925.99635434108,-42001.5653373677,-44739.78814360954,-45079.82523200813
-50142.11537147944,-41874.76389107274,-44779.37308303989,-44948.82165775557
-50096.65192325735,-41728.18115093483,-44750.449925714725,-44829.15041794186
-49962.34029082541,-41732.606796336986,-44705.008829237086,-44849.24463620719
-49845.46301906861,-41880.21771671983,-44690.63665755232,-44983.69037910586
-49922.55418569496,-42018.12798000908,-44731.85327432791,-45087.02249372274
-50142.04831624607,-41882.5870016321,-44767.34784452294,-44951.23564615675
-50079.46343177121,-41716.84881649599,-44734.7590011071,-44828.30105165256
-49945.57648248393,-41735.49017137172,-44698.72798904515,-44854.586703132
-49823.13362635776,-41881.17884173142,-44683.70761677118,-44986.886678562965
-49904.49397617507,-42017.345668953145,-44727.65114637032,-45088.85533676807
-50126.71501954973,-41879.681274852905,-44769.53831547956,-44952.12971593496
-50058.944530361245,-41713.92073797235,-44738.29057673104,-44831.09501970947
-49911.91475533423,-41729.23168292423,-44697.65510531129,-44858.00652003366
-49799.32901851285,-41883.72694059932,-44687.46270983967,-44994.53097516668
-49892.267571958015,-42019.33497420967,-44730.1098382604,-45089.32472340164
-50095.511984290126,-41863.38685314499,-44765.04561484404,-44946.13944842094
-50026.13216950085,-41705.87410996844,-44732.27795747256,-44831.09501970947
-49898.45900517214,-41731.66802306986,-44692.69301804221,-44861.15811600186
-49790.09774805281,-41885.31391445565,-44681.025407436544,-44996.54263216766
-49882.58926660887,-42001.65474434552,-44722.487893401136,-45077.43359535141
-50081.89977191684,-41861.01756823272,-44756.50724846211,-44932.41547732538
-50021.19243397623,-41730.081049213535,-44728.96989929317,-44828.16694118583
-49903.75636860805,-41763.04987228512,-44694.19058492072,-44862.52157241364
-49797.71969291207,-41896.40037970548,-44680.93600045872,-44988.67481811939
-49905.2315837421,-42000.783026311765,-44724.6560126133,-45059.57455153162
-50090.84046969897,-41857.24012341978,-44755.18849553925,-44912.54477650461
-50017.25852695209,-41722.30264214309,-44723.09139050143,-44818.04160094757
-49890.97117077961,-41731.51156085868,-44679.95252370269,-44844.28254893811
-49803.06175983688,-41889.44898717988,-44677.65029402379,-44975.10730923502
-49909.478415188605,-41975.16792716598,-44721.97380327866,-45037.60278673205
-50079.93281840478,-41825.50064629324,-44749.2652832586,-44898.26201179767
-50004.74155005712,-41719.55337757509,-44719.58216662195,-44819.6285748039
-49898.39194993877,-41753.88565705844,-44684.75814876058,-44860.73343285721
-49804.693437182126,-41884.95628654436,-44676.331541100924,-44981.29874244914
-49918.7320373931,-41955.341929834125,-44714.97770726415,-45024.03527784768
-50078.45760327073,-41814.92827116588,-44736.61419589689,-44890.9976948497
-50003.780425045545,-41728.628185823945,-44713.055457241,-44829.373935386415
-49902.97405755211,-41779.0090178262,-44686.92626797274,-44878.100738298985
-49823.26773682448,-41899.26140299576,-44682.9476574597,-44988.138376252464
-49939.675621947725,-41954.917246689474,-44724.32073644647,-45026.1810453154
-50082.79384169506,-41814.123608365495,-44742.112725032894,-44893.36697976196
-49999.153613943294,-41724.35900263298,-44711.446131640216,-44824.32244113951
-49908.47258668811,-41778.07024455908,-44687.68622728423,-44871.77519461813
-49848.27933886997,-41915.60052819258,-44690.01080870758,-44990.73117860928
-49960.999186158086,-41957.91238044648,-44728.4558091707,-45025.28697553718
-50079.48578351567,-41790.45311098732,-44736.748306363625,-44891.89176462791
-49994.39269237431,-41715.06067693957,-44706.10406471539,-44833.59841508847
-49905.83508084239,-41778.539631192645,-44680.80188999199,-44883.062825568064
-49851.47563832708,-41907.19627227739,-44685.58516330543,-44998.129606023984
-49971.01276767407,-41946.8035634522,-44720.87856780036,-45019.69903942335
-50077.85410617043,-41792.9118028774,-44729.84161732693,-44885.096834313495
-49996.80668077549,-41717.16174091837,-44699.04091346752,-44827.67520280781
-49913.00999081254,-41775.29862824662,-44678.81258473547,-44883.37574999044
-49841.037373666455,-41899.4402169514,-44681.114814414366,-44994.8215478446
-49972.48798280812,-41945.551865762696,-44724.20897772419,-45017.79914114466
-50096.31664709051,-41801.94190763735,-44734.62489064037,-44885.52151745815
-50015.805663562496,-41741.7039563303,-44708.11572171637,-44840.773325058624
-49938.468627747134,-41809.67561121889,-44688.69205578471,-44898.5972879645
-49879.57178110741,-41909.76672288975,-44693.2518116536,-45003.20345201534
-50001.79111978902,-41944.0990023731,-44728.4558091707,-45012.121798053005
-50119.29424039057,-41812.29076532016,-44738.9611290647,-44887.15319480338
-50035.47519868317,-41749.28119770065,-44711.98257350714,-44843.14260997088
-49946.82818017342,-41784.37343649548,-44686.814509250464,-44889.768348904654
-49907.3326477209,-41907.97858333333,-44693.02829420904,-44996.16265251191
-50020.18660547574,-41921.5460922177,-44729.10400975991,-45006.33269623908
-50108.8783274744,-41783.12173880598,-44732.79204759503,-44884.806261635575
-50023.8075880775,-41733.97025274876,-44698.32565764495,-44841.332118670005
-49943.20719757166,-41795.43755000085,-44677.33736960142,-44891.95881986128
-49898.23548772759,-41905.58694667661,-44687.12743367284,-44995.60385890053
-50024.29932645552,-41923.75891491877,-44724.36543993538,-44998.80015835764
-50125.77624628261,-41798.5667942246,-44735.65307088531,-44886.08031106953
-50045.89111159934,-41752.92453204686,-44713.7036578302,-44858.61001713396
-49949.13040985232,-41797.85153840203,-44686.72510227265,-44902.88882289992
-49902.10233951835,-41912.85126362459,-44693.18475642023,-44998.42017870191
-50038.67149814028,-41932.52079874525,-44734.80370459601,-45004.5222049382
-50124.6810108043,-41803.55123323813,-44743.00679481111,-44885.5438692026
-50022.444131665725,-41745.68256684335,-44711.53553861804,-44842.27089193713
-49944.61535747234,-41795.728122678775,-44693.65414305379,-44892.60702045048
-49912.94293557918,-41914.661754925466,-44707.53457636054,-44997.23553624577
-50051.18847503525,-41929.5480167327,-44743.96791982269,-44990.35119895353
-50131.073609718514,-41789.80491039812,-44736.90476857481,-44869.47296493923
-50052.171951791286,-41754.26563671418,-44703.28774491403,-44843.67905183781
-49972.55503804148,-41813.900090920935,-44682.18769814822,-44897.77027341966
-49921.21308102764,-41900.37899021852,-44691.88835524182,-44992.9216495659
-50064.97950136418,-41920.56261546166,-44734.26726272908,-44992.87694607698
-50144.14938022487,-41784.328733006565,-44740.01166105409,-44875.15030803088
-50050.71908840169,-41742.48626738623,-44709.7026955727,-44844.64017684939
-49963.94961642619,-41794.78934941165,-44684.802852249486,-44893.63520069543
-49935.048810845474,-41918.64036543851,-44700.8514047684,-44992.42991118788
-50061.7161466737,-41911.73367640182,-44742.85033259992,-44982.125756993984
-50135.74512430968,-41776.55032593612,-44748.2147512692,-44868.40008120538
-50054.38477449236,-41742.821543553066,-44719.04572475502,-44846.49537163918
-49984.24500039161,-41814.90591942143,-44700.49377685711,-44906.53215724613
-49941.17318882623,-41922.1942928069,-44707.71339031618,-44998.621344402
-50073.204943323726,-41915.95815610387,-44746.51601869059,-44986.19377448485
-50142.204778457264,-41777.913782347896,-44747.96888208019,-44861.962778802255
-50052.59663493594,-41745.391994165424,-44723.33725969044,-44835.386554644894
-49987.08367193743,-41826.372364327,-44705.32175365946,-44893.12111057295
-49961.15564836928,-41949.530476275744,-44722.17496897876,-44995.33563796707
-50096.13783313488,-41936.47705751385,-44763.816268899,-44978.840050559054
-50151.61486287294,-41774.337503235045,-44761.692853175744,-44855.30195895457
-50063.70545193023,-41751.13639249044,-44731.47329467217,-44835.453609878256
-49989.22943940514,-41820.13622762397,-44712.67547758525,-44891.55648846108
-49960.82037220244,-41937.77345869225,-44726.891187058834,-44992.966353054806
-50103.98329543869,-41936.58881623612,-44761.916370620296,-44971.19575395534
-50165.49529617969,-41787.01094234121,-44758.58596069646,-44849.17758097382
-50072.0203008676,-41740.720479574265,-44724.87953005786,-44823.04839170556
-49996.62786681984,-41808.15569259592,-44708.27218392756,-44883.46515696826
-49973.20323863068,-41934.75597319078,-44729.72985860465,-44991.200565242834
-50111.024094942106,-41919.33326951663,-44762.63162644287,-44970.1675737104
-50177.07349980754,-41784.28402951766,-44757.7142426627,-44854.3855374319
-50095.89196394586,-41768.97308456577,-44730.08748651594,-44842.7849820596
-50020.633640364846,-41837.28001562119,-44712.72018107417,-44905.57103223456
-49983.68620678022,-41945.61892099607,-44724.83482656894,-45005.32686773859
-50140.26017668965,-41933.97366213485,-44766.25260904463,-44982.63984711646
-50200.31931404106,-41786.25098302973,-44766.43142300027,-44855.86075256595
-50106.06200767303,-41747.15778197739,-44736.10010577442,-44834.35837439995
-50031.11660851439,-41831.26739636271,-44719.82803581096,-44901.05597985459
-49986.70369228169,-41954.58197052264,-44732.03208828355,-45013.61936493151
-50152.48658090671,-41942.55673200569,-44773.09224284795,-44990.84293733155
-50228.86249171049,-41787.16740455239,-44770.14181257985,-44854.56435138755
-50112.32049612051,-41736.47364812776,-44731.58505339445,-44821.126141682405
-50015.76096007359,-41813.65422173193,-44711.53553861804,-44891.31061927207
-49982.83684049092,-41969.69174977443,-44724.09721900192,-45015.98864984377
-50169.339796226006,-41964.37203459407,-44768.37602476788,-44988.60776288602
-50236.7079540143,-41776.61738116949,-44770.87942014688,-44837.62172909042
-50117.28258338959,-41719.50867408618,-44733.37319295087,-44807.58098454249
-50019.00196301961,-41798.65620120242,-44707.55692810499,-44880.82765112253
-49966.11773563835,-41952.1009268881,-44713.45778864119,-45011.071266063605
-50143.948214524775,-41938.64517672601,-44753.08743156045,-44979.823527315086
-50231.54470104512,-41760.278255972655,-44755.90375136182,-44831.29618540957
-50121.48471134719,-41711.41734259336,-44722.04085851203,-44804.29527810756
-50006.68615182473,-41785.93805860735,-44689.831994751934,-44872.848078351984
-49955.053622132975,-41947.11648787457,-44701.030218724045,-45008.54551894016
-50146.69747909278,-41937.81816218116,-44758.29538801854,-44978.88475404796
-50236.998526692216,-41763.295741474125,-44766.78905091155,-44826.55761558504
-50120.99297296917,-41709.76331350367,-44720.87856780036,-44788.2243738442
-50011.245907693614,-41791.816567399095,-44696.35870413288,-44865.89668582639
-49949.62214823034,-41943.651967484,-44705.96995424866,-45000.00715255823
-50145.31167093655,-41920.2943945282,-44753.66857691629,-44967.15008820893
-50218.468930538766,-41731.22098818076,-44749.22057976968,-44808.22918513169
-50100.22820237019,-41687.16569985935,-44709.09919847241,-44781.071815618496
-49988.15655567128,-41770.40359621091,-44678.38790159082,-44853.7373368427
-49948.01282262956,-41922.64132769601,-44686.9486197172,-44982.975123283286
-50155.68288036381,-41910.236109523314,-44731.96503305019,-44945.155971664906
-50234.51748305768,-41747.56011337759,-44728.58991963744,-44800.29431585006
-50123.51872009262,-41712.42317109385,-44689.31790462946,-44777.45083301674
-50030.46840792518,-41811.888433919965,-44670.7436049871,-44867.17073526034
-49984.26735213606,-41922.35075501809,-44684.869907482855,-45000.96827756981
-50181.87912486543,-41893.31583897064,-44726.15357949181,-44959.43873637185
-50268.35802416301,-41737.23360743924,-44730.44511442722,-44812.76658925612
-50167.97633981423,-41702.14136864441,-44697.18571867773,-44789.386664555874
-50036.97276556167,-41775.07511080207,-44664.8427444509,-44860.24169447919
-49978.23238113313,-41941.03681338273,-44677.046796923496,-44997.99549555725
-50185.07542432254,-41917.098095071095,-44729.99807953812,-44956.89063750394
-50253.09178270004,-41718.16756941886,-44732.18855049474,-44789.5207750226
-50126.335039894,-41659.65070243487,-44692.38009361984,-44747.43244021326
-50000.98645698864,-41749.28119770065,-44673.02348292154,-44839.96866225823
-49949.242168574594,-41917.031039837726,-44686.345122616905,-45004.365742727015
-50155.54876989708,-41890.00778079126,-44736.10010577442,-44970.07816673257
-50229.66715451088,-41701.58257503302,-44752.8639141159,-44815.58290905749
-50105.704379761744,-41647.06667030653,-44724.76777133558,-44785.877440676384
-49979.88641022282,-41738.50765687319,-44703.42185538076,-44877.7431103877
-49933.93122362271,-41907.46449321086,-44716.49762588712,-45022.56006271363
-50148.82089481603,-41882.385835932,-44765.64911194433,-44974.19088771235
-50222.71576198528,-41695.592307519,-44770.45473700223,-44812.20779564474
-50103.98329543869,-41646.46317320623,-44732.680288872754,-44768.13015557888
-49981.71925326816,-41739.75935456269,-44705.41116063728,-44831.31853715402
-49934.82529340092,-41904.46935945384,-44712.22844269615,-44965.89839051943
-50161.293168222095,-41874.76389107274,-44764.93385612177,-44922.290137087126
-50235.70212551381,-41682.695350968286,-44764.37506251038,-44768.62189395689
-50118.62368805691,-41638.5283039246,-44705.29940191501,-44746.7618878796
-50005.725026813154,-41756.27729371516,-44671.16828813176,-44846.11539198344
-49962.809677458965,-41916.6957636709,-44676.24213412311,-44987.11019600752
-50183.55550569958,-41864.0797572231,-44723.67253585727,-44926.00052666671
-50257.070393213085,-41687.32216207054,-44728.16523649279,-44769.62772245738
-50119.47305434621,-41625.8772165629,-44674.78927073351,-44739.72108837618
-50001.254677922094,-41745.92843603235,-44642.7368691846,-44845.69070883879
-49995.08559645243,-41951.34096757662,-44665.870924695846,-45010.020734074205
-50224.5039015417,-41892.44412093689,-44723.91840504628,-44946.8100007546
-50273.09659398754,-41687.590383004,-44724.790123080034,-44777.20496382773
-50135.834531287495,-41644.76444062763,-44681.40538709228,-44752.17101003778
-49995.84555576391,-41742.26274994168,-44648.59302623189,-44847.52355188412
-49973.60557003088,-41917.43337123792,-44663.1440118723,-44988.9206873084
-50223.94510793032,-41873.735710827794,-44728.07582951496,-44924.68177374385
-50256.95863449081,-41674.514612497645,-44727.82996032595,-44779.86482141791
-50087.4206527973,-41615.930690280285,-44681.248924881096,-44767.57136196749
-49952.70668896517,-41742.463915641776,-44644.8379331634,-44869.5400201726
-49965.24601760459,-41950.24573209831,-44673.78344223302,-45032.08190585159
-50191.82565114804,-41843.78437325769,-44727.38292543685,-44944.731288520255
-50200.98986637472,-41621.54097813857,-44711.87081478487,-44767.21373405621
-50071.72972818968,-41600.060951717016,-44663.27812233903,-44747.99123382464
-49964.50841003757,-41738.21708419527,-44639.562921471945,-44871.03758705111
-49957.020575645045,-41920.27204278375,-44654.42683153473,-44999.35895196902
-50191.33391277002,-41845.013719202725,-44712.18373920724,-44904.74401768971
-50219.49711078371,-41658.01902508963,-44702.25956466908,-44741.95626282171
-50085.43134754078,-41636.15901901234,-44650.7387936996,-44732.14384700583
-49956.864113433854,-41755.22676172576,-44623.96140384214,-44844.461362893744
-49950.69503196419,-41932.63255746753,-44648.74948844308,-44988.18307974137
-50178.012273074666,-41854.55791408514,-44696.93984948872,-44899.983096120726
-50194.44080524932,-41654.308635510046,-44673.20229687719,-44739.117591275884
-50084.738443462666,-41622.770324083605,-44648.01188087605,-44747.07481230197
-49974.70080550919,-41744.430869153846,-44756.79782114003,-44878.368959232444
-49993.856250507386,-41917.81335089366,-44980.56113488211,-45030.31611803963
-50252.242416410736,-41831.446210318354,-45018.87202487851,-44947.36879436598
-50287.37935869448,-41648.81010637404,-44913.72941896074,-44801.5236617951
-50144.4399529028,-41625.0278502736,-44841.086249481,-44805.457568819234
-50024.61225087789,-41743.290930186624,-44807.67039152031,-44928.7050877458
-50039.4091057073,-41906.10103679908,-44841.466229136735,-45073.61144704955
-50286.95467554983,-41813.87773917648,-44905.19105257882,-44975.24141970175
-50307.98766708227,-41623.30676595053,-44897.45734899728,-44815.85112999095
-50176.380595729424,-41613.114370478914,-44847.34473792848,-44811.93957471127
-50043.49947494263,-41730.77395329165,-44814.62178404592,-44934.13656164844
-50054.317719258994,-41872.72988232731,-44838.9851855022,-45076.40541510647
-50308.50175720474,-41775.70095964682,-44898.77610192014,-44975.822565057584
-50329.5794522261,-41598.69749530524,-44886.37088374745,-44827.00465047416
-50194.03847384912,-41594.98710572566,-44828.83749351949,-44829.82097027552
-50052.70839365821,-41724.80603752209,-44782.85995517492,-44943.6584047864
-50080.15633584933,-41897.69678088388,-44801.99304842867,-45073.34322611609
-50334.02744937271,-41793.04591334414,-44860.33110145701,-44960.15399219441
-50334.27331856172,-41598.54103309406,-44843.90256928236,-44793.63349600238
-50198.88880239592,-41591.81315801301,-44785.877440676384,-44788.2243738442
-50072.0203008676,-41726.39301137841,-44742.827980855465,-44909.57199449206
-50109.615935041424,-41896.51213842775,-44753.19919028273,-45020.79427490167
-50365.632816032514,-41796.018695356695,-44798.03678966007,-44883.062825568064
-50355.50747579426,-41596.08234120397,-44771.43821375826,-44716.22940495365
-50212.07633162455,-41579.69851251823,-44707.42281763826,-44712.02727699605
-50075.50717300263,-41718.65930779687,-44670.25186660909,-44837.71113606825
-50107.58192629599,-41872.81928930513,-44704.18181469224,-44965.987797497255
-50357.85440896206,-41759.29477921662,-44771.080585846976,-44846.093040238986
-50375.02054870374,-41616.19891121375,-44763.1680683098,-44705.47821587065
-50240.17247440487,-41596.23880341516,-44708.60746009439,-44712.18373920724
-50094.55085927855,-41699.70502849878,-44672.777613732535,-44837.46526687923
-50126.40209512736,-41858.24595192027,-44700.89610825731,-44962.74679455123
-50377.99333071629,-41730.86336026948,-44768.2195625567,-44832.8831592659
-50371.46662133535,-41552.94347440523,-44753.33330074946,-44680.01957893605
-50235.05392492461,-41554.99983489512,-44701.34314314641,-44687.730930773134
-50098.95415293624,-41700.88967095491,-44666.72029098515,-44819.092132936974
-50146.92099653733,-41860.83875427709,-44690.055512196486,-44943.747811764224
-50389.92916225543,-41728.67288931285,-44742.67151864428,-44814.01828694562
-50370.50549632377,-41549.143677847824,-44719.93979453323,-44670.16245963126
-50236.03740168064,-41562.10768963191,-44668.37432007484,-44684.48992782711
-50101.68106575979,-41713.47370308325,-44640.99343311709,-44816.164054413326
-50152.59833962898,-41855.40728037444,-44680.55602080298,-44934.2036168818
-50394.93595301342,-41722.12382818745,-44748.39356522484,-44803.87059496291
-50369.29850212318,-41555.33511106195,-44735.38484995185,-44675.75039574509
-50229.64480276642,-41559.71605297519,-44690.23432615213,-44704.47238737016
-50098.19419362476,-41701.94020294431,-44668.106099141376,-44845.35543267196
-50157.515723409146,-41853.08269895109,-44707.244003682616,-44964.26671317419
-50380.16144992846,-41700.95672618827,-44760.932893864265,-44815.40409510185
-50335.435609273394,-41508.70937212818,-44727.09235275893,-44656.99728214709
-50213.39508454742,-41534.61504395188,-44685.36164586088,-44686.412177850274
-50098.28360060258,-41697.04517090859,-44675.19160213371,-44846.22715070572
-50155.16879024134,-41831.4238585739,-44706.59580309341,-44951.21329441229
-50388.65511282148,-41684.08115912452,-44761.40228049782,-44785.98919939866
-50361.34128109709,-41523.081543812936,-44744.81728611199,-44641.37341277282
-50239.032535437655,-41552.36232904939,-44702.7513030471,-44673.29170385501
-50118.86955724592,-41711.48439782672,-44678.3431981019,-44819.025077703605
-50191.423319747846,-41844.6784430359,-44714.03893399703,-44926.29109934463
-50422.58506090463,-41700.84496746599,-44764.37506251038,-44781.40709178533
-50385.68233080892,-41540.35944227689,-44738.51409417559,-44649.53179949901
-50262.68068107137,-41576.07752991648,-44694.458805854185,-44670.58714277591
-50140.64015634539,-41732.27152017016,-44680.37720684734,-44818.19806315876
-50226.13557888694,-41849.59582681606,-44726.44415216972,-44925.93347143334
-50451.68703218544,-41689.4902812827,-44770.94647538024,-44769.69477769075
-50396.522926869744,-41529.02710783805,-44740.27988198756,-44636.18780805919
-50284.63009412648,-41567.069776900986,-44706.394637393314,-44692.424797108746
-50168.6915956368,-41733.74673530421,-44689.29555288501,-44863.66151138086
-50242.251186639216,-41837.23531213228,-44731.85327432791,-44961.852724773016
-50453.162247319495,-41658.91309486784,-44789.45371978924,-44803.2223943737
-50398.02049374825,-41515.86193035387,-44763.70451017672,-44683.86407898236
-50261.9654252488,-41537.11843933087,-44714.93300377525,-44715.87177704237
-50126.04446721608,-41681.10837711196,-44695.03995121002,-44864.84615383699
-50221.73228522924,-41817.342259567056,-44741.75509712161,-44965.25018993023
-50444.80269489321,-41661.97528385821,-44794.05817914703,-44813.12421716741
-50387.02343547624,-41514.81139836447,-44767.83958290095,-44703.57831759195
-50241.893558727934,-41535.73263117464,-44713.07780898545,-44744.14673377833
-50121.66352530284,-41715.64182229541,-44692.916535486765,-44908.27559331365
-50227.81195972109,-41839.87281797801,-44735.92129181878,-45001.01298105872
-50429.33528773014,-41648.34071974048,-44773.04753935904,-44825.90941499584
-50371.35486261307,-41515.97368907615,-44746.7618878796,-44710.88733802884
-50256.779820535165,-41573.59648628193,-44704.83001528144,-44753.9144461053
-50129.95602249575,-41710.97030770425,-44683.975837704646,-44900.00544786519
-50236.03740168064,-41817.36461131151,-44725.52773064706,-44981.85753606052
-50445.51795071578,-41652.67695816481,-44771.41586201381,-44824.121275439415
-50383.4918598523,-41508.754075617086,-44743.72205063368,-44708.71921881667
-50256.48924785725,-41549.88128541485,-44698.03508496703,-44742.13507677736
-50150.47492390573,-41731.46685736976,-44687.7979860065,-44897.50205248619
-50278.28219870117,-41859.4305943764,-44744.88434134535,-44985.72438785129
-50505.39827411155,-41693.31242958456,-44797.67916174879,-44823.16015042784
-50426.78718886223,-41540.38179402135,-44762.63162644287,-44698.9515064897
-50284.65244587093,-41560.65482624231,-44715.31298343098,-44729.79691383802
-50170.27856949313,-41736.31718591657,-44705.07588447045,-44885.2980000136
-50296.7223878768,-41853.686196051385,-44758.67536767428,-44967.55241960912
-50506.4711578454,-41680.46017652276,-44803.31180135153,-44801.68012400629
-50436.532549444746,-41542.61696846688,-44769.895943390846,-44692.87183199786
-50304.07611180259,-41579.40793984031,-44725.72889634716,-44733.21673073968
-50180.60507543148,-41746.64369185492,-44709.59093685042,-44884.58274419102
-50305.797196125655,-41853.95441698485,-44760.32939676397,-44959.4610881163
-50502.22432639889,-41665.81978390453,-44798.34971408245,-44787.57617325499
-50430.27406099726,-41530.32350901646,-44764.73269042167,-44683.9981894491
-50302.73500713528,-41587.678085288775,-44724.52190214657,-44733.23908248414
-50183.71196791076,-41760.568828650576,-44712.36255316288,-44892.11528207246
-50314.313210763125,-41848.14296342647,-44760.97759735317,-44958.32114914908
-50530.85691104614,-41675.96747588724,-44803.91529845182,-44800.33901933897
-50444.46741872638,-41535.93379687474,-44769.62772245738,-44703.17598619175
-50308.70292290484,-41572.70241650372,-44726.22063472517,-44749.42174546978
-50206.48839551072,-41761.485250173246,-44716.36351542038,-44910.86839567046
-50356.93798743939,-41859.54235309867,-44770.74530968015,-44976.671931346886
-50538.63531811659,-41658.01902508963,-44804.33998159647,-44798.1709001268
-50446.76964840527,-41524.04266882451,-44763.43628924326,-44691.62013430836
-50330.048838859664,-41582.85010848643,-44724.83482656894,-44743.43147795576
-50223.27455559666,-41766.581447909055,-44712.2507944406,-44905.03459036763
-50366.30336836617,-41855.653149563455,-44763.74921366564,-44963.55145735163
-50565.54681844078,-41677.97913288822,-44803.93765019628,-44796.76274022612
-50481.83953545565,-41546.5061720021,-44766.83375440047,-44704.20416643669
-50348.35491756856,-41589.91325973431,-44722.197320723215,-44752.90861760481
-50232.5058260567,-41773.26461950119,-44710.79793105101,-44913.28238407164
-50373.321816125135,-41849.68523379388,-44757.66953917379,-44965.69722481933
-50564.63039691811,-41663.36109201445,-44788.20202209974,-44791.48772853467
-50469.88135217207,-41541.52173298856,-44746.7618878796,-44695.93402098823
-50339.66008897544,-41598.54103309406,-44703.57831759195,-44753.04272807154
-50238.20552089281,-41778.60668642601,-44700.58318383493,-44924.94999467731
-50388.9456854994,-41854.33439664059,-44749.131172791866,-44969.117041720994
-50570.2853882653,-41661.05886233555,-44779.75306269564,-44788.894926177854
-50469.90370391652,-41537.967805620174,-44738.80466685351,-44696.58222157744
-50342.34229831008,-41597.959887738216,-44700.89610825731,-44754.09326006094
-50239.92660521586,-41780.03719807115,-44695.218765165664,-44912.52242476016
-50392.45490937888,-41847.71828028182,-44750.09229780344,-44952.64380605744
-50565.61387367414,-41646.99961507316,-44779.50719350662,-44770.47708874668
-50468.27202657128,-41536.850218397405,-44744.81728611199,-44685.853384238886
-50328.12658883651,-41574.04352117104,-44703.73477980313,-44735.51896041858
-50221.88874744043,-41752.76806983567,-44694.861137254375,-44894.41751175136
-50380.92140923994,-41819.89035843496,-44744.54906517852,-44928.28040460115
-50544.93851005298,-41623.88791130637,-44775.66269346031,-44753.02037632709
-50451.15059031852,-41519.30409899999,-44744.19143726724,-44676.73387250112
-50340.01771688673,-41587.1639951663,-44712.0049252516,-44741.41982095478
-50249.26963439818,-41779.90308760442,-44711.312021173486,-44908.38735203593
-50412.5491276442,-41836.56475979862,-44762.81044039851,-44935.92470120487
-50571.58178944371,-41641.94812082626,-44787.4197110438,-44754.18266703876
-50473.18941035145,-41541.253512055104,-44746.38190822386,-44676.130375400826
-50346.45501928986,-41600.88796626186,-44713.03310549654,-44740.05636454301
-50245.62630005197,-41784.17227079538,-44709.9038612728,-44903.15704383338
-50412.66088636647,-41830.32862309559,-44763.07866133197,-44924.36884932147
-50566.887923108094,-41633.610920144434,-44786.61504824341,-44745.86781810139
-50455.35271827611,-41532.51397997308,-44746.62777741287,-44671.16828813176
-50323.43272250089,-41583.99004745365,-44705.7017333152,-44730.40041093832
-50234.6068900355,-41765.93324731985,-44704.49473911461,-44892.159985561375
-50419.90285157,-41818.83982644556,-44763.01160609861,-44916.09870387301
-50556.7849346143,-41599.18923368326,-44786.50328952113,-44736.2118644967
-50449.58596820664,-41514.140846030816,-44750.159353036805,-44673.02348292154
-50326.60667021354,-41588.0133614556,-44714.24009969713,-44738.22352149768
-50238.65255578191,-41771.58823866704,-44715.6035561089,-44897.70321818629
-50427.12246502906,-41816.55994851112,-44768.44308000125,-44914.31056431658
-50553.76744911283,-41605.067742475,-44785.9221441653,-44732.94850980622
-50428.48592144084,-41495.05245626599,-44746.247797757125,-44663.3898810613
-50311.20631828384,-41565.594561766935,-44714.53067237505,-44729.61809988238
-50233.13167490145,-41752.49984890221,-44724.47719865766,-44888.76252040417
-50410.515118898766,-41778.49492770373,-44767.1690305673,-44886.70615991428
-50553.36511771264,-41596.12704469288,-44780.53537375157,-44717.52580613206
-50450.27887228476,-41517.4489042102,-44755.1661437948,-44662.80873570547
-50328.70773419234,-41580.36906485189,-44725.97476553616,-44730.44511442722
-50258.4114978804,-41750.97993027925,-44733.12732376186,-44882.45932846777
-50435.347906988616,-41783.21114578381,-44778.836641172966,-44884.8956686134
-50543.28448096329,-41592.10373069093,-44785.5198127651,-44721.303250945006
-50436.68901165593,-41514.297308242,-44755.72493740618,-44672.68820675471
-50319.61057419903,-41575.47403281618,-44729.9086725603,-44737.64237614184
-50252.89061699994,-41745.324938932055,-44745.08550704545,-44886.75086340319
-50441.36052624709,-41766.67085488688,-44788.6714087333,-44883.86748836845
-50557.92487358152,-41589.220355656194,-44793.097054135455,-44729.52869290456
-50460.53832298974,-41534.68209918525,-44765.64911194433,-44688.06620693996
-50351.77473447022,-41603.25725117413,-44746.98540532415,-44761.15641130882
-50284.85361157103,-41754.489154158735,-44758.04951882953,-44905.21340432327
-50470.23898008335,-41766.73791012024,-44789.23020234468,-44883.80043313509
-50582.91412388255,-41598.98806798316,-44787.46441453271,-44725.66184111379
-50476.25159934183,-41527.68600317073,-44753.601521682926,-44679.50548881358
-50356.62506301703,-41598.13870169386,-44728.09818125942,-44744.4596582007
-50283.57956213708,-41773.64459915693,-44741.509227932605,-44888.091968070505
-50472.1612301065,-41772.19173576734,-44784.37987379788,-44870.52349692863
-50570.79947838777,-41586.69460853274,-44787.84439418845,-44715.91648053128
-50462.30411080171,-41534.771506163066,-44764.55387646602,-44683.57350630445
-50356.44624906138,-41612.33205942298,-44748.6617861583,-44762.49751597614
-50291.22385874079,-41763.586314152046,-44758.407146740814,-44905.32516304555
-50475.64810224153,-41766.93907582034,-44787.44206278826,-44884.02395057964
-50571.7382516549,-41589.35446612293,-44781.65296097434,-44727.85231207041
-50460.38186077856,-41527.976575848654,-44752.64039667135,-44688.24502089561
-50344.26454833324,-41602.1173122069,-44734.155504006805,-44762.18459155376
-50290.32978896258,-41770.62711365546,-44747.96888208019,-44903.40291302239
-50489.506183803824,-41778.74079689274,-44782.85995517492,-44877.13961328741
-50578.73434766941,-41609.04635298805,-44780.60242898494,-44725.25950971359
-50459.19721832243,-41550.95416914871,-44749.5111524476,-44690.86017499688
-50337.08963836308,-41600.10565520592,-44730.51216966059,-44766.61023695592
-50294.464861686814,-41778.964314337296,-44751.94749259323,-44913.17062534936
-50500.01150369782,-41789.290820275644,-44789.14079536686,-44885.76738664715
-50564.25041726237,-41583.94534396474,-44779.30602780653,-44726.28768995854
-50451.44116299643,-41530.83759913893,-44753.15448679382,-44695.08465469893
-50356.37919382801,-41622.1221234944,-44739.96695756519,-44775.48387950467
-50322.44924574486,-41788.50850921971,-44760.865838630896,-44918.870320185466
-50495.96583795141,-41755.539686148135,-44795.68985649227,-44875.12795628643
-50560.45062070496,-41576.74808225013,-44789.9231064228,-44715.71531483118
-50453.07284034167,-41536.96197711968,-44763.43628924326,-44688.22266915115
-50343.90692042195,-41619.26110020412,-44735.00487029611,-44763.92802762128
-50298.57758266659,-41773.9128200904,-44743.76675412259,-44901.9947531217
-50499.36330310861,-41760.30060771712,-44782.1670510968,-44863.37093870294
-50574.95690285646,-41583.49830907564,-44782.748196452645,-44718.151654976806
-50458.43725901095,-41528.22244503766,-44754.94262635024,-44693.09534944241
-50344.19749309987,-41618.41173391482,-44739.34110872044,-44780.40126328484
-50318.44828348736,-41792.97885811077,-44764.777393910575,-44928.88390170144
-50516.21651842792,-41771.74470087823,-44795.51104253662,-44879.68771215531
-50575.7392139124,-41604.57600409699,-44789.29725757805,-44732.94850980622
-50457.36437527709,-41538.81717190948,-44758.42949848527,-44707.109893215886
-50337.00023138526,-41616.48948389167,-44738.31292847549,-44785.22924008718
-50306.423044970405,-41785.49102371824,-44760.508210719614,-44925.73230573325
-50515.300096905245,-41759.63005538345,-44794.840490202965,-44872.8927818409
-50574.62162668963,-41580.36906485189,-44783.44110053076,-44716.72114333167
-50461.208875323406,-41545.00860512359,-44751.4110507263,-44695.75520703259
-50356.7368217393,-41638.1259725244,-44728.38875393734,-44781.7200162077
-50323.745646923264,-41793.3141342776,-44746.15839077931,-44919.38441030794
-50524.24079468737,-41750.39878492341,-44780.91535340731,-44863.773270103135
-50575.783917401306,-41572.858878714906,-44773.82985041498,-44717.2575851986
-50467.06503237069,-41538.97363412066,-44747.1642192798,-44700.605535579394
-50365.11872591004,-41638.03656554658,-44739.408163953805,-44793.54408902456
-50344.800990200165,-41800.623154714485,-44762.69868167624,-44926.87224470046
-50543.820922830215,-41741.68160458584,-44792.69472273526,-44862.16394450235
-50595.22993507743,-41564.78989896654,-44780.73653945167,-44712.6531258408
-50484.18646862346,-41540.47120099917,-44748.03593731355,-44692.17892791974
-50382.75425228528,-41658.1307838119,-44727.11470450339,-44787.91144942182
-50352.31117633715,-41788.15088130842,-44737.731783119656,-44916.67984922884
-50552.7839723568,-41720.514502586666,-44759.83765838596,-44845.51189488314
-50600.86257468016,-41557.23500934065,-44747.56655067999,-44701.11962570186
-50498.670399030496,-41535.28559628554,-44719.11277998838,-44690.949581974695
-50406.06712175216,-41642.216341759726,-44705.29940191501,-44787.91144942182
-50387.11284245406,-41797.069227346095,-44726.7570765921,-44917.43980854032
-50571.76060339935,-41740.74283131872,-44754.16031529431,-44842.94144427079
-50605.712903226966,-41564.00758791061,-44746.04663205703,-44698.41506462277
-50489.10385240363,-41533.139828817824,-44717.7046200877,-44688.28972438452
-50386.79991803168,-41634.7285073672,-44707.75809380509,-44789.43136804478
-50383.6930255524,-41799.304401791625,-44734.42372494027,-44919.78674170813
-50596.548688000286,-41751.76224133519,-44765.3138357775,-44848.35056642897
-50626.79059824832,-41572.14362289234,-44756.529600206566,-44703.24304142512
-50503.699541532944,-41531.61991019487,-44728.05347777051,-44692.80477676449
-50375.60169405958,-41625.11725725142,-44709.054494983495,-44788.20202209974
-50366.54923755518,-41785.96041035181,-44730.62392838287,-44914.08704687203
-50586.57980997322,-41736.78657255013,-44764.4644694882,-44840.92978726981
-50608.93155442853,-41559.04550064153,-44750.42757397027,-44695.46463435467
-50498.75980600832,-41543.37692777836,-44722.46554165668,-44688.60264880689
-50390.19738318889,-41651.157039541846,-44711.4014281513,-44789.29725757805
-50402.93787752842,-41819.10804737903,-44742.78327736656,-44925.62054701096
-50606.4952142829,-41736.674813827856,-44770.3206265355,-44842.42735414831
-50617.11229289917,-41560.45366054221,-44756.887228117856,-44706.32758215995
-50486.2651808578,-41525.4508287252,-44721.52676838956,-44694.43645410973
-50381.72607204033,-41643.535094682586,-44711.87081478487,-44802.61889727341
-50393.05840647917,-41796.51043373471,-44737.88824533084,-44927.72161098976
-50603.38832180361,-41724.20254042179,-44761.849315386935,-44835.29714766707
-50626.27650812585,-41563.24762859913,-44753.64622517183,-44702.25956466908
-50511.96968698141,-41542.594616722425,-44733.14967550632,-44704.6512013258
-50394.15364195749,-41643.64685340486,-44721.057381756,-44800.093150149965
-50412.45972066638,-41801.3160587926,-44752.17101003778,-44925.01704991068
-50631.12683667265,-41742.821543553066,-44785.96684765421,-44841.13095296991
-50634.83722625223,-41565.72867223367,-44766.05144334453,-44700.94081174622
-50513.199032926444,-41535.68792768573,-44736.05540228551,-44699.46559661217
-50400.70270308289,-41648.58658892949,-44726.31004170299,-44802.19421412876
-50423.59088940512,-41807.23927107326,-44752.10395480442,-44917.86449168497
-50629.22693839395,-41712.06554318256,-44774.67921670428,-44815.6276125464
-50626.38826684813,-41539.7559451766,-44754.652053672326,-44678.27614286854
-50520.32923940769,-41540.65001495481,-44733.5073034176,-44688.20031740669
-50411.05156076569,-41649.4806587077,-44729.08165801545,-44792.62766750189
-50436.97958433385,-41812.15665485343,-44759.591789196944,-44915.00346839469
-50643.800275778805,-41725.36483113347,-44785.38570229837,-44821.37201087141
-50630.56804306126,-41546.729689446656,-44766.00673985562,-44690.055512196486
-50509.37688462459,-41529.02710783805,-44741.643338399335,-44694.14588143181
-50394.15364195749,-41645.59145517248,-44732.61323363939,-44802.03775191757
-50424.57436616116,-41792.48711973275,-44759.23416128566,-44918.82561669655
-50633.54082507382,-41705.02474367914,-44783.59756274195,-44821.99785971616
-50617.62638302164,-41548.09314585842,-44767.12432707838,-44694.235288409625
-50497.26223912981,-41549.590712736936,-44744.34789947842,-44701.99134373562
-50389.5938860886,-41670.84892640697,-44745.77841112357,-44816.34286836897
-50416.5500899017,-41807.90982340692,-44777.96492313921,-44927.49809354521
-50634.077266940745,-41720.31333688657,-44803.84824321845,-44821.14849342686
-50622.99080169092,-41555.9609599067,-44792.15828086833,-44695.88931749932
-50504.86183224462,-41552.384680793846,-44765.64911194433,-44707.62398333836
-50390.644418078,-41663.11522282544,-44756.37313799538,-44819.4274091038
-50432.12925578705,-41807.59689898454,-44787.28560057707,-44927.11811388948
-50647.19774093601,-41713.31724087206,-44812.81129274504,-44822.9813364722
-50629.69632502751,-41555.1562971063,-44797.232126859686,-44704.49473911461
-50510.561527080725,-41558.03967214104,-44770.41003351331,-44716.31881193147
-50402.08851123912,-41675.96747588724,-44767.3701962674,-44830.24565342017
-50460.67243345648,-41821.81260845812,-44800.517833294616,-44936.952881449804
-50657.21132245199,-41712.73609551622,-44815.78407475759,-44819.20389165925
-50629.87513898315,-41564.05229139952,-44795.71220823672,-44700.113797201375
-50518.451692873445,-41569.70728274671,-44773.87455390389,-44716.49762588712
-50405.44127290741,-41691.61369700595,-44771.080585846976,-44835.07363022252
-50453.6092822086,-41818.5716055121,-44803.825891474,-44936.259977371694
-50665.123839989166,-41713.22783389424,-44827.33992664098,-44819.74033352618
-50642.14624668912,-41567.13683213435,-44807.02219093111,-44700.56083209048
-50522.25148943085,-41574.825832226976,-44780.98240864067,-44716.31881193147
-50406.670618852455,-41689.602040004975,-44772.64520795885,-44830.80444703155
-50469.70253821642,-41817.38696305597,-44802.93182169578,-44924.77118072166
-50665.90615104511,-41700.46498781026,-44818.622746303416,-44801.9259931953
-50632.08796168423,-41558.64316924133,-44798.886155949374,-44688.60264880689
-50520.88803301907,-41573.70824500421,-44776.98144638317,-44713.9048235303
-50413.5996596336,-41699.25799360967,-44777.83081267247,-44838.49344712418
-50473.27881732927,-41829.769829484205,-44812.319554367015,-44934.583596537545
-50675.91973256108,-41709.83036873703,-44831.899682509866,-44810.82198748851
-50645.07432521276,-41564.02993965506,-44808.45270257625,-44695.3528756324
-50525.4254371435,-41569.37200657988,-44782.99406564165,-44712.58607060744
-50422.38389520453,-41708.55631930308,-44785.22924008718,-44838.82872329101
-50495.47409957339,-41832.005003929735,-44820.32147888202,-44931.879035458456
-50691.8118228688,-41711.842025738006,-44830.17859818681,-44804.60820252993
-50651.53397936034,-41558.44200354123,-44803.49061530717,-44695.55404133249
-50536.71306809343,-41573.37296883738,-44776.71322544971,-44717.79402706552
-50425.51313942828,-41711.64086003791,-44773.38281552587,-44843.52258962663
-50500.167965909,-41831.49091380727,-44808.29624036506,-44936.192922138325
-50695.47750895948,-41706.7458280022,-44825.50708359564,-44810.35260085495
-50649.32115665927,-41567.51681179009,-44803.1776908848,-44703.55596584749
-50531.57216686871,-41585.0629311875,-44778.70253070624,-44729.10400975991
-50421.73569461533,-41710.90325247088,-44780.35655979592,-44853.44676416478
-50514.38367538258,-41839.58224530009,-44818.19806315876,-44940.12682916246
-50699.70198866153,-41701.60492677748,-44832.2796621656,-44805.14464439686
-50645.141380446126,-41560.207791353205,-44808.96679269872,-44696.51516634407
-50531.97449826891,-41581.21843114119,-44785.81038544302,-44722.622003867866
-50431.92809008695,-41729.23168292423,-44791.13010062338,-44856.19602873278
-50517.2223469284,-41840.56572205612,-44822.73546728319,-44936.259977371694
-50718.90213714864,-41716.75940951818,-44838.76166805765,-44804.205871129736
-50673.77396509337,-41590.49440509015,-44818.01924920312,-44704.092407714415
-50558.77423987082,-41606.56530935351,-44795.84631870346,-44729.75221034912
-50444.73563965984,-41739.69229932932,-44796.4721675482,-44855.92780779932
-50524.9784022544,-41839.91752146692,-44827.47403710771,-44927.22987261175
-50700.774872395385,-41687.21040334826,-44839.67808958031,-44783.77637669759
-50644.67199381256,-41560.36425356439,-44824.23303416169,-44688.088558684416
-50531.46040814644,-41584.03475094256,-44802.59654552896,-44720.72210558917
-50426.69778188441,-41731.57861609204,-44804.38468508538,-44855.3913659324
-50522.58676559768,-41838.91169296643,-44836.72765931221,-44924.100628388005
-50703.32297126329,-41689.15500511587,-44849.82578156302,-44782.14469935235
-50635.21720590797,-41543.913369645285,-44823.27190915011,-44681.07011092545
-50514.04839921575,-41565.05811990001,-44796.20394661474,-44711.155558962295
-50415.87953756804,-41723.68845029932,-44796.00278091464,-44850.5857408745
-50524.91134702103,-41836.63181503199,-44825.68589755129,-44917.5515672626
-50706.25104978694,-41689.311467327054,-44839.16399945784,-44778.74723419514
-50635.57483381926,-41560.45366054221,-44817.95219396975,-44691.21780290816
-50528.59938485616,-41601.13383545087,-44802.1271588954,-44737.12828601936
-50423.45677893839,-41736.00426149419,-44806.79867348656,-44869.36120621696
-50532.3768296691,-41831.602672529545,-44844.34960417147,-44930.403820324405
-50709.93908762206,-41678.15794684386,-44852.865618808944,-44781.071815618496
-50653.99267125042,-41574.04352117104,-44831.899682509866,-44696.0010762216
-50545.60906238664,-41613.94138502376,-44809.592641543466,-44733.37319295087
-50427.68125864044,-41730.41632538036,-44806.19517638626,-44858.07357526703
-50536.62366111561,-41819.55508226813,-44839.90160702486,-44919.78674170813
-50719.39387552666,-41687.992714404194,-44850.7869065746,-44782.54703075255
-50653.54563636132,-41589.98031496767,-44829.97743248671,-44703.06422746948
-50554.79562935777,-41643.62450166041,-44813.97358345671,-44747.96888208019
-50440.19823553541,-41765.10623277501,-44819.27094689262,-44879.53124994412
-50521.55858535273,-41785.93805860735,-44849.42345016282,-44920.85962544199
-50699.83609912826,-41647.35724298444,-44860.10758401246,-44777.18261208327
-50630.27747038335,-41547.60140748041,-44828.54692084157,-44693.47532909815
-50525.313678421226,-41612.71203907872,-44806.46339731973,-44739.16229476479
-50427.12246502906,-41759.56300015009,-44814.51002532364,-44873.764499874655
-50538.4788559054,-41814.99532639925,-44854.16201998735,-44921.239605097726
-50704.820538141794,-41653.4816209652,-44861.56044740206,-44770.45473700223
-50625.06951392526,-41539.62183470987,-44832.57023484352,-44688.446186595706
-50516.08240796119,-41585.88994573235,-44810.46435957722,-44735.407201696304
-50418.98643004733,-41740.228741196246,-44814.59943230146,-44875.731453386725
-50553.8792078351,-41823.064306147615,-44853.06678450904,-44927.49809354521
-50718.3209917928,-41664.99276935968,-44864.73439511471,-44779.86482141791
-50635.753647774894,-41557.83850644094,-44839.365165157935,-44701.96899199116
-50523.61494584262,-41601.55851859552,-44824.92593823981,-44749.5111524476
-50430.38581971954,-41757.9536745493,-44837.129990712405,-44890.84123263851
-50565.27859750731,-41835.78244874269,-44876.42435746484,-44931.36494533598
-50728.40162854215,-41683.09768236848,-44887.2426017812,-44777.62964697238
-50645.968394990974,-41577.84331772844,-44861.22517123523,-44703.64537282531
-50528.46527438943,-41609.42633264379,-44835.67712732281,-44750.561684437
-50427.12246502906,-41748.63299711144,-44838.49344712418,-44884.82861338003
-50582.57884771572,-41841.01275694522,-44876.64787490939,-44926.87224470046
-50734.79422745636,-41668.14436532789,-44879.33008424403,-44772.2205248142
-50639.7993135213,-41547.98138713615,-44847.81412456204,-44695.7999105215
-50536.5789576267,-41611.169768711305,-44824.32244113951,-44747.85712335791
-50448.3566222616,-41773.10815729,-44830.11154295344,-44890.43890123831
-50596.12400485564,-41830.99917542925,-44860.97930204622,-44917.86449168497
-50757.88357947869,-41673.12880434142,-44861.62750263542,-44760.39645199734
-50665.50381964491,-41575.00464618262,-44825.95411848476,-44696.80573902199
-50544.02208853031,-41608.800483799045,-44798.70734199374,-44748.57237918048
-50447.75312516131,-41772.01292181169,-44802.44008331777,-44893.72460767324
-50597.4427577785,-41836.69887026536,-44833.285490666094,-44920.256128341694
-50740.27040484791,-41658.89074312338,-44836.32532791202,-44761.02230084209
-50653.61269159469,-41571.92010544778,-44805.614031030425,-44694.07882619844
-50539.99877452836,-41620.60220487144,-44774.38864402636,-44740.32458547647
-50454.57040722018,-41774.11398579049,-44779.12721385089,-44881.22998252272
-50614.20656611998,-41835.447172575856,-44816.521682324616,-44904.58755547852
-50758.28591087889,-41674.514612497645,-44825.28356615109,-44748.773544880576
-50658.7088893305,-41559.62664599736,-44798.9755629272,-44682.70178827069
