 EXG Channel 0, EXG Channel 1, EXG Channel 2, EXG Channel 3
3717.899765717956,-2.838671545823997,-22505.16682924829,-27825.55256194503
6366.268559249468,1600.340199511075,-22174.71863922103,-27094.494056045303
8529.917422523193,2606.816900589097,-22232.497898638,-26857.967896219245
6006.159604330016,691.7864908917536,-22668.267508538665,-28001.30432859711
3517.628135398404,-518.0463812406518,-22724.280980143667,-28270.97812545039
3720.134940163486,-5.386770413729002,-22481.29516617002,-27827.050128823532
6358.043117289915,1590.2595627617316,-22178.89841543417,-27110.900236475496
8517.243983417033,2591.9976940152283,-22248.25587847899,-26883.113608731463
5998.560011215212,679.1354035300498,-22681.76796218967,-28025.175991675376
3524.847748857469,-515.2077096948278,-22720.861163242003,-28278.73418077638
3711.4848150592825,-15.668572863170253,-22501.657605368808,-27838.628332451382
6358.110172523281,1589.4548999613403,-22188.375555083225,-27106.60870154008
8532.800797557926,2606.5039761667226,-22238.622276618757,-26862.862928254955
6026.879671440086,701.0177613517955,-22652.24130776421,-28000.723183241276
3521.025600555611,-530.1610267354282,-22714.893247472435,-28284.433875612485
3712.200070881852,-27.49264568002769,-22483.7091545712,-27840.32706502999
6349.549454396899,1575.3956526989523,-22167.588432739787,-27117.18107666744
8527.97282075558,2599.977266785773,-22211.08492744981,-26865.478082356225
6015.435578278969,690.0207030797843,-22639.5455169136,-28001.57254953057
3521.5843941669937,-525.556567377635,-22700.14109613193,-28269.100578916143
3713.094140660065,-17.791988586424424,-22460.46334033768,-27820.635178164863
6349.862378819273,1582.4588039468294,-22150.42229299811,-27100.5960822816
8514.897050249225,2586.901496279418,-22210.235561160516,-26868.920251002342
6009.557069487223,679.4706796968794,-22628.839031319505,-28009.10508741201
3529.4298564708065,-522.8967097874535,-22684.360764546487,-28275.0237911968
3724.0017919542543,-16.58499438583784,-22451.232069877635,-27830.358187002923
6357.081992278337,1580.5142021792178,-22139.313476003823,-27113.247169643302
8517.042817716934,2588.6672840913875,-22224.13834621172,-26883.31477443156
6018.788339947265,690.3783309910692,-22625.82154581804,-28013.59778804753
3531.7544378941584,-516.4817591287803,-22664.98180210373,-28275.06849468571
3711.037780170176,-19.87070082076798,-22451.790863489012,-27835.320274272
6342.687468849119,1578.9942835562567,-22135.916010846617,-27118.164553423478
8509.197355413122,2591.617714359488,-22199.886703477707,-26885.684059343825
6002.873897895086,676.6990633844214,-22642.33948497051,-28031.03214872267
3520.0197720551223,-531.9938697807634,-22709.97586369227,-28298.917806019523
3711.864794715023,-20.742418854524956,-22481.2057591922,-27849.89361165686
6340.094666492304,1575.2615422322206,-22189.06845916134,-27134.25780943129
8511.991323470036,2592.3106184376024,-22251.429826191645,-26889.7967803236
6014.072121867195,685.7291681443654,-22682.52792150115,-28024.952474230824
3520.355048221952,-527.8811488009869,-22733.13227094797,-28293.039297227777
3706.075692901098,-23.7375526115361,-22505.97149204868,-27849.826556423493
6328.203538442081,1560.598797869539,-22209.229732660024,-27138.839917044632
8506.58220131185,2581.0900427210386,-22265.48907345403,-26894.60240538149
6003.186822317461,676.7214151288766,-22706.01960492368,-28031.367424889497
3519.8186063550243,-527.3447069340596,-22755.484015403275,-28287.563119836228
3713.4517685713495,-17.568471141871353,-22505.680919370763,-27833.196858548745
6334.797303056396,1570.6794346188826,-22199.618482544243,-27118.07514644565
8513.243021159533,2596.4456911618345,-22257.196576261114,-26876.20691969477
6009.802938676231,688.2772670122704,-22683.980784890748,-28021.35384337352
3508.1956992382648,-534.4078581819366,-22731.1653174359,-28295.632099584596
3695.950352662844,-28.878453836256725,-22509.905399072817,-27850.69827445725
6323.666134317653,1563.7503938377374,-22190.610729528755,-27129.787460540232
8508.906782735203,2585.448632889824,-22240.186898730622,-26879.380867407428
6021.895232426552,693.0381885812508,-22669.2509852947,-28014.737727014748
3526.7476471361697,-516.3476486620484,-22727.007892967213,-28284.65739305704
3694.3857305509728,-27.13501776874277,-22503.98218679216,-27846.674960455297
6326.303640163379,1567.147858994944,-22194.16465689715,-27119.41625111297
8527.16815795519,2608.7615023567087,-22232.58730561582,-26862.818224766044
6046.705668771943,720.8884621725634,-22666.814645149072,-27996.811627961597
3525.339487235485,-521.3767911644925,-22747.61620135501,-28288.904224503545
3694.721006717802,-27.02325904646624,-22503.155172247312,-27844.283323798576
6322.280326161424,1568.444260173352,-22198.836171488307,-27123.707786048388
8522.183718941656,2605.721665110787,-22247.74178835652,-26866.03687596761
6029.941860430463,706.739807932354,-22675.308308042087,-28001.88547395295
3522.5231674341167,-517.3087736736267,-22728.39370112344,-28280.187044165978
3691.859983427523,-26.82209334636848,-22500.20474197921,-27837.51074522862
6314.1219394352365,1560.598797869539,-22187.48148530501,-27118.633940057032
8510.381997869254,2596.3115806951023,-22228.2957706804,-26868.294402157597
6027.4384650514685,705.4434067539462,-22642.54065067061,-28008.0098519337
3517.4493214427616,-520.7509423197439,-22705.036128167645,-28288.2783756588
3681.622884466992,-34.958128328100244,-22477.78594229054,-27846.69731219975
6307.125843420726,1553.1333152214663,-22164.258022815942,-27125.160649437985
8503.140032665735,2583.705196822309,-22212.806011772875,-26873.88233827142
6023.929241171985,695.8098048937088,-22616.590275358,-28008.099258911523
3504.3288474474966,-536.4865704162801,-22686.573587247563,-28294.961547250936
3675.833782653068,-45.575206944371104,-22451.96967744466,-27851.078254112992
6306.321180620334,1543.700879061327,-22145.34844700676,-27131.41913788547
8518.607439828807,2590.522478881178,-22204.53586632441,-26872.31771615955
6027.036133651273,691.4288629804687,-22649.71556064076,-28015.542389815146
3513.202489996253,-540.1522565069505,-22717.217828895788,-28293.866311772625
3685.288570557663,-39.093201052332056,-22485.43023889425,-27842.919867386805
6313.451387101578,1558.028347257179,-22189.3366800948,-27123.886600004036
8518.11570145079,2592.444728904334,-22248.16647150117,-26871.40129463688
6037.362639589624,702.4482729969351,-22666.76994166016,-28004.70179375432
3515.5270714196054,-530.8986343024534,-22744.554012364628,-28287.16078843603
3692.664646227914,-29.77252361446901,-22505.658567626306,-27836.1696405613
6312.423206856633,1557.8495333015364,-22193.62821503022,-27121.74083253632
8513.757111282004,2594.5010893942226,-22248.68056162364,-26869.970782991742
6031.037095908773,700.3025055292255,-22681.52209300066,-28012.457849080307
3514.767112108125,-532.3514976920483,-22749.15847172242,-28301.37649790961
3672.9057041294222,-44.569378443882286,-22515.091003786445,-27859.728379217195
6292.798375224874,1546.8971785184358,-22194.96931969754,-27139.17519321146
8502.201259398611,2585.9850747567507,-22237.39293067371,-26882.37600116444
6032.467607553913,698.3132002727033,-22659.77384564565,-28020.83975325105
3520.578565666505,-533.8043610816433,-22720.03414869716,-28300.817704298224
3667.988320349255,-53.755945415013485,-22510.017157795093,-27860.13071061739
6273.307654059846,1528.9710794652797,-22197.27154937644,-27141.20920195689
8494.892238961726,2590.3660166699906,-22198.880874977214,-26865.679248056324
6027.058485395728,698.6261246950776,-22642.85357509298,-28007.49576181123
3511.056722528544,-542.0745065301069,-22720.83881149755,-28293.21811118342
3667.5189337156935,-57.37692801677323,-22499.958872790205,-27848.41839652281
6277.95681690655,1528.568748065084,-22207.10631693677,-27134.637789087035
8489.43841331463,2586.1191852234824,-22251.60864014729,-26874.46348362726
6028.645459252055,706.9409736324518,-22671.419104506866,-28009.88739846795
3525.5630046800384,-519.4098376524255,-22730.60652382452,-28294.98389899539
3686.562619991615,-27.91732882467852,-22505.859733326404,-27849.692445956764
6290.742014734986,1555.1002687335335,-22214.92942749613,-27132.581428597143
8487.471459802564,2591.483603892756,-22263.388009475235,-26874.329373160526
6025.404456306035,698.581421206167,-22685.724220958266,-28011.474372324275
3518.0751702875104,-535.5477971491572,-22750.924259534397,-28301.644718843072
3676.68314894237,-44.45761972160575,-22528.099719059435,-27860.13071061739
6278.627369240209,1539.5658063370952,-22209.296787893392,-27140.85157404561
8490.399538326208,2590.3213131810803,-22242.35501794279,-26872.98826849321
6034.591023277167,707.8350434106641,-22676.358840031487,-28006.78050598866
3528.1781587813093,-528.4622941568249,-22741.581230352072,-28293.30751816124
3681.5334774891703,-43.27297726547447,-22517.97437882118,-27850.09477735696
6279.72260471852,1537.0400592136457,-22209.117973937748,-27134.973065253864
8490.533648792942,2586.99090325724,-22257.50950068349,-26870.8425010255
6044.135218159583,708.125616088583,-22683.10906685699,-27995.96226167229
3519.528033677105,-542.3427274635706,-22747.012704254717,-28291.586433838183
3676.616093709004,-52.2136750475973,-22514.55456191952,-27845.825594165995
6278.806183195852,1528.054657942612,-22190.63308127321,-27129.251018673305
8496.166288395678,2582.1629264548933,-22238.756387085486,-26865.70159980078
6042.302375114247,703.1188253305943,-22676.42589526485,-28002.01958441968
3528.93811809279,-535.5254454047019,-22740.798919296136,-28287.83134076969
3681.801698422634,-50.82786689136826,-22501.43408792425,-27842.98692262017
6293.312465347346,1543.857341272514,-22181.692383491085,-27122.009053469785
8507.722140279073,2595.8868975504515,-22226.574686357344,-26857.699675285778
6043.308203614736,705.3987032650356,-22664.378305003444,-27993.235348848742
3541.030411843111,-519.3651341635149,-22720.77175626418,-28272.16276790652
3692.150556105442,-34.30992773889634,-22483.7091545712,-27830.96168410321
6295.458232815055,1545.2878529176537,-22179.546616023377,-27121.91964649196
8507.878602490258,2597.2503539622253,-22228.273418935947,-26858.906669486365
6045.990412949373,711.8136539237087,-22657.181043288834,-27991.46956103677
3540.6504321873704,-517.2417184402607,-22709.88645671445,-28272.47569232889
3688.574276992593,-35.807494617401915,-22492.13576223085,-27834.78383240507
6288.283322844902,1535.2966231461314,-22194.81285748635,-27126.27823666075
8508.97383796857,2582.744071810731,-22247.11593951177,-26860.828919509524
6055.825180509709,704.1470055755384,-22659.77384564565,-27994.710563982797
3542.9079583773564,-525.0201255107075,-22727.231410411765,-28280.87994824409
3689.736567704269,-37.46152370709464,-22510.19597175073,-27835.05205333853
6294.362997336745,1544.505541861718,-22191.72831675152,-27119.32684413515
8517.646314817228,2596.8480225620297,-22235.67184635065,-26855.97859096272
6069.549151605267,724.0400581407616,-22668.37926726094,-27988.74264821323
3545.2325398007083,-519.2086719523278,-22721.64347429794,-28275.64964004155
3686.227343824785,-35.51692193948292,-22498.438954167243,-27829.307655013523
6291.5243257909215,1551.6804518318716,-22183.502874791968,-27108.061564929674
8511.566640325385,2600.267839463692,-22243.383198187734,-26849.09425367049
6060.7202125454205,720.9555174059293,-22676.42589526485,-27982.9535463993
3540.6280804429152,-515.0288957391854,-22737.82613728358,-28270.575794050197
3673.173925062886,-44.41291623269513,-22501.54584664653,-27835.074405082996
6266.602130723254,1530.2674806436871,-22203.19476165709,-27126.25588491629
8507.520974578974,2607.2862872226583,-22238.01877951846,-26851.93292521631
6068.811544038242,733.159569878527,-22675.88945339793,-27989.10027612451
3532.1120658054438,-521.1309219754842,-22729.51128834621,-28286.847864013656
3664.412041236406,-44.16704704368676,-22503.69161411424,-27843.299847042545
6259.449572497556,1531.54153007764,-22193.739973752497,-27127.03819597223
8498.088538418835,2600.871336563985,-22241.483299909032,-26850.435358337803
6065.101154458661,732.9360524339739,-22666.12174107096,-27980.785427187137
3546.79716191258,-511.9890584932636,-22712.993349193734,-28269.100578916143
3677.331349531573,-40.97074758657784,-22498.528361145065,-27832.973341104196
6272.257122070447,1540.1022482040223,-22197.27154937644,-27119.08097494614
8501.038968686935,2602.0559790201164,-22233.034340504928,-26849.295419370585
6062.195427679471,727.3928198090578,-22670.547386473107,-27986.68628772334
3546.0819060900103,-521.3991429089479,-22740.485994873765,-28284.232709912387
3677.733680931769,-46.64809067822584,-22519.628407910877,-27847.45727151123
6269.664319713631,1533.1955591673327,-22207.128668681227,-27133.162573952985
8500.323712864365,2598.032665018161,-22232.117918982254,-26855.710370029257
6064.6541195695545,721.3578488061248,-22663.372476502955,-27990.240215091733
3547.199493312776,-522.427323153892,-22719.5647620636,-28278.77888426529
3679.275951299185,-39.94256734163372,-22501.14351524633,-27837.89072488436
6266.110392345237,1535.0954574460338,-22195.25989237546,-27127.060547716686
8498.133241907744,2599.530231896667,-22229.815689303363,-26854.436320595305
6064.4753056139125,720.9778691503847,-22680.180988333344,-27993.481218037752
3548.0041561131666,-525.7577330777327,-22723.25279989872,-28284.65739305704
3675.9008378864337,-50.53729421344927,-22494.75091633212,-27847.166698833316
6264.165790577626,1530.8486259995254,-22180.06070614585,-27135.46480363188
8496.658026773695,2602.0783307645715,-22215.73409029652,-26859.353704375477
6073.326596418214,733.2042733674376,-22653.73887464272,-27990.799008703118
3546.551292723572,-525.7800848221881,-22721.86699174249,-28292.033468727288
3680.8852768999673,-47.43040173416159,-22498.95304428972,-27848.59721047845
6271.161886592136,1531.1168469329891,-22189.96252893955,-27136.202411198905
8508.370340868276,2603.262973220703,-22232.54260212691,-26860.96302997625
6082.15553547806,734.5677297792113,-22667.038162593624,-27992.45303779281
3564.0080051431664,-508.09985495804017,-22732.32760814757,-28283.51745408981
3687.233172325274,-36.27688125096336,-22506.10560251541,-27848.351341289443
6274.693462216075,1540.772800537682,-22192.04124117389,-27134.88365827604
8513.354779881809,2610.035551790661,-22239.672808608157,-26859.398407864384
6101.489794431901,750.6386340425771,-22668.267508538665,-27986.61923248997
3566.511400522161,-510.0444567256519,-22711.674596270877,-28287.674878558504
3683.813355423613,-43.60825343230408,-22485.49729412762,-27848.641913967364
6264.031680110894,1526.9370707198466,-22180.038354401397,-27136.51533562128
8508.839727501838,2599.7313975967645,-22226.775852057443,-26856.447977596283
6085.128317490616,730.1644361215158,-22656.1975665328,-27987.334488312543
3556.5201707506385,-521.2426806977606,-22710.087622414547,-28280.656430799536
3671.7434134177465,-51.34195701384032,-22488.380669162358,-27842.85281215344
6258.823723652808,1526.1100561750004,-22171.38822929719,-27123.86424825957
8516.796948527926,2609.1861855013594,-22199.4396685886,-26834.07388139652
6094.605457139666,739.9768519373956,-22654.96822058776,-27976.49389225172
3558.531827751616,-517.5993463515457,-22731.590000580552,-28281.349334877654
3668.211837793808,-51.00668084701072,-22485.385535405345,-27844.95387613224
6254.7780579063965,1527.92054747588,-22170.94119440808,-27131.933228007943
8512.997151970525,2610.8849180799625,-22208.045090203894,-26846.94848620278
6095.767747851342,746.4588578294347,-22634.89635406689,-27976.069209107067
3558.2636068181523,-515.7441515617552,-22715.474392828277,-28282.60103256715
3673.7327186742687,-46.44692497812808,-22485.87727378336,-27844.529192987586
6253.056973583338,1522.7125910177936,-22179.904243934663,-27136.448280387915
8508.884430990747,2604.3805604434683,-22235.895363795207,-26857.565564819048
6090.470384415435,742.3461368496581,-22683.93608140184,-27992.81066570409
3561.9963481421887,-509.75388404773287,-22727.1643551784,-28281.729314533397
3675.878486141978,-38.51205569649407,-22506.2620647266,-27842.74105343116
6259.38251726419,1537.5317975916623,-22197.852694732275,-27129.74275705132
8514.137090937746,2615.221156504292,-22236.43180566213,-26849.09425367049
6105.401349711579,752.449125343457,-22667.77577016065,-27981.947717898813
3553.2344643157085,-519.8345207970764,-22731.1653174359,-28291.51937860482
3654.756087631713,-55.78995416044643,-22497.880160555866,-27854.00633263664
6242.037563566872,1523.6066607960058,-22179.613671256742,-27138.16936471097
8503.96704721058,2607.04041803365,-22226.038244490417,-26857.7890822636
6097.4664804299455,745.7436020068649,-22645.491080938707,-27987.31213656809
3559.18002834082,-513.5313288606798,-22703.762078733693,-28282.93630873398
3664.300282514129,-51.65488143621462,-22480.378744647354,-27846.18322207728
6247.580796191788,1526.311221875098,-22154.69147618908,-27132.96140825289
8506.87277398977,2612.002505302728,-22192.242406873997,-26844.02040767913
6099.634599642111,755.4442591004681,-22632.1917929878,-27971.285935793632
3545.456057245261,-520.4380178973696,-22711.87576197097,-28284.88091050159
3657.4382969663498,-53.46537273709449,-22481.31751791448,-27840.908210385827
6231.085208783771,1514.733018247249,-22168.84013042929,-27133.162573952985
8492.567657538373,2605.453444177323,-22204.2899971354,-26847.06024492505
6085.642407613088,748.805790997242,-22652.35306648649,-27977.2538515632
3546.1713130678318,-513.9560120053306,-22703.806782222604,-28276.20843365293
3647.156494516909,-54.56060821540454,-22482.14453245932,-27837.063710339517
6226.525452914889,1518.8233874825703,-22172.416409542133,-27125.89825700501
8490.77951798195,2609.1414820124487,-22210.43672686061,-26843.59572453448
6077.349910420169,745.4083258400352,-22641.132490769924,-27974.079903850547
3540.9857083542,-518.5157678742132,-22710.266436370188,-28274.129721418587
3648.0282125506656,-53.24185529254142,-22497.008442522103,-27838.404815006837
6223.999705791439,1518.6222217824725,-22165.107389105247,-27127.619341328067
8495.361625595287,2612.8295198475744,-22185.738049237498,-26835.99613141968
6106.809509612264,763.9155702490294,-22600.228798416712,-27957.651371675896
3553.122705593432,-514.5595091056239,-22670.569738217564,-28272.185119650974
3652.230340508264,-54.69471868213638,-22454.76364550157,-27837.13076557288
6220.42342667859,1508.7427507332268,-22151.18225230959,-27133.207277441896
8498.624980285762,2608.8732610789853,-22181.357107324257,-26840.622942521924
6106.585992167711,754.2372648998816,-22616.23264744671,-27972.22470906076
3548.3170805355408,-524.9977737662523,-22700.342261832036,-28287.78663728078
3646.910625327901,-65.13298334276477,-22485.765515061084,-27854.96745764821
6228.738275615964,1509.8826897004474,-22161.396999525667,-27141.76799556828
8509.130300179757,2608.9179645678955,-22209.989691971507,-26848.26723912564
6113.4926812044005,751.7562212653424,-22662.00902009118,-27983.3558777995
3556.1625428393536,-525.2212912108054,-22726.180878422365,-28292.88283501659
3653.43733470885,-61.93668388565587,-22506.37382344888,-27854.4757192702
6224.983182547472,1505.8146722095814,-22197.986805199005,-27144.33844618064
8502.357721609798,2604.8275953325747,-22237.39293067371,-26846.210878635757
6098.8746403306295,746.0565264292392,-22692.42974429485,-27982.752380699207
3546.41718225684,-524.684849343878,-22770.660849888427,-28293.642794328072
3643.9378433153447,-60.7520414295246,-22534.31350401801,-27850.09477735696
6219.864633067207,1510.3967798229194,-22211.844886761297,-27135.665969331974
8493.417023827675,2603.0618075206053,-22252.12273026976,-26842.254619867163
6100.483965931412,746.9058927185408,-22700.67753799886,-27975.800988173603
3537.789408897091,-531.5468348916572,-22774.99708831276,-28294.49216061737
3643.602567148515,-58.15923907270898,-22551.21142282622,-27852.441710524767
6222.300973212836,1517.638745026439,-22233.101395738293,-27136.113004221083
8497.373282596265,2614.7964733596414,-22258.291811739426,-26837.22547736472
6104.619038655644,759.2664074023256,-22697.63770075294,-27968.2013950588
3556.2295980727195,-515.9676690063083,-22754.85816655853,-28278.10833193163
3647.134142772453,-64.35067228682904,-22534.581724951477,-27844.551544732043
6220.781054589875,1506.4628727987854,-22215.15294494068,-27131.240323929826
8497.507393062997,2608.2474122342364,-22238.130538240737,-26836.35375933096
6103.456747943968,751.1974276539597,-22670.905014384392,-27966.592069458016
3551.89335964839,-527.2776517006936,-22735.76977679369,-28279.60589881014
3646.15066601642,-68.351634544329,-22520.3660154779,-27845.579724976986
6219.149377244637,1506.6416867544278,-22187.526188793923,-27130.435661129435
8495.048701172913,2606.973362800284,-22221.97022699955,-26836.01848316413
6099.947524064484,749.6551572865436,-22671.66497369587,-27969.00605785919
3548.9652811247447,-524.6401458549674,-22729.332474390565,-28275.2249568969
3648.050564295121,-64.75300368702456,-22494.907378543303,-27833.420375993297
6201.804423547319,1487.6427039674168,-22182.67586024712,-27130.79328904072
8482.598779511307,2594.5681446275885,-22214.571799584843,-26829.558829016547
6108.217669512948,751.5327038207894,-22652.464825208765,-27960.4006362439
3560.61053998596,-527.0317825116853,-22720.145907419435,-28280.298802888254
3656.276006254674,-67.79284093294632,-22499.467134412185,-27843.679826698284
6220.669295867598,1502.2383930967324,-22169.7342002075,-27127.619341328067
8499.899029719714,2607.2192319892924,-22210.77200302744,-26829.80469820556
6115.727855649931,755.5783695672,-22651.28018275263,-27960.26652577717
3554.1285340939207,-530.9209860469086,-22713.77566024967,-28281.125817433094
3643.982546804255,-75.07950962537642,-22484.513817371582,-27845.24444881016
6204.330170670769,1483.798203921104,-22171.120008363727,-27138.81756530017
8488.589047025329,2590.924810281373,-22216.494049608,-26841.40525357786
6109.424663713535,743.2178548834152,-22648.62032516245,-27972.91761313887
3552.765077682147,-536.6653843719225,-22713.954474205315,-28294.80508503975
3637.277023467663,-74.83364043636804,-22481.630442336853,-27859.23664083918
6195.300065910825,1484.8040324215929,-22188.777886483414,-27157.74949285382
8486.219762113067,2594.277571949669,-22224.093642722804,-26856.827957252022
6119.035913829317,755.1089829336385,-22661.58433694653,-27978.147921341413
3540.7174874207367,-546.2095792543387,-22737.177936694377,-28303.924596777517
3620.2673459371754,-89.78695747696847,-22516.27564624258,-27860.868318184417
6184.41476636109,1476.6232939509505,-22203.86531399075,-27146.10423399261
8489.259599358988,2594.3446271830358,-22231.313256181867,-26832.08457614
6132.245794802403,766.9107040060406,-22660.91378461287,-27955.23738327472
3571.0935081354987,-515.9676690063083,-22714.42386083888,-28277.25896564233
3638.104038012509,-70.63151247877032,-22503.35633794741,-27845.870297654903
6191.6790833090645,1484.0664248545677,-22205.27347389144,-27143.354969424603
8486.398576068708,2592.064749248594,-22228.340474169312,-26837.40429132036
6117.001905083884,753.3208433772139,-22648.888546095917,-27962.12172056696
3547.6912316907924,-533.9161198039199,-22722.470488842784,-28289.284204159285
3626.9728692737663,-80.64509399474788,-22490.459381396697,-27850.586515734973
6189.801536774819,1480.2666282971654,-22174.07043863183,-27140.583353112143
8488.454936558597,2591.0589207481053,-22210.861410005265,-26837.69486399828
6120.756998152376,749.2081223974375,-22650.564926930063,-27969.944831126315
3549.4570195027613,-541.6274716410007,-22728.57251507909,-28301.37649790961
3619.172110458864,-99.10763491483152,-22523.22703876818,-27871.865376456422
6174.132963911648,1458.5854361755178,-22198.567950554843,-27156.43073993096
8473.166343351168,2571.1435164384266,-22241.86327956477,-26849.18366064831
6120.980515596929,745.5871397956777,-22657.09163631101,-27966.659124691385
3559.247083574186,-542.2309687412941,-22716.994311451235,-28284.54563433476
3622.055485493599,-97.8112337364237,-22503.713965858697,-27854.90040241485
6173.730632511453,1463.5475234445958,-22193.874084219227,-27150.485175905847
8477.793154453415,2582.207629943804,-22220.785584543417,-26838.812451221045
6115.347875994191,743.6648897725213,-22654.78940663212,-27966.748531669204
3545.210188056253,-546.1872275098834,-22731.791166280647,-28293.10635246114
3622.6142791049815,-90.8374894663679,-22509.68188162826,-27850.16183259032
6175.36230985669,1465.961511845769,-22197.5397703099,-27137.722329821867
8483.805773711894,2589.0249120026724,-22231.40266315969,-26827.435413293293
6124.981477854429,754.8184102557195,-22677.789351676627,-27957.584316442528
3564.2538743321747,-532.1950354808612,-22736.619143083,-28277.661297042527
3633.857206566001,-88.08822489836514,-22508.430183938766,-27844.819765665507
6180.927894226062,1464.4639449672634,-22200.13257266672,-27145.634847359044
8493.282913360943,2590.880106792463,-22230.754462570487,-26834.319750585528
6143.846350174707,763.4908871043787,-22671.575566718053,-27959.95360135479
3558.8224004295357,-543.3038524751488,-22731.65705581392,-28290.133570448583
3625.43059890635,-96.58188779138182,-22512.58760840745,-27853.112262858423
6184.928856483562,1469.604846191984,-22186.363898082247,-27143.86905954708
8501.173079153667,2597.317409195591,-22207.21807565905,-26831.0340441506
6142.527597251845,757.4112126125351,-22650.76609263016,-27961.36176125548
3565.796144699591,-540.9569193073415,-22719.5647620636,-28288.390134381072
3614.567651101071,-99.57702154839296,-22505.189180992747,-27856.55443150454
6162.845332961719,1458.5183809421517,-22198.54559881039,-27147.579449126657
8496.523916306964,2596.1551184839154,-22213.655378062176,-26819.50054401166
6148.093181621216,762.1050789481496,-22642.831223348527,-27948.330694238037
3564.6338539879152,-542.4991896747578,-22702.264511855188,-28281.61755581112
3620.177938959353,-102.77332100550188,-22484.60322434941,-27847.41256802232
6176.368138357179,1460.5970931764953,-22170.404752541155,-27140.09161473413
8494.668721517173,2586.901496279418,-22203.753555268475,-26828.46359353824
6153.010565401383,763.4014801265574,-22640.55134541409,-27951.012903572668
3576.413223315862,-530.0492680131517,-22700.655186254407,-28273.9732592074
3615.1264447124536,-99.73348375958012,-22489.07357324047,-27847.904306400334
6165.326376596257,1458.540732686607,-22179.4348573011,-27140.695111834422
8499.11671866378,2599.530231896667,-22191.05776441786,-26816.326596299004
6149.434286288534,767.1789249395043,-22623.832240561514,-27943.81564185806
3572.27815059163,-533.0220500257075,-22693.21205535079,-28270.240517883365
3618.680372080848,-99.30880061492928,-22491.01817500808,-27842.718701686703
6166.242798118926,1458.250160008688,-22170.047124629877,-27136.35887341009
8494.713425006083,2595.5069178947115,-22179.613671256742,-26818.427660277805
6149.702507221998,771.1128319636383,-22630.426005175832,-27951.035255317125
3569.081851134521,-527.5905761230679,-22689.52401751566,-28274.19677665196
3617.76395055818,-88.19998362064167,-22468.64407880832,-27837.26487603961
6163.068850406272,1466.3414915015092,-22147.76243540793,-27134.548382109213
8492.366491838276,2605.6546098774206,-22172.77403745342,-26818.584122488992
6145.478027519945,772.8786197756076,-22619.786574815105,-27951.97402858425
3564.879723176924,-533.2455674702605,-22686.886511669934,-28287.07138145821
3616.7581220576913,-92.89384995625616,-22461.268003138062,-27854.609829736928
6161.012489916384,1461.446459465797,-22152.635115699188,-27147.19946947092
8496.501564562508,2604.224098232281,-22179.01017415645,-26823.479154524703
6158.084411392738,781.1487652240712,-22628.3919964304,-27953.024560573645
3560.163505096853,-536.8218465831097,-22713.97682594977,-28297.777867052304
3607.392741130917,-98.68295177018068,-22489.34179417393,-27861.293001329068
6152.272957834359,1456.126744285434,-22177.020868899926,-27151.982742784352
8490.198372626111,2597.7867958291527,-22188.10733414976,-26824.88731442539
6154.329318324247,772.5433436087781,-22619.00426375917,-27951.504641950687
3559.4929527631944,-541.7839338521879,-22699.694061242822,-28292.771076294317
3600.5531073275934,-107.8918704857672,-22486.92780577276,-27865.40572230884
6141.320603051258,1445.1296860134228,-22170.20358684106,-27157.391864942536
8470.327671805344,2582.811127044097,-22203.217113401548,-26834.61032326345
6143.68988796352,764.4073086270463,-22637.53385991262,-27956.936115853325
3564.0080051431664,-539.4593524288359,-22710.17702939237,-28286.66905005801
3613.204194689297,-98.05710292543208,-22483.239767937637,-27848.060768611525
6148.137885110126,1455.5903024185066,-22162.5816419818,-27143.17615546896
8475.06624162987,2588.7566910692085,-22196.57864529832,-26821.489849268182
6145.902710664596,764.7649365383312,-22631.05185402058,-27947.548383182097
3559.7388219522027,-538.2747099727047,-22705.17023863438,-28286.95962273593
3608.107996953487,-95.285486612974,-22479.55173010251,-27848.86543141192
6140.337126295224,1448.8624273374592,-22162.179310581603,-27146.12658573706
8484.476326045553,2600.267839463692,-22179.412505556644,-26817.15361084385
6158.5537980263,785.350893181669,-22617.55140036957,-27940.82050810105
3570.042976146099,-530.2727854577048,-22701.48220079925,-28282.44457035596
3610.633744076937,-98.97352444809968,-22490.97347151917,-27856.33091405999
6143.131094352138,1450.6952703827942,-22170.985897896997,-27155.89429806403
8484.096346389812,2597.451519662324,-22196.24336913149,-26832.10692788445
6160.8560277051965,778.0418727447835,-22632.23649647671,-27957.62901993144
3557.995385884689,-543.0803350305957,-22694.575511762563,-28296.54852110726
3583.386967585918,-114.12800718879788,-22487.710116828697,-27866.23273685369
6117.650105673088,1436.0325260201128,-22184.15107538117,-27161.43753068895
8472.451087528598,2593.3387986825464,-22194.5893400418,-26827.92715167131
6159.090239893227,778.3771489116132,-22627.274409207632,-27950.565868683563
3568.344243567496,-537.3582884500371,-22693.323814073065,-28292.56991059421
3589.511345566672,-111.24463215406324,-22479.417619635777,-27867.819710710017
6117.046608572795,1437.1054097539677,-22170.024772885416,-27165.90787958001
8466.125543847746,2587.594400357533,-22187.16856088264,-26835.63850350839
6158.643205004121,784.7250443369204,-22633.398787188387,-27953.06926406256
3571.7193569802475,-522.6284888539898,-22693.413221050887,-28284.769151779317
3605.8728225079567,-89.71990224360255,-22462.96673571667,-27843.70217844274
6136.671440204554,1458.8089536200707,-22159.25123205796,-27142.88558279104
8482.509372533486,2611.1531390134264,-22187.883816705205,-26814.85138116496
6157.88324569264,790.7823670843086,-22627.117946996445,-27938.9429615668
3556.3860602839068,-530.2727854577048,-22694.195532106824,-28278.55536682074
3581.799993729591,-104.33794311737336,-22477.2047969347,-27853.671056469808
6116.68898066151,1443.1180290124453,-22173.556348509355,-27156.833071331155
8469.612415982774,2595.2163452167924,-22185.11220039275,-26823.009767891144
6167.270978363869,793.509279907856,-22621.217086460245,-27936.90895282137
3561.6163684864487,-526.6070993670344,-22697.235369352744,-28283.226881411894
3588.594924044004,-99.97935294858848,-22476.377782389856,-27847.591381977963
6130.100027334694,1456.6855378968166,-22148.365932508223,-27140.13631822304
8481.838820199826,2610.996676802239,-22172.908147920152,-26813.242055564173
6174.512943567389,803.0981782791828,-22593.34446112448,-27927.789441083605
3567.9195604228453,-522.2708609427049,-22684.561930246586,-28277.46013134243
3588.349054854996,-98.1018064143427,-22481.675145825764,-27856.062693126525
6117.40423648408,1445.6214243914396,-22164.05685711585,-27158.80002484322
8472.473439273053,2603.128862753971,-22183.27935734741,-26822.518029513125
6161.593635272221,792.704617107465,-22618.691339336798,-27942.02750230164
3568.411298800862,-522.7849510651769,-22692.25093033921,-28280.678782543997
3599.8154997605684,-94.25730636802987,-22498.41660242279,-27852.1734895913
6129.429475001035,1456.57377917454,-22171.678801975107,-27148.004132271308
8486.599741768807,2612.4271884473787,-22170.069476374327,-26814.40434627585
6169.327338853757,790.5364978953002,-22624.972179528737,-27945.849650603494
3567.025490644633,-530.2280819687942,-22703.73972698924,-28290.200625681955
3599.212002660275,-100.11346341532034,-22488.31361392899,-27853.13461460288
6117.046608572795,1440.6593371223614,-22174.897453176676,-27150.485175905847
8473.166343351168,2598.010313273706,-22195.326947608824,-26822.65213997986
6176.211676145992,789.7541868393645,-22628.66021736386,-27949.06830180506
3578.8495634614906,-528.5069976457355,-22695.715450729786,-28291.429971627
3594.540488069116,-103.42152159470578,-22475.506064356097,-27862.20942285173
6108.977628824428,1434.2667382081436,-22166.29203156138,-27164.27620223477
8478.642520742718,2600.536060397156,-22201.898360478684,-26826.317826070528
6186.046443706327,799.4324921885124,-22632.05768252107,-27946.76607212616
3575.653264004381,-529.19990172385,-22686.93121515885,-28289.17244543701
3588.594924044004,-106.17078616270857,-22471.281584654043,-27854.02868438109
6097.645294385588,1424.677839836817,-22169.84595892977,-27162.935097567453
8474.552151507396,2595.03753126115,-22174.71863922103,-26820.84164867898
6195.545935099833,803.6122684016548,-22615.159763712854,-27937.66891213285
3583.588133286016,-524.9530702773417,-22697.324776330566,-28285.842035513168
3580.794165229102,-113.6139170663258,-22501.03175652406,-27861.605925751443
6098.584067652711,1430.1316654839118,-22198.3891365992,-27160.05172253272
8468.29366305991,2601.0277987751724,-22213.521267595443,-26822.11569811293
6185.88998149514,808.7755213708308,-22638.71850236875,-27936.819545843548
3560.163505096853,-536.7324396052885,-22725.398567366432,-28296.235596684888
3571.585246513516,-111.55755657643756,-22501.67995711326,-27863.75169321915
6090.82801232672,1426.7789038156156,-22178.987822411997,-27165.773769113275
8461.431677512132,2593.584667871555,-22200.065517433348,-26830.85523019496
6173.730632511453,797.6890561209984,-22628.3919964304,-27949.515336694163
3561.1022783639764,-535.681907615889,-22700.67753799886,-28301.287090931783
3572.948702925289,-118.57600433540397,-22488.626538351364,-27877.45331257025
6096.058320529261,1423.2473281916773,-22158.02188611292,-27181.867025121097
8473.233398584533,2596.065711506094,-22169.3318688073,-26844.422739079328
6196.149432200126,805.8697945916408,-22607.5378188536,-27959.841842632515
3581.3306070960293,-529.490474401769,-22689.59107274903,-28314.631082371605
3582.403490829884,-116.1173124453202,-22478.344735901923,-27892.786609266597
6096.8182798407415,1422.4873688801968,-22166.96258389504,-27193.62404270459
8476.832029441837,2596.915077795396,-22186.25213935997,-26849.96597170424
6195.255362421914,802.897012579085,-22615.919723024337,-27965.697999679807
3579.989502428711,-531.7703523362103,-22695.17900886285,-28312.86529455964
3587.589095543515,-116.40788512323918,-22497.45547741121,-27885.164664407333
6091.990303038395,1412.607897830951,-22194.03054643041,-27193.378173515583
8476.250884086,2587.683807335354,-22213.36480538425,-26848.15548040336
6188.929818741062,789.7541868393645,-22666.367610259964,-27970.32481078205
3570.110031379465,-545.9860618097856,-22745.2692681872,-28317.22388472842
3578.5813425280267,-124.14158870477544,-22515.672149142283,-27879.1296934044
6101.06511128725,1424.7225433257274,-22211.08492744981,-27177.977821585875
8474.172171851656,2599.686694107854,-22238.912849296677,-26835.862020952944
6197.155260700615,807.188547514504,-22676.671764453866,-27950.76703438366
3585.8009559870907,-527.9258522898975,-22750.54427987865,-28303.81283805524
3588.0808339215323,-110.68583854268056,-22541.17548956579,-27874.435827068788
6093.934904806007,1423.2026247027666,-22234.68836959462,-27177.821359374688
8467.91368340417,2596.2221737172813,-22234.42014866116,-26833.80566046305
6195.054196721816,802.7852538568085,-22686.05949712509,-27952.599877428995
3584.9739414422443,-532.262090714227,-22759.59673638305,-28306.293881689773
3578.5813425280267,-122.97929799309946,-22542.293076788555,-27879.1296934044
6081.10500348866,1412.8537670199594,-22231.82734630434,-27183.31988851069
8453.943843119603,2586.901496279418,-22253.754407615,-26844.422739079328
6198.049330478827,807.2779544923252,-22681.946776145312,-27951.795214628604
3570.2664935906523,-542.8344658415873,-22761.206061983838,-28317.469753917427
3565.214999343753,-133.75283882055746,-22556.08410311748,-27886.639879541384
6074.041852240784,1399.576830813507,-22239.22577371905,-27181.28587976526
8462.459857757076,2589.896630036429,-22232.96728527156,-26825.35670105895
6190.494440852934,803.7910823572972,-22682.39381103442,-27947.101348292992
3577.463755305261,-533.5808436370902,-22753.49471014675,-28304.75161132236
3567.5172290226496,-123.29222241547376,-22537.778024408584,-27880.62726028291
6073.237189440392,1411.4232553748195,-22221.92552351064,-27182.291708265748
8464.784439180426,2593.2046882158147,-22226.172354957147,-26832.218686606728
6205.090129982249,806.9650300699509,-22655.370551987955,-27942.943923824303
3581.1741448848425,-539.168779750917,-22738.25082042823,-28305.109239233643
3571.071156391044,-133.75283882055746,-22531.65364642783,-27880.873129471915
6084.256599456859,1408.0704937065236,-22201.741898267497,-27175.720295395888
8471.95934915058,2591.4389004038458,-22210.01204371596,-26826.94367491528
6205.917144527095,806.3615329696576,-22657.0469328221,-27947.280162248637
3586.8067844875795,-530.1163232465176,-22735.1662796934,-28308.618463113125
3580.6600547623702,-120.67706831420284,-22530.491355716156,-27885.812864996537
6081.194410466482,1406.4611681057415,-22217.5445815974,-27190.80772290322
8469.053622371392,2588.421414902379,-22201.76425001195,-26837.02431166462
6208.174670717081,811.8824138501184,-22637.33269421252,-27948.15188028239
3580.861220462468,-527.6352796119785,-22721.84463999804,-28310.540713136284
3569.662996490359,-117.25725141254084,-22496.49435239963,-27878.012106181635
6075.293549930281,1414.7313135542051,-22192.53297955191,-27184.48217922237
8467.019613625958,2597.585630129055,-22209.3414913823,-26831.838706950988
6212.6897230970535,820.3984284875904,-22654.074150809545,-27941.714577879266
3579.386005328418,-530.7645238357215,-22738.92137276189,-28304.908073533545
3562.4880865202053,-126.46617012812736,-22545.668190201308,-27873.89938520186
6064.989395736385,1401.8790604924036,-22227.69227358011,-27173.596879672637
8454.457933242074,2582.967589255284,-22227.69227358011,-26822.160401601843
6192.349635642724,797.5549456542666,-22683.53375000164,-27950.90114485039
3572.0099296581666,-544.4214396979141,-22758.70266660484,-28313.669957360027
3556.967205639745,-134.93748127668874,-22544.550602978543,-27884.963498707235
6064.899988758563,1403.3095721375432,-22231.6485323487,-27185.130379811573
8457.162494321168,2588.533173624656,-22236.901192295696,-26832.241038351185
6199.122214212682,805.3780562136241,-22660.91378461287,-27947.883659348925
3576.7484994826914,-535.3019279601489,-22728.84073601255,-28304.371631666618
3562.7563074536693,-126.220300939119,-22520.142498033347,-27874.882861957893
6064.430602125001,1405.969429727725,-22212.67190130614,-27174.155673284014
8469.612415982774,2598.032665018161,-22210.079098949325,-26817.7794596886
6219.015266777906,820.7113529099647,-22644.52995592713,-27935.09846152049
3580.369482084451,-533.782009337188,-22737.58026809457,-28307.255006701354
3558.4647725182504,-128.61193759583685,-22533.88882087336,-27878.30267885956
6064.251788169359,1402.8178337595266,-22213.92359899564,-27181.95643209892
8470.551189249896,2593.5623161271,-22225.07711947884,-26824.708500469747
6219.059970266816,816.0621900632609,-22666.52407247115,-27936.14899350989
3585.733900753725,-534.7878378376768,-22749.67256184489,-28303.254044443853
3561.437554530806,-128.72369631811338,-22539.186184309267,-27878.32503060401
6060.854323012152,1403.5554413265518,-22219.511535109465,-27180.861196620608
8463.24216881301,2595.8645458059964,-22227.513459624464,-26826.295474326074
6221.764531345908,820.286669765314,-22684.62898547995,-27943.927400580335
3576.189705871309,-540.0404977846739,-22757.294506704155,-28318.69909986247
3548.853522402468,-139.85486505685628,-22541.98015236618,-27891.28904238809
6051.466590340923,1390.7925952425717,-22214.750613540487,-27185.353897256125
8460.112924589268,2587.7732143131752,-22233.168450971654,-26828.68711098279
6221.809234834819,816.3751144856352,-22667.261680038177,-27941.513412179163
3583.8563542194797,-542.1862652523835,-22731.411186624908,-28310.8312858142
3550.820475914535,-138.73727783409095,-22519.82957361097,-27880.53785330509
6049.186712406482,1397.60987730144,-22198.7914679994,-27175.049743062227
8459.44237225561,2598.010313273706,-22212.783660028417,-26818.628825977903
6233.5215489294,835.4858559949226,-22645.91576408336,-27923.788478826104
3595.635723547426,-519.4768928857915,-22733.78047153717,-28295.11800946212
3563.270397576141,-121.03469622548776,-22524.903419602328,-27866.523309531607
6057.501561343856,1409.7915780295823,-22216.672863563643,-27165.840824346644
8468.025442126447,2607.9121360674067,-22226.48527937952,-26804.63663394888
6231.37578146169,829.7638094143641,-22664.311249770075,-27922.179153225323
3596.0380549476213,-531.6362418694785,-22753.31589619111,-28299.94598626447
3561.549313253083,-132.5458446199709,-22536.861602885918,-27875.28519335809
6055.62401480961,1401.1861564142891,-22221.18791594361,-27180.10123730913
8471.445259028109,2603.777063343175,-22228.6981020806,-26818.002977133157
6238.237767009469,831.216672803959,-22668.87100563896,-27930.42694692933
3599.256706149186,-527.7693900787103,-22751.01366651221,-28298.44841938596
3554.664975960848,-133.99870800956583,-22537.308637775022,-27873.497053801664
6042.414133836524,1392.960714454736,-22231.804994559883,-27186.67265017899
8467.15372409269,2602.5030139092223,-22219.556238598376,-26816.88538991039
6239.020078065405,832.0213356043502,-22630.470708664743,-27927.878848061428
3586.315046109563,-542.2086169968387,-22721.509363831206,-28307.858503801646
3544.561987467049,-149.0861355168981,-22516.946198576235,-27884.628222540407
6040.022497179806,1387.8421649744707,-22198.47854357702,-27180.45886522041
8464.695032202606,2596.266877206192,-22205.27347389144,-26816.66187246584
6239.6906303990645,827.215710546459,-22643.92645882684,-27932.080976019024
3596.0380549476213,-538.7664483507215,-22720.52588707517,-28303.70107933296
3551.2451590591863,-146.33687094889535,-22515.158059019814,-27880.090818415974
6039.508407057334,1384.802327728549,-22204.17823841313,-27184.57158620019
8472.764011950972,2603.3300284540687,-22191.86242721825,-26815.141953842874
6255.4262584956,843.8454084212075,-22628.928438297324,-27926.00130152718
3601.536584083627,-527.1882447228724,-22718.938913218848,-28300.68359383149
3558.7106417072587,-131.3612021638396,-22515.26981774209,-27872.200652623254
6052.427715352502,1401.2085081587445,-22184.35224108127,-27174.53565293976
8471.400555539198,2604.4029121879234,-22209.27443614893,-26817.667700966325
6250.106543315237,839.6656322080651,-22648.262697251164,-27926.537743394107
3604.799938774102,-520.8850527864757,-22717.37429110697,-28291.765247793825
3549.479371247217,-130.51183587453795,-22515.22511425318,-27871.016010167124
6031.953517431441,1393.6983220217612,-22194.14230515269,-27179.72125765339
8475.24505558551,2613.61183090351,-22207.01690995895,-26807.363546772427
6266.825648167807,855.7812399603415,-22647.949772828797,-27916.457106644764
3591.120671167454,-535.0784105155958,-22739.48016637328,-28309.37842242461
3536.22478678522,-146.31451920444005,-22526.2668760141,-27884.427056840308
6023.90688942753,1382.2542288606442,-22215.28705540741,-27194.7192781829
8465.566750236363,2603.710008109809,-22205.11701168025,-26820.506372512147
6259.248406797458,853.0990306257047,-22645.80400536108,-27925.062528260056
3595.523964825149,-524.6401458549674,-22741.916506518904,-28309.870160802624
3531.553272194061,-142.80529532495683,-22526.22217252519,-27886.32695511901
6021.962287659918,1393.2065836437446,-22204.267645390948,-27185.152731556027
8459.040040855412,2611.7342843692645,-22205.87697099173,-26817.91357015533
6249.368935748213,846.7958386893081,-22644.172328015844,-27931.09749926299
3598.697912537803,-522.3826196649813,-22727.3655208785,-28308.439649157484
3538.79523739758,-135.04923999896528,-22522.623541667886,-27885.76816150763
6016.821386435197,1385.9422666957698,-22215.711738552065,-27195.52394098329
8454.122657075246,2603.173566242882,-22213.96830248455,-26822.24980857966
6253.660470683632,851.7355742139309,-22640.327827969533,-27924.257865459665
3591.210078145275,-528.0152592677188,-22721.46466034229,-28306.293881689773
3529.966298337734,-142.84999881386744,-22500.964701290693,-27879.80024573806
6014.027418378284,1384.2211823727112,-22174.98686015449,-27176.413199474
8452.62509019674,2604.738188354753,-22190.834246973307,-26803.004956603643
6263.8752178997065,859.2681120953694,-22614.086879979,-27905.258882672657
3609.2702876651633,-513.7995497941434,-22693.547331517617,-28281.3269831332
3544.2937665335858,-131.51766437502675,-22501.098811757423,-27864.668114741817
6018.117787613605,1389.1832696417891,-22198.00915694346,-27179.43068497547
8456.2460727985,2611.689580880354,-22194.43287783061,-26807.430602005792
6264.210494066536,858.6199115061655,-22622.178211471823,-27913.95371126577
3600.5531073275934,-525.847140055554,-22703.31504384459,-28298.180198452497
3547.244196801686,-127.71786781762457,-22487.173674961767,-27865.629239753394
6021.291735326259,1394.391226099876,-22169.3318688073,-27173.596879672637
8466.416116525665,2619.9373745843623,-22163.475711760013,-26793.281947765583
6271.251293569958,867.3147400992799,-22613.975121256724,-27901.72730704872
3614.902927267901,-507.8986892579424,-22708.187724135845,-28284.635041312584
3542.215054299242,-130.33302191889547,-22491.375802919367,-27865.18220486429
6011.233450321371,1389.60795278644,-22174.42806654311,-27177.150807041027
8458.43654375512,2618.1492350279373,-22174.62923224321,-26803.183770559284
6280.86254368574,876.9706937039726,-22607.42606013132,-27901.123809948425
3610.052598721099,-515.3194684171043,-22677.521130743164,-28291.385268138085
3532.2685280166306,-138.71492608963564,-22492.64985235332,-27876.738056747683
6008.104206097628,1387.6633510188285,-22183.234653858504,-27185.018621089297
8453.005069852481,2613.321258225591,-22184.35224108127,-26810.381032273894
6260.522456231411,860.7209754849644,-22621.4406039048,-27916.74767932268
3596.0380549476213,-524.9530702773417,-22715.1614684059,-28301.085925231688
3526.45707445825,-139.49723714557138,-22493.812143064995,-27866.56801302052
5994.536697213256,1374.6322840013845,-22171.6340984862,-27178.581318686167
8444.109075559269,2600.7595778417085,-22179.658374745653,-26803.11671532592
6262.355299276745,854.0378038928276,-22613.841010789994,-27905.258882672657
3608.979714987244,-520.2815556861825,-22688.473485526265,-28283.0257157118
3519.528033677105,-147.476809916116,-22490.571140118976,-27866.45625429824
5981.393871473536,1365.4904205191638,-22175.635060743694,-27176.99434482984
8440.19752027959,2605.073464521583,-22170.33769730779,-26792.790209387567
6261.684746943087,864.9007516981068,-22617.976083514222,-27899.313318647542
3595.8145375030685,-519.7451138192552,-22698.88939844244,-28293.17340769451
3522.813740112036,-135.31746093242896,-22486.95015751721,-27869.51844328862
5993.262647779304,1383.3271125944989,-22173.846921187276,-27176.122626796085
8443.729095903527,2603.3300284540687,-22189.04610741688,-26802.53556997008
6266.490372000978,860.0057196623945,-22628.816679575048,-27903.04605997158
3594.80870900258,-526.3835819224813,-22727.812555767603,-28291.40761988254
3519.326867977008,-146.31451920444005,-22501.970529791182,-27863.28230658559
5986.110089553606,1373.0006066561468,-22181.133589879704,-27176.636716918558
8442.030363324924,2606.593383144544,-22182.586453269298,-26801.64150019187
6266.71388944553,866.2642081098805,-22609.124792709925,-27899.46978085873
3587.0079501876776,-531.1668552359171,-22704.611445022994,-28291.184102437983
3508.508623660639,-149.33200470590648,-22501.590550135443,-27868.04322815457
5971.022662046274,1365.1998478412447,-22186.699174249075,-27180.10123730913
8427.367618962244,2597.1162434954936,-22195.103430164272,-26804.59193045997
6258.957834119539,856.2729783383583,-22625.91095279586,-27908.298719918577
3599.4578718492835,-522.4049714094367,-22701.92923568836,-28290.178273937498
3515.907051075346,-145.86748431533388,-22501.478791413163,-27872.647687512363
5982.824383118676,1371.9724264112028,-22168.080171117803,-27177.39667623004
8444.53375870392,2607.196880244837,-22166.96258389504,-26798.8251803905
6288.640950756187,876.0989756702156,-22604.453278118763,-27896.51935059063
3599.480223593738,-526.8976720449534,-22711.96516894879,-28301.5329601208
3508.061588771533,-157.5797984099148,-22509.860695583902,-27884.80703649605
5967.4463829334245,1353.643995957851,-22188.666127761146,-27197.15561832853
8429.491034685498,2593.3387986825464,-22190.588377784297,-26815.8795614099
6266.423316767611,861.5926935187214,-22623.45226090577,-27913.05964148756
3594.182860157831,-533.2232157258053,-22709.0594421696,-28305.913902034037
3507.0781120154998,-156.21634199814105,-22507.73727986065,-27886.461065585743
5966.552313155212,1363.2999495625436,-22202.63596804571,-27195.076906094186
8426.80882535086,2597.809147573608,-22204.938197724605,-26807.0282706056
6263.048203354861,865.7054144984978,-22636.59508664549,-27904.43186812781
3587.7232060102474,-528.2164249678165,-22725.219753410787,-28297.956681007945
3500.1267194898987,-161.4242984562276,-22523.87523935738,-27879.062638171035
5963.445420675925,1358.1590483378232,-22198.947930210583,-27184.66099317801
8429.133406774212,2605.18522324386,-22188.599072527777,-26798.55695945704
6271.0948313587705,870.2428186229251,-22624.1898684728,-27895.55822557905
3597.580325315037,-523.0755237430959,-22715.563799806096,-28287.78663728078
3504.619420125416,-151.83540008490087,-22528.256181270623,-27871.70891424524
5971.246179490827,1366.2056763417336,-22175.54565376588,-27176.770827385288
8433.96138357656,2603.486490665256,-22162.469883259524,-26799.093401323964
6272.368880792723,867.6723680105648,-22600.921702494827,-27904.923606505825
3602.341246884018,-524.3495731770483,-22683.08671511253,-28291.83230302719
3510.40852193934,-155.0316995420098,-22480.44579988072,-27874.05584741305
5967.893417822531,1356.616777970407,-22155.876118645207,-27187.45496123493
8433.469645198542,2598.2114789738034,-22152.456301743547,-26804.79309616007
6282.985959408994,870.376929089657,-22587.823580244018,-27901.99552798218
3602.1400811839203,-527.0764860005959,-22668.93806087233,-28297.06261122973
3504.887641058879,-157.2892257319958,-22476.914224256783,-27880.403742838356
5955.644661861023,1351.7888011680604,-22172.304650819857,-27192.03706884826
8436.554185933373,2604.984057543761,-22165.5320722499,-26795.673584422304
6280.571971007821,870.5333913008442,-22620.68064459332,-27901.503789604165
3612.086607466532,-519.9462795193529,-22704.16441013389,-28293.55338735025
3518.4551499432505,-153.154153007764,-22513.32521597448,-27874.726399746705
5968.586321900645,1351.453525001231,-22203.39592735719,-27191.321813025694
8441.940956347104,2601.206612730815,-22205.318177380344,-26802.267349036618
6308.802224254874,889.4429671100339,-22632.14708949889,-27889.18797840929
3616.869880779968,-520.7285905752886,-22730.87474475798,-28292.45815187194
3513.358952207441,-157.44568794318295,-22543.678884944784,-27875.62046952492
5968.295749222726,1352.6158157129069,-22225.36769215676,-27187.14203681255
8441.471569713542,2599.977266785773,-22221.389081643712,-26795.96415710022
6294.251238614469,877.9094669710955,-22658.499796211698,-27890.95376622126
3621.5860988600375,-517.2193666958054,-22736.77560529418,-28282.712791289425
3525.0712663020217,-150.5837023954037,-22536.23575404117,-27864.55635601954
5972.743746369332,1353.867513402404,-22223.691311322607,-27185.689173422958
8449.406438995176,2605.94518255534,-22204.87114249124,-26793.05843032103
6295.614695026243,878.4906123269335,-22653.82828162054,-27896.67581280182
3615.595831346015,-518.9851545077747,-22727.857259256514,-28296.45911412944
3523.663106401337,-149.51081866154894,-22511.805297351515,-27874.45817881324
5979.85160110612,1361.8470861729488,-22192.667090018644,-27184.102199566627
8449.875825628736,2609.1414820124487,-22190.744839995485,-26792.56669194301
6302.968418952039,891.119347944182,-22620.501830637677,-27888.316260375534
3619.730904070247,-512.749017804744,-22708.187724135845,-28290.133570448583
3518.7904261100803,-147.99090003858805,-22514.509858430607,-27876.04515266957
5964.808877087698,1355.4321355142756,-22207.06161344786,-27194.04872584924
8456.648404198695,2618.775083872686,-22180.93242417961,-26790.890311108866
6317.854680759273,896.8190427802853,-22616.00913000216,-27885.45523708525
3628.045753007621,-510.98322999277474,-22715.27322712818,-28289.954756492945
3517.1363970203874,-152.12597276281986,-22520.54482943354,-27871.79832122306
5963.199551486916,1352.2358360571666,-22212.470735606043,-27182.53757745476
8444.913738359659,2602.3689034424906,-22189.67195626163,-26787.15756978483
6312.19968941208,885.665522297087,-22622.13350798291,-27883.376524850908
3619.037999992133,-518.9628027633194,-22706.801915979617,-28291.74289604937
3516.3317342199966,-146.64979537126965,-22502.842247824938,-27871.06071365604
5965.881760821553,1362.8529146734377,-22191.214226629047,-27183.208129788414
8444.95844184857,2614.7294181262755,-22197.87504647673,-26795.15949429983
6313.786663268407,894.9414962460395,-22637.980894801723,-27892.09370518848
3626.4811308957496,-510.782064292677,-22703.896189200423,-28288.74776229236
3510.676742872804,-149.98020529511038,-22509.525419417078,-27871.08306540049
5960.047955518718,1359.1872285827671,-22182.34058408029,-27178.961298341907
8444.511406959464,2612.3824849584685,-22174.20454909856,-26781.435523204276
6309.562183566354,891.70049330002,-22607.694281064785,-27880.113170160435
3619.797959303613,-517.7334568182775,-22697.21301760829,-28284.36682037912
3504.619420125416,-163.77123162403484,-22499.60124487892,-27871.17247237831
5957.365746184081,1350.6935656897506,-22176.03739214389,-27179.788312886754
8444.779627892927,2612.3377814695577,-22169.10835136275,-26779.557976670025
6306.008256197961,884.5255833298664,-22613.684548578807,-27878.43678932629
3619.976773259256,-520.5944801085568,-22708.388889835944,-28280.812893010723
3511.9060888178456,-150.9860337955992,-22513.83930609695,-27859.46015828373
5954.392964171525,1356.5273709925857,-22210.168505927148,-27172.412237216504
8432.709685887061,2604.358208699013,-22201.76425001195,-26782.01666856011
6299.347436350279,884.570286818777,-22641.221897747742,-27878.79441723757
3615.729941812747,-520.4380178973696,-22742.74352106375,-28284.523282590304
3502.8759840579014,-155.81401059794553,-22519.42724221077,-27865.65159149785
5957.5892636286335,1362.428231528787,-22173.91397642064,-27169.528862181767
8446.120732560246,2625.637069420465,-22164.23567107149,-26773.59006090046
6321.319201149846,910.0065720089164,-22608.25307467617,-27872.826501468004
3628.604546619004,-502.0648839551072,-22695.22371235177,-28282.779846522797
3504.7088271032367,-147.87914131631152,-22500.65177686832,-27872.781797979093
5943.641775088522,1352.034670357069,-22188.82258997233,-27187.90199612403
8437.090627800302,2612.3824849584685,-22173.221072342527,-26786.799941873545
6319.039323215405,903.3457521612348,-22601.592254828483,-27878.079161415
3630.638555364437,-508.1445584469508,-22689.76988670467,-28279.96352672142
3505.893469559368,-153.8023535969679,-22493.23099770916,-27869.65255375535
5937.6515075745,1345.5303127205746,-22189.023755672428,-27189.95835661392
8431.793264364394,2609.2532407347253,-22185.3357178373,-26788.47632270769
6327.421227386145,910.5653656202992,-22594.12677218041,-27872.31241134553
3617.38397090244,-520.2592039417272,-22699.1576193759,-28293.061648972234
3492.303608930541,-169.6720921602359,-22493.2086459647,-27871.44069331177
5933.650545317,1336.4331527272643,-22179.6360230012,-27181.867025121097
8426.518252672942,2602.0336272756613,-22172.99755489797,-26784.20713951673
6309.0704451883375,895.2097171795032,-22622.647598105385,-27879.19674863777
3621.0049535042,-512.4137416379144,-22697.503590286207,-28278.063628442724
3495.678722343293,-158.96560656614383,-22495.22030296568,-27857.627315238395
5939.886682020031,1347.7878389105606,-22166.157921094647,-27164.834995846155
8434.877805099226,2612.606002403021,-22164.6827059606,-26766.191633485752
6312.110282434259,894.472109612478,-22607.493115364687,-27866.076274642503
3614.657058078892,-518.5828231075792,-22699.40348856491,-28278.37655286509
3487.45328038374,-160.4631734446494,-22501.2105704797,-27868.40085606585
5928.375533625547,1342.289309774555,-22181.558273024355,-27186.136208312066
8433.33553473181,2612.226022747281,-22172.05878163085,-26780.899081337346
6315.39598886919,905.4915196289444,-22621.15003122688,-27873.966440435222
3614.992334245722,-509.68682881436695,-22721.19643940883,-28282.802198267247
3494.1364519758768,-149.95785355065507,-22510.97828280667,-27861.04713214006
5938.478522119346,1358.2708070600995,-22193.851732474774,-27172.635754661056
8442.455046469575,2624.877110108985,-22180.351278823768,-26765.834005574467
6323.10734070627,911.6606010986092,-22630.470708664743,-27862.075312385
3620.692029081825,-506.0211427236966,-22711.96516894879,-28271.42516033949
3484.279332671086,-159.03266179950975,-22507.290244971544,-27861.583574006985
5919.099559676595,1339.8306178844712,-22191.325985351323,-27175.787350629253
8425.557127661363,2606.7945488446417,-22183.86050270325,-26768.985601542667
6314.457215602067,901.602316093721,-22623.18403997231,-27861.762387962623
3600.888383494423,-523.4555033988361,-22713.038052682645,-28279.807064510234
3463.805134750025,-174.16479279575265,-22513.16875376329,-27872.647687512363
5905.241478114304,1330.2193677686892,-22208.40271811518,-27188.796065902243
8430.04982829688,2614.7964733596414,-22178.3843253117,-26773.008915544626
6330.684582076619,915.2592319559136,-22596.831333259503,-27860.26482108412
3616.0428662351214,-515.2747649281937,-22704.96907293428,-28281.25992789983
3468.8566289969244,-173.65070267328056,-22515.292169486544,-27874.2793648576
5898.580658266623,1318.037667040547,-22195.93044470912,-27194.384002016068
8420.773854347928,2596.8256708175745,-22180.10540963476,-26784.117732538907
6331.377486154734,913.5157958883996,-22610.37649039942,-27871.75361773415
3608.175052186853,-522.069695242607,-22697.324776330566,-28297.01790774082
3468.4990010856395,-178.29986551998445,-22498.39425067833,-27880.448446327264
5911.499966561791,1329.2135392682003,-22187.14620913818,-27187.7678856573
8430.608621908263,2609.5214616681887,-22168.52720600691,-26772.517177166603
6324.58255584032,905.826795795774,-22599.602949571963,-27863.394065307864
3616.556956357593,-514.0677707276071,-22679.778656933147,-28276.49900633085
3475.316283144508,-168.0627665594538,-22492.82866630896,-27862.678809485296
5904.682684502922,1323.6032514099184,-22183.592281769783,-27179.11776055309
8427.948764318082,2602.391255186946,-22162.201662326057,-26770.19259574325
6327.711800064064,902.3175719162908,-22597.971272226725,-27864.154024619347
3616.1322732129424,-522.2485091982495,-22690.462790782785,-28279.136512176578
3473.058756954522,-172.33194975041746,-22494.102715742916,-27866.120978131414
5901.844012957098,1322.3962572093317,-22175.85857818825,-27182.80579838822
8417.33168570181,2595.4622144058008,-22172.97520315352,-26777.45691269123
6326.817730285851,902.8540137832182,-22600.921702494827,-27864.60105950845
3603.056502706588,-530.2280819687942,-22700.901055443413,-28286.847864013656
3462.285216127064,-177.45049923068277,-22505.14447750384,-27871.775969478604
5899.9441146783965,1326.6654404002954,-22178.317270078336,-27184.325717011183
8421.936145059604,2608.739150612253,-22162.447531515067,-26771.69016262176
6325.074294218337,909.6936475865422,-22605.70497580826,-27861.583574006985
3609.113825453976,-523.4555033988361,-22713.887418971943,-28284.25506165684
3469.5718848194942,-172.4213567282387,-22511.98411130716,-27868.490263043677
5895.227896598327,1323.580899665463,-22174.942156665584,-27186.5161879678
8423.992505549491,2609.655572134921,-22170.985897896997,-26770.796092843542
6342.77687582694,919.2378424689582,-22618.35606316997,-27859.303696072544
3611.0360754771327,-524.0142970102188,-22718.246009140734,-28289.17244543701
3460.92175971529,-184.53600222301512,-22508.340776960944,-27874.79345498007
5893.193887852895,1316.987135051147,-22194.1870086416,-27191.47827523688
8413.71070310005,2602.0559790201164,-22175.8362264438,-26782.64251740486
6325.63308782972,910.788883064852,-22606.822563031023,-27872.580632279
3614.679409823348,-517.2864219291713,-22695.53663677414,-28289.105390203644
3469.124849930388,-174.991807340599,-22499.958872790205,-27875.173434635813
5890.936361662908,1322.0833327869575,-22178.317270078336,-27189.77954265828
8409.933258287103,2607.353342456024,-22159.407694269143,-26773.634764389368
6335.557262367876,921.0706855142936,-22589.83523724499,-27854.833347181484
3623.9553837723,-508.77040729169937,-22685.724220958266,-28274.532052818784
3468.5213528300947,-167.3922142257946,-22494.19212272073,-27864.958687419738
5889.125870362029,1329.3700014793876,-22175.85857818825,-27186.42678098998
8409.754444331462,2610.4378831908566,-22162.91691814863,-26776.02640104609
6334.73024782303,918.7237523464862,-22589.27644363361,-27862.25412634065
3618.792130803124,-514.3359916610708,-22682.81849417907,-28286.624346569104
3467.336710373964,-170.70027240518004,-22495.3097099435,-27874.05584741305
5885.348425549081,1322.2397949981446,-22174.42806654311,-27185.935042611964
8413.71070310005,2611.555470413622,-22148.611801697232,-26767.242165475152
6337.703029835586,925.0716477717934,-22592.51744657963,-27859.70602747274
3622.882500038445,-505.4176456234033,-22691.78154370565,-28280.723486032904
3470.8459342534466,-163.927693835222,-22481.07164872547,-27864.578707764
5884.387300537504,1321.4127804532982,-22167.968412395527,-27182.09054256565
8414.157737989157,2613.522423925689,-22160.748798936464,-26767.59979338644
6344.296794449901,932.3583164642235,-22599.42413561632,-27849.80420467904
3623.798921561113,-504.5012241007357,-22687.44530528132,-28272.520395817806
3465.25799813962,-167.32515899242867,-22499.13185824536,-27865.24926009765
5881.839201669598,1323.8044171100162,-22169.7342002075,-27182.04583907674
8403.719473328529,2607.398045944935,-22159.72061869152,-26768.38210444237
6343.670945605153,933.7664763649078,-22602.061641462045,-27847.189050577766
3622.122540726965,-504.300058400638,-22703.605616522505,-28273.369762107108
3453.8139049785027,-168.01806307054318,-22514.37574796388,-27868.624373510407
5866.863532884542,1328.163007278801,-22200.11022092226,-27185.8679873786
8392.700063312062,2611.980153558273,-22189.269624861437,-26772.517177166603
6335.244337945502,934.7499531209412,-22606.2861211641,-27853.26872506961
3619.9320697703447,-504.7470932897441,-22698.19649436432,-28278.242442398365
3454.30564335652,-169.42622297122753,-22486.16784646128,-27866.322143831512
5871.199771308872,1322.060981042502,-22174.69628747657,-27184.34806875564
8401.864278538738,2608.8732610789853,-22170.315345563336,-26770.23729923216
6335.4455036456,923.5517291488326,-22623.698130094785,-27855.906230915338
3615.193499945819,-516.3700004065038,-22698.44236355333,-28279.807064510234
3454.0150706786003,-175.0365108295096,-22507.15613450481,-27868.71378048823
5869.545742219179,1320.3398967194437,-22176.663240988644,-27183.61046118861
8401.707816327551,2614.595307659544,-22164.414485027133,-26766.07987476348
6343.402724671689,936.7839618663744,-22609.61653108794,-27853.671056469808
3621.474340137761,-506.60228807953456,-22697.63770075294,-28283.852730256647
3444.7614484741034,-181.47381323263804,-22492.336927930945,-27875.173434635813
5860.225064781316,1311.868585570882,-22173.355182809257,-27191.43357174797
8406.178165218613,2616.1152262825044,-22160.8829094032,-26768.292697464552
6347.850721818295,931.6877641305643,-22616.053833491067,-27861.65062924035
3623.307183183096,-514.0007154942413,-22705.59492177903,-28289.41831462602
3454.775029990081,-176.8917056193001,-22493.02983200906,-27875.955745691743
5855.218274023328,1301.0056377656028,-22186.788581226898,-27203.90584515403
8398.198592448067,2600.401949930424,-22171.120008363727,-26784.87769185039
6349.549454396899,934.3252699762904,-22601.99458622868,-27864.3775420639
3619.976773259256,-512.6819625713781,-22712.993349193734,-28294.49216061737
3447.600120019927,-181.9655516106548,-22524.992826580143,-27882.59421379497
5861.54381770418,1311.4439024262313,-22196.10925866476,-27198.20615031793
8405.597019862775,2610.773159357686,-22172.57287175332,-26774.841758589955
6354.556245154888,936.1581130216256,-22612.008167744654,-27857.06852162701
3622.3013546826073,-512.3466864045484,-22716.524924817677,-28293.10635246114
3440.805189705514,-181.8761446328336,-22507.44670718273,-27884.002373695657
5853.944224589375,1311.488605915142,-22188.375555083225,-27200.463676507912
8402.937162272592,2613.678886136876,-22173.37753455371,-26774.52883416758
6360.568864413365,944.3835549811788,-22611.42702238882,-27860.26482108412
3622.524872127161,-510.200918936839,-22711.629892781963,-28297.353183907653
3443.196826362232,-182.0102550995654,-22520.254256755623,-27887.66805978633
5846.188169263383,1306.7276843461616,-22197.11508716525,-27208.53265625628
8392.543601100875,2611.2201942467923,-22173.735162465,-26780.67556389279
6348.878902063239,938.3932874671564,-22606.241417675188,-27857.85083268295
3624.692991339325,-506.3564188905262,-22694.195532106824,-28284.38917212357
3430.702201211715,-192.49322324910443,-22510.4641926842,-27881.789550994585
5841.606061650045,1296.8258615524603,-22184.598110270275,-27189.913653125008
8397.393929647676,2602.4359586758565,-22168.8848339182,-26761.98950552816
6359.87596033525,934.3252699762904,-22606.643749075385,-27849.64774246785
3624.8047500616017,-512.81607303811,-22683.712563957284,-28286.78080878029
3444.4261723072736,-185.5865342124145,-22498.327195444966,-27880.64961202736
5850.099724543063,1302.9502395332147,-22167.610784484245,-27198.98846137386
8399.360883159743,2609.007371545717,-22156.613726212232,-26775.78053185708
6356.634957389231,940.919034590606,-22580.80513248505,-27857.448501282757
3621.720209326769,-511.6090788375234,-22669.899185883904,-28288.63600357008
3435.2619570805978,-189.9227726367441,-22482.435105137243,-27884.427056840308
5839.907329071442,1297.7199313306728,-22167.05199087286,-27206.7221649554
8395.51638311343,2608.359170956513,-22141.280429515893,-26779.893252836857
6351.49405616451,936.4486856995449,-22584.582577297995,-27864.04226589707
3619.306220925596,-514.7830265501769,-22690.12751461596,-28294.02277398381
3436.15602685881,-191.97913312663235,-22505.435050181757,-27888.09274293098
5841.293137227672,1292.06493998348,-22182.072363146828,-27208.08562136717
8398.243295936978,2600.3125429526026,-22155.76435992293,-26778.708610380723
6360.032422546437,931.5983571527432,-22591.06458319004,-27861.27064958461
3616.7804738021455,-526.4282854113919,-22697.77181121967,-28301.42120139852
3430.813959933992,-198.84111867441163,-22511.850000840423,-27891.64667029937
5834.341744702071,1288.4886608706308,-22214.50474435148,-27212.6230254916
8387.559162087342,2600.200784230326,-22187.280319604917,-26780.899081337346
6353.997451543504,931.955985064028,-22632.348255198987,-27862.857623440937
3622.1895959603303,-520.9297562753864,-22736.619143083,-28299.61071009764
3444.962614174201,-188.82753715843407,-22537.778024408584,-27886.215196396734
5847.082239041596,1299.2845534425442,-22222.193744444103,-27207.19155158896
8401.99838900547,2608.5156331677003,-22206.68163379212,-26781.59198541546
6375.253960520502,949.435049228078,-22659.05858982308,-27864.064617641525
3633.81250307709,-507.0269712241854,-22754.90287004744,-28302.80700955475
3442.9509571732237,-183.70898767816877,-22572.87026320341,-27890.4843795877
5841.159026760939,1298.3681319198768,-22241.773872586957,-27205.76103994382
8398.46681338153,2604.939354054851,-22221.36672989925,-26778.596851658447
6376.371547743267,943.8024096253408,-22649.156767029377,-27858.74490246116
3633.9689652882776,-520.2145004528165,-22750.72309383429,-28301.60001535416
3442.8615501954023,-199.3552087968837,-22558.4757397742,-27896.921681990825
5844.780009362699,1289.7180068156729,-22239.337532441325,-27214.925255170496
8401.484298882997,2600.5137086527,-22221.92552351064,-26783.13425578288
6387.480364737555,947.7810201383854,-22651.235479263723,-27855.54860300405
3632.694915854325,-524.5507388771462,-22754.79111132516,-28306.293881689773
3432.7809134460585,-208.11709262336407,-22568.668135245814,-27901.660251815352
5832.464198167825,1281.939599745226,-22240.41041617518,-27215.14877261505
8392.029510978402,2596.8480225620297,-22202.12187792324,-26778.08276153597
6384.217010047079,947.177523038092,-22630.40365343137,-27849.491280256665
3644.094305526532,-514.7830265501769,-22742.274134430187,-28293.88866351708
3445.543759530039,-197.63412447382504,-22543.34360877796,-27888.316260375534
5838.186244748384,1286.3652451473768,-22218.796279286897,-27207.86210392262
8395.47167962452,2600.491356908245,-22187.99557542748,-26772.941860311254
6382.048890834915,945.9928805819608,-22621.50765913816,-27849.93831514577
3643.2896427261408,-517.040552740163,-22722.157564420413,-28293.7769047948
3438.391201304341,-206.9995054005987,-22531.228963283174,-27890.86435924344
5834.833483080088,1280.822012522461,-22201.719546523043,-27209.96316790142
8400.590229104786,2605.699313366332,-22171.231767086003,-26770.706685865724
6397.896277653727,959.1357063216814,-22611.114097966445,-27838.158945817824
3644.2284159932633,-512.4137416379144,-22703.046822911125,-28288.300727403253
3441.587500761449,-194.9966186280988,-22506.21736123769,-27881.387219594388
5835.571090647112,1291.1261667163571,-22185.693345748587,-27200.48602825237
8405.619371607228,2615.7352466267644,-22146.75660690744,-26761.58717412796
6393.940018885139,961.6614534451312,-22585.52135056512,-27842.38342551988
3647.2235497502743,-508.4574828693251,-22693.18970360633,-28291.65348907155
3448.53889328705,-189.8110139144676,-22496.516704144087,-27883.108303917445
5845.830541352098,1301.452672654709,-22171.790560697387,-27200.24015906336
8416.459967668054,2621.5467001851443,-22148.254173785943,-26768.20329048673
6408.714521970096,969.4845640044886,-22594.37264136942,-27848.28428605608
3647.7376398727465,-508.1669101914061,-22701.01281416569,-28296.995555996367
3443.330936828964,-191.91207789326643,-22506.127954259868,-27883.28711787309
5827.345648687559,1283.168945690268,-22193.739973752497,-27207.973862644896
8395.158755202146,2602.32419995358,-22181.692383491085,-26776.920470824298
6397.784518931451,961.1250115782036,-22631.901220309883,-27851.972323891205
3652.096230041532,-503.16011943341726,-22745.85041354304,-28300.705945575948
3443.085067639955,-189.2522203030849,-22537.398044752845,-27892.71955403323
5825.758674831232,1284.4206433797651,-22219.623293831744,-27218.63564475008
8393.683540068096,2606.727493611276,-22186.565063782346,-26780.787322615062
6385.245190292024,956.1629243091256,-22628.10142375248,-27860.68950422877
3638.059334523599,-509.4856631142692,-22722.02345395368,-28306.785620067792
3430.456332022706,-195.957743639677,-22524.65755041332,-27901.36967913743
5817.332067171582,1279.6373700663294,-22192.19770338508,-27222.368386074115
8388.207362676545,2602.2794964646696,-22154.69147618908,-26786.46466570672
6393.470632251577,961.728508678497,-22590.77401051212,-27861.985905407186
3638.394610690428,-510.3797328924815,-22689.948700660312,-28310.36189918064
3427.8635296658917,-198.28232506302896,-22501.18821873525,-27900.3862023814
5819.299020683649,1282.230172423145,-22174.271604331923,-27216.89220868256
8392.94593250107,2602.748883098231,-22147.47186273001,-26781.010840059625
6396.689283453141,960.7673836669188,-22592.048059946068,-27859.70602747274
3647.3800119614616,-504.300058400638,-22703.940892689337,-28307.143247979075
3430.925718656268,-193.5884587274145,-22515.44863169773,-27900.028574470118
5809.017218234208,1283.839498023927,-22206.05578494737,-27219.283845339283
8386.687444053585,2613.164796014404,-22170.069476374327,-26771.31018296602
6404.311228312401,982.5826862552984,-22598.597121071474,-27835.23086729418
3634.2595379661966,-498.3097908866157,-22712.4122038379,-28295.74385830687
3413.2007853032096,-192.3591127823726,-22536.682788930277,-27893.77008602263
5811.028875235185,1297.4070069082984,-22206.324005880837,-27202.81060967572
8389.74963304396,2621.390237973957,-22184.933386437107,-26759.597868871435
6398.298609053923,978.6711309756196,-22634.181098244324,-27839.74591967415
3641.5462066586265,-495.1581949184173,-22711.20520963731,-28290.93823324898
3419.660439450793,-188.9616476251659,-22519.5166491886,-27883.577690551007
5804.05513096513,1289.4274341377538,-22197.87504647673,-27205.179894587985
8381.993577717969,2615.243508248748,-22160.458226258543,-26761.43071191677
6388.687358938141,972.9267326506058,-22599.491190849687,-27834.80618414953
3634.0360205216434,-499.00269496473015,-22706.980729935254,-28289.03833497028
3407.255221278098,-197.410607029272,-22518.823745110483,-27890.52908307661
5782.262180121205,1269.847305994905,-22195.25989237546,-27219.037976150277
8364.156885642635,2599.7984528301304,-22172.23759558649,-26776.138159768365
6394.252943307512,975.7654041964298,-22608.61070258745,-27843.277495298087
3637.142913000931,-501.17081417689496,-22706.801915979617,-28296.392058896075
3412.5078812250954,-199.5340227525261,-22509.54777116153,-27890.95376622126
5784.027967933174,1265.0863844259245,-22189.94017719509,-27216.132249371083
8357.071382650302,2594.4340341608568,-22177.3337933223,-26778.328630724984
6388.106213582303,968.5681424818208,-22592.89742623537,-27843.74688193165
3629.632726863948,-514.5595091056239,-22704.678500256363,-28300.437724642485
3402.427244475752,-215.4484648047048,-22506.55263740452,-27895.021783712124
5788.543020313146,1269.847305994905,-22163.05102861536,-27213.137115614078
8371.600016546252,2602.212441231304,-22144.029694083893,-26771.645459132847
6408.692170225641,976.5477152523656,-22574.2784231041,-27832.25808528162
3638.081686268054,-514.3359916610708,-22671.24029055122,-28290.714715804424
3403.231907276143,-215.15789212678575,-22491.532265130558,-27891.557263321552
5792.141651170451,1271.1884106622233,-22169.622441485222,-27213.159467358528
8376.785621259884,2603.710008109809,-22136.988894580478,-26768.806787587026
6405.384112046256,969.305750048846,-22580.022821429116,-27840.01414060761
3645.033078793655,-514.5371573611686,-22686.03714538064,-28299.208378697444
3417.7158376831817,-208.98881065712104,-22490.14645697433,-27895.111190689942
5787.939523212854,1264.0805559254356,-22165.129740849705,-27219.95439767294
8367.733164755484,2593.3387986825464,-22143.225031283506,-26778.507444680625
6395.750510186018,962.5555232233434,-22579.352269095456,-27844.998579621148
3638.439314179339,-515.6323928394786,-22681.186816833837,-28296.392058896075
3406.539965455528,-212.56508976997017,-22496.31553844399,-27891.95959472175
5783.402119088426,1264.6840530257289,-22168.549557751365,-27212.220694091404
8377.925560227104,2610.32612446858,-22146.220165040515,-26765.25286021863
6416.537632529454,989.467023547533,-22607.47076362023,-27835.968474861205
3652.632671908459,-497.4157211084034,-22681.2538720672,-28289.306555903742
3416.1512155713103,-204.16083385477472,-22485.43023889425,-27889.970289465226
5787.559543557113,1270.2049339061898,-22182.899377691672,-27218.255665094337
8382.66413005163,2609.297944223636,-22159.698266947064,-26771.556052155025
6428.160539646214,988.6400090026868,-22588.583539555497,-27836.08023358348
3661.796887135135,-499.7626542762106,-22689.34520356002,-28292.860483272136
3419.77219817307,-205.4572350331825,-22502.19404723573,-27893.837141255997
5789.392386602448,1269.713195528173,-22182.47469454702,-27218.14390637206
8386.46392660903,2614.32708672608,-22144.744949906464,-26764.49290090715
6432.720295515096,991.2998665928684,-22590.37167911192,-27832.41454749281
3651.9621195748,-513.5536806051351,-22705.14788688992,-28308.462000901935
3418.453445250206,-207.6477059898026,-22499.44478266773,-27896.3852401239
5792.633389548468,1270.3166926284664,-22176.10444737726,-27215.68521448198
8389.74963304396,2613.589479159055,-22138.978199836994,-26766.683371863768
6419.868042453295,980.6827879765974,-22582.03447843009,-27837.622503950897
3643.602567148515,-511.4749683707915,-22693.2567588397,-28295.78856179578
3393.643008904816,-216.9013281942997,-22508.050204283027,-27895.290004645587
5761.743278711233,1259.2749308675443,-22185.02279341493,-27219.485011039375
8360.915882696616,2600.8266330750744,-22136.81008062483,-26769.43263643177
6398.8797544097615,975.4301280296004,-22573.60787077044,-27835.208515549723
3632.2925844541296,-503.8753752559872,-22687.49000877023,-28294.156884450545
3394.067692049467,-198.68465646322448,-22497.075497755468,-27891.311394132543
5767.487677036247,1273.6694542967623,-22164.70505770505,-27211.125458613096
8369.789525245373,2615.4670256933005,-22137.68179865859,-26763.17414798429
6418.348123830334,996.5078230509548,-22587.957690710748,-27829.50882071362
3636.71822985628,-503.5177473447022,-22708.947683447324,-28298.627233341605
3389.284418736031,-213.3474008259059,-22516.78973636505,-27894.440638356285
5759.552807754613,1257.5314948000307,-22194.611691786253,-27216.020490648807
8373.186990402579,2616.1822815158703,-22148.924726119607,-26759.73197933817
6421.410312820711,998.8994597076726,-22586.929510465805,-27830.17937304728
3644.608395649004,-496.7451687747442,-22705.997253179223,-28297.50964611884
3391.0502065480005,-209.569956012959,-22526.043358569543,-27897.145199435377
5751.394421028426,1250.289529596511,-22203.06065119036,-27224.33533958618
8355.551464027341,2596.4903946507447,-22176.573834010826,-26769.43263643177
6416.0235424069815,989.7352444809968,-22603.872132762925,-27831.162849803317
3629.610375119493,-511.2738026706937,-22709.10414565851,-28302.002346754354
3379.226133731143,-214.71085723767965,-22515.113355530902,-27899.358022136454
5741.023211601164,1252.681166253229,-22197.18214239861,-27230.638531522574
8341.31340280931,2590.589534114544,-22175.85857818825,-26786.799941873545
6403.528917256465,977.5311920083992,-22595.17730416981,-27846.160870332824
3625.43059890635,-515.811206795121,-22705.997253179223,-28307.45617240145
3378.3097122084755,-218.77887472854556,-22495.93555878825,-27895.3347081345
5734.094170820019,1242.779343459528,-22172.751685708965,-27221.943702929464
8355.327946582789,2603.3300284540687,-22125.74596711945,-26758.949668282232
6432.1615019037135,998.1842038851028,-22565.248318344155,-27819.338776986457
3647.536474172649,-505.685866556867,-22678.906938899392,-28292.97224199441
3381.5730668989504,-220.5670142849701,-22498.818933822982,-27898.88863550289
5724.169996281862,1235.6714887227404,-22195.6398720312,-27232.15845014554
8358.814818717816,2605.6099063885104,-22153.70799943304,-26761.43071191677
6435.089580427359,1000.084102163804,-22572.87026320341,-27820.009329320117
3641.859131081001,-509.1503869474396,-22702.68919499984,-28301.577663609703
3391.9442763262127,-210.84400544691152,-22511.648835140328,-27900.69912680377
5739.883272633943,1250.066012151958,-22202.01011920096,-27234.460679824435
8351.41639130311,2600.916040052896,-22178.093752633784,-26776.518139424104
6425.925365200683,995.1667183836364,-22610.17532469932,-27838.784794662573
3634.013668777188,-511.5420236041575,-22726.762023778203,-28318.520285906827
3367.2903021920088,-224.43386607573825,-22534.17939355128,-27920.79334506909
5722.13598753643,1237.392573045799,-22203.105354679272,-27246.508270085847
8349.695306980051,2601.497185408734,-22149.39411275317,-26779.513273181117
6419.376304075277,998.4747765630218,-22596.317243137037,-27849.17835583429
3620.379104659451,-504.9706107342972,-22707.91950320238,-28322.36478595314
3365.7927353135037,-209.59230775741432,-22504.809201337004,-27904.565978594543
5727.410999227882,1252.256483108578,-22171.656450230654,-27224.46945005291
8347.437780790066,2607.733322111764,-22140.229897526493,-26765.16345324081
6417.588164518853,1001.3805033422116,-22598.03832746009,-27834.917942871805
3622.726037827258,-497.5274798306799,-22697.905921686404,-28311.501838147866
3348.3807263828194,-220.03057241804277,-22520.857753855915,-27916.94884502278
5703.785205338622,1235.5597300004638,-22208.38036637072,-27245.569496818724
8329.466978247998,2592.3106184376024,-22167.208453084048,-26782.44135170476
6401.494908511032,991.5904392707872,-22576.982984183192,-27841.08702434147
3605.559898085582,-511.7431893042552,-22682.416162778874,-28312.77588758181
3330.8793104743136,-231.407610345794,-22514.37574796388,-27915.7418508222
5688.27309468664,1233.391610788299,-22198.50089532148,-27242.887287484085
8332.350353282733,2601.9889237867505,-22159.318287291324,-26773.902985322835
6401.539611999943,999.502956807966,-22592.60685355745,-27833.91211437132
3585.197458886797,-507.8092822801212,-22693.659090239897,-28308.193779968475
3302.1126153603336,-227.96544169967677,-22511.33591071796,-27911.22679844222
5661.495704829181,1230.8658636648493,-22195.975148198027,-27243.356674117647
8306.019998314381,2597.362112684502,-22154.803234911356,-26777.81454060251
6369.822486617862,995.1220148947256,-22581.2298156297,-27838.96360861821
3549.0770398470213,-513.4642736273138,-22691.356860561,-28314.65343411606
3274.9552458471358,-224.50092130910411,-22505.88208507086,-27911.696185075783
5635.724143472212,1236.4090962897656,-22189.135514394704,-27242.797880506263
8289.21148648399,2595.8645458059964,-22145.996647595963,-26775.981697557178
6364.726288882052,992.8421369602844,-22583.934376708792,-27843.255143553637
3546.2607200456528,-510.08916021456247,-22695.53663677414,-28317.447402172973
3271.937760345669,-218.57770902844777,-22516.25329449812,-27909.013975741145
5633.466617282226,1240.0300788915251,-22181.111238135247,-27238.886325226587
8279.555532879298,2598.971438285284,-22157.708961690543,-26778.86507259191
6357.193751000614,998.1618521406476,-22594.19382741378,-27838.136594073367
3530.5250919491164,-515.0959509725512,-22719.96709346379,-28318.67674811801
3258.616120650306,-222.55631954149243,-22503.98218679216,-27911.450315886774
5625.241175322673,1239.717154469151,-22177.78082821141,-27232.940761201477
8272.06769848677,2589.7625195696974,-22166.60495598376,-26782.55311042704
6370.873018607262,1002.6545527761642,-22604.3862228854,-27841.467003997208
3539.1081618199546,-515.6323928394786,-22717.37429110697,-28329.1373645231
3243.8192658208927,-242.18115117325203,-22536.056940085524,-27932.93034230833
5607.516241969614,1218.4159420032431,-22217.00813973047,-27260.05342722576
8271.508904875387,2588.8013945581192,-22174.67393573212,-26789.929186097288
6361.239416747024,991.1434043816812,-22622.40172891637,-27854.98980939267
3548.7417636801915,-518.7392853187663,-22729.44423311284,-28328.377405211617
3268.0262050659903,-234.42509584726048,-22537.755672664127,-27925.598970126983
5623.453035766249,1222.7298286831176,-22224.428918889636,-27255.96305799044
8269.184323452035,2581.2241531877703,-22207.463944848056,-26794.01955533261
6359.965367313072,983.0297211444046,-22651.05666530808,-27855.638009981874
3551.0439933590883,-528.2834802011824,-22751.25953570122,-28333.42889945852
3272.585960934873,-243.87988375185537,-22580.60396678495,-27934.316150464558
5627.5210532571145,1212.3362675113997,-22257.040114049927,-27259.896965014574
8283.556495136798,2583.0569962331056,-22219.46683162056,-26788.45397096324
6381.065414078881,993.5573927828542,-22671.642621951414,-27847.390216277865
3567.964263911756,-522.427323153892,-22788.18461754139,-28326.41045169955
3295.0047606235457,-231.63112779034708,-22592.405687857357,-27916.926493278326
5649.872797712422,1231.938747398704,-22268.7077246556,-27250.39747362107
8305.192983769535,2603.844118576541,-22229.50276488099,-26787.31403199602
6404.26652482349,1008.756579012463,-22661.472578224253,-27848.12782384489
3593.9146392243674,-508.3233724025933,-22785.56946344012,-28331.32783547972
3308.773435208015,-228.4795318221488,-22602.62043507343,-27929.75639459567
5657.427687338315,1226.7531426850728,-22280.531797472453,-27258.421749880523
8308.50104194892,2598.1444237404376,-22248.233526734537,-26789.14687504135
6416.98466741856,1013.2269279035244,-22670.61444170647,-27838.44951849574
3592.0370926901214,-515.587689350568,-22786.21766402932,-28324.59996039867
3299.2292403255988,-241.01886046157605,-22599.26767340513,-27925.174286982336
5652.555007047058,1224.741485684095,-22269.534739200444,-27256.76772079083
8303.516602935386,2601.2736679641807,-22242.42207317616,-26798.26638677912
6411.553193515921,1013.0704656923372,-22666.211148048777,-27854.833347181484
3599.323761382552,-508.1892619358614,-22775.06414354612,-28332.534829680302
3300.235068826088,-238.5825203159476,-22592.94212972428,-27936.97600805473
5641.803817964055,1217.4771687361203,-22286.432658008656,-27270.06700874174
8311.809100128306,2604.0005807877283,-22234.531907383436,-26788.655136663336
6427.378228590278,1018.8819192507171,-22650.85549960798,-27842.763405175618
3598.0944154375097,-512.6149073380121,-22755.707532847828,-28333.831230858712
3305.51008051754,-236.6826220372465,-22566.298850333555,-27930.985740540717
5652.040916924586,1221.3887240157992,-22250.66986688017,-27261.685104571
8298.68862613304,2585.7839090566526,-22222.752538055487,-26796.992337345164
6411.687303982652,998.34066609629,-22647.592144917508,-27845.64678021035
3596.5744968145486,-524.3048696881377,-22754.81346306961,-28329.27147498983
3309.6675049862274,-234.1792266582521,-22553.87128041641,-27920.77099332464
5657.092411171486,1225.2779275510225,-22225.81472704586,-27246.24004915238
8311.920858850583,2596.8256708175745,-22207.17337217013,-26781.793151115555
6420.762112231507,1005.2920586218904,-22642.697112881797,-27838.807146407027
3604.9340492408337,-512.234927682272,-22741.245954185244,-28316.84390507268
3314.718999233127,-234.62626154735824,-22555.7264752062,-27915.451278144275
5654.723126259223,1219.1311978258132,-22238.555221385388,-27244.80953750724
8312.703169906517,2596.736263839753,-22192.421220829638,-26774.193558000752
6430.060437924914,1016.3561721272674,-22630.96244704276,-27828.95002710224
3603.861165506979,-513.0172387382077,-22742.385893152463,-28314.85459981616
3312.841452698881,-233.151046413308,-22569.539853279573,-27917.261769445155
5653.650242525368,1215.9572501131595,-22263.589175175333,-27254.621953323123
8317.709960664506,2596.624505117477,-22218.32689265333,-26775.40055220134
6428.205243135124,1011.2152709025468,-22659.10329331199,-27832.191030048256
3596.641552047915,-516.1911864508613,-22777.45578020284,-28320.50959116335
3292.613123966828,-243.49990409611516,-22593.34446112448,-27922.13444973641
5634.45009403826,1213.7220756676288,-22276.64259393723,-27251.89504049957
8299.225067999967,2597.1385952399487,-22231.425014904144,-26772.941860311254
6424.025466921981,1019.954802984572,-22662.590165447014,-27826.446631723244
3585.622142031448,-521.2203289533054,-22775.622937157503,-28324.42114644303
3280.833754638881,-248.19377043172963,-22583.50969356414,-27924.168458481847
5626.336410800983,1209.7658168990397,-22251.92156456966,-27252.07385445522
8290.68670161804,2584.2192869447813,-22220.22679093204,-26782.910738338323
6406.524051013476,995.8819742062062,-22676.44824700931,-27846.294980799557
3587.2985228655966,-523.231985954283,-22784.74244889527,-28331.394890713083
3282.5324872174847,-250.09366871043076,-22581.60979528544,-27930.315188207056
5617.038085107575,1199.7969388719723,-22262.896271097216,-27263.003857493863
8287.69156786103,2588.13084222446,-22215.622331574243,-26779.06623829201
6421.03033316497,1014.4115703596556,-22648.374455973444,-27827.60892243492
3602.207136417286,-506.8481572685429,-22764.491768418764,-28312.12768699261
3291.1379088327776,-235.56503481448112,-22596.85368500396,-27918.20054271228
5635.433570794293,1220.00291585957,-22260.97402107406,-27242.328493872705
8301.281428489856,2597.362112684502,-22219.46683162056,-26772.383066699877
6440.588109563364,1026.5262158544322,-22645.513432683165,-27824.144402044345
3609.113825453976,-507.5187096022021,-22753.9193932914,-28317.693271361983
3283.6947779291604,-251.6135873333916,-22581.542740052075,-27928.97408353973
5611.2042798047405,1194.298409735967,-22267.54543394392,-27265.37314240613
8280.941341035526,2582.1405747104377,-22220.629122332237,-26784.341249983463
6412.357856316311,1006.1190731667368,-22657.96335434477,-27839.432995251776
3588.371406599452,-525.4001051664478,-22772.292527233665,-28331.260780246357
3275.4916877140627,-261.3812996603608,-22592.02570820161,-27933.109156263967
5600.184869788274,1181.0438252739698,-22280.1071143278,-27273.19625296548
8264.713974560973,2561.532266322645,-22236.655323106686,-26795.628880933396
6417.4317023076665,997.8042242293626,-22666.0993893265,-27839.790623163062
3587.7679094991577,-535.1901692378723,-22768.179806253887,-28333.27243724733
3270.1496207892446,-268.57856137496964,-22586.54953081006,-27934.67377837584
5597.72617789819,1181.8261363299057,-22274.56388170289,-27265.976639506414
8269.49724787441,2574.6750920623654,-22230.933276526128,-26784.855340105933
6412.469615038588,1007.2366603895022,-22665.562947459573,-27836.706082428227
3591.9923892012107,-518.2251951962943,-22780.339155237576,-28323.05769003125
3272.451850468141,-255.1228112128748,-22606.420231630836,-27923.16262998136
5606.957448358232,1197.1817847707016,-22274.02743983596,-27256.432444624003
8279.376718923655,2584.1075282225047,-22224.697139823096,-26779.021534803094
6415.308286584412,1013.115169181248,-22663.707752669783,-27835.096756827446
3593.892287479912,-514.5818608500792,-22772.89602433396,-28323.90705632056
3283.203039551144,-237.084953437442,-22574.256071359643,-27915.1383537219
5613.148881572352,1211.844529133383,-22257.30833498339,-27246.709435785942
8287.892733561128,2596.557449884111,-22217.76809904195,-26768.02447653109
6434.106103671325,1029.498997866988,-22659.438569478814,-27826.31252125651
3600.1731276718533,-506.53523284616864,-22771.823140600103,-28326.499858677373
3270.462545211619,-252.8876367673441,-22577.98881268368,-27933.28797021961
5605.504584968637,1197.6735231487182,-22247.11593951177,-27257.97471499142
8292.228971985456,2597.3397609400467,-22195.86338947575,-26769.097360264943
6435.491911827554,1032.8294077908288,-22634.65048487789,-27822.2668555101
3594.696950280303,-504.3894653784592,-22762.79303584016,-28319.81668708524
3269.389661477764,-247.4785146091598,-22569.249280601656,-27919.38518516841
5590.283046994573,1185.134194509291,-22243.405549932188,-27259.941668503485
8269.609006596686,2568.751879781709,-22195.34929935328,-26781.7707993711
6423.958411688615,1016.7361517830076,-22624.86042080646,-27826.446631723244
3580.0342059176214,-523.1425789764618,-22753.11473049101,-28324.331739465208
3251.240044980055,-263.9070467838105,-22571.79737946956,-27933.466784175253
5581.141183512353,1182.13906075228,-22238.085834751822,-27264.00968599435
8266.345651906211,2570.718833293776,-22194.231712130517,-26780.2732324926
6412.715484227596,1005.7837969999072,-22640.14901401389,-27841.154079574837
3581.598828029493,-522.1143987315177,-22751.5724601236,-28332.95951282496
3265.187533520166,-249.4678198656821,-22553.446597271755,-27922.559132881062
5594.194602274251,1193.493746935576,-22221.63495083272,-27251.00097072136
8286.730442849452,2585.5603916121,-22174.20454909856,-26764.24703171814
6447.852426511339,1031.7788758014294,-22612.52225786713,-27807.559407658508
3581.598828029493,-522.2261574537943,-22749.4713961448,-28324.9352365655
3249.8318850793703,-262.47653513867084,-22549.579745480987,-27927.38710968341
5584.002206802632,1185.1118427648355,-22214.638854818208,-27253.884345756094
8278.952035779004,2581.3135601655918,-22177.266738088936,-26768.76208409811
6429.792216991451,1020.3124308958568,-22629.46488016425,-27820.054032809025
3584.482203064228,-519.231023696783,-22739.055483228625,-28319.28024521831
3257.7667543610046,-253.4464303787268,-22531.765405150105,-27924.86136255996
5592.048834806542,1190.2750957340118,-22205.25112214698,-27253.0349794668
8271.531256619843,2571.299978649614,-22176.10444737726,-26778.552148169536
6414.034237150459,1003.3921603431894,-22611.35996715545,-27832.436899237266
3573.127516880932,-532.9773465367969,-22721.151735919924,-28325.337567965697
3252.3799839472754,-260.7554508156122,-22537.912134875314,-27925.57661838253
5573.00514853062,1177.333435694389,-22217.25400891948,-27256.54420334628
8270.793649052817,2579.234847931248,-22155.250269800457,-26767.063351519508
6441.549234574943,1031.3765444012338,-22586.01308894313,-27805.72656461317
3585.890362964912,-514.8053782946323,-22709.0594421696,-28309.9819195249
3238.6113093628064,-267.93036078576574,-22544.77412042309,-27925.57661838253
5568.400689172828,1179.0768717619028,-22210.794354771897,-27255.672485312523
8264.311643160778,2578.139612452938,-22173.779865953908,-26770.05848527652
6418.45988255261,1019.597175073287,-22601.18992342829,-27816.611864162907
3561.839885931002,-524.1707592214059,-22729.980674979768,-28320.531942907804
3215.5666608293845,-274.6805876112685,-22567.1258648784,-27929.37641493993
5539.499883592115,1169.5103251350315,-22242.042093520417,-27255.605430079155
8233.287421856812,2573.3339873950467,-22178.093752633784,-26762.05656076152
6398.320960798378,1021.050038462882,-22609.907103765858,-27801.010346533105
3544.740801422692,-524.1707592214059,-22739.591925095552,-28307.99261426838
3211.789216016438,-260.82250604897814,-22563.50488227664,-27913.66313858785
5527.228775886152,1176.7969938274616,-22250.334590713333,-27257.77354929132
8227.185395620512,2577.357301397002,-22188.62142427223,-26767.979773042174
6393.135356084747,1019.82069251784,-22625.687435351305,-27810.37572745988
3537.6776501748145,-525.0201255107075,-22747.86207054401,-28308.193779968475
3185.2129918590776,-274.7252911001791,-22584.157894153344,-27923.56496138155
5509.66030474428,1172.527810636498,-22243.53966039892,-27253.414959122536
8208.476985511421,2569.489487348734,-22204.82643900233,-26769.276174220584
6391.101347339314,1026.2356431765131,-22644.75347337168,-27810.0628030375
3534.7495716511694,-522.6061371095344,-22766.41401844192,-28324.10822202065
3185.302398836899,-267.1704014742853,-22571.104475391447,-27930.650464373884
5508.229793099141,1174.561819381931,-22260.683448396143,-27269.329401174717
8212.3885407911,2573.199876928315,-22219.66799732065,-26782.664869149317
6383.054719335404,1022.212329174558,-22657.315153755564,-27822.4680212102
3530.4580367157505,-524.9307185328863,-22765.16232075242,-28321.180143497008
3180.228552845544,-273.83122132196684,-22568.914004434828,-27929.354063195475
5494.438766770216,1158.8261912853948,-22251.87686108075,-27275.029096010818
8211.00273263487,2573.1104699504936,-22189.67195626163,-26784.140084283365
6392.621265962275,1028.046134477393,-22614.2880456791,-27820.523419442587
3534.9954408401777,-524.6401458549674,-22733.10991920351,-28320.487239418893
3183.0001691580023,-276.5357824010589,-22553.98303913868,-27925.174286982336
5509.570897766459,1167.6327786007855,-22229.92744802564,-27258.913488258542
8229.040590410303,2582.9228857663734,-22176.685592733094,-26761.38600842786
6409.273315581479,1038.2161782045578,-22596.85368500396,-27790.84030280594
3546.3724787679294,-516.973497506797,-22726.046767955635,-28298.470771130415
3207.3859223587424,-256.6874333247463,-22537.867431386403,-27902.219045426733
5533.576671311459,1182.0273020300033,-22211.26374140546,-27244.787185762787
8247.570186563753,2582.9899409997392,-22170.94119440808,-26765.72224685219
6437.32475487289,1050.7331550995298,-22608.47659212072,-27798.708116854206
3579.788336728613,-494.3982356069369,-22728.32664589008,-28294.201587939453
3224.9767452450687,-247.5008663536151,-22564.68952473277,-27901.660251815352
5553.179151198763,1191.9961800570704,-22228.765157313963,-27243.714302028933
8261.674137315053,2588.46611839129,-22179.323098578825,-26759.32964793797
6444.812589265417,1041.8595125507727,-22627.72144409674,-27803.1114105119
3560.27526381913,-526.2047679668389,-22763.038905029167,-28325.7846028548
3205.7095415245944,-275.19467773374055,-22560.71091421973,-27928.1917724838
5531.252089888107,1168.4821448900873,-22236.834137062327,-27265.864880784145
8255.236834911924,2583.5710863555773,-22191.460095818056,-26771.39958994384
6439.626984551786,1039.8702072942506,-22624.90512429537,-27808.49818092563
3571.56289476906,-511.0949887150513,-22738.161413450413,-28309.110201491145
3199.2275356325554,-273.18302073276294,-22570.031591657596,-27936.08193827652
5514.242412357618,1159.653205830241,-22242.578535387343,-27277.711305345456
8232.661573012063,2566.5614088250886,-22175.03156364341,-26782.28488949357
6420.806815720417,1029.208425189069,-22605.95084499727,-27821.819820620996
3553.0109468711557,-524.0142970102188,-22727.11965168949,-28325.7846028548
3186.5317447819407,-279.4191574357936,-22553.98303913868,-27937.28893247711
5502.686560474224,1158.781487796484,-22236.834137062327,-27276.437255911504
8221.843328695695,2566.8743332474637,-22176.663240988644,-26780.58615691497
6417.02937090747,1031.10832346777,-22601.212275172744,-27812.92382632778
3554.150885838376,-520.5944801085568,-22722.157564420413,-28318.542637651284
3187.8952011937145,-276.13345100086343,-22557.469911273707,-27936.14899350989
5509.056807643987,1168.6162553568192,-22225.144174712204,-27268.614145352145
8228.48179679892,2579.74893805372,-22169.220110085025,-26776.58519465747
6418.504586041521,1038.3279369268344,-22607.15783919786,-27820.478715953675
3563.2927493205966,-514.8500817835429,-22733.713416303806,-28322.09656501968
3198.2887623654324,-274.568828888992,-22565.2259665997,-27929.935208551316
5514.354171079895,1165.0623279884253,-22249.73109361304,-27263.808520294253
8229.331163088222,2570.6964815493207,-22195.326947608824,-26769.43263643177
6429.591051291353,1037.8585502932729,-22632.460013921263,-27804.050183779025
3561.1022783639764,-518.7616370632217,-22760.915489305917,-28314.005233526856
3208.101178181312,-265.24815145112893,-22555.458254272733,-27914.51250487715
5519.405665326794,1167.1857437116796,-22229.79333755891,-27251.559764332746
8224.413779308055,2566.6284640584545,-22209.944988482595,-26775.065276034507
6439.068190940403,1043.8935212962058,-22636.818604090047,-27810.64394839334
3583.8563542194797,-508.9939247362525,-22753.76293108021,-28316.37451843912
3216.9301172411583,-263.23649445015127,-22572.110303891932,-27930.67281611834
5523.920717706767,1167.6551303452409,-22243.94199179912,-27271.16224422005
8228.280631098824,2567.231961158748,-22205.787564013903,-26785.749409884145
6442.242138653057,1046.4416201641106,-22622.468784149743,-27813.326157727977
3586.046825176099,-508.1892619358614,-22727.991369723248,-28317.670919617525
3213.487948595041,-275.3287882004724,-22563.99662065466,-27934.316150464558
5518.511595548582,1155.3169674059116,-22241.61741037577,-27273.956212276964
8232.616869523152,2565.3097111355914,-22196.422183087136,-26783.737752883168
6445.907824743727,1041.211311961569,-22637.891487823905,-27818.020024063597
3588.863144977468,-515.00654399473,-22761.541338150662,-28326.70102437747
3215.946640485125,-280.4249859362824,-22588.87411223341,-27936.417214443358
5520.880880460844,1155.2722639170008,-22264.170320531168,-27270.938726775497
8236.886052714117,2571.0988129495163,-22227.06642473536,-26776.02640104609
6440.789275263462,1038.171474715647,-22668.066342838567,-27811.13568677136
3588.7066827662807,-514.9618405058194,-22781.054411060144,-28310.630120114103
3225.6696493231834,-274.7252911001791,-22620.09949923748,-27923.38614742591
5531.967345710676,1158.4015081407438,-22302.03417563846,-27262.467415626936
8248.911291231072,2572.886952505941,-22236.320046939854,-26761.29660145004
6459.832961539383,1042.9323962846277,-22675.33065978654,-27798.328137198467
3597.088586937021,-512.3466864045484,-22793.951367610855,-28309.7807538248
3231.011716248002,-267.1927532187406,-22634.941057555803,-27916.90414153387
5543.0538109605095,1171.2314094580902,-22305.074012884383,-27251.62681956611
8257.606119824186,2578.787813042142,-22254.380256459743,-26767.756255597626
6470.695909344663,1053.5494749008983,-22694.82138095157,-27799.758648843606
3603.212964917775,-503.6742095558894,-22812.41390853094,-28307.053841001256
3218.360628886298,-275.26173296710647,-22640.23842099171,-27927.320054450043
5525.552395052004,1160.1896476971683,-22306.102193129325,-27267.764779062843
8248.419552853054,2579.2795514201584,-22255.050808793403,-26778.820369103
6451.294595157457,1044.3182044408566,-22694.642566995928,-27814.4660966952
3597.8708979929565,-506.60228807953456,-22815.99018764379,-28313.82641957121
3243.238120465054,-251.6806425667575,-22630.44835692029,-27918.267597945644
5552.57565409847,1178.2275054726013,-22302.4141552942,-27264.68023832801
8268.089087973725,2584.2192869447813,-22257.30833498339,-26773.947688811742
6477.937874548183,1051.180189988636,-22697.57064551957,-27808.07349778098
3608.733845798236,-514.2912881721602,-22810.64812071897,-28319.81668708524
3230.9223092701804,-271.2831224540618,-22644.70876988277,-27930.561057396066
5544.260805161096,1173.779508325995,-22300.827181437875,-27258.108825458152
8266.122134461659,2587.594400357533,-22231.55912537088,-26759.754331082622
6479.413089682233,1061.2831784824346,-22673.85544465249,-27794.4612854077
3621.362581415484,-492.0513024391297,-22789.928053608903,-28302.60584385465
3239.840655307848,-263.23649445015127,-22619.764223070648,-27917.4405834008
5536.705915535202,1160.7931447974618,-22294.99337613504,-27260.791034792783
8260.15421869209,2578.519592108678,-22251.251012236004,-26762.794168328543
6492.421804955221,1061.9760825605492,-22678.839883666027,-27787.91222428229
3627.4869593962394,-496.879279241476,-22795.27012053372,-28300.191855453475
3247.26143446701,-255.90512226881057,-22614.891542779395,-27905.504751861663
5544.618433072381,1173.265418203523,-22285.426829508167,-27248.54227883128
8275.889846788627,2593.3387986825464,-22218.997444986995,-26752.19944145673
6508.157433051758,1073.8672106107724,-22653.64946766489,-27782.74897131312
3648.3858404619514,-483.8258604795767,-22770.70555337734,-28294.49216061737
3254.950434559636,-256.0615844799977,-22607.448411875772,-27912.344385664983
5544.037287716543,1168.1915722121682,-22285.31507078589,-27251.604467821657
8270.056041485792,2584.554563111611,-22245.104282510794,-26756.647438603337
6519.735636679607,1079.3880914912334,-22676.89528189841,-27780.3573346564
3646.038907294144,-491.6042675500236,-22798.42171650192,-28298.3813641526
3238.0301640069683,-274.6358841223579,-22645.15580477188,-27916.792382811596
5524.8594909738895,1157.328624406889,-22321.34608284785,-27255.136043445596
8245.647936540596,2574.943312995829,-22278.02840209346,-26761.363656683407
6495.841621856884,1069.3298064863452,-22716.748442262226,-27783.710096324696
3640.33921245804,-479.7354912442555,-22827.88131569401,-28285.104427946146
3234.5432918719403,-258.98966300364293,-22665.451188737297,-27902.66608031584
5516.9022699478,1163.877685532294,-22345.32950464839,-27247.7823195198
8251.772314521351,2594.9481242833285,-22259.78937861793,-26742.319970407483
6506.52575570652,1087.948809617616,-22684.494875013217,-27765.71694203817
3641.1885787473416,-485.9045727139202,-22809.530533496207,-28284.29976514575
3246.88145481127,-260.5319333710591,-22634.42696743333,-27902.084934960003
5533.0178777000765,1166.13521172228,-22306.66098674071,-27247.91642998653
8253.96278547797,2579.5477723536223,-22255.8554715938,-26755.06046474701
6503.351807993867,1064.3453674728116,-22682.840845923525,-27782.41369514629
3638.685183368347,-499.9861717207637,-22814.134992854,-28301.465904887427
3239.6394896077504,-268.0868229969529,-22635.43279593382,-27918.08878399
5515.918793191766,1153.9982144830483,-22302.32474831638,-27260.54516560378
8243.815093495261,2572.7528420392086,-22263.544471686422,-26762.01185727261
6496.243953257079,1068.368681474767,-22695.201360607312,-27783.46422713569
3625.922337284367,-491.492508827747,-22803.540265982185,-28295.475637373405
3219.5005678535185,-266.857477051911,-22631.230667976222,-27911.83029554252
5497.813880182967,1152.2547784155345,-22321.256675870023,-27262.06508422674
8247.771352263851,2588.0190835021835,-22251.586288402832,-26754.43461590226
6512.761892409551,1085.9371526166383,-22690.52984601615,-27775.93168925425
3622.636630849437,-497.2592588972162,-22817.912437666942,-28305.153942722554
3200.456881577597,-283.44247143774885,-22643.211203004263,-27927.320054450043
5493.030606869532,1150.9583772371266,-22317.233361868068,-27266.289563928796
8233.242718367901,2575.0550717181054,-22266.472550210063,-26768.42680793128
6496.534525934998,1074.9624460890825,-22681.902072656405,-27788.40396266031
3617.719247069269,-497.8627559975095,-22808.32353929562,-28308.283186946297
3202.021503689469,-279.5756196469807,-22654.297668254098,-27929.57758064003
5488.336740533918,1148.9467202361488,-22312.22657111008,-27267.49655812938
8240.484683571422,2584.778080556164,-22233.36961667176,-26755.61925835839
6498.47912770261,1080.7738996474625,-22674.81656966407,-27779.61972708937
3617.182805202342,-495.24760189623856,-22801.908588636947,-28299.63306184209
3207.363570614287,-279.37445394688297,-22630.44835692029,-27918.915798534847
5484.380481765328,1131.6911735166518,-22322.70953925962,-27273.464473898945
8231.454578811477,2560.571141311066,-22274.653288680707,-26774.797055101044
6498.657941658252,1063.5183529279657,-22684.45017152431,-27791.868483050883
3612.958325500289,-511.3855613929703,-22807.071841606125,-28312.0829835037
3193.907820452192,-289.5444976740477,-22640.730159369727,-27929.689339362307
5480.737147419113,1137.5696823083977,-22328.40923409572,-27272.659811098554
8243.30100337279,2580.531249109656,-22260.750503629508,-26756.312162436505
6502.636552171297,1076.6611786676858,-22683.801970935103,-27778.4574363777
3613.114787711476,-500.2767443986827,-22818.9853214008,-28303.43285839949
3195.494794308519,-281.85549758142207,-22659.66208692337,-27928.459993417266
5483.575818964937,1144.4093161117216,-22323.156574148725,-27268.100055229672
8236.48372131392,2575.1221269514717,-22265.779646131952,-26761.20719447222
6504.424691727721,1074.7165769000742,-22709.19355263633,-27788.269852193574
3616.646363335415,-500.9920002212525,-22833.17867912992,-28312.84294281518
3201.462710078086,-280.04500628054217,-22647.05570305058,-27926.358929438466
5485.788641666012,1142.2411968995568,-22314.551152533437,-27270.98343026441
8235.254375368879,2572.7528420392086,-22271.479340968053,-26770.77374109909
6501.474261459621,1074.0907280553256,-22699.805819965102,-27789.767419072083
3610.767854543669,-504.27770665618266,-22827.926019182923,-28311.323024192217
3191.2479628620104,-289.07511104048626,-22650.944906585803,-27929.979912040224
5474.344548504895,1134.7086590181184,-22326.75520500603,-27274.82793031072
8229.800549721784,2568.014272214684,-22274.69799216962,-26769.790264343057
6511.912526120249,1073.174306532658,-22689.30050007111,-27789.454494649708
3615.7522935572015,-513.0172387382077,-22821.55577201316,-28327.01394879985
3187.5599250268847,-298.8651751119108,-22651.83897636401,-27942.2957232351
5468.197818779686,1124.136283890758,-22325.07882417188,-27283.768628092843
8226.514843286854,2563.3204058790693,-22273.535701457942,-26780.384991214876
6500.803709125961,1065.887637840228,-22710.02056718118,-27803.93842505675
3611.796034788613,-513.1066457160289,-22826.406100559965,-28329.36088196765
3178.4404132891195,-304.36370424791625,-22654.521185698653,-27956.66789491986
5469.136592046809,1129.3218886043894,-22312.40538506572,-27292.888139830608
8223.720875229941,2563.812144257086,-22265.31025949839,-26786.53172094008
6502.815366126939,1061.730213371541,-22699.917578687386,-27804.02783203457
3616.847529035512,-521.8238260535987,-22821.95810341336,-28330.07613779022
3188.9010296942038,-307.44824498274863,-22656.10815955498,-27949.53768843862
5459.257120997563,1114.3462198193336,-22337.148766177743,-27292.083477030217
8218.848194938684,2556.301958120103,-22266.94193684363,-26774.998220801142
6510.660828430752,1072.2131815210798,-22684.472523268763,-27787.06285799299
3610.052598721099,-515.4759306282915,-22815.409042287956,-28315.838076572192
3178.395709800209,-304.4531112257375,-22643.747644871197,-27934.070281275548
5447.544806902982,1108.6688767276855,-22328.18571665117,-27280.415866424548
8216.925944915527,2562.135763422938,-22258.31416348388,-26764.850528818435
6499.641418414285,1070.8273733648507,-22694.17318036237,-27788.18044521576
3606.655133563893,-516.0794277285847,-22828.08248139411,-28317.670919617525
3183.7377767250277,-296.98762857766496,-22640.61840064745,-27931.16455449636
5460.039432053499,1123.7786559794731,-22318.015672924004,-27278.426561168024
8223.944392674493,2565.2203041577704,-22265.84670136532,-26771.04196203256
6525.77060768254,1082.4055769926997,-22681.76796218967,-27774.322363653468
3625.05061925061,-509.68682881436695,-22815.00671088776,-28303.70107933296
3179.9603319120806,-301.03329432407554,-22641.06543553656,-27925.97894978273
5454.518551173038,1115.2402895975458,-22320.83199272537,-27275.40907566656
8228.72766598793,2562.5380948231336,-22254.26849773747,-26758.815557815506
6513.43244474321,1072.5484576879094,-22686.595938992017,-27782.79367480203
3615.0817412235433,-511.944355004353,-22806.17777182791,-28311.434782914497
3181.212029601578,-299.8263001234889,-22643.322961726542,-27930.605760884973
5461.067612298442,1120.6717635001855,-22306.951559418627,-27277.57719487872
8235.857872469172,2566.8743332474637,-22250.401645946706,-26765.074046262987
6524.317744292945,1078.9410566021272,-22683.84667442401,-27780.804369545505
3616.869880779968,-513.5983840940457,-22811.29632130817,-28309.691346846983
3172.8077736863825,-308.18585254977376,-22648.03917980661,-27931.656292874373
5451.79163834949,1112.714542474096,-22300.827181437875,-27274.984392521907
8224.346724074689,2560.258216888692,-22240.119843497258,-26767.33157245297
6516.293468033489,1075.208315278091,-22685.321889558065,-27792.807256318007
3611.661924321881,-514.9171370169088,-22807.76474568424,-28323.99646329838
3171.2207998300555,-310.62219269540225,-22630.068377264543,-27940.10525227848
5442.001574278066,1104.042065625437,-22303.867018683795,-27284.953270548973
8224.570241519243,2560.83936224453,-22229.055729991884,-26765.54343289655
6507.844508629383,1068.145164030214,-22672.469636496266,-27790.080343494457
3598.1838224153307,-527.6576313564339,-22811.56454224164,-28324.55525690976
3169.5667707403627,-306.86709962691066,-22626.737967340705,-27937.82537434404
5451.098734271376,1118.4365890546549,-22287.68435569815,-27278.76183733485
8221.284535084313,2558.2465598877147,-22237.236468462524,-26770.907851565826
6521.769645425039,1076.7058821565963,-22670.79325566212,-27789.92388128327
3611.304296410596,-518.8733957854981,-22793.45962923284,-28324.9352365655
3169.5667707403627,-307.694114171757,-22625.933304540315,-27946.050816303592
5437.084190497898,1103.595030736331,-22303.531742516967,-27295.704459631976
8216.903593171071,2555.1620191528823,-22251.094550024816,-26775.065276034507
6522.931936136715,1076.7058821565963,-22666.747589915703,-27784.87238703637
3617.205156946797,-516.0570759841295,-22778.55101568115,-28314.98871028289
3168.2480178175,-310.59984095094694,-22614.80213580157,-27936.685435376818
5437.665335853736,1109.0712081278812,-22296.826219180373,-27282.002840280875
8220.211651350457,2562.806315756597,-22236.096529495306,-26761.31895319449
6520.406189013266,1075.0965565558145,-22663.573642203053,-27780.826721289963
3613.606526089493,-522.5837853650792,-22807.94355963988,-28317.380346939608
3167.756279439483,-318.6464689548575,-22636.818604090047,-27937.19952549929
5436.056010252954,1101.9633533910935,-22300.93894016015,-27277.21956696744
8212.567354746741,2553.306824363092,-22238.77873882994,-26758.636743859857
6519.646229701785,1076.750585645507,-22665.451188737297,-27778.122160210867
3609.76202604318,-520.2815556861825,-22795.136010066988,-28318.564989395734
3152.870017632248,-325.3296405469943,-22639.5455169136,-27945.872002347947
5421.773245546013,1090.6310189522528,-22294.30047205692,-27292.217587496947
8207.24763956638,2553.4856383187343,-22219.08685196481,-26766.683371863768
6517.567517467442,1078.561076946387,-22660.86908112396,-27786.481712637156
3615.148796456909,-516.7052765733333,-22788.810466386138,-28324.398794698573
3167.041023616913,-313.03618109657543,-22634.069339522048,-27946.18492677032
5436.279527697508,1102.142167346736,-22295.17219009068,-27286.5402444053
8209.773386689829,2549.372917338957,-22233.97311377205,-26768.58327014247
6518.729808179118,1072.302588498901,-22675.710639442284,-27788.091038237937
3603.861165506979,-526.1600644779282,-22792.61026294354,-28328.735033122903
3145.069258817346,-324.03323936858646,-22626.60385687397,-27948.464804704763
5412.676085552703,1096.397769021722,-22299.03904188145,-27292.12818051913
8208.029950622315,2568.1260309369604,-22201.853656989773,-26760.983677027667
6517.3887035118,1087.0547398394035,-22627.29676095209,-27782.145474212823
3603.7494067847024,-518.9180992744087,-22764.69293411886,-28321.113088263643
3157.921511879148,-311.4939107291592,-22582.61562378593,-27936.14899350989
5416.07355070991,1093.045007353426,-22269.98177408955,-27288.61895663964
8193.322502770723,2541.952138179796,-22220.562067098865,-26772.74069461116
6521.590831469397,1080.662140925186,-22649.603801918485,-27780.73731431214
3598.541450326616,-530.6080616245343,-22797.125315323512,-28336.60284717117
3153.875846132737,-323.2285765681954,-22613.50573462316,-27952.443415217807
5423.606088591348,1094.430815509655,-22281.805846906405,-27287.724886861437
8198.306941784256,2543.270891102659,-22234.01781726096,-26769.946726554244
6513.47714823212,1073.8672106107724,-22666.926403871348,-27786.2581951926
3604.352903884996,-519.7451138192552,-22788.542245452674,-28324.51055342085
3153.808790899371,-317.3053642875391,-22623.25109520568,-27941.06637729006
5420.78976878998,1099.2140888230908,-22299.240207581548,-27281.77932283632
8206.442976765988,2554.8714464749632,-22240.097491752804,-26761.72128459469
6524.071875103936,1080.5503822029093,-22672.760209174183,-27778.39038114433
3604.084682951532,-525.9588987778305,-22804.791963671683,-28322.40948944205
3143.974023339036,-327.6318702258909,-22632.929400554825,-27944.88852559192
5418.778111789002,1100.2869725569456,-22279.190692805136,-27282.606337381167
8202.2855522973,2552.815085985075,-22236.52121263996,-26766.638668374857
6529.279831562023,1084.7748619049623,-22660.422046234853,-27777.563366599486
3615.3946656459175,-510.4467881258474,-22760.133178249976,-28317.335643450697
3144.7339826505167,-320.8816434003882,-22592.89742623537,-27948.53185993813
5415.872385009812,1100.5775452348644,-22242.64559062071,-27287.03198278332
8208.745206444884,2562.3145773785805,-22167.85665367325,-26763.799996829035
6536.790017699006,1092.7991381644176,-22606.91197000885,-27778.792712544528
3615.0817412235433,-520.8179975531099,-22741.290657674155,-28325.449326687973
3161.743660181005,-315.8301491534888,-22564.734228221685,-27941.17813601233
5417.682876310691,1093.626152709264,-22241.43859642012,-27289.06599152875
8207.091177355192,2552.2786441181474,-22182.139418380197,-26760.40253167183
6544.344907324899,1089.8040044074064,-22620.90416203787,-27771.23782291864
3621.6755058378585,-525.0424772551629,-22765.94463180836,-28324.398794698573
3158.10032583479,-333.8903586733769,-22603.447449618277,-27942.139261023916
5421.2591554235405,1081.7350246590406,-22275.6591171812,-27282.06989551424
8225.352552575177,2558.581836054544,-22211.06257570536,-26749.02549374408
6555.967814441659,1091.726254430563,-22644.373493715942,-27757.22327914516
3636.6288228784592,-518.8063405521323,-22785.41300122893,-28306.048012500767
3175.3782242987427,-323.340335290472,-22631.09655750949,-27935.03140628713
5436.748914331069,1091.1227573302697,-22316.65221651223,-27281.354639691668
8220.591631006197,2545.841341715019,-22264.773817631463,-26762.414188672807
6553.933805696226,1080.7962513919176,-22682.684383712334,-27774.72469505366
3643.8707880819775,-519.9909830082635,-22827.143708126987,-28314.161695738043
3187.6716837491613,-317.372419520905,-22651.39194147491,-27931.43277542982
5435.6983823416695,1085.6689316831746,-22326.71050151712,-27279.25357571287
8227.140692131603,2552.2562923736923,-22255.341381471324,-26745.62802858687
6565.243788390611,1093.6708561981743,-22681.745610445218,-27756.12804366685
3646.664756138892,-519.8345207970764,-22821.175792357422,-28309.73605033589
3184.073052891857,-327.2518905701507,-22659.460921223275,-27936.23840048771
5440.705173099658,1089.4463764961215,-22324.207106138125,-27279.32063094624
8230.33699158871,2558.805353499097,-22255.341381471324,-26748.310237921505
6559.968776699159,1090.563963718887,-22694.53080827365,-27764.599354815407
3645.1671892603854,-521.9355847758752,-22830.205897117365,-28315.54750389427
3192.857288462793,-325.1955300802625,-22644.976990816234,-27934.00322604218
5434.469036396627,1077.1976205346132,-22324.117699160302,-27283.72392460393
8228.884128199117,2548.9929376832174,-22247.384160445235,-26752.847642045934
6581.784079287539,1099.9740481345711,-22668.93806087233,-27757.44679658971
3656.946558588333,-519.2533754412384,-22814.626731232016,-28314.07228876022
3196.9923611870245,-325.5755097360027,-22641.53482217012,-27934.24909523119
5446.784847591502,1086.8982776282166,-22311.824239709884,-27285.288546715805
8226.134863631114,2546.288376604125,-22248.54645115691,-26763.643534617848
6565.1767331572455,1084.1490130602135,-22676.53765398713,-27776.02109623207
3652.140933530442,-524.7519045772439,-22813.10681260905,-28326.94689356648
3191.225611117555,-328.4812365151926,-22630.96244704276,-27943.97210406925
5446.516626658038,1084.4842892270433,-22295.68628021315,-27283.25453797037
8239.948241704493,2556.7936964981195,-22234.01781726096,-26753.1158629794
6589.11545146888,1101.4716150130766,-22668.58043296104,-27763.861747248386
3665.663738925903,-518.0463812406518,-22789.548073953163,-28316.50862890585
3203.5190705679743,-321.8204166675111,-22614.95859801276,-27934.09263302
5452.283376727507,1086.4065392501998,-22288.33255628736,-27284.26036647086
8244.887977229117,2557.0619174315834,-22215.06353796286,-26752.512365879105
6599.777233574061,1104.3102865589008,-22644.90993558287,-27761.02307570256
3675.699672186336,-515.5206341172021,-22796.83474264559,-28322.09656501968
3199.2498873770105,-331.29755631656127,-22623.631074861416,-27952.89045010692
5453.110391272354,1087.658236939697,-22286.387954519745,-27283.790979837297
8246.2961371298,2556.5701790535663,-22225.59120960131,-26747.12559546537
6593.049358493014,1099.303495800912,-22659.63973517892,-27758.34086636792
3666.043718581643,-518.7616370632217,-22806.490696250286,-28313.200570726465
3194.466614063575,-330.4258382828043,-22647.838014106517,-27932.326845208037
5445.354335946362,1085.3783590052556,-22313.545324032944,-27273.01743900984
8251.861721499172,2567.723699536765,-22231.53677362642,-26732.216981913687
6602.437091164243,1112.7368942185517,-22682.97495639026,-27743.0969766494
3671.564599462104,-510.3350294035709,-22800.656890947448,-28299.11897171962
3197.39469258722,-318.19943406575135,-22635.745720356197,-27923.18498172581
5440.504007399561,1092.7991381644176,-22304.06818438389,-27271.005782008862
8232.639221267607,2551.2728156176586,-22238.287000451925,-26745.89624952033
6588.824878790961,1098.4094260226996,-22666.68053468234,-27757.089168678423
3671.0058058507216,-512.7713695491993,-22782.08259130509,-28309.71369859144
3201.105082166801,-319.4064282663379,-22611.67289157783,-27933.109156263967
